#   1 NUMBER                 Running object number                                     
#   2 MAG_AUTO               Kron-like elliptical aperture magnitude                    [mag]
#   3 X_IMAGE                Object position along x                                    [pixel]
#   4 Y_IMAGE                Object position along y                                    [pixel]
#   5 X_WORLD                Barycenter position along world x axis                     [deg]
#   6 Y_WORLD                Barycenter position along world y axis                     [deg]
#   7 A_WORLD                Profile RMS along major axis (world units)                 [deg]
#   8 B_WORLD                Profile RMS along minor axis (world units)                 [deg]
#   9 THETA_WORLD            Position angle (CCW/world-x)                               [deg]
#  10 FWHM_WORLD             FWHM assuming a gaussian core                              [deg]
#  11 ELONGATION             A_IMAGE/B_IMAGE                                           
#  12 ELLIPTICITY            1 - B_IMAGE/A_IMAGE                                       
         1 -12.0600     56.0053     37.9967   4.3247132868e+01   6.2069232466e+01    0.9106904    0.3790395 -29.76  0.003923867    2.728    0.633
         2 -12.2225      7.1562     28.5682   6.2480509555e+01   6.9242159340e+01     1.092748     0.581687 -62.46  0.005548839    3.099    0.677
         3 -12.4846     14.8756     18.1052   5.4215939874e+01   7.0207402735e+01    0.7916297    0.5255131 -57.82  0.003732387    2.750    0.636
         4 -12.5491      7.5742     14.7142   5.6771662286e+01   7.1363752302e+01    0.3105776    0.1981423 -26.28  0.000320048    1.278    0.218
         5 -12.6851      3.0715     13.7702   5.8934168759e+01   7.1867183134e+01    0.5458748    0.2257362 -30.34 0.0009629517    2.142    0.533
         6 -12.3342    219.0109     25.4697   5.1915378741e+00   2.7861651084e+01    0.5733596    0.2535938  54.48  0.002777006    2.567    0.610
         7 -11.3230    160.0183     22.9418   1.1525064054e+01   4.1601714422e+01    0.3494839    0.2697731  25.79  0.001734471    1.705    0.413
         8 -11.9526    249.2570     20.8935   1.8041681057e+00   2.2261386620e+01     0.344083    0.1859519 -40.95 0.0002500791    1.742    0.426
         9 -12.5668    245.2746     15.9976   1.2039120217e+00   2.3594657336e+01    0.3604181     0.219226 -53.45  0.001832333    1.373    0.271
        10 -12.1722     28.7929     19.8557   4.7848564341e+01   6.8436621685e+01    0.2507317    0.1751308  -0.13 0.0003207092    1.218    0.179
        11 -11.5062    131.8643     16.6111   1.4294736945e+01   4.8919389342e+01    0.2940737    0.2410436 -46.53  0.001832194    1.409    0.290
        12 -10.7820    169.5161     16.8608   8.6583284462e+00   3.9994379017e+01    0.3396516   0.09568111 -35.92  0.001348777    3.438    0.709
        13 -10.5298     97.9828      2.8841   1.6577405546e+01   5.7815187963e+01    0.2101813    0.1955498 -56.34 0.0009769963    1.350    0.259
        14 -10.0802     99.6502     10.6275   1.8944981970e+01   5.6811920483e+01    0.2847067    0.1455584  26.06 0.0007072057    2.543    0.607
        15  -9.5578     99.3037     14.6905   2.0467074104e+01   5.6518790257e+01    0.2020805    0.1181934 -22.73 0.0006426691    1.998    0.500
        16 -12.4612    240.1302     14.3057   1.2652949613e+00   2.4795424633e+01    0.3566809    0.2212747 -74.30  0.001244552    1.360    0.265
        17 -11.5041    234.8175      9.4905   7.5621456550e-01   2.6385094435e+01    0.2587308    0.1339916 -66.24 0.0008508113    1.723    0.420
        18 -10.3270    217.0512     16.1285   3.4607175570e+00   2.9345110824e+01    0.3902115    0.1039634  60.78  0.001603506    3.354    0.702
        19 -12.3346     75.9184     10.6689   2.5295488300e+01   6.1770437845e+01    0.4575314    0.3003777  33.28  0.001461772    1.314    0.239
        20 -10.4480     60.0000     14.0213   3.1975329579e+01   6.4428535090e+01    0.2500324    0.1319987 -24.79 0.0007351115    2.047    0.511
        21 -10.0903     53.9501     14.3355   3.4384029559e+01   6.5438622041e+01    0.2055589    0.1737136  52.32  0.001370931    1.553    0.356
        22 -10.3352    145.7120     12.5311   1.0828280419e+01   4.6040551506e+01    0.2082408    0.1160379 -27.75   0.00108356    2.129    0.530
        23 -12.3072     65.2554     11.8721   2.9215475370e+01   6.3696897346e+01     0.233031    0.1864903  25.32  0.000386323    1.027    0.027
        24 -11.7158    249.5078     10.0201   3.5984240683e+02   2.3444622678e+01    0.4049718    0.1840728 -60.91  0.002312991    1.889    0.471
        25 -10.9140    250.1790      5.3809   3.5898510948e+02   2.3819681052e+01    0.2491182    0.1405214 -46.95   0.00126606    1.548    0.354
        26 -10.2617    177.4040     12.0388   6.5216290177e+00   3.8640036806e+01    0.3316707    0.1430601  70.87  0.001458741    1.967    0.492
        27  -9.5215     36.8237      5.8950   3.7704996229e+01   6.9045557778e+01    0.3996415    0.1553151  22.44  0.001208087    4.144    0.759
        28 -10.0133     31.5654      9.9599   4.2052716751e+01   6.9334360312e+01    0.4064532    0.1556812 -18.92  0.001531656    4.612    0.783
        29 -10.0643     27.4860     10.9767   4.4505665363e+01   6.9746857384e+01    0.2541921    0.1806396   5.40  0.001739785    1.128    0.113
        30 -10.5566    139.7474     10.9138   1.1293494781e+01   4.7596690449e+01    0.2283494    0.1568936  71.60 0.0002564872    1.250    0.200
        31  -9.7765    119.5547     11.1061   1.4873290123e+01   5.2290666269e+01     0.165804    0.1285494 -14.64 0.0004422227    1.566    0.362
        32 -10.7155    137.2202     14.9469   1.2873371899e+01   4.7818370742e+01    0.2440455    0.1892137 -66.64 0.0004707154    1.464    0.317
        33 -10.6138    154.7359      8.3857   8.4110905920e+00   4.4292371017e+01    0.3458777    0.1563607  66.76  0.001252748    1.796    0.443
        34 -11.5214    160.4966      8.4987   7.6859372925e+00   4.2927451376e+01     0.238193    0.1993266  43.72 0.0006469806    1.366    0.268
        35 -10.9041    164.3532      4.6971   6.2430435408e+00   4.2369144382e+01    0.2282433    0.1808848 -87.92 0.0002624128    1.127    0.113
        36  -9.6989    113.5635      8.4055   1.5173270078e+01   5.3894603309e+01    0.2316273    0.1425103 -87.62  0.001134812    2.319    0.569
        37  -9.4547     19.8320      8.5885   4.7292337030e+01   7.0966546250e+01    0.1361502   0.09233031  29.32 0.0003931411    1.502    0.334
        38 -10.8548     82.2016      6.9627   2.2021071450e+01   6.0833489705e+01    0.1955061    0.1436033  45.86 0.0003146365    1.105    0.095
        39 -12.1712    242.3106      3.4400   3.5914009908e+02   2.5543046662e+01    0.3980335    0.2217965  66.33  0.001656495    1.823    0.451
        40  -9.7356    223.1132      5.3197   8.2382804944e-01   2.9220770280e+01    0.1654914    0.1423178 -53.81  0.001222199    1.311    0.238
        41 -10.4241     68.3711      5.4935   2.5519430007e+01   6.3703632386e+01    0.2051976    0.1573166  33.16 0.0004784979    1.035    0.034
        42 -11.3041     21.4827      2.3330   4.3392215668e+01   7.1512910831e+01    0.6946717    0.2861116  17.73  0.003086744    3.332    0.700
        43 -11.5140     28.0091      2.7961   4.0334818036e+01   7.0619202209e+01    0.1976416    0.1519377  16.09            0    1.118    0.106
        44 -12.2428     31.9771      1.9849   3.8041200003e+01   7.0155010513e+01    0.2444713    0.1513565  28.35  0.000342096    1.314    0.239
        45 -11.2682    179.9022      3.5113   4.2365920338e+00   3.8880466215e+01    0.4237516    0.1933669  57.71 0.0006663057    2.007    0.502
        46  -9.8089    131.2254      5.4093   1.1050412370e+01   5.0071002259e+01    0.1703581    0.1051764  76.13 0.0003177625    1.504    0.335
        47 -10.8410    145.8564      7.3653   9.3707124019e+00   4.6474057327e+01    0.3722037    0.1900919  55.71  0.001405303    1.658    0.397
        48 -10.2719    126.0609      2.3878   1.0989752226e+01   5.1513914172e+01    0.1998776    0.1759948 -54.68 0.0007989223    1.337    0.252
        49  -9.5578     14.4022      2.0243   4.7038155410e+01   7.2376490932e+01    0.1478732   0.09059995 -26.71            0    1.519    0.342
        50 -10.0349    230.2547      1.3688   3.5956110537e+02   2.8158293369e+01    0.1562551   0.08540705 -89.68 0.0005134912    1.572    0.364
        51 -10.4573     90.9630      2.0945   1.7918021435e+01   5.9391503537e+01    0.1850839    0.1427714  45.10 0.0002859938    1.043    0.042
        52 -10.2924     73.5806      1.4374   2.2258685157e+01   6.3025434620e+01    0.2264104   0.09783785  54.06  0.000621439    1.909    0.476
        53  -9.1046      1.6884    193.6660   9.1605495000e+01   3.3041578944e+01    0.1167807   0.08046551 -51.64 0.0007044412    1.680    0.405
        54 -11.8961    248.3417    248.2550   4.4887269144e+01  -1.1912508910e+01    0.6338533    0.3383551 -11.11  0.003553322    1.979    0.495
        55  -9.6997    168.7473    250.4483   6.0563461955e+01  -1.4780369459e+00    0.1842679    0.1063496  24.40 0.0005882612    1.601    0.376
        56  -9.3210    110.0301    249.9880   7.2983738143e+01   7.5574347023e+00    0.1607053    0.1305565  41.16 0.0005741406    1.030    0.029
        57 -11.5744     21.9071    248.7122   9.0949573643e+01   1.9375037384e+01    0.4898499     0.178726  47.02   0.00234302    2.109    0.526
        58 -10.1804      6.9528    249.2993   9.3767313270e+01   2.0798690145e+01    0.2077625    0.1463624  71.28  0.000654647    1.095    0.086
        59 -10.5296     10.5110    248.0288   9.3048588682e+01   2.0692676450e+01    0.4422374    0.1179392  52.79  0.001885872    2.964    0.663
        60  -9.7537     60.7775    191.9819   7.7338771649e+01   2.7177047504e+01    0.2850665    0.1653404  38.56   0.00138494    1.647    0.393
        61 -10.1966    224.6027    189.6496   3.8808374290e+01   1.1511143683e-01     0.413601    0.2100101 -12.91  0.001410314    4.218    0.763
        62 -11.4065    244.7459    188.6410   3.5052550433e+01  -2.7400371743e+00    0.2627223    0.2213084 -50.43  0.001364087    1.498    0.332
        63  -9.5810    145.4728    190.0338   5.5748878950e+01   1.3829490680e+01    0.2111338    0.1458534 -45.18  0.000456239    1.516    0.340
        64  -9.5364    187.3051    189.3654   4.6153939342e+01   6.3931121500e+00    0.1505712    0.1054244  -6.93 0.0007036699    1.742    0.426
        65  -9.3015     78.4601    187.4966   7.2214795934e+01   2.5771991775e+01    0.1413702    0.1321933  70.98 -2.409962e-05    1.004    0.003
        66  -9.1812    186.4928    193.4990   4.7122736049e+01   5.7474390940e+00     0.142026    0.1286209   2.75 0.0008106539    1.000    0.000
        67  -9.8138     61.9864    184.5689   7.6073549427e+01   2.8794610963e+01    0.2148681    0.1791965 -74.21  0.001218271    1.158    0.136
        68 -11.9803     15.5842    182.2234   8.7502691148e+01   3.4506343026e+01    0.4720934    0.2658175  63.07  0.002490449    1.789    0.441
        69 -11.5008    249.5528    180.1034   3.2646949636e+01  -2.0582296366e+00    0.3658954    0.1371895 -43.65  0.001567214    2.528    0.604
        70 -10.9144     23.1910    180.2043   8.5452987109e+01   3.4283519523e+01    0.3764104     0.170943  57.00  0.001176435    2.411    0.585
        71  -9.7847      1.4815    180.4771   9.0718753292e+01   3.6079918262e+01    0.1719617    0.0941732 -66.82 0.0006508116    1.597    0.374
        72 -10.3808      4.5115    179.4678   8.9927438842e+01   3.6079874931e+01    0.1603591     0.122084  -2.00 0.0001633408    1.836    0.455
        73 -11.2487    245.9878    176.0164   3.2457525334e+01  -8.7035139175e-01    0.2093952    0.1417151  -6.67  0.001140413    1.713    0.416
        74  -9.3003     53.6419    175.1790   7.7014227900e+01   3.2158444251e+01    0.1996079    0.1135438 -56.45 0.0009362898    1.698    0.411
        75 -10.6252     17.8936    173.1488   8.6097576079e+01   3.6457611880e+01    0.2016234    0.1514728  73.31 0.0007572041    1.254    0.202
        76 -11.6629      7.7120    172.3866   8.8572953041e+01   3.7491283952e+01    0.2613334    0.1764035  87.11  0.001548501    1.320    0.242
        77 -10.2168     67.5816    165.7718   7.1840775300e+01   3.2640001136e+01    0.2789766    0.2022179  76.53 0.0008792377    1.588    0.370
        78  -9.0289    117.2387    161.9847   5.7463195957e+01   2.5417253083e+01    0.1905894    0.1298407 -53.13 0.0002641989    1.503    0.334
        79  -9.4266      1.6931    161.6466   8.9157648670e+01   4.0483554246e+01    0.1282234   0.07755432 -49.71 0.0007042341    1.716    0.417
        80  -9.7523     55.4344    159.5000   7.4283789339e+01   3.5811802665e+01    0.1395285    0.1294268 -75.69 0.0002240491    1.018    0.017
        81  -9.7322     67.4526    157.8887   7.0596308195e+01   3.4616345742e+01    0.2146653    0.1862409  40.16 0.0004556736    1.178    0.151
        82 -10.1554     19.7777    157.8434   8.4016693208e+01   3.9993445436e+01    0.2113268    0.1724318  -6.88 0.0009812119    1.555    0.357
        83 -10.6117    250.5175    155.4799   2.7774563957e+01   1.8341018015e+00    0.2795792    0.1090298 -39.17  0.001216808    2.193    0.544
        84 -10.4071    216.4145    154.4461   3.3292627781e+01   7.7592116537e+00    0.2772707    0.2157809 -32.21  0.001168995    1.190    0.160
        85  -9.8370    158.6418    153.7143   4.5216439168e+01   1.9166994638e+01    0.2819691    0.1889309  29.02  0.001236578    1.642    0.391
        86 -10.2225     10.8837    152.6782   8.5878896623e+01   4.1965510126e+01    0.3246762    0.1534587  31.59  0.001611605    2.246    0.555
        87 -12.1760     13.8270    147.9198   8.4546764246e+01   4.2893983688e+01    0.2783669     0.204654 -79.49 0.0003410618    1.195    0.163
        88 -10.5360     17.5447    143.7018   8.2992008102e+01   4.3629105695e+01     0.350825    0.1709617  63.33  0.001466324    2.775    0.640
        89 -11.2428     13.9819    140.2592   8.3606661759e+01   4.4743280287e+01    0.4521562    0.1841574 -45.03  0.001592653    2.576    0.612
        90  -9.5375     40.5007    151.9505   7.7446849141e+01   3.9439392015e+01    0.2033844    0.1236382 -66.50 0.0004435247    1.496    0.331
        91  -9.7317    221.9519    150.9984   3.1585538956e+01   7.3921596600e+00    0.2180756    0.1720866 -79.09  0.001143312    1.824    0.452
        92  -9.9340     81.8021    150.3847   6.5099362953e+01   3.4351964683e+01    0.2102316    0.1440826  18.86 0.0009485892    1.731    0.422
        93 -11.0046     25.8443    148.0507   8.1145339061e+01   4.1857090058e+01    0.2954755    0.2201296  75.95  0.001223309    1.408    0.290
        94  -9.1890    143.5780    148.5004   4.7731059997e+01   2.3382732676e+01    0.1531425    0.1502156  -2.08 0.0008054199    1.015    0.015
        95 -10.4567     51.8713    147.9322   7.3500951651e+01   3.9136535660e+01    0.2884923    0.1768253 -11.38  0.001203747    2.651    0.623
        96  -9.8750    233.9906    146.7146   2.8660567516e+01   6.0390055073e+00     0.182473    0.1633932 -26.07 0.0005110043    1.039    0.038
        97 -10.0539     91.3169    147.3485   6.1731803298e+01   3.3553093619e+01    0.1585148    0.1167846 -21.59 0.0007047947    1.729    0.422
        98 -10.5653     40.0230    146.1631   7.6739394184e+01   4.0928324667e+01    0.4544806   0.05896872  30.01  0.001255902    5.625    0.822
        99 -10.5124     30.0130    145.4780   7.9592200953e+01   4.2105541102e+01    0.2169838     0.157593 -68.40   0.00061176    1.223    0.182
       100 -10.4655    217.2126    145.1154   3.1196924952e+01   9.3253379185e+00    0.3418968    0.1738007  29.44  0.001333446    2.950    0.661
       101 -10.6746      6.9360    145.1793   8.6176470317e+01   4.4060064143e+01    0.3068246    0.1674739  25.37  0.001322873    2.079    0.519
       102 -10.8552    239.8125    140.1599   2.6401756008e+01   6.1738845809e+00     0.266332    0.1868376 -35.95 0.0005554638    1.259    0.206
       103  -9.1420    188.5732    139.5672   3.5453273147e+01   1.5972745029e+01    0.1448106    0.1396366 -42.34 0.0001262408    1.038    0.036
       104 -10.8213     44.0826    137.8192   7.4199152190e+01   4.2557363100e+01    0.3244512    0.1743987 -59.36  0.001501146    1.658    0.397
       105 -10.3031    235.4818    138.0061   2.6645885033e+01   7.2968733469e+00    0.1857361    0.1756339 -29.99 0.0003541028    1.077    0.072
       106 -13.0972     37.3640    135.1175   7.5835973190e+01   4.3941949329e+01    0.4411206     0.320725 -70.12  0.002187403    1.283    0.221
       107 -11.5117    241.5007    134.3904   2.4977185728e+01   6.8710370544e+00    0.2833274    0.2097044 -27.59 0.0006439917    1.331    0.249
       108 -11.8699     57.6414    132.5925   6.9038068423e+01   4.2224482005e+01    0.3912872    0.3139786 -23.46 0.0008482625    1.395    0.283
       109 -10.7865     53.0504    132.9742   7.0556652010e+01   4.2708256455e+01    0.2598243    0.1884789 -52.56 0.0003147807    1.279    0.218
       110 -10.0621     20.5530    135.0105   8.0979376230e+01   4.5508264629e+01    0.2598847    0.1198779 -74.77   0.00114955    2.090    0.522
       111 -10.8918     16.7762    131.0798   8.1596103877e+01   4.6761659735e+01    0.3460883    0.2075895  29.81  0.001859296    1.850    0.460
       112 -12.7159     81.4516    125.0863   5.9951506498e+01   4.0589665185e+01    0.8936473     0.576986 -47.63  0.002681119    1.505    0.335
       113 -11.7272     74.0986    128.8409   6.3087757137e+01   4.0835804196e+01    0.3700673    0.3300848 -13.50  0.001075501    1.198    0.165
       114 -10.9549     64.4776    130.9998   6.6569184067e+01   4.1702687567e+01    0.2368125    0.1952678 -26.76  0.000667403    1.308    0.236
       115 -10.6807     67.4883    127.4918   6.4895892705e+01   4.2137167916e+01    0.2850545    0.1306025 -53.24 0.0007728772    2.023    0.506
       116 -10.8718      4.8433    130.1240   8.5092466702e+01   4.7814435711e+01    0.2010839    0.1697607 -69.00 0.0003410083    1.011    0.011
       117  -9.9739    217.1167    129.1753   2.7818572599e+01   1.2253055883e+01     0.201619    0.1820146 -16.23 0.0004033376    1.165    0.141
       118  -9.7760    110.0319    129.3232   5.2328376248e+01   3.4494296782e+01    0.2142746    0.1984755  34.58 0.0005094074    1.072    0.067
       119 -10.8480     24.7234    127.4241   7.8594429903e+01   4.7011324233e+01    0.3423891    0.1926991 -63.97  0.001725461    1.531    0.347
       120  -9.1332      9.2658    136.3578   8.4519014832e+01   4.6026969591e+01    0.1340043   0.07762147 -48.56 0.0003184997    1.634    0.388
       121 -11.3337     46.8166    124.4661   7.0970425074e+01   4.5536647942e+01    0.3073587    0.2621799 -23.68 0.0006010705    1.239    0.193
       122  -9.2278      1.0000    124.9673   8.5643138560e+01   4.9270974484e+01     0.214713   0.05967309 -71.94 0.0008080277    2.981    0.665
       123  -9.8516    229.4855    124.5107   2.4800324147e+01   1.0734571434e+01    0.1348163    0.1207535 -40.58 2.318414e-06    1.020    0.020
       124  -9.4192    225.9569    123.0137   2.5043281963e+01   1.1660361664e+01    0.1562668    0.1534243 -71.93 0.0005585516    1.100    0.091
       125 -10.6678     61.0599    121.4845   6.5710322757e+01   4.4487189805e+01    0.2654092    0.1846271 -40.99 0.0005986845    1.420    0.296
       126 -11.1559     56.9361    120.9323   6.6949749657e+01   4.5164459366e+01    0.3229861    0.2468254 -83.70 0.0003605869    1.558    0.358
       127 -11.1228     10.1646    122.1864   8.2446186048e+01   4.9373788551e+01    0.2683818    0.1999433  51.41 0.0008518211    1.544    0.352
       128 -10.5475      7.5301    119.4406   8.2909607174e+01   5.0197594646e+01    0.2350047    0.1801543 -46.61 0.0005506871    1.212    0.175
       129 -11.4350     69.0708    121.5779   6.3118901782e+01   4.3339767149e+01    0.6551927    0.2337921  40.33  0.002300927    2.910    0.656
       130  -9.5890     35.6195    121.1822   7.4042052878e+01   4.7529253395e+01    0.2034642    0.1061833 -53.41 0.0009461901    1.664    0.399
       131 -11.9701    248.9892    117.5200   2.0509124545e+01   8.4013719776e+00    0.5049743    0.2262126 -32.07   0.00218371    2.450    0.592
       132 -11.4613    244.6992    113.2057   2.0232517415e+01   9.8715195365e+00    0.4892159    0.2305201  36.53  0.001984477    3.580    0.721
       133  -9.9361     25.3745    118.6816   7.6995119778e+01   4.9072889726e+01    0.2631983     0.167626  89.31 0.0008596749    1.926    0.481
       134  -9.9527     25.1432    114.6722   7.6396227929e+01   5.0054196048e+01    0.1977416    0.1662663  18.82 0.0009497261    1.334    0.251
       135 -10.6234      2.1557    118.4327   8.4482815198e+01   5.0753534694e+01    0.2711426    0.1691828  59.05  0.001490412    1.948    0.487
       136 -10.7632     16.0448    115.3841   7.9553165245e+01   5.0592881061e+01    0.2582718    0.1955561 -67.70 0.0004077931    1.170    0.145
       137 -12.2720     13.5330    110.1958   7.9580497581e+01   5.1998176732e+01    0.4694991       0.3525 -22.00  0.002295211    1.440    0.306
       138 -10.1532    182.1162    114.6806   3.1016043067e+01   2.2214193079e+01    0.2449403    0.1953969 -55.94 0.0005610355    1.287    0.223
       139 -10.5041    102.5155    115.5116   5.1161659574e+01   3.9109992321e+01    0.1511386    0.1488136   6.36 0.0001820666    1.017    0.017
       140 -11.1699     70.0178    114.2365   6.1145989688e+01   4.4947355595e+01    0.4770527    0.2601344  50.79  0.001940193    2.344    0.573
       141 -11.8721     31.7518    108.2611   7.2959984445e+01   5.0994335742e+01    0.5532436    0.3278416 -70.14  0.002304774    1.736    0.424
       142 -11.5996     55.2573    109.7856   6.5109115551e+01   4.8040093531e+01    0.3234111    0.2631282 -46.51 0.0005602189    1.138    0.121
       143 -10.5301     20.7177    108.3496   7.6813404932e+01   5.1912139284e+01     0.231754    0.2214667 -22.89 0.0008588793    1.136    0.120
       144 -11.0097     62.8608    106.4395   6.1717503168e+01   4.7801879448e+01    0.3051051    0.1623598 -39.89  0.001303807    1.922    0.480
       145 -10.3127      3.4489    105.6081   8.2302051569e+01   5.3687705663e+01    0.3340763    0.2050375 -73.30   0.00170116    1.472    0.321
       146 -10.1571     76.6703     97.6908   5.4772689387e+01   4.7682281897e+01    0.3085783    0.1910025  -0.67   0.00108364    2.615    0.618
       147 -11.6100     74.9532    103.8509   5.6962187601e+01   4.6586618411e+01    0.4422189    0.2624452 -55.66 0.0003722371    1.750    0.429
       148 -10.5754     50.4959    104.0011   6.5456551155e+01   4.9985003262e+01    0.2956891    0.2151869  13.11 0.0008465582    1.503    0.335
       149  -8.9807     42.5874    103.7887   6.8214620147e+01   5.0947948266e+01    0.1750447    0.1263753 -68.33 0.0004282889    1.469    0.319
       150 -10.9277     71.3026    101.3552   5.7560112922e+01   4.7719899792e+01    0.3186572    0.2130482 -24.04  0.001048644    1.767    0.434
       151 -10.1857     95.2379    102.7251   5.0068449343e+01   4.3327538088e+01    0.3331871    0.1317862  36.91 0.0008753931    2.577    0.612
       152 -10.3519     23.5654     99.9760   7.4265222810e+01   5.3642812409e+01    0.4086758    0.1392428 -51.50  0.001381388    2.313    0.568
       153 -11.0991     61.6147     99.0171   6.0327905271e+01   4.9670783464e+01    0.4194583    0.3173319 -20.55  0.002185579    1.412    0.292
       154 -10.3917     57.0336     96.0342   6.1205307410e+01   5.0966659506e+01    0.2315184    0.2180884  73.20 0.0003354808    1.273    0.215
       155 -11.8602     57.5281     90.5822   5.9616539140e+01   5.2104438442e+01    0.4298808    0.3022529 -20.20 0.0009302456    1.560    0.359
       156  -9.4606    108.8125    100.5954   4.5360262484e+01   4.1140623767e+01    0.2039711     0.141587  52.17  0.000121238    1.544    0.352
       157  -9.5064     66.9566     97.9602   5.8184332584e+01   4.9136983628e+01    0.1675761    0.1560681 -11.65  0.000957997    1.024    0.024
       158  -9.1022     87.3146     97.3074   5.1131391817e+01   4.5947495736e+01    0.1517604    0.1135039  -8.24 0.0003769277    1.626    0.385
       159  -9.6196     52.4173     96.9818   6.3105212875e+01   5.1352820548e+01    0.1998551    0.1257832 -51.51 5.841519e-05    1.479    0.324
       160 -10.1325     15.9023     96.5733   7.6404813053e+01   5.5003847013e+01    0.3504003    0.1678191 -23.10  0.001555379    2.664    0.625
       161  -9.8845    226.8117     93.3448   1.8599904254e+01   1.6551701426e+01    0.2014875    0.1570595 -88.39 0.0006935961    1.413    0.293
       162  -9.4651    109.6444     92.7894   4.2944572110e+01   4.2582724763e+01    0.2068568    0.1405941 -54.04 0.0003461419    1.666    0.400
       163  -9.9465     31.6453     92.9165   6.9816400583e+01   5.4552226910e+01    0.2027852    0.1667093 -17.39  0.000416481    1.203    0.169
       164 -11.0699     35.5727     90.3458   6.7748268782e+01   5.4748355132e+01    0.2923492    0.2231531 -24.70  0.001223978    1.269    0.212
       165  -9.4455     14.2629     92.3874   7.6221455020e+01   5.6069272503e+01    0.1396026   0.07307829 -41.34 0.0006978395    1.694    0.410
       166  -9.4887    105.4349     91.4679   4.3817080835e+01   4.3710270409e+01    0.1487525    0.1422205  12.52 8.577042e-05    1.008    0.008
       167 -10.4245     23.5504     90.0811   7.2255460535e+01   5.5898858102e+01    0.2528221    0.2139657  66.43  0.001052673    1.516    0.340
       168  -9.7566     97.3516     89.3106   4.5673359213e+01   4.5750238146e+01    0.1527672    0.1492464  29.13  0.000784927    1.079    0.073
       169 -10.0650     94.5247     88.4876   4.6325965348e+01   4.6461207955e+01    0.2350452    0.2188989  10.26 0.0007295791    1.026    0.025
       170  -9.4970     74.1750     88.8963   5.3214557840e+01   4.9981149312e+01    0.1970884    0.1568403 -17.07 0.0004197476    1.311    0.237
       171  -9.9784     47.8458     89.2859   6.2860752412e+01   5.3628945059e+01    0.2604148    0.1616654  66.63  0.001042324    3.293    0.696
       172  -9.3237     83.2978     88.3939   4.9959323978e+01   4.8541546869e+01     0.155903    0.1090861 -12.74 0.0007007156    1.799    0.444
       173 -10.7171    184.8350     85.1994   2.3374118315e+01   2.6969028052e+01    0.2211055     0.201678 -74.67 0.0003089582    1.059    0.055
       174  -9.0932    109.6456     86.2940   4.1081298951e+01   4.3870410519e+01    0.1495611    0.1198532  80.66 0.0007031539    1.687    0.407
       175 -10.3611    239.4598     85.4841   1.5288301126e+01   1.5321964086e+01    0.1288168    0.1093684 -59.43 9.208521e-05    1.011    0.010
       176  -9.9179     68.6891     82.0341   5.3185837061e+01   5.2282241753e+01    0.1941765    0.1907093 -88.71 0.0002367603    1.233    0.189
       177 -11.0792     64.1212     82.1653   5.4879311011e+01   5.2953779307e+01    0.4695884    0.2795723 -58.76  0.001721526    2.042    0.510
       178 -10.1316     30.5438     84.0093   6.8180059544e+01   5.6633707752e+01    0.3463157    0.1502341 -51.66  0.001158776    1.943    0.485
       179  -9.7380      8.5275     84.9701   7.6970986757e+01   5.8092294478e+01     0.187196     0.107835 -65.23  0.001015731    1.573    0.364
       180  -9.4100    116.5355     83.4699   3.8291977960e+01   4.2947142859e+01    0.1491721      0.14115  27.76 0.0008088048    1.013    0.013
       181 -11.2256     76.9967     82.1538   5.0288073802e+01   5.0904208159e+01     0.383597    0.2246396  37.59 0.0009135871    1.691    0.409
       182  -9.9196     41.9715     83.4647   6.3595833425e+01   5.5577832705e+01    0.2325646    0.1642174  13.05  0.001268865    1.485    0.327
       183  -9.9844     41.2831     79.8310   6.2905836110e+01   5.6430708380e+01    0.2244938    0.1710159  30.47  0.001052136    1.419    0.295
       184 -10.3465     21.4252     81.6670   7.1223332705e+01   5.7929877092e+01    0.2557299     0.172349 -25.16 0.0002885806    1.444    0.307
       185  -9.8023      7.8575     80.7136   7.6392814819e+01   5.9067256184e+01    0.1914329    0.1346759 -38.65 0.0005845766    1.208    0.172
       186  -9.9039      1.7858     80.6191   7.8760491667e+01   5.9414818820e+01    0.2869597    0.0942924 -48.48  0.001307274    2.229    0.551
       187 -12.6129     88.4499     77.2929   4.4955383672e+01   4.9814666100e+01     0.370961    0.3090958  21.58 0.0003972376    1.165    0.142
       188 -11.2815     48.5489     77.7310   5.9488462058e+01   5.6008683032e+01    0.4285772    0.2554847   9.12  0.002036104    2.009    0.502
       189  -9.4759    165.1981     78.3868   2.5336854166e+01   3.2684163649e+01    0.1875767    0.1347895  66.92 0.0004982161    1.422    0.297
       190 -10.5199    168.5079     74.7197   2.3740183846e+01   3.2516723645e+01    0.4511549     0.232507 -44.26  0.001929299    1.978    0.494
       191 -11.6118    165.7045     68.2188   2.2574043504e+01   3.4227066195e+01    0.3648789    0.2514076  80.76  0.001741427    1.687    0.407
       192  -8.9749    113.3348     77.3185   3.7373717163e+01   4.4776473258e+01    0.1536005    0.1136741  12.15 0.0003678988    1.698    0.411
       193 -10.6019     99.8641     76.4835   4.1084777685e+01   4.7743518860e+01    0.2642159    0.2184367 -36.99 0.0007369791    1.255    0.203
       194 -11.6363    102.7859     70.5010   3.8353588372e+01   4.8227175354e+01    0.5376339    0.3082548 -30.08  0.001322299    1.992    0.498
       195 -10.1457    107.2178     72.3598   3.7622242251e+01   4.6971342841e+01    0.1927065    0.1747542  78.93 0.0003042508    1.308    0.235
       196 -11.5218     22.4900     76.2027   6.9508229631e+01   5.9021082634e+01    0.3948937    0.2854273  25.12  0.001333958    1.527    0.345
       197 -10.6043     73.9756     75.8262   4.9442703928e+01   5.2666749533e+01    0.3731326    0.2354557  25.11  0.001332139    1.654    0.395
       198 -11.6625     50.3601     68.1579   5.5955418704e+01   5.7699687542e+01    0.3125974    0.2329552  -7.88 0.0004651605    1.348    0.258
       199  -9.3910     44.4567     74.4154   6.0156367809e+01   5.7191122236e+01    0.1753024    0.1597454  61.67 0.0001375522    1.457    0.314
       200 -10.6836     45.0217     70.8045   5.8884516363e+01   5.7853867418e+01    0.2207174    0.1965898 -15.97 0.0003327874    1.047    0.045
       201  -9.4693     61.5280     73.0985   5.3151971314e+01   5.5167037891e+01    0.1987969    0.1292419 -44.23 0.0003833001    1.512    0.338
       202 -10.0731      6.9793     73.3030   7.5203008830e+01   6.0715201213e+01    0.2112928    0.1334605 -22.15 0.0006323742    1.547    0.353
       203 -10.3609    160.0363     71.9031   2.4649731623e+01   3.4978039144e+01    0.2115823    0.1997423  62.12 0.0003609633    1.043    0.042
       204  -9.6561     36.8771     76.4783   6.3754644343e+01   5.7616393177e+01    0.1802045    0.1246118  18.65 0.0006917955    1.492    0.330
       205 -10.8093      6.3808     67.9756   7.4272249534e+01   6.1870951529e+01    0.2186791    0.1839369 -51.11 0.0003378187    1.147    0.128
       206 -13.9293     16.4716     67.4568   6.9848714269e+01   6.1318909583e+01    0.4323581    0.3928469 -26.31 0.0009068256    1.141    0.123
       207  -9.7349    140.3459     71.0605   2.8636516239e+01   3.9760713606e+01    0.1953765    0.1916279 -62.74 0.0005164535    1.077    0.072
       208  -9.8752     27.3018     71.3379   6.6290935198e+01   5.9627268343e+01    0.1380841   0.08067883 -28.94 0.0003857326    1.666    0.400
       209  -9.1498    175.7738     69.9761   2.1192280871e+01   3.1574358722e+01    0.1781073    0.1163166 -38.44 0.0007486261    1.590    0.371
       210 -11.1620     92.6671     67.8383   4.0633452289e+01   5.0740260328e+01    0.2821243    0.2602865 -15.62 0.0005029827    1.099    0.090
       211  -9.9995    244.0686     69.2191   1.1474919333e+01   1.6896551854e+01    0.1483187   0.09686612  66.40 0.0003395554    1.629    0.386
       212 -10.6211    110.8432     65.5665   3.4482854053e+01   4.7362479095e+01    0.3642329    0.2548112 -59.87  0.001669843    1.920    0.479
       213 -12.8829     30.2762     63.4120   6.2828528753e+01   6.0946844081e+01      0.40803    0.3671875  -4.86  0.001025901    1.145    0.127
       214 -11.8409      3.3443     62.1946   7.4244014659e+01   6.3229975632e+01    0.6270916    0.3174988 -20.09  0.003354819    2.039    0.510
       215  -9.1388    147.3134     65.9737   2.5654303243e+01   3.8946094186e+01    0.2379041   0.09685649 -54.53 0.0007046852    4.281    0.766
       216  -9.8525    199.7630     68.7761   1.7025587800e+01   2.6243432440e+01    0.1836184    0.1763935 -75.73 0.0004136712    1.122    0.109
       217  -9.5417    139.2186     64.9355   2.7138355752e+01   4.1019624062e+01    0.1893882    0.1835615 -51.12 0.0006971841    1.104    0.094
       218  -9.7877    130.8912     64.8875   2.9067229917e+01   4.2968225803e+01    0.2465388    0.1944275 -42.12 0.0005629188    1.364    0.267
       219 -10.5876     81.4426     64.2758   4.3177207677e+01   5.3498104852e+01    0.3640878    0.2642476 -56.29  0.001353032    1.798    0.444
       220 -10.8745    160.2120     63.5958   2.2389457739e+01   3.6252384521e+01    0.3400634    0.2450079  -9.81 0.0005080162    1.988    0.497
       221 -10.5935    155.0586     63.6530   2.3412416858e+01   3.7470198827e+01    0.2527549    0.2134073 -43.33 0.0004366706    1.254    0.202
       222 -10.3654    209.7691     62.9818   1.4302447033e+01   2.4896593884e+01    0.2071931      0.17511  87.91 0.0003996321    1.104    0.094
       223  -9.8999    122.9015     62.9021   3.0446041884e+01   4.5117037610e+01     0.208376    0.1864682  22.02 0.0004023651    1.154    0.134
       224  -8.9256    193.5057     62.5238   1.6484551880e+01   2.8606856132e+01    0.1369673    0.1221601 -83.38 5.149176e-05    1.014    0.014
       225 -10.1044     56.4154     59.9427   5.0931258036e+01   5.8400965688e+01    0.4303662    0.2007754 -23.49  0.001556896    3.534    0.717
       226  -9.9405    119.1870     61.1204   3.0852971684e+01   4.6239226318e+01    0.1890498    0.1691682 -85.36 0.0003473172    1.314    0.239
       227 -10.0631     90.1661     61.1323   3.9257580564e+01   5.2382314653e+01    0.2101308     0.196479  28.06 0.0002798799    1.088    0.081
       228 -10.6197     93.1695     57.8735   3.7228870657e+01   5.2321424345e+01    0.2884056    0.2053344  51.20 0.0008465191    1.444    0.307
       229 -11.1107     88.9284     54.0697   3.7291366781e+01   5.3770846819e+01    0.5097218    0.2519483 -38.30  0.001962841    2.156    0.536
       230  -8.9167    183.3031     60.2756   1.7506577366e+01   3.1296788527e+01    0.1305047    0.1049066  34.87 0.0002566694    1.541    0.351
       231 -10.2695    136.0993     58.7809   2.6051880175e+01   4.2705932950e+01    0.4125087    0.2498078  76.44  0.001721993    2.318    0.569
       232  -9.6179    114.4525     60.4759   3.1901643808e+01   4.7397903368e+01     0.260947    0.1178802  40.77 0.0007503204    2.228    0.551
       233  -9.3949     38.3939     58.2709   5.7783134744e+01   6.1066408120e+01    0.1364566   0.08608412 -11.58 0.0005756698    1.728    0.421
       234  -8.9704    170.6677     57.3008   1.8834578724e+01   3.4708161871e+01    0.1446162    0.1020526 -77.85 0.0006120025    1.651    0.394
       235  -9.8390     68.6245     56.9961   4.5281938886e+01   5.7003803223e+01    0.2073453    0.1752969  36.66 0.0005825827    1.241    0.194
       236 -11.9737      3.3654     52.8854   7.1921440254e+01   6.5085790810e+01    0.4946667    0.2612261 -60.66  0.002770647    1.834    0.455
       237 -12.0280      6.9070     41.1480   6.6854154885e+01   6.7079733059e+01     1.111418    0.4825759 -11.61  0.005150437    2.912    0.657
       238 -11.7736     13.0462     53.2064   6.7529671597e+01   6.4404875919e+01    0.4946118    0.2112047 -33.03   0.00223248    2.188    0.543
       239 -13.5696     12.5559     47.8604   6.6181806832e+01   6.5451857374e+01    0.6143723    0.3478173 -25.19 0.0006838205    1.608    0.378
       240  -9.8762    161.8229     55.4372   1.9901588580e+01   3.7084266924e+01    0.2187395    0.1760677 -58.55 0.0004797197    1.304    0.233
       241 -11.7514    115.8355     55.2902   2.9904380894e+01   4.7890560218e+01    0.3246393    0.2424101  60.39 0.0006419704    1.365    0.267
       242  -9.2576     74.4887     56.5148   4.2997167699e+01   5.6076788934e+01    0.1392622    0.1198274   8.92 -0.0001368238    1.053    0.051
       243 -10.3690    145.5267     54.0068   2.2644086672e+01   4.1180658974e+01    0.2816844    0.2133523  40.98 0.0007436179    1.359    0.264
       244 -11.7515    149.5136     51.3541   2.1096940537e+01   4.0607035701e+01    0.3832414    0.2786624  72.61 0.0001816347    1.379    0.275
       245 -11.8259    105.4083     52.5071   3.1828154728e+01   5.0600575357e+01    0.3655346    0.2518435  44.86 5.364851e-05    1.313    0.238
       246 -10.7165     39.1226     50.2885   5.4826591079e+01   6.2429704285e+01    0.4886653    0.2379433 -35.50  0.002395842    1.952    0.488
       247 -10.9970     62.3028     49.8795   4.5173967269e+01   5.9226199351e+01    0.3753219    0.1991919 -41.64  0.001459339    1.980    0.495
       248 -10.2181    181.9828    250.0000   5.7774141307e+01  -3.3714581017e+00    0.2145076   0.06200881  34.99 0.0008056588    2.965    0.663
       249 -10.4150     50.0791     43.2965   4.7659004836e+01   6.2150104696e+01    0.2700597    0.2157352 -15.86  0.001690908    1.140    0.123
       250  -9.8701    133.9922     51.0278   2.4227521324e+01   4.4335573443e+01    0.2245014    0.1682527 -78.38  0.001126712    1.721    0.419
       251  -9.5286    127.1113     51.1377   2.5825314753e+01   4.5926559601e+01    0.1876481    0.1632245 -71.02 0.0007532214    1.333    0.250
       252  -9.7267    176.7844     56.1895   1.7531716414e+01   3.3422387306e+01    0.1814695    0.1515045  47.96 0.0004288555    1.287    0.223
       253 -10.7356     82.6670     48.3868   3.7365505270e+01   5.5862042336e+01    0.3377159    0.2678218 -70.73 0.0009390487    2.006    0.501
       254 -10.4019     77.7459     48.5001   3.9066133318e+01   5.6770655044e+01    0.3709424    0.2164338 -11.06  0.001620407    2.496    0.599
       255 -10.1731    180.4968     47.4564   1.4769786171e+01   3.3768225304e+01    0.2949359    0.1917949 -64.14 -0.0005219713    1.681    0.405
       256  -9.6696     72.9588     48.8809   4.0876835586e+01   5.7579667698e+01    0.2117209    0.1376795 -57.75 0.0008612379    2.504    0.601
       257 -10.5514    157.0925     47.9086   1.8722576915e+01   3.9269984652e+01    0.2051599    0.1947499 -67.68 0.0003428515    1.118    0.105
       258 -11.2235    248.1985     36.2538   4.7130691806e+00   2.0599591280e+01    0.2102713    0.1586173 -64.60 0.0002921151    1.060    0.057
       259 -11.5248    245.9211     40.8457   5.7747659305e+00   2.0454386940e+01    0.4332622    0.1387963 -46.34  0.001824458    2.535    0.606
       260 -11.5168    120.2942     42.4552   2.4727498485e+01   4.8687508701e+01    0.6757726    0.4430504  81.45  0.003124741    2.168    0.539
       261  -9.9024    237.1190     44.6998   7.3361946075e+00   2.1692561796e+01    0.1654131    0.1346524 -89.18 0.0004745217    1.134    0.118
       262  -9.9256    112.1637     45.1787   2.7613728288e+01   5.0163564012e+01    0.2026727    0.1727922  27.72 0.0005213783    1.158    0.137
       263 -11.4573     46.4265     60.2959   5.5068735721e+01   5.9708439215e+01    0.3517109    0.2508618   5.08 0.0007676247    1.403    0.287
       264 -10.9110     68.3915     45.1586   4.1186576190e+01   5.8953200217e+01    0.3175984    0.1319538  30.58  0.001245835    2.755    0.637
       265  -9.7331    130.7111     42.5428   2.2390978090e+01   4.6258610940e+01    0.2328984    0.1254757 -32.43   0.00107025    2.074    0.518
       266 -11.1871     54.3711     48.7868   4.7901208014e+01   6.0631950849e+01    0.4916899    0.2215082  37.20  0.002260468    2.157    0.536
       267 -11.4331    149.4092     40.6840   1.8116959627e+01   4.2059287582e+01    0.2920834    0.2329478 -60.80 0.0003619255    1.373    0.271
       268 -11.0485     98.7280     41.1602   2.9903375531e+01   5.3636661762e+01    0.6896672    0.1918353  51.83  0.002339062    3.278    0.695
       269  -9.6316    200.9396     40.9695   1.0475137136e+01   2.9916074112e+01    0.1545303    0.1314546 -87.50 0.0003371814    1.019    0.018
       270  -9.9095    186.9639     41.0173   1.2281015939e+01   3.3107870290e+01    0.1944283    0.1680436  89.98  0.001202504    1.009    0.009
       271  -9.8522     90.1530     41.5462   3.2566535181e+01   5.5367619885e+01    0.2620906    0.1241677  52.61  0.001135468    2.102    0.524
       272 -12.6593     44.5680     44.0015   5.0243491525e+01   6.2803176037e+01    0.5701136    0.3470137 -49.37 0.0005308412    1.999    0.500
       273  -9.7805     23.3909     40.2508   5.8503472674e+01   6.5886963722e+01    0.2124032    0.1150815 -50.13  0.001149368    1.950    0.487
       274 -12.2613     27.7046     37.6654   5.5516366867e+01   6.5878793947e+01    0.2356187    0.1917536   0.94 0.0002498845    1.101    0.092
       275 -10.7970     24.4645     34.5663   5.5915750872e+01   6.6725831855e+01    0.2339367    0.1642209 -22.44  0.000503477    1.204    0.170
       276 -11.5425     76.5648     34.5514   3.4375645896e+01   5.8973951759e+01    0.3958864    0.3562265 -31.63  0.001703315    1.321    0.243
       277 -11.4717     83.8832     36.8297   3.2828290539e+01   5.7258406420e+01    0.4295547    0.3353616  18.68  0.001331073    1.231    0.188
       278 -10.1096     88.0604     32.8588   3.0088124248e+01   5.6927827541e+01    0.2615016    0.1663577  -3.80  0.001031749    2.030    0.507
       279 -10.3135    233.7072     39.3855   6.6116195755e+00   2.3076346416e+01    0.2738146    0.1328376  86.63  0.001214229    2.409    0.585
       280 -11.6952    227.2897     37.8402   6.9214103377e+00   2.4596853236e+01    0.3549423    0.1583348  60.06  0.001497029    2.253    0.556
       281 -10.8108    222.5182     37.4801   7.3232680803e+00   2.5644848868e+01    0.1725086    0.1478757  47.65 0.0006100605    1.535    0.349
       282  -9.7164    166.1793     37.8892   1.4521380971e+01   3.8401530206e+01    0.2898914    0.1583031 -85.50  0.001186482    2.709    0.631
       283 -11.2430    140.6669     36.8464   1.8657827656e+01   4.4624192504e+01    0.2958389    0.2464816 -29.00  0.001006526    1.377    0.274
       284 -10.9131    136.3328     36.0156   1.9259939282e+01   4.5754109091e+01    0.2927174    0.1967766  68.02 0.0005134674    1.413    0.292
       285 -11.1922     65.0012     36.5917   3.9241454673e+01   6.0789180991e+01    0.2180323    0.1766502 -21.08 0.0001047247    1.259    0.205
       286 -10.4884    110.6944     34.2463   2.4387046912e+01   5.1899662181e+01    0.3698481    0.2386848  39.37  0.001927254    1.459    0.315
       287  -9.1421    129.4580     35.5575   2.0526633691e+01   4.7429876943e+01    0.1377512    0.1180228  50.23 4.413584e-05    1.059    0.056
       288 -10.5865     98.8734     26.0128   2.4581907470e+01   5.5456088526e+01     0.207497    0.1994608  88.54  0.000334667    1.256    0.204
       289  -9.5153    101.7501     33.9860   2.6598330400e+01   5.3905201386e+01    0.1706362    0.1252577 -42.90 0.0003610387    1.622    0.383
       290  -9.9048    100.8266     30.1682   2.5521928128e+01   5.4561104159e+01    0.3467171    0.1793624  25.74  0.001437687    2.761    0.638
       291  -9.7350     92.6531     34.0691   2.9164856102e+01   5.5830883925e+01    0.1899177    0.1619877 -48.68  0.001138069    1.465    0.317
       292  -9.9568     34.0532     33.4614   5.0943815411e+01   6.5821314357e+01    0.1891227    0.1551978 -26.97 0.0008142557    1.257    0.204
       293 -10.4419     11.9598     29.2574   6.0212845992e+01   6.8752188007e+01    0.2250662    0.1526725 -30.03  0.000544074    1.209    0.173
       294 -12.1298    225.0573    247.0337   4.8885182455e+01  -8.8972100909e+00    0.6446244    0.3465676 -19.06  0.003464002    1.997    0.499
       295 -10.5193     10.7152     24.5636   5.9078944932e+01   6.9607557358e+01    0.2858921    0.1776011 -11.02 0.0008995592    1.415    0.293
       296 -10.3539    182.8052    246.6279   5.7088104708e+01  -2.9631475830e+00    0.1864101    0.1026862  39.50 0.0009540915    1.712    0.416
       297  -9.9389    156.6688    245.6849   6.2400110833e+01   1.1547406004e+00    0.1335361   0.09369697   3.05 0.0005848483    1.682    0.405
       298 -10.6202     73.2062    244.5925   8.0271870694e+01   1.3916239405e+01     0.266248    0.2147297  43.24 0.0009170165    1.126    0.112
       299 -10.4018     16.7854     27.0263   5.6861155138e+01   6.8682584717e+01    0.2608848    0.1558245 -50.32  0.001162713    2.005    0.501
       300 -10.3531     15.7583     32.0042   5.9281301063e+01   6.7977703004e+01    0.2031246    0.1375792 -26.80  0.000383573    1.212    0.175
       301 -10.4831     19.0419     31.0179   5.7253207937e+01   6.7836511913e+01    0.2146434    0.1763903 -12.28 0.0009213646    1.112    0.101
       302 -10.3807    202.5009     35.9759   9.1668599682e+00   3.0200650823e+01     0.188043    0.1207094 -38.60  0.001044311    1.625    0.385
       303 -12.8124    232.0491     26.9746   4.3174755464e+00   2.4957128883e+01    0.5315627    0.2608781  61.81  0.002577634    2.063    0.515
       304 -10.8784    197.5017     28.3674   8.0307641100e+00   3.2251158778e+01    0.2253049    0.1823128 -89.84 0.0005537185    1.048    0.045
       305 -10.7913     79.7495     27.4246   3.0640666217e+01   5.9248515999e+01    0.2546595    0.2252519  12.80 0.0006756371    1.103    0.094
       306  -9.3180    139.7995     28.6179   1.6417988500e+01   4.5794461051e+01    0.1871171    0.1152335  74.87 7.432712e-05    1.657    0.396
       307 -11.1184    119.3599     27.3508   2.0117356403e+01   5.0725171736e+01    0.3009491    0.1968914  50.28 0.0009499412    1.310    0.236
       308 -11.0656    112.2312     26.7802   2.1538449307e+01   5.2414586518e+01    0.3362651    0.2486494  -2.31  0.001171769    1.653    0.395
       309  -9.9960     49.6892     28.2311   4.1959649386e+01   6.4426660812e+01    0.3125542     0.141711  20.30  0.001260812    3.192    0.687
       310 -10.4513    176.5826     26.4571   1.0127059123e+01   3.7298453082e+01    0.2360878    0.1961065 -62.39 0.0009515262    1.207    0.172
       311 -10.1478     73.1392     26.1360   3.2306798155e+01   6.0672981937e+01    0.2246161    0.1558893   9.07 0.0009868817    1.538    0.350
       312 -10.0665     61.3207     26.6937   3.6733517741e+01   6.2736781804e+01    0.2133429    0.1519664  28.62 0.0007539068    1.199    0.166
       313 -12.0610     74.7018    239.9294   7.9488874042e+01   1.4647742240e+01    0.5904872     0.431313 -63.85  0.003448689    1.519    0.342
       314  -9.9721     91.4389     24.8087   2.6170307538e+01   5.7172556386e+01    0.3520602      0.15665  43.46  0.001417669    1.935    0.483
       315 -10.4125     88.7255    241.4655   7.6611899940e+01   1.2350467078e+01    0.2400572    0.1419636 -48.53  0.001152347    2.076    0.518
       316  -9.9274    152.6519     24.3028   1.3011121742e+01   4.3208300525e+01    0.1361855   0.09239716 -77.62 0.0002680573    1.693    0.409
       317  -9.8135    128.9718     24.3166   1.7177533836e+01   4.8818894317e+01    0.1878851    0.1453573  59.32 0.0003329536    1.102    0.092
       318 -12.0615    214.5091     26.0000   5.7317853808e+00   2.8766042602e+01    0.3927469    0.2207136  60.58  0.002128775    1.777    0.437
       319 -11.7931     34.1316     22.6879   4.6514308887e+01   6.7378332035e+01    0.2227234    0.1599766   5.38 0.0002379375    1.175    0.149
       320  -9.5010    149.6837    240.2728   6.3105015060e+01   3.1901140581e+00    0.1287548   0.09542885  54.60  0.000252944    1.562    0.360
       321 -10.0665     45.5939    244.2940   8.5986730350e+01   1.7548048774e+01    0.2245105    0.1118799  46.23 0.0005913823    1.644    0.392
       322 -10.0041     82.2973     21.5156   2.7601897717e+01   5.9410284719e+01    0.2289176    0.1459437 -39.78  0.001195851    1.939    0.484
       323 -10.9870    193.2859     20.8172   6.7917358993e+00   3.4069578771e+01    0.2162471     0.193668 -83.70  0.000207662    1.125    0.111
       324  -9.3780    193.8093     16.5940   5.7829119125e+00   3.4410077042e+01    0.1873439    0.1003915  86.66 0.0009517074    1.820    0.451
       325 -10.2749     68.8404     21.1815   3.1806628755e+01   6.2049493415e+01    0.1767694    0.1619047  29.21 0.0006928416    1.212    0.175
       326  -9.7692     58.9671     21.3213   3.5424421982e+01   6.3794836285e+01      0.17903    0.1282448  31.68  0.000448035    1.179    0.152
       327 -10.3270    195.8153    238.2720   5.3117317808e+01  -3.5606745035e+00    0.2350394    0.1911281  -8.87  0.001042859    1.149    0.130
       328  -9.7220     24.4945     20.4364   5.0225542751e+01   6.8862766317e+01    0.1687275    0.1325472 -21.87 0.0004957017    1.237    0.191
       329  -9.9103    230.2387     20.3999   3.1889818002e+00   2.6100497839e+01    0.1593434   0.09413041  89.55 0.0002318487    1.543    0.352
       330 -10.1444      3.7407    238.4429   9.3815060535e+01   2.3255980352e+01    0.2056046    0.1268016 -87.26 0.0008594748    1.417    0.294
       331  -9.3336     41.4005     19.5058   4.1839187617e+01   6.6798465295e+01    0.1205106   0.09505373   6.82 0.0001164339    1.020    0.020
       332 -11.4461     39.9784    237.2573   8.6589933289e+01   1.9655249480e+01    0.4291368    0.2005748  59.53  0.001265844    2.049    0.512
       333 -10.7005     35.0879    237.8663   8.7637236043e+01   2.0097518878e+01    0.2177766    0.1516369  49.83 0.0009448007    1.221    0.181
       334 -10.9067     30.7372    234.5414   8.8282516655e+01   2.1277263518e+01    0.4561061     0.223305  73.88  0.001963873    2.159    0.537
       335 -10.0318    101.2955     17.8447   2.1094469298e+01   5.5780294611e+01    0.2551252    0.1879553  59.47 0.0006412307    1.243    0.196
       336  -9.9828      4.6302    244.0808   9.3933842422e+01   2.2047376658e+01    0.1551901    0.1113097  82.45 0.0005146458    1.160    0.138
       337 -10.6235     63.9775     17.7121   3.2091306238e+01   6.3322915841e+01    0.1936318    0.1581697   0.37 0.0007131504    1.190    0.160
       338 -10.1877    156.0439     21.6761   1.1776201729e+01   4.2681025725e+01    0.1858921     0.145319  69.75 0.0004565963    1.088    0.081
       339 -10.1631    118.3735     16.7278   1.6908708204e+01   5.2045090471e+01    0.2357922    0.1746934  83.30 0.0009490481    1.506    0.336
       340 -10.5119    109.2120     16.7661   1.8876539557e+01   5.4125395158e+01    0.2433251     0.149666  53.71  0.000718433    1.337    0.252
       341  -9.4797     35.6185     17.2514   4.3463079902e+01   6.7896027104e+01    0.1467611   0.09563086 -15.60 0.0002031895    1.444    0.308
       342 -11.4593    182.9737    234.3636   5.5104185113e+01  -9.9677474930e-01    0.2858738    0.2604038  35.27 0.0009993562    1.274    0.215
       343 -11.2775    161.0447    234.3416   5.9748797709e+01   2.4438751602e+00    0.3566413    0.2722857 -19.76   0.00203249    1.457    0.314
       344  -9.5245    116.0000    240.9432   7.0570478166e+01   8.3549464310e+00    0.1937765   0.07705428 -56.80  0.000800333    2.928    0.658
       345 -10.4145     76.6934     15.9678   2.7162534134e+01   6.1104552009e+01    0.1666342    0.1493943  33.36 0.0002200861    1.143    0.125
       346 -10.6119     73.2197     15.9748   2.8260141388e+01   6.1780616228e+01    0.2246925    0.1957705  36.11  0.001079029    1.138    0.122
       347 -10.5915     54.8294    231.5563   8.2973979344e+01   1.9028634810e+01    0.2795762     0.220254 -48.84  0.001480511    1.598    0.374
       348 -10.1869    159.8840     14.9539   9.4432740398e+00   4.2456247607e+01     0.187192    0.1576632  73.49 0.0002909158    1.035    0.034
       349 -10.2645    236.6963    230.1121   4.3923158409e+01  -7.9996389135e+00    0.1808646    0.1487657 -33.70  0.001213546    1.437    0.304
       350 -10.6017    248.5228    229.0437   4.1648147292e+01  -9.3419820952e+00    0.1740406    0.1004714 -33.00 0.0009934183    1.574    0.365
       351 -10.1736    192.0764    227.5027   5.2084128713e+01  -1.2502790029e+00    0.2029271    0.1166703  32.05 0.0007232611    1.577    0.366
       352  -9.3217    123.7741     13.2335   1.4742590659e+01   5.1124618916e+01    0.1794197    0.1063072  -3.53  0.000884027    2.453    0.592
       353 -10.5059      4.5357    225.7773   9.2984370298e+01   2.5781928862e+01    0.2606823     0.160598  22.57  0.001581901    2.071    0.517
       354 -10.2495     79.3604    223.3103   7.6650675390e+01   1.7468861552e+01    0.2660097    0.2135471 -14.99  0.001328909    1.770    0.435
       355  -9.9102     16.2766    221.9961   9.0383260608e+01   2.5457446965e+01    0.1658617    0.1304813  81.90  0.000444744    1.072    0.067
       356  -9.4798     70.7062    221.3785   7.8413586081e+01   1.9107856916e+01    0.1428826   0.08853054  67.03 0.0007021571    1.747    0.428
       357  -9.9833    165.4813     12.5049   8.0748569861e+00   4.1377382814e+01    0.1277952    0.1055656  80.25 0.0008103716    1.006    0.006
       358 -11.7336     49.1143    218.4755   8.3012808930e+01   2.2572590931e+01    0.5724131    0.2949219  30.41  0.002129368    2.007    0.502
       359 -10.0392     39.1474    228.9479   8.6106789828e+01   2.1495431318e+01    0.2000943    0.1366068  62.43  0.000711881    1.271    0.213
       360  -9.7675    211.7551    218.4242   4.6566151343e+01  -2.7328930417e+00     0.220312     0.155192 -45.74 0.0009468048    1.669    0.401
       361  -9.3380    126.0081    220.4927   6.5465491544e+01   1.0806492339e+01    0.2059771    0.1021521  53.39 0.0008097073    2.485    0.598
       362 -10.4575     38.4736    217.0291   8.5252971940e+01   2.4160328171e+01     0.232815     0.140527  50.68 0.0005607688    1.471    0.320
       363  -9.0595    107.8344     10.4256   1.7034887263e+01   5.5015093180e+01    0.1739102   0.09577953  50.60 0.0004544822    1.472    0.321
       364 -11.6512      7.5208    216.2318   9.1819137292e+01   2.7537633008e+01    0.3438999    0.2339421 -72.76  0.002226193    1.402    0.287
       365 -11.5801      4.3132    205.2323   9.1796610431e+01   3.0230990756e+01    0.3961531    0.2450743 -60.54  0.002394553    1.686    0.407
       366 -11.4319      5.3418    210.7016   9.1926642767e+01   2.8937065363e+01    0.3670084    0.1735881 -68.50  0.001437485    1.924    0.480
       367 -12.0300     11.3436    209.2991   9.0564388440e+01   2.8699158886e+01    0.3741466    0.2899018  83.76   0.00171527    1.070    0.065
       368 -10.4730     29.9488    214.4105   8.6911672597e+01   2.5692781551e+01    0.2479435    0.1607818   9.53  0.001308248    2.383    0.580
       369 -10.2039     20.0097    211.4543   8.8850805995e+01   2.7384621467e+01    0.2426844    0.1416827  78.64 0.0008346575    1.611    0.379
       370 -10.7116    217.3176    209.0917   4.3812685871e+01  -2.0348617849e+00    0.4156165    0.1815853 -36.26  0.001659148    2.214    0.548
       371  -9.1853    132.3141    209.3222   6.2244229929e+01   1.2058904583e+01     0.144102    0.1101679  -5.92 0.0005533117    1.658    0.397
       372 -10.3727     72.4691    208.5392   7.6510957537e+01   2.1722032183e+01       0.3219    0.2110683  12.85  0.001526784    2.166    0.538
       373 -12.2865     20.2101    201.9059   8.8069451605e+01   2.9510144705e+01    0.7253507    0.2557089 -54.45  0.003050616    3.128    0.680
       374 -10.2221     28.1783    205.3925   8.6556515441e+01   2.7906570837e+01    0.1698462   0.09844856  46.77 0.0003594408    1.579    0.367
       375  -9.9331    174.9923    202.0194   5.1205579901e+01   6.1174913518e+00    0.2153427    0.1894006  14.88 0.0004474514    1.041    0.039
       376  -9.3599     67.9564    203.0000   7.6925065134e+01   2.3620967813e+01    0.2279215   0.07361151  32.47   0.00014163    3.006    0.667
       377 -10.2008    238.3009    200.9093   3.8446144321e+01  -3.7804650345e+00    0.1805433    0.1377202 -23.81 0.0004413319    1.132    0.117
       378  -9.5799    120.4470    200.0590   6.3578657623e+01   1.6084922870e+01    0.2078185    0.1438151 -53.04  0.001009619    1.544    0.352
       379  -9.9722     40.5238    197.2209   8.2916043803e+01   2.8434803596e+01    0.2368748    0.1202609 -77.65 0.0006501691    1.956    0.489
       380 -10.1511    134.8317    196.4219   5.9461759374e+01   1.4368390207e+01     0.240105    0.2007873 -50.88 0.0004605504    1.280    0.219
       381  -9.0870     56.4690    197.5075   7.9077007837e+01   2.6431568473e+01    0.1332928    0.1216076  77.40 5.361227e-05    1.035    0.033
       382  -9.4894     94.4833    201.5294   7.0204774425e+01   2.0036379815e+01    0.1401777    0.1324162  48.44 -8.827804e-06    1.048    0.046
       383 -12.0218     15.5382    192.1723   8.8352913656e+01   3.2187377147e+01    0.3748254    0.3393195 -34.16  0.001776953    1.426    0.299
