#   1 NUMBER                 Running object number                                     
#   2 MAG_AUTO               Kron-like elliptical aperture magnitude                    [mag]
#   3 X_IMAGE                Object position along x                                    [pixel]
#   4 Y_IMAGE                Object position along y                                    [pixel]
#   5 X_WORLD                Barycenter position along world x axis                     [deg]
#   6 Y_WORLD                Barycenter position along world y axis                     [deg]
#   7 A_WORLD                Profile RMS along major axis (world units)                 [deg]
#   8 B_WORLD                Profile RMS along minor axis (world units)                 [deg]
#   9 THETA_WORLD            Position angle (CCW/world-x)                               [deg]
#  10 FWHM_WORLD             FWHM assuming a gaussian core                              [deg]
#  11 ELONGATION             A_IMAGE/B_IMAGE                                           
#  12 ELLIPTICITY            1 - B_IMAGE/A_IMAGE                                       
         1 -15.3057     69.0618    144.3624   9.8984588871e+01   3.7393434592e+01     5.796594     2.431119  58.40   0.01483849    6.363    0.843
         2 -14.0436    233.3125      7.3666   3.0455839561e+01   2.7543000213e+01     1.223257    0.7855656  58.62  0.004970284    1.783    0.439
         3 -13.9809    198.8248     42.6606   4.1627660932e+01   3.0841162039e+01     1.034261    0.9114996 -67.41  0.003028265    1.042    0.040
         4 -14.4470    208.2367     33.5771   3.8352863243e+01   2.9890813406e+01     1.176216    0.8733119 -15.00  0.001417961    1.783    0.439
         5 -10.9490     60.9823      7.7547   5.8882345224e+01   6.5289675471e+01    0.1740546    0.1344709  29.88 0.0003754869    1.081    0.075
         6 -10.4966     43.3293      7.3300   6.5531520975e+01   6.8304704171e+01    0.1280235   0.07520323  12.58 0.0007051565    1.713    0.416
         7 -11.7190     50.5058      3.1576   6.0557405479e+01   6.7559891501e+01    0.2648041    0.2229647  77.92  0.001693269    2.119    0.528
         8 -10.9339     59.7936    197.3829   1.0917681755e+02   2.5696963068e+01    0.2230938    0.2029501 -76.60 0.0002657327    1.108    0.097
         9 -14.2764     44.2967    196.4562   1.1270463778e+02   2.7737641879e+01     1.744106    0.9796868  60.42  0.001717118    1.841    0.457
        10 -18.1066     15.8160    240.7916   1.2198152899e+02   2.1237422418e+01      7.10649     2.401025  24.71   0.02868756    4.317    0.768
        11 -14.2634     21.1874    222.1113   1.1981900648e+02   2.4498546991e+01    0.6024546    0.5314513  87.38  0.002301683    1.175    0.149
        12 -12.2682    192.9418    194.8366   7.7948736784e+01   5.1963801729e+00     1.359464    0.6558517 -56.58  0.004836224    3.827    0.739
        13  -9.8100     81.9404    194.8768   1.0355404745e+02   2.3336819714e+01    0.2075641     0.186391 -28.06  0.001169579    1.306    0.234
        14 -10.4033    151.0078    192.7526   8.6686327224e+01   1.2726435408e+01    0.2560848    0.2368938  -2.03  0.001348602    1.043    0.041
        15 -11.9985    147.1098    187.4043   8.6597054372e+01   1.4516462633e+01    0.6073322    0.3775127 -65.59  0.002594736    2.285    0.562
        16 -11.3755     43.6286    178.1316   1.1087901734e+02   3.2132268222e+01    0.5274437    0.3370258 -21.64  0.001574046    2.527    0.604
        17 -13.7022     56.5106    185.1976   1.0852241623e+02   2.8953427959e+01    0.9147877    0.8640077 -10.58  0.004458184    1.281    0.219
        18 -12.3475    204.2748    199.9971   7.6648174997e+01   2.4576241843e+00    0.5259204    0.2095574  30.49  0.002082366    2.751    0.637
        19 -10.5081     49.1944    180.6160   1.0978250851e+02   3.0911672642e+01    0.2435105    0.1710843  88.95  0.000708516    1.422    0.297
        20 -10.0607     79.6127    182.8133   1.0241966770e+02   2.6487420883e+01    0.3219637    0.2179055 -83.30   0.00151181    1.687    0.407
        21 -11.0989     99.3978    180.9761   9.7117853746e+01   2.3970877083e+01    0.2920318    0.2568104 -50.51 0.0006552566    1.156    0.135
        22 -10.2901     37.7525    181.0285   1.1265394857e+02   3.2065894011e+01     0.198651    0.1748723  55.24 0.0003309447    1.160    0.138
        23  -9.5044     89.0816    179.6817   9.9533665266e+01   2.5856000598e+01    0.1930109     0.175888  41.38 0.0003672648    1.104    0.095
        24 -12.3907    240.8817    176.1727   6.5241621673e+01   8.1356693979e-01    0.5732395    0.2720546  27.54  0.002559409    2.655    0.623
        25 -11.5329    186.6666    174.7972   7.5269494407e+01   1.0038626257e+01    0.3957283    0.3576067 -47.91   0.00117446    1.250    0.200
        26 -13.0373     54.3971    146.9323   1.0368403162e+02   3.8612651640e+01     3.978855    0.9889992 -52.82   0.01296915    3.352    0.702
        27 -10.1766    193.0894    169.8695   7.2908133641e+01   9.8415593998e+00    0.2051685    0.2009311 -71.44 0.0006361589    1.263    0.208
        28 -11.4192    230.8879    167.9720   6.5317248411e+01   3.7380841637e+00    0.3754733    0.1544604 -47.80  0.001459709    2.862    0.651
        29  -9.5487     35.4092    166.9263   1.1166389709e+02   3.5713277985e+01    0.2141892    0.1588109  49.31  0.001232379    1.388    0.280
        30 -10.0902    189.6554    165.6925   7.2736448475e+01   1.1269600857e+01    0.1520238    0.1086677  -2.11 0.0007043423    1.696    0.410
        31  -9.2723    120.5091    165.5403   8.8907028929e+01   2.4070740997e+01    0.1474399    0.1455683  66.31 0.0001043524    1.046    0.044
        32  -8.9571     30.2844    164.7391   1.1273878823e+02   3.6746709775e+01     0.127313    0.0883453  68.24 0.0001773256    1.484    0.326
        33 -10.4914     36.4680    159.2527   1.1045302987e+02   3.7493268595e+01    0.5330339     0.257053  81.34   0.00203077    3.169    0.684
        34 -10.6133     32.0862    156.5116   1.1128979097e+02   3.8597283295e+01     0.220526    0.1727592  -6.39 0.0006676455    1.667    0.400
        35  -9.3436    130.2672    159.0420   8.5085500234e+01   2.3816258443e+01    0.2097183    0.1964807 -45.13 0.0004713359    1.066    0.062
        36 -12.2967     89.7358    151.4993   9.4419573213e+01   3.2594827256e+01     0.727762    0.4778268 -25.79  0.003148443    2.050    0.512
        37 -10.8295    132.8167    140.4051   8.0311612816e+01   2.7606887658e+01    0.4939651    0.2081641 -49.28  0.001579115    2.367    0.577
        38 -10.3732    174.7157    149.1277   7.2296077463e+01   1.7424918463e+01    0.2502219    0.2127045  53.62 0.0006559567    1.334    0.251
        39  -9.2059    111.0529    149.5098   8.8128579642e+01   2.9522777385e+01    0.2216316    0.1243536  58.02 0.0004436236    2.565    0.610
        40 -11.4134     38.6469    146.1228   1.0808375134e+02   4.0539034118e+01    0.3343541    0.2619029  62.55 0.0007922707    1.376    0.273
        41 -10.3137    143.5049    145.4945   7.8773468253e+01   2.4368356758e+01    0.2802853    0.1473992 -57.11   0.00103363    2.321    0.569
        42 -11.5166    134.3196    147.3073   8.1501325528e+01   2.5742194803e+01    0.8213577    0.2681226 -52.04  0.002471128    3.367    0.703
        43 -11.0406    103.0942    137.9979   8.7840709836e+01   3.3678965749e+01    0.6438134    0.3818012 -22.15  0.002350566    2.756    0.637
        44 -11.0450    106.0041    130.8103   8.5371685128e+01   3.4884109651e+01    0.3878205    0.3290292 -52.37  0.001310426    1.157    0.136
        45 -12.4293     90.6362    137.4794   9.1310613806e+01   3.5894187878e+01      0.29282    0.2574373 -39.41 0.0002904026    1.115    0.103
        46 -12.0924     43.4604    129.4939   1.0402879622e+02   4.4203412525e+01    0.3542311    0.2874898  85.08  0.001085803    1.348    0.258
        47 -11.0630    135.7542    128.3214   7.6656639721e+01   2.9750995053e+01     0.448576      0.19807 -48.74  0.001601317    2.281    0.562
        48 -10.5641    112.1097    128.9293   8.3193705516e+01   3.4213497735e+01    0.3567574    0.2803596 -10.52  0.001005394    1.532    0.347
        49  -9.8584    160.9536    127.9520   7.0402300327e+01   2.4628135778e+01    0.2488111    0.1966324 -81.87  0.001141647    1.747    0.428
        50 -11.1037     99.2819    124.8036   8.5900389574e+01   3.7501950228e+01    0.3006026    0.2465311 -15.38 0.0005300378    1.368    0.269
        51 -11.3171    118.7539    122.8144   7.9836490930e+01   3.4367362336e+01    0.6361145    0.4005987  -0.57  0.002230941    3.036    0.671
        52 -10.1384     89.8748    123.0663   8.8300535885e+01   3.9516046760e+01    0.4565129    0.2561797  64.30  0.001514155    3.601    0.722
        53 -11.3974     32.4146    130.2631   1.0755322509e+02   4.5094704793e+01    0.3662579    0.2044343 -52.01  0.001094899    1.574    0.365
        54 -10.0638    108.0691    118.1357   8.1685279931e+01   3.7474542497e+01     0.221968    0.2114274 -18.10 0.0003331751    1.025    0.024
        55 -12.2210     70.0599    171.3226   1.0317802814e+02   3.0573876603e+01    0.4441271     0.306183 -22.58  0.001949486    2.064    0.515
        56 -12.3296     74.1881    166.8199   1.0138568778e+02   3.1113944548e+01     0.419188    0.3644711 -62.29 0.0006212048    1.100    0.091
        57 -10.7142    231.3023    113.8206   5.3674526603e+01   1.3030096166e+01     0.283729    0.2222014 -42.54   0.00078703    1.122    0.109
        58 -10.6595    134.6721    112.0499   7.2772772938e+01   3.3534483680e+01    0.4510755     0.137417 -45.60  0.001344086    3.255    0.693
        59 -10.0765    147.8206    173.8615   8.3805722568e+01   1.7285774881e+01    0.1982161      0.17992  80.35 0.0004307371    1.327    0.247
        60 -10.1158    205.3718    110.2658   5.7084472612e+01   1.8753790517e+01    0.2759475    0.2013523  45.06 0.0008150464    1.498    0.332
        61 -11.5210    115.9983    108.7876   7.6965504833e+01   3.8057089144e+01    0.5331184    0.4461442  56.63   0.00266238    1.346    0.257
        62 -12.8000     82.5538    158.6084   9.7731246915e+01   3.1937441503e+01    0.9324749    0.6859612  82.13  0.004509101    1.674    0.403
        63  -9.2688    138.8516    105.7909   7.0023640913e+01   3.3966320893e+01     0.203572    0.1828208 -82.18 0.0004260373    1.303    0.233
        64 -13.8388     71.2003    153.2452   9.9952407202e+01   3.4885087675e+01    0.7504368    0.6335936 -44.24  0.001693655    1.197    0.165
        65 -11.4450     31.9476     99.3631   1.0213922062e+02   5.2690834312e+01    0.4117219    0.2517777  29.96   0.00214507    1.847    0.459
        66  -9.9431    127.3451     94.7720   6.9943068814e+01   3.8684878312e+01    0.2864243    0.2093497  72.30  0.001257774    1.921    0.479
        67  -8.7587    224.2579    206.6922   7.4075162628e+01  -1.6679376353e+00    0.1097142    0.1009698 -45.49 0.0002160931    1.521    0.342
        68  -9.1630     84.4117    173.5120   9.9754058455e+01   2.8025140279e+01    0.1404489    0.1339029 -70.60 5.055756e-05    1.033    0.032
        69 -10.3281    156.0040     88.1409   6.1091744060e+01   3.3619560414e+01    0.3749884    0.2527305 -66.28  0.001322676    2.045    0.511
        70  -8.9833    120.6534     89.3297   7.0176575691e+01   4.1192697597e+01    0.1538929    0.1232118 -86.67 0.0007049852    1.758    0.431
        71 -13.8954     47.1660    107.3724   9.8532678024e+01   4.9247372177e+01     1.358962     1.169088  76.25  0.007809261    1.404    0.288
        72  -9.6559    115.8959     85.0837   7.0238254396e+01   4.3026607792e+01    0.2255481    0.2042134  68.80  0.001191334    1.283    0.220
        73  -9.3768    158.4929     83.4270   5.9241639820e+01   3.3904365390e+01    0.1446791    0.1441254  86.94 8.886986e-05    1.012    0.012
        74 -12.6697    238.9455    170.8136   6.4501825325e+01   1.9910899865e+00    0.6120808    0.3373036  13.38  0.002619071    2.911    0.657
        75 -10.3780     89.0488    210.5589   1.0395785827e+02   1.8816547031e+01    0.2595788     0.192767 -75.99   0.00144183    1.442    0.307
        76 -13.5211    187.5496     51.3602   4.5347852363e+01   3.2238816327e+01    0.8604293    0.7817034   1.72 0.0008684113    1.331    0.249
        77 -10.0810    168.2059    233.3553   8.9814923577e+01   2.3172841824e+00    0.2776029    0.2006322  44.23  0.001521218    1.478    0.323
        78  -9.5237     69.0231     52.7088   7.4591634350e+01   5.7844674795e+01    0.1892604    0.1584758  21.91 0.0005519658    1.148    0.129
        79 -11.1193     23.9334     34.5532   8.6910434319e+01   6.6958429840e+01    0.2336758    0.1833243  25.56 0.0009552829    1.479    0.324
        80 -11.3541     13.2415     59.8228   1.0019855864e+02   6.3004376209e+01    0.2522304    0.2392073  13.43 0.0005677147    1.325    0.246
        81 -16.9925      6.6615    204.6977   1.2164053322e+02   2.9564952697e+01     12.18559      1.18277 -74.66    0.0231116    7.172    0.861
        82  -9.8857    198.0416     23.4964   3.7086636667e+01   3.3328603360e+01    0.2103701    0.1779267  -5.48 0.0007052995    1.563    0.360
        83 -10.0167    189.5177     14.9942   3.5947914875e+01   3.6159045950e+01    0.1913537     0.153169  81.55 0.0005968926    1.110    0.099
        84 -12.4432    185.0900    211.7462   8.2695424176e+01   3.4394950582e+00    0.4415159    0.2844193  21.94  0.002286063    1.528    0.346
        85 -11.9867    122.3184    198.7769   9.4435365955e+01   1.6279407728e+01    0.3956897    0.2865256 -69.66  0.001224244    1.651    0.394
