#   1 NUMBER                 Running object number                                     
#   2 MAG_AUTO               Kron-like elliptical aperture magnitude                    [mag]
#   3 X_IMAGE                Object position along x                                    [pixel]
#   4 Y_IMAGE                Object position along y                                    [pixel]
#   5 X_WORLD                Barycenter position along world x axis                     [deg]
#   6 Y_WORLD                Barycenter position along world y axis                     [deg]
#   7 A_WORLD                Profile RMS along major axis (world units)                 [deg]
#   8 B_WORLD                Profile RMS along minor axis (world units)                 [deg]
#   9 THETA_WORLD            Position angle (CCW/world-x)                               [deg]
#  10 FWHM_WORLD             FWHM assuming a gaussian core                              [deg]
#  11 ELONGATION             A_IMAGE/B_IMAGE                                           
#  12 ELLIPTICITY            1 - B_IMAGE/A_IMAGE                                       
         1 -14.1624    177.9384     55.1811   5.1181950941e+01   3.3616468498e+01     1.785369    0.9612573  35.44  0.005325186    2.778    0.640
         2 -14.1665    193.1507     42.1058   4.5318112323e+01   3.1744430314e+01     0.914342    0.8503358  66.40  0.003425475    1.144    0.126
         3 -14.3662    219.6658     10.9062   3.4830556842e+01   2.9291153070e+01    0.8767611    0.7549388 -74.44  0.003973359    1.083    0.077
         4 -11.3502     61.8003      2.3929   6.0422870607e+01   6.6529080854e+01    0.1843585   0.09017744  39.42 0.0006034044    1.722    0.419
         5 -10.7349     72.5017    216.3593   1.1158715596e+02   2.0102898894e+01    0.3499061    0.1944593  67.45  0.001720507    1.973    0.493
         6 -17.3415     71.6025    147.5153   1.0259785112e+02   3.6330184815e+01     11.71434     6.018294  77.64   0.03633629    4.385    0.772
         7 -11.9339    192.9666    194.8826   8.1593649390e+01   4.2927182915e+00    0.9656149    0.5057914 -63.99  0.002609808    7.275    0.863
         8 -11.0026     60.5360    187.5516   1.1115861938e+02   2.8124138298e+01    0.2900651     0.192348  68.49  0.001265513    1.501    0.334
         9 -11.8530     51.5043    199.1400   1.1449595797e+02   2.6616527943e+01    0.2341967    0.1950811  73.50 0.0004976547    1.007    0.007
        10 -13.2138     56.0516    193.6214   1.1289027641e+02   2.7299919947e+01    0.5494776    0.3228875 -45.58  0.001538614    2.237    0.553
        11 -11.2935     75.4979    247.5439   1.1392704303e+02   1.3514136063e+01    0.5122719    0.1380319 -59.41  0.002119959    3.978    0.749
        12 -10.1163     33.9340    196.9857   1.1822039484e+02   2.9133518323e+01     0.138365    0.1125206  60.59 0.0003106335    1.128    0.114
        13 -11.5274     82.2632    195.0793   1.0690288860e+02   2.3366079279e+01    0.3807079    0.3025312  26.00   0.00213957    1.446    0.308
        14 -10.3350     79.1730    191.8039   1.0721593305e+02   2.4565409047e+01    0.2257408    0.1896265 -75.92  0.000925809    1.179    0.152
        15 -11.8684    149.5010    192.4958   9.0632196969e+01   1.2592785708e+01    0.3235992    0.2306966  44.71   0.00132057    1.334    0.250
        16 -13.1437    146.9501    187.4466   9.0314007076e+01   1.4100960252e+01      0.55458    0.3747424 -64.48  0.002591503    1.859    0.462
        17 -11.4871     71.8574    243.5604   1.1429650112e+02   1.4750272968e+01    0.2948032    0.1935348 -89.18  0.001025823    1.613    0.380
        18 -12.0101     89.4282    211.2530   1.0727101403e+02   1.8745542153e+01    0.3679443    0.2682339  76.30  0.001609165    1.430    0.301
        19 -10.5406     37.4473    176.5952   1.1552600184e+02   3.3453509768e+01    0.3031111    0.1466577  45.54  0.001481583    1.965    0.491
        20 -11.4614    186.2608    174.0905   7.8913691208e+01   9.3680187127e+00    0.3640896    0.3454184  64.48   0.00123042    1.245    0.196
        21 -11.4560    147.8882    174.7959   8.7716457625e+01   1.6603323529e+01    0.2511069    0.2183085 -64.71 0.0006990349    1.278    0.217
        22 -11.7387    146.3069    171.6432   8.7475918628e+01   1.7588086639e+01    0.2916051    0.2253105 -75.14 0.0009937503    1.647    0.393
        23 -11.6197     55.3371    174.2478   1.1084821535e+02   3.1932994325e+01    0.2996374    0.2227446  77.08 0.0007098604    1.295    0.228
        24 -11.6343     45.7622    173.3615   1.1313797882e+02   3.3295226407e+01    0.3536035    0.3047244  43.18  0.001225986    1.251    0.200
        25  -9.3426    192.6897    169.7028   7.6652882213e+01   8.9853089119e+00    0.1474549    0.1093363   1.22 0.0004148983    1.596    0.374
        26 -12.9884    133.7849    145.2840   8.5073540185e+01   2.5984621545e+01     1.312744     0.338037 -54.72  0.003015138    5.859    0.829
        27 -13.7476     95.0769    150.1347   9.6495455079e+01   3.2034777375e+01     0.689459     0.573819 -20.18  0.003511467    1.481    0.325
        28 -12.9761    112.2374    150.4342   9.1868731090e+01   2.8938043037e+01    0.6255842    0.3844889  71.53  0.002191575    2.639    0.621
        29 -10.1848    174.8003    149.3808   7.6111907656e+01   1.6595951200e+01    0.2118895    0.1414209  32.99 0.0002852023    1.588    0.370
        30 -13.0411    106.7513    136.8287   9.0502478362e+01   3.3222381330e+01    0.5806931    0.3817116 -26.87  0.002295018    2.099    0.524
        31 -12.2716    106.0590    130.9410   8.9384976482e+01   3.4769656634e+01     0.461581    0.3618771 -60.79  0.001243572    1.295    0.228
        32 -12.6655     94.7081    136.4917   9.3863970232e+01   3.5443217210e+01    0.3201064    0.2844025 -48.36 0.0003931494    1.122    0.109
        33 -18.5072     29.0203    234.8992   1.2192990081e+02   2.1683061584e+01     6.902688     4.256259  40.60   0.03011463    1.518    0.341
        34 -11.5467    135.7587    128.8802   8.0744081676e+01   2.9336557236e+01    0.3815993    0.1334701 -49.13  0.001183918    2.936    0.659
        35 -12.1846    114.3008    128.6280   8.6511319074e+01   3.3757269891e+01    0.3388333    0.2906938 -12.39 0.0007476084    1.359    0.264
        36 -11.2425    101.8134    124.1814   8.9053724081e+01   3.7176495146e+01    0.3111587    0.2577828 -16.08 0.0009133063    1.432    0.302
        37 -12.2055    119.9507    122.7522   8.3511727117e+01   3.4016400793e+01    0.4677766    0.3056676 -11.56  0.001706668    2.734    0.634
        38 -10.8063    135.0000    119.9881   7.8733144009e+01   3.1505871659e+01    0.2642363   0.08975036 -46.06 0.0008018528    2.938    0.660
        39 -10.8334    109.8927    117.9685   8.5187108963e+01   3.7127233002e+01    0.2280433    0.2237527 -43.75 0.0004062809    1.005    0.005
        40 -10.7918    231.2364    113.8559   5.7097797620e+01   1.1662043814e+01     0.235397    0.2279231  13.26 0.0007736036    1.136    0.120
        41 -12.9921    118.5518    110.1925   8.0697247559e+01   3.7184179741e+01     0.640496    0.4717204  72.65   0.00255108    1.830    0.454
        42 -10.2672    167.4845    112.4824   6.8848255393e+01   2.5846974616e+01    0.1564074    0.1503647 -74.74 6.942096e-05    1.073    0.068
        43 -10.3775    205.5277    110.2293   6.0591079854e+01   1.7695289570e+01    0.2576609    0.2076261  53.26  0.000615738    1.316    0.240
        44 -11.0872    134.5936    106.3167   7.5250708259e+01   3.4607587301e+01    0.3196181    0.1503081 -48.66   0.00114731    2.206    0.547
        45 -11.6619     87.4180    203.6523   1.0679039997e+02   2.0688295699e+01    0.2711904    0.2400785  62.35  0.001222881    1.018    0.018
        46 -11.7768     38.6394    199.5815   1.1740480642e+02   2.8033086863e+01    0.2665889    0.1688011  70.39  0.001040365    1.439    0.305
        47  -9.7833    184.3380     77.3177   5.6081136503e+01   2.8486939026e+01     0.151166    0.1173638  20.84 0.0007048924    1.704    0.413
        48 -19.1155      9.0983    101.0623   1.1439730891e+02   5.4104407617e+01     16.01207      0.76019 -70.24   0.02528589   17.630    0.943
        49 -12.0512     42.6434    208.7789   1.1732021808e+02   2.5548556514e+01    0.4537831    0.2180878  61.36  0.001963018    2.024    0.506
        50 -13.5721    198.2652     36.3373   4.3154733904e+01   3.1271653687e+01    0.6169057    0.4960276  85.91   0.00122978    1.150    0.130
        51 -11.7092    198.0030     23.5366   3.9960438135e+01   3.2911616800e+01    0.2310968     0.194471  -3.48 0.0008593655    1.604    0.377
        52 -12.8272     95.0089    203.4739   1.0501533049e+02   1.9567750737e+01    0.5596456    0.3333673 -42.17  0.002632141    2.211    0.548
        53  -9.9847    189.5239     15.0035   3.8762730286e+01   3.5909588171e+01    0.1812562    0.1270043 -34.33  0.000547552    1.541    0.351
        54 -11.3272     80.6444     15.5921   6.0058265677e+01   6.1590661901e+01    0.2450069    0.1878918  61.55  0.001430137    1.537    0.350
