#   1 NUMBER                 Running object number                                     
#   2 MAG_AUTO               Kron-like elliptical aperture magnitude                    [mag]
#   3 X_IMAGE                Object position along x                                    [pixel]
#   4 Y_IMAGE                Object position along y                                    [pixel]
#   5 X_WORLD                Barycenter position along world x axis                     [deg]
#   6 Y_WORLD                Barycenter position along world y axis                     [deg]
#   7 A_WORLD                Profile RMS along major axis (world units)                 [deg]
#   8 B_WORLD                Profile RMS along minor axis (world units)                 [deg]
#   9 THETA_WORLD            Position angle (CCW/world-x)                               [deg]
#  10 FWHM_WORLD             FWHM assuming a gaussian core                              [deg]
#  11 ELONGATION             A_IMAGE/B_IMAGE                                           
#  12 ELLIPTICITY            1 - B_IMAGE/A_IMAGE                                       
         1 -12.7229     39.0086     50.6245   8.8780569778e+01   6.2306260422e+01     1.076649    0.5064012 -53.76   0.00489426    2.352    0.575
         2 -11.9913     56.8726     33.3114   7.4587877546e+01   6.2869319219e+01    0.5196655    0.3751892 -58.83  0.002613829    2.416    0.586
         3 -11.9027    129.4509     19.2917   4.7982666057e+01   4.9734277101e+01    0.3712938    0.2750779  13.20 0.0005124375    1.569    0.363
         4 -10.2661      5.3984     13.2674   9.0587007300e+01   7.1953328369e+01    0.1781669    0.1190389 -41.89  0.000771591    1.436    0.303
         5 -11.8482      4.7729     18.5140   9.3212523707e+01   7.1150383649e+01    0.4742648    0.4167353  59.61  0.003373452    2.107    0.525
         6 -11.2610      9.7530     15.5380   8.9156667513e+01   7.1248981088e+01    0.2540478    0.1666902 -12.83 0.0006313628    1.261    0.207
         7 -11.7471    103.2907     19.5074   5.3842779582e+01   5.5715316717e+01    0.5119178    0.4286385  70.52  0.002239114    1.367    0.268
         8  -9.6984    107.5527     18.2044   5.2308359164e+01   5.4902812616e+01    0.2819961    0.2013036  10.07  0.001402681    1.551    0.355
         9 -12.4031     13.1651      2.2012   8.0681260197e+01   7.2859992881e+01    0.3300044    0.2825956  23.05 0.0003758621    1.644    0.392
        10 -10.1070     15.1158     14.1569   8.5580103372e+01   7.0984907345e+01    0.2092705    0.1407618 -37.00 0.0006365551    1.414    0.293
        11 -10.6659     32.6868      1.7226   7.0229091009e+01   7.0547660252e+01    0.2687022    0.1648221  38.81  0.001444193    1.712    0.416
        12 -11.8224     20.8340     15.9842   8.3392589988e+01   7.0143076988e+01    0.5759293    0.4473673 -25.35  0.002746284    1.223    0.183
        13 -10.9118     26.6223      2.9384   7.3850854300e+01   7.1217757773e+01    0.2885948    0.2020694  37.47  0.001549527    1.732    0.422
        14 -11.9941     23.7209      7.9013   7.7931170909e+01   7.0953357571e+01    0.2746154    0.2068836  24.21 -0.000430966    1.417    0.294
        15 -11.4885     21.1896      3.0345   7.6716787877e+01   7.1871046291e+01    0.3155641    0.2183906  -9.10  0.001487718    1.134    0.118
        16 -11.0923     50.1048     14.7949   6.9095651022e+01   6.6451161264e+01    0.5149923     0.252072  43.47  0.002640605    2.089    0.521
        17  99.0000     43.6396      8.6146   6.8823730782e+01   6.8179278620e+01     0.452172    0.2222734 -24.09  0.001840521    1.963    0.491
        18 -10.6404     34.3037     15.7134   7.6547759893e+01   6.8604707789e+01     0.356681    0.1873965   7.45  0.001720292    2.408    0.585
        19 -11.0158     41.9970     19.0581   7.4587816039e+01   6.7110959090e+01    0.4555712     0.279115  27.67    0.0021605    1.521    0.342
        20 -10.2149     39.6393     11.2010   7.1877361118e+01   6.8461586574e+01    0.2203424    0.1609791 -32.09 0.0006998085    1.538    0.350
        21  -9.7365     65.2716     12.3161   6.2139288537e+01   6.4159553324e+01     0.218326     0.136067  -3.46 0.0005188769    1.681    0.405
        22 -11.6718    233.7997     11.1986   3.2902249761e+01   2.6287589404e+01    0.2484536    0.1237003 -47.47   0.00136006    1.724    0.420
        23 -11.0240     73.8478     15.6534   6.0717986629e+01   6.2204608553e+01    0.4312742    0.4276429  21.08  0.002803355    1.358    0.264
        24 -10.8860     74.5329      3.1908   5.4969224065e+01   6.3277701201e+01    0.4618955    0.2605972 -16.22  0.002536496    1.867    0.464
        25 -11.0958     79.1924     10.5818   5.6825285815e+01   6.1680941105e+01    0.2767135    0.1850362  29.75 0.0003772347    1.327    0.247
        26 -11.0891     75.5613     10.4603   5.7886736464e+01   6.2409501223e+01    0.2814816    0.2135584  45.19 0.0009638029    1.247    0.198
        27 -11.0887    175.6411     11.8262   3.8623543990e+01   3.9371011237e+01     0.453115    0.2217215  62.66  0.002202302    1.791    0.442
        28 -10.1499    126.6022      2.7187   4.2894872207e+01   5.1897288197e+01     0.387312    0.1623427 -31.11   0.00165708    2.571    0.611
        29 -10.0840    130.4257      6.7551   4.3594111346e+01   5.0668110537e+01    0.2951011    0.2074718  20.15 0.0009754318    1.649    0.393
        30 -11.3556    128.4470     11.4969   4.5536240243e+01   5.0721408828e+01    0.5408919    0.3171896  79.86  0.001765897    2.003    0.501
        31 -10.5493    127.0051      8.2200   4.4687859481e+01   5.1350717932e+01    0.2003059    0.1842815   6.15 0.0002067303    1.195    0.163
        32 -10.4959    156.6452      8.8105   4.0213605241e+01   4.4213997919e+01    0.1791456    0.1422542 -68.01 0.0004828665    1.331    0.249
        33  -9.7508    118.5332     12.4842   4.7794340126e+01   5.2951516544e+01    0.2011519    0.1390236  32.09 0.0005627674    1.455    0.313
        34 -10.0378    117.5249      9.4659   4.6922119987e+01   5.3455622978e+01    0.2202521     0.151325 -34.08  0.000827148    1.645    0.392
        35 -10.0086    100.2126     11.8122   5.1629072146e+01   5.7152371000e+01    0.1805971    0.1296169  30.71 0.0003323269    1.298    0.229
        36 -10.5137    241.4975      9.9123   3.2069484822e+01   2.4834871008e+01    0.1676528    0.1026059 -38.52 0.0006770241    1.544    0.352
        37 -10.2825    164.2345      9.2187   3.9322776798e+01   4.2351673518e+01    0.2382632    0.1957468 -71.89 0.0007639135    1.230    0.187
        38 -10.0703    164.5704      5.4776   3.8229243911e+01   4.2610570995e+01    0.2125681    0.1724124 -51.06  0.000590947    1.300    0.231
        39 -11.6183      7.8863      8.9866   8.7162479185e+01   7.2407338920e+01    0.4086544    0.1840225  34.75  0.001907118    2.889    0.654
        40 -11.0593    246.2354      8.9676   3.1549130106e+01   2.3978208243e+01    0.1906809    0.1438321 -30.71 0.0004045836    1.527    0.345
        41 -11.0364    248.5109      6.4481   3.0899756562e+01   2.3794251998e+01     0.189497    0.1470339 -71.56 0.0006889553    1.036    0.035
        42 -12.3432    214.5753      6.4309   3.3399919258e+01   3.0926020985e+01     0.523896    0.3453818 -73.62  0.002948967    1.389    0.280
        43 -11.3189    146.4203      6.9168   4.1100364636e+01   4.6839730886e+01    0.4449452    0.2572844  23.20  0.002122425    2.394    0.582
        44 -10.7574     33.8920      7.5458   7.2700445559e+01   6.9708531730e+01    0.2229693    0.1452156 -18.39 0.0004605147    1.350    0.259
        45 -10.7615    194.6553      2.0658   3.4128912709e+01   3.5841523639e+01    0.3119131     0.168584  78.51  0.001577819    1.665    0.399
        46 -10.4489     97.9764      3.9286   4.9064263798e+01   5.8324700427e+01    0.3405031    0.1817648  21.62  0.001574076    2.218    0.549
        47 -10.6748     91.3724      7.2585   5.2024917982e+01   5.9472162455e+01    0.2745443    0.1510784  45.23 0.0009570058    1.521    0.342
        48 -10.4803     93.4723      4.4900   5.0368096580e+01   5.9256787707e+01    0.2149417    0.1756173  27.26 3.849499e-05    1.103    0.094
        49 -12.3374    179.0240      4.3578   3.6261763792e+01   3.9273734854e+01    0.3107494    0.2393309 -84.28 0.0002692307    1.199    0.166
        50  -9.7961    141.2888      7.0632   4.1921972170e+01   4.8056541573e+01    0.1683954     0.164268 -27.38  0.001121522    1.167    0.143
        51 -10.3837     86.1722      5.0644   5.2480530788e+01   6.0755974028e+01     0.450559    0.1858245  -6.52  0.001777278    3.610    0.723
        52 -10.7166     80.6573      4.7210   5.3855047134e+01   6.1920613730e+01     0.285471    0.2175766 -57.19 0.0006519444    1.995    0.499
        53 -10.8400    191.6411      7.0625   3.5640389756e+01   3.6064543239e+01    0.3392515    0.2240109 -14.98  0.001890963    1.975    0.494
        54  -8.9177     56.3140      5.7142   6.2280523736e+01   6.6427871634e+01    0.1007848   0.09913632 -75.48 0.0002271758    1.581    0.368
        55 -10.5141    223.5032      4.0143   3.2161090669e+01   2.9225225714e+01    0.1784681    0.1375365 -89.49 0.0004293133    1.134    0.118
        56 -11.0019    202.8827      3.4703   3.3721946511e+01   3.3832499479e+01    0.2559844    0.1868158  58.01 0.0009373479    1.445    0.308
        57 -11.0430     68.4781      3.4936   5.6992643525e+01   6.4424336367e+01    0.2811186    0.2177409 -42.83  0.001750866    1.780    0.438
        58 -10.3446     64.9581      3.7836   5.8287311977e+01   6.5059850142e+01    0.2564034    0.1917779   7.65 0.0006593728    1.211    0.174
        59 -10.9546    243.2229      3.0458   3.0574628861e+01   2.5211666211e+01    0.1906523    0.1421707 -85.15 0.0005167724    1.165    0.142
        60 -10.4363    118.4095      3.5447   4.4646300250e+01   5.3743302952e+01    0.2220812    0.1683334  55.48 0.0008092224    1.122    0.109
        61 -10.0366    166.0140      1.4276   3.6932021018e+01   4.2616808678e+01    0.1928679     0.108448  71.35 0.0004644518    1.540    0.351
        62  -9.2030     55.4966      9.5377   6.4435447101e+01   6.6171810396e+01    0.1260865    0.0980444  14.28 0.0008092006    1.036    0.035
        63 -10.3587    144.8221      1.3272   3.9617417006e+01   4.7686358328e+01    0.1860431   0.09411203  59.35            0    1.645    0.392
        64 -12.2235     36.1126    165.1671   1.1355942074e+02   3.5840068047e+01    0.6880763    0.4224028  89.44  0.003582664    1.633    0.387
        65 -10.6731    250.0223    246.9820   7.9509324278e+01  -1.1471595661e+01    0.2372066    0.1445508   0.67  0.001109994    1.441    0.306
        66 -11.1558     88.5476    249.7186   1.1093971349e+02   1.1019621593e+01    0.3092355    0.1931713  34.56  0.001153958    1.493    0.330
        67 -10.0911     72.6140    250.2294   1.1406021415e+02   1.3057026058e+01    0.1888899    0.1488761   3.64 0.0008268293    1.992    0.498
        68 -12.1071     28.8979    248.3445   1.2198700399e+02   1.8619375017e+01    0.6915732    0.2863559  65.12   0.00364972    2.326    0.570
        69 -12.5203     20.1311    237.9268   1.2295078804e+02   2.1516018690e+01    0.6109571    0.2566719  49.65  0.003486342    1.892    0.471
        70 -11.6342      4.5871    236.3063   1.2562354252e+02   2.3342885779e+01    0.3624367    0.2803946 -72.04  0.002785558    1.470    0.320
        71 -13.4289      5.9834    245.0297   1.2578986608e+02   2.1560085818e+01    0.9238008    0.6345052  39.35  0.004403634    1.527    0.345
        72 -12.1689     21.9608    248.9082   1.2323726843e+02   1.9249187711e+01     0.414544    0.2345093  44.99  0.001689033    1.489    0.328
        73 -11.2235     17.2727    247.4147   1.2397169089e+02   2.0007824145e+01     0.213518    0.1543954  62.19 0.0008018573    1.070    0.065
        74 -11.0458     36.9667    157.9594   1.1247841898e+02   3.7504468979e+01    0.2816654    0.1895412  63.26 0.0003653198    1.565    0.361
        75 -11.9733     50.6508    161.8973   1.0942345965e+02   3.5044214076e+01    0.6405263    0.4358849  65.32  0.002294779    1.578    0.366
        76 -11.5827     44.5732    162.2219   1.1104349252e+02   3.5654878717e+01    0.3862822    0.1884038 -68.00   0.00140166    1.820    0.451
        77  -9.9188     99.1430    164.8970   9.7177125888e+01   2.7480250948e+01     0.216553    0.1908879  78.88 0.0003549572    1.189    0.159
        78  -8.9793    200.3241    162.6668   7.2860718463e+01   9.1109565875e+00    0.1394247    0.1179751 -78.50 0.0007050752    1.708    0.415
        79  -9.4788      7.9235    162.0000   1.2017219791e+02   3.9102468239e+01    0.1704596   0.07007055  23.58 0.0006838014    2.933    0.659
        80 -12.4146     22.2350    156.8256   1.1613912530e+02   3.9173402059e+01    0.5475775    0.5141213   1.72  0.003748286    1.361    0.265
        81 -10.1128     10.9997    153.3863   1.1863063090e+02   4.0914801887e+01    0.2350412    0.1220276  22.72  0.001231229    2.359    0.576
        82  -9.9803    177.5497    150.9169   7.5038150894e+01   1.5832934987e+01    0.2989649     0.206841  60.42  0.001322225    1.899    0.473
        83  -9.3434    216.3723    155.1719   6.8116065300e+01   7.5263377171e+00    0.1958592     0.122983 -45.17 0.0004391531    1.612    0.380
        84 -10.5688     17.2184    147.0330   1.1637300412e+02   4.1963189471e+01    0.2112808    0.1851202 -18.39  0.000826492    1.453    0.312
        85  -9.1298     41.4279    146.4320   1.0975091033e+02   3.9881234371e+01    0.1349195    0.1163633 -82.59 9.261524e-05    1.054    0.051
        86 -10.0795    207.0712    146.4892   6.7955097171e+01   1.0869157544e+01     0.205928    0.1440896  41.96 0.0005490547    1.526    0.345
        87  -9.8311      9.7523    144.9842   1.1811474910e+02   4.3023478921e+01    0.2154801   0.09416534 -36.18  0.000889671    3.465    0.711
        88  -9.6186    220.3720    143.8007   6.4874520808e+01   8.8368707660e+00    0.2000055    0.1224635 -29.14 0.0005632933    1.567    0.362
        89  -9.5404    157.4641    155.0566   8.0534054975e+01   1.8980953661e+01    0.2299244    0.1279653 -24.45 0.0008090172    2.691    0.628
        90  -9.6276    239.5489    140.5379   6.0870695468e+01   5.9299224594e+00     0.137933    0.1171787 -25.57 0.0001644921    1.007    0.007
        91  -9.4766     82.3700    139.8155   9.7003243769e+01   3.6261924797e+01    0.2163363    0.1253819 -48.52 0.0009406487    1.651    0.394
        92 -10.2791     56.5297    139.6848   1.0442789792e+02   3.9847956630e+01     0.346735    0.2199685  59.99  0.001637358    1.910    0.476
        93 -11.0764      2.6646    137.2021   1.1919764743e+02   4.5368331052e+01    0.2955949    0.1529179 -80.84 0.0009067613    1.629    0.386
        94 -10.5831      9.2301    136.8546   1.1739272289e+02   4.5021608479e+01    0.1866111    0.1408076 -85.84 0.0003866609    1.150    0.130
        95  -9.8734     21.0479    135.3352   1.1393878219e+02   4.4511334121e+01    0.2343695    0.1407798 -62.37 0.0006658289    1.375    0.273
        96  -9.6933    122.9738    135.4739   8.4721103416e+01   3.0221368466e+01     0.232113    0.1538224  40.11 0.0004701758    1.541    0.351
        97 -10.0523    249.4937    133.9888   5.7895341052e+01   5.3007498041e+00    0.2071123    0.1136765 -36.45 0.0005936724    1.536    0.349
        98 -10.3660    108.5179    133.4957   8.8216425195e+01   3.3410979993e+01    0.1533376    0.1475336 -38.77 8.800158e-05    1.014    0.013
        99 -10.4523     55.3479    133.0055   1.0360814201e+02   4.1657788292e+01    0.3074392    0.1823439  41.47 0.0009354724    1.833    0.454
       100 -11.0145     36.4304    130.6455   1.0882561004e+02   4.4305041858e+01    0.4685636    0.3262843 -10.93  0.002461544    1.946    0.486
       101  -9.8278     38.3233    126.6455   1.0761718632e+02   4.5111191907e+01    0.2046635    0.1296362 -84.28  0.001000817    1.727    0.421
       102 -11.2542     73.8612    129.4847   9.7399617655e+01   4.0081720585e+01    0.3195341    0.2720419  65.71   0.00171609    1.316    0.240
       103  -9.7001     59.1684    129.1030   1.0174546928e+02   4.2159536826e+01    0.1845586    0.1548954 -88.60 0.0002551354    1.266    0.210
       104  -9.5130     63.1273    127.6601   1.0026800172e+02   4.2010649304e+01    0.1821811    0.1362701  11.11 0.0004176664    1.638    0.389
       105 -11.8901     13.1299    124.7250   1.1484848172e+02   4.7695380371e+01    0.6186763    0.3208779  46.17  0.002296391    2.250    0.556
       106 -11.2943     21.8002    121.1747   1.1177175869e+02   4.7923304082e+01    0.2783616    0.2124367 -31.03            0    1.469    0.319
       107  -9.5060     26.3239    119.7132   1.1016496003e+02   4.7916009743e+01    0.2044465    0.1451251 -65.51 0.0005155839    1.176    0.150
       108 -10.0692     24.5214    116.9693   1.1029145855e+02   4.8735918548e+01    0.2543508    0.1535503 -50.31 0.0009800548    1.455    0.313
       109  -8.9651      9.3205    129.3053   1.1650996259e+02   4.6842233606e+01    0.1296671   0.07793956 -47.02  0.000356938    1.635    0.388
       110 -10.1146     24.3055    125.9945   1.1172327589e+02   4.6540382202e+01    0.1880256    0.1457748 -65.72  0.000369084    1.072    0.067
       111  -9.7084    220.4246    124.4874   6.0484435651e+01   1.2296936693e+01    0.1441077    0.1273136 -30.06  0.000110798    1.015    0.015
       112 -10.7126      2.8237    123.1272   1.1764491468e+02   4.8735825497e+01    0.2486637    0.1621833 -69.64 0.0007684359    1.201    0.167
       113 -10.1311      1.3887    119.0136   1.1758443090e+02   4.9802861750e+01    0.1897078   0.09721269 -73.76 0.0003498619    1.560    0.359
       114 -10.4443     72.2442    117.2994   9.5264060888e+01   4.3308512789e+01     0.375055    0.1738039 -64.40  0.001386254    2.507    0.601
       115 -10.4083     85.9295    116.8044   9.0903197023e+01   4.1327545654e+01    0.2300302    0.1946144 -27.18 0.0005336671    1.224    0.183
       116  -9.9027    213.9781    115.6757   5.9539151078e+01   1.5175381027e+01    0.1928176    0.1824457  33.29 0.0005048336    1.151    0.131
       117 -10.9062     15.9678    115.8907   1.1278348250e+02   4.9644380047e+01    0.1939687    0.1606239 -63.26 0.0004747693    1.029    0.029
       118 -12.7729     14.1387    109.0718   1.1234163360e+02   5.1418548184e+01    0.7044382    0.3260116 -43.00  0.003381458    2.086    0.521
       119  -9.9457     94.9440    112.4798   8.7083600207e+01   4.0831921077e+01     0.223819     0.150868  37.94 0.0009407255    1.554    0.357
       120 -11.0096    249.3453    112.1824   5.3206779540e+01   8.9160251387e+00    0.2714289    0.1955797 -45.91 0.0006424959    1.251    0.201
       121 -11.3799     55.1444    110.3047   9.9191929136e+01   4.7287195337e+01    0.2815581    0.2582734 -24.49 0.0004597498    1.129    0.114
       122 -11.5822     36.8203    109.7788   1.0509923538e+02   4.9407599135e+01    0.4089349    0.2811581  65.17  0.001235069    1.903    0.474
       123 -10.0621     82.6884    109.3156   9.0073433182e+01   4.3636123273e+01    0.2762433    0.1686442 -59.85 0.0006726048    1.725    0.420
       124 -10.1513      5.5384    106.9437   1.1476952485e+02   5.2457426154e+01    0.2385629    0.1229862 -46.82  0.001257979    1.726    0.421
       125 -10.1920      1.3263    109.1871   1.1639273700e+02   5.2151496716e+01    0.1977254   0.09723084 -69.94 0.0005101752    1.585    0.369
       126 -10.2349      2.4899    105.5055   1.1553791170e+02   5.2965392470e+01    0.2176918    0.1678771 -43.95 0.0005458402    1.263    0.208
       127  -9.7625     70.6938    108.0317   9.3595391118e+01   4.5769288423e+01    0.2146495     0.176585 -50.90 0.0005464723    1.116    0.104
       128 -10.2326     25.3967    107.7012   1.0846885988e+02   5.0920801885e+01    0.2615153    0.1150803 -70.20  0.001130567    2.133    0.531
       129 -10.7446    243.8016    104.6623   5.2334555430e+01   1.1172192245e+01     0.184985    0.1706019 -46.67  0.000642212    1.088    0.081
       130 -10.2678     32.1405    103.7625   1.0549837855e+02   5.1298735657e+01    0.3043069    0.2109252  83.76  0.001576727    1.859    0.462
       131 -10.2108     36.7747    102.6431   1.0370628944e+02   5.1138463652e+01    0.2619255    0.1895298  34.12  0.001459524    1.591    0.372
       132 -10.5319    119.6535    101.6632   7.6935327556e+01   3.8547808103e+01    0.7929966    0.3411523 -27.95  0.002019723    5.102    0.804
       133  -8.9797    223.2790    103.6877   5.5168740237e+01   1.5376078047e+01    0.1408927    0.1027229 -61.89 0.0003426534    1.565    0.361
       134 -10.7051     25.6330    102.1016   1.0738087712e+02   5.2251010872e+01    0.3974664    0.2233727 -87.12  0.001774431    2.398    0.583
       135 -11.6169      2.5202     97.3443   1.1436158858e+02   5.4891435674e+01    0.4697108    0.2401333  83.41  0.002164516    2.692    0.629
       136 -11.3888    143.8586     98.4281   6.9639832651e+01   3.3993668089e+01    0.5040636    0.3938546 -89.72  0.002278827    1.774    0.436
       137  -9.8494     57.4969     96.5248   9.5190242672e+01   5.0284189313e+01    0.2530548    0.1225305 -51.57 6.310751e-05    1.801    0.445
       138 -11.4814     61.7084     98.5509   9.4251798692e+01   4.9261087093e+01    0.5034617    0.3946066  78.19  0.002575994    1.760    0.432
       139 -10.0688     66.4970     98.0757   9.2506302411e+01   4.8716707424e+01     0.205289    0.1642684 -45.52 0.0004067266    1.127    0.113
       140 -11.5882    161.7240     98.3995   6.5431295369e+01   2.9941916897e+01     0.266762    0.2621876 -28.28  0.001218574    1.011    0.011
       141  -9.8645     50.9195     99.2981   9.8128188810e+01   5.0434008675e+01    0.1835765    0.1697411 -20.74 0.0005288792    1.114    0.102
       142 -10.3068     14.1719     97.8781   1.1051786553e+02   5.4092062419e+01    0.1927939    0.1619271 -88.19  0.001234709    1.280    0.219
       143 -10.3027     39.6784     96.0617   1.0129786588e+02   5.2422367114e+01    0.2837415    0.1920989  59.39  0.001421271    2.062    0.515
       144  -9.8304    249.8661     95.8139   4.9568600627e+01   1.1456577935e+01     0.181423    0.1373028 -56.44 0.0004492898    1.302    0.232
       145  -8.9960     48.0029     96.1920   9.8409900158e+01   5.1502987938e+01    0.1662578    0.1484275 -40.02 0.0004847013    1.037    0.036
       146  -9.6316     46.7954     92.7732   9.8018294239e+01   5.2439489005e+01    0.1722827    0.1572256  85.52 0.0003614562    1.315    0.239
       147  -9.8454     27.9002     95.8144   1.0538124593e+02   5.3563847848e+01    0.2108939    0.1630384 -76.53 0.0007454784    1.343    0.256
       148 -10.3654     25.8018     91.4232   1.0522494088e+02   5.4770257363e+01    0.3267713    0.2049104 -69.89  0.001209495    1.555    0.357
       149 -11.0666     20.7713     93.7851   1.0748544686e+02   5.4602654075e+01    0.6301537          nan -57.62  0.001712317    5.297    0.811
       150 -10.7559     21.6982     86.9954   1.0578857465e+02   5.6120487996e+01    0.3230232    0.2044365 -24.55  0.001760353    1.717    0.418
       151 -13.0818    158.6181     89.7214   6.3717625535e+01   3.2320888631e+01    0.6340713    0.5536602  12.01  0.003243368    1.275    0.216
       152 -10.0880    126.1073     92.0780   7.2406487357e+01   3.9200892327e+01    0.4058045    0.2803799 -86.86  0.001543857    2.715    0.632
       153 -10.9383     95.9977     90.0665   8.0604360863e+01   4.5698253999e+01    0.3650143    0.2532445  12.54  0.001627212    1.839    0.456
       154 -10.2494     37.5291     90.5258   1.0080526257e+02   5.3934368995e+01    0.3544741    0.2059529 -19.55   0.00165327    2.207    0.547
       155 -11.4344     11.3797     90.8449   1.1025198119e+02   5.5922366534e+01    0.3069015     0.204981  11.22 0.0005214289    1.810    0.448
       156 -10.4368     82.9641     88.8537   8.4447134623e+01   4.8263808516e+01    0.2256942    0.1845488 -16.47 0.0005288086    1.262    0.207
       157 -10.9539     78.5116     87.2929   8.5479181269e+01   4.9339673178e+01    0.4539723    0.2301518 -54.10  0.001848852    2.090    0.522
       158 -11.0213     46.7051     88.0808   9.6890270804e+01   5.3534710880e+01    0.2922214    0.2569889 -89.44  0.001170902    1.406    0.289
       159 -10.4091     43.6809     83.3192   9.6780739307e+01   5.4953176391e+01      0.25852    0.1758207  46.53  0.001340607    1.885    0.469
       160 -10.4375     65.0402     87.4772   9.0171582036e+01   5.1343732439e+01    0.3016649    0.2020382  27.08  0.001392061    1.614    0.380
       161 -10.5252     67.4834     84.0312   8.8333460830e+01   5.1755782278e+01    0.3565301    0.2084411 -34.46  0.001618626    1.723    0.420
       162 -12.6428    165.9803     83.7231   6.0444898973e+01   3.1703965729e+01    0.9027065    0.6604367  70.61    0.0042208    1.604    0.376
       163 -11.8672      5.5316     83.6560   1.1105592054e+02   5.7916872385e+01    0.7592168    0.4060298 -76.35  0.003938201    1.874    0.466
       164 -12.6141      3.5576     64.4786   1.0796841052e+02   6.2300371369e+01    0.8645635    0.3375638 -60.01  0.004237395    1.941    0.485
       165 -11.6091      5.1282     58.7207   1.0596558574e+02   6.3453953670e+01    0.3175918    0.2517976  55.76 0.0007781838    1.805    0.446
       166 -11.8011     19.8922     61.8812   1.0049105294e+02   6.1836641439e+01    0.5898493    0.3194089 -54.44  0.002139869    1.544    0.352
       167 -12.2946     13.2259     75.9787   1.0663317827e+02   5.9217424534e+01    0.4930004     0.253113 -48.52 0.0009936905    1.513    0.339
       168 -11.6704      8.4740     73.9791   1.0805382603e+02   5.9948696887e+01    0.4803812    0.2663672  -7.91  0.002586427    2.180    0.541
       169 -13.6463     16.2750     67.6954   1.0350303424e+02   6.0849536461e+01     0.397024    0.2825638 -44.86  0.000742927    1.111    0.100
       170 -11.4082     21.8705     66.6576   1.0094607593e+02   6.0665301240e+01    0.3555963    0.2225927  47.73  0.001172798    2.338    0.572
       171 -11.0447    115.2115     84.1793   7.3068840476e+01   4.3117655682e+01    0.3515323     0.262856  32.42 0.0005985556    1.382    0.276
       172 -11.4309     30.3621     81.6912   1.0137150960e+02   5.6633029402e+01    0.2808942    0.2332896  -5.71  0.001407901    1.293    0.226
       173 -10.5695     35.1482     79.3792   9.8981383867e+01   5.6714032441e+01    0.3296474    0.1937211 -34.87  0.001311635    1.613    0.380
       174 -10.2078     74.2613     82.0081   8.5369332910e+01   5.1164161815e+01    0.2996162    0.1922935 -26.34  0.001379464    1.717    0.417
       175  -9.8089    146.4767     81.0052   6.3983564625e+01   3.6766826394e+01    0.2369499    0.1496675 -35.73  0.001029738    1.591    0.371
       176 -11.2529     21.4339     81.4606   1.0469452830e+02   5.7412113970e+01    0.6401463    0.1790126 -41.93  0.002325556    3.344    0.701
       177 -10.7837     18.5450     79.4339   1.0534326162e+02   5.8082602566e+01     0.231879    0.1653221 -38.47 0.0007900014    1.225    0.184
       178  -9.8040     86.5053     80.5067   8.0767582589e+01   4.9435047170e+01    0.1474126    0.1359282 -17.84 0.0008106088    1.012    0.011
       179  -9.1349     71.2443     79.6166   8.5701593643e+01   5.2145432151e+01    0.1368133    0.1118884 -74.87 0.0003102843    1.648    0.393
       180 -11.2978     61.0223     78.5536   8.9047766371e+01   5.3866980573e+01    0.3461201    0.2313962 -51.80 0.0003089612    1.451    0.311
       181 -12.2381     62.4452     71.5058   8.6372225815e+01   5.5155649301e+01    0.5178599    0.3210444  -6.60  0.001158624    2.232    0.552
       182 -10.5772    109.0687     92.6677   7.7395519978e+01   4.2625651721e+01     0.454524     0.194286 -47.25  0.001631877    2.357    0.576
       183 -12.7057     44.7396     75.2954   9.4207302771e+01   5.6616773111e+01    0.2611076    0.2530484 -32.32 0.0005961567    1.192    0.161
       184 -11.7192     38.7654     68.2892   9.4536135201e+01   5.8773652901e+01     0.611532     0.436281  37.07   0.00232804    1.686    0.407
       185 -10.2591     31.6793     67.9806   9.7301483284e+01   5.9542491813e+01     0.222774    0.1696174 -12.56 0.0003722149    1.318    0.241
       186  -9.7150     33.0496     64.4837   9.5740074393e+01   6.0153942707e+01     0.182772    0.1534269 -24.20 0.0005319728    1.071    0.066
       187 -10.6346     91.1503     75.4665   7.7657369039e+01   4.9621140198e+01    0.2864706    0.2004514 -40.04  0.001396366    1.379    0.275
       188 -10.1580     74.5472     75.2621   8.3195489640e+01   5.2538192806e+01    0.2827945    0.1933743 -19.48 0.0008087546    1.635    0.388
       189 -11.4496    207.8748     73.2898   5.0197284258e+01   2.3746779912e+01    0.2371259    0.2120169 -44.86 0.0002754983    1.061    0.058
       190 -10.1377    145.6915     74.0281   6.2088013276e+01   3.8204930126e+01    0.2210465    0.1913933 -33.53  0.001144225    1.161    0.139
       191 -10.0802    137.7115     73.7684   6.3903609861e+01   4.0108040262e+01     0.275759    0.1988632  -7.95 0.0007106995    1.783    0.439
       192  -9.7030     84.6776     74.0265   7.9327324054e+01   5.1078931838e+01    0.2065681    0.1801495 -27.13 0.0003308497    1.071    0.067
       193 -10.7309     47.8406     56.4787   8.7112036107e+01   6.0128077733e+01     0.272467    0.2099904  -3.02  0.001596485    1.262    0.208
       194 -11.1754     51.7706     62.6428   8.7601700579e+01   5.8414039929e+01    0.3250834    0.2940243 -53.10  0.001542032    1.314    0.239
       195 -10.6960     53.9571     73.7635   9.0245741414e+01   5.5835437514e+01    0.2496415    0.2197759 -23.17 0.0009035118    1.033    0.032
       196 -11.7107     50.3021     68.6983   9.0105554093e+01   5.7364075975e+01    0.3642078    0.2432776 -43.27 0.0007307026    1.318    0.241
       197 -10.1838     21.9921     73.7336   1.0268519427e+02   5.9108123736e+01    0.1793437    0.1453788 -43.96 0.0006649307    1.009    0.008
       198 -10.4916    102.4945     73.0711   7.3316997204e+01   4.7899932491e+01    0.2768117    0.2093629  58.70 0.0009053696    1.611    0.379
       199  -9.7019    128.9998     71.5310   6.5388251663e+01   4.2499067745e+01    0.2227871      0.14566  48.14 0.0003698903    1.512    0.339
       200 -11.3446     77.5662     69.8912   8.0410070675e+01   5.3126705378e+01    0.4573162    0.3351029  25.07  0.001979586    1.403    0.287
       201 -10.9773     77.1316     64.3316   7.8699215254e+01   5.4277921104e+01    0.4367204    0.2861746 -44.97  0.002159293    1.544    0.352
       202  -9.0818    194.6769     69.6549   5.1330295538e+01   2.7339319905e+01    0.1448696    0.1123359  17.40 0.0007050153    1.736    0.424
       203  -9.1565    167.7400     69.7130   5.6132411986e+01   3.3701208506e+01    0.1406282    0.1148044  15.21 0.0001638483    1.487    0.327
       204  -9.2993    230.3298     68.6996   4.5997036097e+01   1.9566285093e+01    0.1397906   0.09268757 -65.57 0.0004054638    1.645    0.392
       205  -9.9767     31.5023     92.9432   1.0350822617e+02   5.3931101000e+01    0.1980213    0.1140468 -59.95 0.0003673751    1.485    0.327
       206  -9.4226    110.4659     68.5957   6.9490523100e+01   4.7090652959e+01    0.1488886    0.1362214  10.79 -5.131322e-06    1.052    0.049
       207 -11.9809     93.7832     66.7208   7.3931929441e+01   5.0807761461e+01    0.3498423    0.2742656  11.47 0.0008889463    1.356    0.263
       208 -10.0209     99.5243     65.7020   7.1787903855e+01   4.9867798203e+01    0.2512841    0.2092947 -24.04 0.0008990461    1.169    0.144
       209 -10.3610     10.9289     62.5822   1.0445311005e+02   6.2300375464e+01    0.2139899    0.1310447 -46.32 0.0005883133    1.260    0.206
       210  -9.5844    201.8381     61.8544   4.8220283942e+01   2.6887886118e+01    0.1914997    0.1540722 -72.86 0.0005384809    1.281    0.219
       211  -9.2910    109.0000     62.0099   6.7717354292e+01   4.8565114830e+01     0.239683   0.08208182 -37.23 0.0008019393    2.939    0.660
       212 -10.9905     85.4076     60.2828   7.4458526382e+01   5.3561420554e+01    0.4502466    0.2901955   6.05  0.001992268    2.117    0.528
       213 -10.2416    119.8823     61.2645   6.4456646213e+01   4.6321493415e+01    0.3491809    0.1933967  52.01 0.0009186229    1.821    0.451
       214  -9.9553     98.1635     60.3451   7.0376651313e+01   5.1093450106e+01    0.2304791    0.1823582 -21.17 0.0002567338    1.256    0.204
       215 -10.4692     44.9971     51.0409   8.6388872917e+01   6.1517798607e+01    0.3615077    0.1822237 -41.45   0.00176479    1.748    0.428
       216 -10.6834     41.9568     37.1330   8.2437728060e+01   6.4367989709e+01    0.6721825    0.4232844  33.16  0.003803458    1.705    0.414
       217 -10.9791     29.1975     60.6862   9.6221183887e+01   6.1308834975e+01    0.5266853    0.2610134  19.41  0.002610393    2.254    0.556
       218 -12.2330     26.6345     49.1038   9.3690292665e+01   6.3870120578e+01     0.826267    0.4608184 -46.59  0.003551373    1.515    0.340
       219 -12.4009    226.3564    245.4633   8.3435899023e+01  -8.2978565017e+00    0.6395649    0.3351057   1.86  0.003147069    2.505    0.601
       220 -11.8808     33.6363     49.8653   9.0846379471e+01   6.3035643314e+01     0.428242    0.2694751 -35.16  0.001247137    1.337    0.252
       221  -9.8059    183.1980     60.3677   5.0742677000e+01   3.1482638246e+01    0.1925825    0.1333177  74.41 0.0003894586    1.574    0.365
       222 -10.2699    155.2468     60.5437   5.5952644481e+01   3.8173966796e+01    0.2033002    0.1328614  45.57 0.0004106622    1.535    0.348
       223 -11.1920     58.8333     58.3945   8.3403304593e+01   5.8279314321e+01    0.3272372     0.257695 -65.74  0.001770047    1.818    0.450
       224 -11.1026    147.2976     56.7604   5.6462001741e+01   4.0668381970e+01    0.2626514    0.2466672 -69.89 0.0003950428    1.132    0.117
       225 -11.5054     75.2026     56.0694   7.6486332657e+01   5.6129077642e+01    0.2400208    0.2015615 -28.39 0.0002825325    1.143    0.125
       226 -10.0257     98.8746     55.8875   6.8600447822e+01   5.1709577226e+01    0.2298007    0.1822776  15.18 0.0007002704    1.292    0.226
       227 -11.0600     62.4256     53.4887   8.0276136753e+01   5.8660008839e+01    0.4889538    0.1445998 -41.04  0.001728787    3.168    0.684
       228 -10.1417    131.9766     54.8204   5.9293631893e+01   4.4593183319e+01    0.3907009    0.1665503  44.92  0.001476918    2.314    0.568
       229 -10.9345      6.9874     41.1550   1.0025668641e+02   6.6919440664e+01    0.2414456       0.1304 -43.47 0.0005300285    1.397    0.284
       230 -10.5427     11.2405     44.2899   9.9211632106e+01   6.6035605025e+01    0.2558489    0.2320661 -58.98   0.00108724    1.385    0.278
       231 -10.6541      4.1426     46.2043   1.0311088197e+02   6.6088357735e+01    0.3227076    0.1323755 -51.44  0.001007585    1.784    0.439
       232 -11.1460     12.6828     51.7337   1.0078465506e+02   6.4454237549e+01    0.5009961    0.2394374 -60.07  0.001738452    1.982    0.495
       233 -11.6071      6.8238     51.6341   1.0339290908e+02   6.4838107349e+01    0.4140762    0.2679926 -18.13  0.001444551    1.508    0.337
       234 -10.7725    119.6665     52.1515   6.1454159010e+01   4.7830364993e+01    0.4021021    0.3042532  65.75  0.001432164    1.523    0.343
       235 -11.8042    105.1253     52.6027   6.5585653586e+01   5.0945693008e+01    0.3146723    0.2437157  35.85 8.466586e-05    1.233    0.189
       236 -11.3241     88.1457     51.5116   7.0410802980e+01   5.4557627856e+01    0.3059081     0.243685  11.41 0.0008359012    1.245    0.197
       237 -10.0606    237.9828     51.0322   4.1118532764e+01   2.0510224728e+01    0.1989603    0.1684411 -59.02 0.0004458696    1.006    0.006
       238 -11.6780    129.7092     49.1086   5.7954488726e+01   4.5979605338e+01    0.5727235    0.3881471 -14.94  0.002504889    1.744    0.427
       239 -11.6845     78.1468     45.9274   7.1691034339e+01   5.7328985568e+01    0.5797726    0.2582019 -40.67  0.001080302    2.313    0.568
       240 -10.2747     54.0295     49.8047   8.2228168694e+01   6.0553032869e+01    0.3432875    0.1521595  26.41  0.001459698    2.552    0.608
       241 -10.1614    151.9614     47.7842   5.2748604228e+01   4.0863838409e+01    0.2411268    0.1455273  34.74 0.0005443858    1.990    0.497
       242 -10.5254    112.8431     47.2042   6.1537414403e+01   5.0100443309e+01    0.3238735    0.2646962 -78.04  0.001681852    1.697    0.411
       243  -9.3962    119.7148     47.3192   5.9790412842e+01   4.8542627750e+01    0.1377183    0.1128232 -70.24 0.0006999386    1.591    0.371
       244 -10.5231    142.7838     45.5849   5.3914897505e+01   4.3383258632e+01    0.2933065    0.2304008 -67.94  0.001513276    1.533    0.348
       245 -10.1505     57.2305     46.5702   7.9735811349e+01   6.0664298249e+01    0.1818956    0.1176016  19.09 0.0004806729    1.598    0.374
       246 -10.4315     97.2764     31.0979   5.9906985633e+01   5.5678665165e+01    0.3058401    0.2112589  36.49  0.001634166    1.328    0.247
       247 -10.9644    101.9927     28.9986   5.7800409816e+01   5.4927735934e+01    0.3832224    0.2849756  82.37 0.0007908896    1.974    0.494
       248 -10.7352     91.9273     42.6135   6.5896144180e+01   5.5205088198e+01    0.3978138    0.2458883 -38.59  0.001956827    1.718    0.418
       249 -11.2676    100.8726     37.3346   6.1253234211e+01   5.4099632454e+01    0.4920799     0.297613  11.28  0.001164836    2.311    0.567
       250 -10.2720     96.2199     42.1275   6.4403140434e+01   5.4402519634e+01    0.3274583    0.2153108 -12.91  0.000953058    1.727    0.421
       251 -10.9238     95.9009     36.4388   6.2350420921e+01   5.5268040149e+01    0.4073727    0.2738676 -46.81   0.00117446    1.853    0.460
       252 -10.5851     51.0295     45.0110   8.1654151318e+01   6.1820008626e+01    0.1984283    0.1637345 -11.84 0.0003553774    1.016    0.015
       253  -9.6445     73.7690     51.1932   7.5218485415e+01   5.7227364460e+01    0.1960467    0.1474721  -1.70 0.0004368756    1.360    0.264
       254  -9.8447     23.8011     41.5708   9.2395583996e+01   6.5561542235e+01    0.1812698     0.153573 -45.32  0.001212802    1.320    0.243
       255 -10.0156    138.4815     41.0387   5.3356602849e+01   4.5030913801e+01    0.2024127     0.140396 -28.86  0.000581536    1.530    0.346
       256 -11.0854     81.2967     35.1956   6.6431230855e+01   5.8355185832e+01    0.5043775    0.2197526 -25.97  0.002084491    2.556    0.609
       257 -12.2870     68.0922     38.5875   7.2427343615e+01   6.0242633678e+01    0.8365832     0.436751  -7.18  0.003079453    3.599    0.722
       258 -10.1013     71.3561     41.2533   7.2290635845e+01   5.9270491811e+01    0.2021421    0.1272815 -28.78 0.0002860184    1.536    0.349
       259 -10.3613     73.4874     37.5360   7.0048640246e+01   5.9460855781e+01    0.2434531    0.1736062 -23.14 0.0006806715    1.351    0.260
       260 -11.8546     77.3069     33.8996   6.7253077489e+01   5.9288051205e+01     0.714502    0.4017501   1.87  0.002984243    2.757    0.637
       261 -11.6073     52.4992     39.6347   7.8950930359e+01   6.2525052190e+01    0.5136636    0.3560547  27.56   0.00195091    1.425    0.298
       262 -11.7815    235.0108    248.7796   8.2421485811e+01  -9.8373416769e+00    0.4965573    0.2721316  -0.16  0.002734276    2.026    0.506
       263 -10.6096     50.4588     27.5284   7.4746156023e+01   6.4699138799e+01    0.2755024    0.1715114  12.85  0.001280667    1.670    0.401
       264 -11.9970     28.3713     37.9826   8.8939824015e+01   6.5774247969e+01    0.5304217    0.2893583  17.42  0.001305393    1.929    0.482
       265 -11.9300     24.5495     35.0252   8.9619100087e+01   6.6676299270e+01    0.4351316    0.2269327  -1.30 0.0003309391    2.416    0.586
       266 -10.7136    152.5252     39.0571   4.9970111080e+01   4.1903125324e+01     0.255277    0.2160136  70.80 0.0003934552    1.153    0.133
       267 -10.6372     48.4230     31.5314   7.7326821881e+01   6.4397530219e+01    0.3667185    0.1843487  33.44 0.0006198455    1.968    0.492
       268 -10.4691    222.9448     38.3112   3.9853353317e+01   2.5412731005e+01    0.3109474      0.16301  72.08  0.001538718    1.951    0.487
       269  -9.4212     85.8941     38.7773   6.6337510895e+01   5.6959628632e+01    0.1671278    0.1034148  40.56 0.0003229048    1.521    0.343
       270 -10.7948    171.5451     36.7371   4.6069498121e+01   3.7576041164e+01    0.3106804    0.1819684  49.84 0.0007416614    1.708    0.414
       271  -9.8818      1.9688     37.0916   1.0143613248e+02   6.7992417949e+01    0.1971331   0.09996453 -29.26  0.001117917    1.699    0.411
       272  -9.5002    134.6187     35.7674   5.2444112793e+01   4.6633437135e+01    0.1892965    0.1271836 -39.67 0.0008984744    1.600    0.375
       273 -11.4847     22.2051     25.8477   8.7073225389e+01   6.8464394544e+01    0.3362789    0.2651667 -26.97  0.001617061    1.159    0.137
       274 -11.3342     17.1873     31.3115   9.1795341547e+01   6.7998140202e+01    0.6044986    0.2890004   9.84  0.003099737    2.390    0.582
       275 -10.2950      9.3314     35.2867   9.7177238343e+01   6.7881938133e+01     0.248353    0.1475309 -23.01 0.0007296665    1.488    0.328
       276 -11.4770      8.0681     31.4738   9.6471706962e+01   6.8668339742e+01    0.3130838    0.2233223 -15.29  0.001084444    1.220    0.180
       277 -10.0408    107.1735     35.3576   5.8790969579e+01   5.2997978436e+01    0.1901448    0.1266581  61.66 0.0004536787    1.662    0.398
       278 -11.3201    234.5369     31.5576   3.7190354326e+01   2.3774446442e+01    0.3954622    0.2682801  29.65  0.001394693    2.529    0.605
       279 -10.1824    165.9480     31.8390   4.5543038809e+01   3.9535903821e+01    0.2650845    0.1845072 -88.96  0.001345664    1.616    0.381
       280  -9.4804    139.1849     30.7730   4.9888015440e+01   4.6149954715e+01    0.1778785    0.1485469  26.78 0.0005018292    1.267    0.211
       281 -10.1371     89.4315     31.3886   6.2329613701e+01   5.7266722870e+01    0.2180316    0.1751122  41.17 0.0005092216    1.186    0.157
       282 -11.1848    131.1552     26.6115   5.0110769713e+01   4.8546398290e+01    0.4214067    0.3575096  65.43  0.001552192    1.147    0.128
       283 -11.9087    232.7899    245.2757   8.2247079950e+01  -9.1138523329e+00    0.5296369    0.1919322 -27.75  0.002374546    3.110    0.678
       284  -9.5115    109.3108     29.6938   5.6152008008e+01   5.3233626020e+01    0.1499186    0.1227611  28.26 0.0003002342    1.149    0.129
       285 -10.4145    111.7316     26.5113   5.4384435140e+01   5.3063940628e+01    0.4890136    0.1612004 -25.17  0.001763085    3.447    0.710
       286  -9.8088     68.7521     22.0243   6.5244643461e+01   6.2415236805e+01     0.272117    0.1445334  44.41 0.0009876949    1.785    0.440
       287 -10.5063     59.2183     21.7525   6.8656768886e+01   6.4105988765e+01    0.2069656    0.1446962  33.75 0.0006862259    1.331    0.249
       288 -10.5917     62.6162     28.5038   7.0305933222e+01   6.2637492548e+01    0.2495579    0.2015853  15.56 0.0008463049    1.080    0.074
       289 -10.6836     62.5747     23.7030   6.8239606541e+01   6.3288363596e+01    0.3423075     0.217077   3.27  0.001662139    1.726    0.421
       290 -11.0193     69.7800     26.4176   6.6772203472e+01   6.1673979370e+01    0.3481972    0.2161954  22.72  0.001317117    1.619    0.382
       291 -11.5169    196.3747     26.0280   3.9861770174e+01   3.2943821247e+01    0.3909955    0.2630721  87.20  0.002130843    1.478    0.324
       292  -9.0119    121.6615     27.7169   5.2508630020e+01   5.0650673540e+01     0.144596   0.09357656  32.41 0.0007012231    1.627    0.385
       293 -11.2239      9.3206     24.9522   9.3359834323e+01   6.9731992599e+01    0.4533253    0.1948996  19.85  0.001974456    2.431    0.589
       294 -12.9121     75.1962    238.5881   1.1250355718e+02   1.4895158749e+01    0.7214633    0.5065283 -73.00  0.004548705    1.515    0.340
       295 -10.2063    195.5327    238.8384   8.8151875879e+01  -3.0725077114e+00    0.2572946    0.1854052  20.49  0.001585316    1.171    0.146
       296 -10.5325    243.8775    237.3553   7.8967236317e+01  -9.5251254494e+00    0.1935833    0.1442199 -26.23 0.0009208436    1.405    0.288
       297  -9.6384    204.2970     26.6569   3.9119317195e+01   3.1036123428e+01    0.1387523   0.08528777 -63.50 0.0002720533    1.668    0.400
       298  -9.5740    118.8195     25.7679   5.2458814113e+01   5.1530014769e+01    0.2013844    0.1584379  32.92 0.0004334784    1.222    0.181
       299  -9.7829      1.4578     25.1159   9.7621140399e+01   7.0232201484e+01    0.2888805   0.08770776 -52.44  0.001194699    2.650    0.623
       300  -9.8328    214.1799     25.6071   3.7823736793e+01   2.8918726160e+01    0.1815961    0.1048637  59.89 0.0009518226    1.749    0.428
       301 -10.8055    186.2143     23.7572   4.0498714093e+01   3.5595975551e+01    0.3428726    0.2201715  20.04  0.001617624    2.539    0.606
       302 -10.6060     29.5829    232.9023   1.2090401729e+02   2.1510314736e+01    0.2717498    0.1627634  73.53  0.001704145    1.462    0.316
       303 -10.1307    159.8206    236.1424   9.4857236366e+01   2.7805297840e+00    0.1761257    0.1386987   7.00 0.0005043161    1.317    0.241
       304 -10.1538     97.9471     23.8047   5.6896143100e+01   5.6408999349e+01    0.3325759    0.1722652  44.99  0.001018929    1.705    0.413
       305 -10.0687    164.9724     23.0151   4.3151247203e+01   4.0782110575e+01      0.19803    0.1793348  78.83            0    1.012    0.011
       306 -11.1047     30.0491     32.9692   8.6190381181e+01   6.6468744751e+01    0.3408898    0.2067302  11.72 0.0007360742    1.683    0.406
       307  -9.5547    227.1376     22.3518   3.5850280080e+01   2.6453444459e+01     0.172801     0.101715 -89.42 0.0004887325    1.726    0.421
       308 -10.5718    155.9469     21.9848   4.4214882833e+01   4.3082082344e+01    0.1993248    0.1795978  73.27 0.0003316471    1.021    0.021
       309  -9.6325     81.1661     22.2190   6.1170268032e+01   6.0047351070e+01    0.1598817    0.1506811  51.19 0.0003777222    1.309    0.236
       310 -10.4131     88.8787    241.2674   1.1003131952e+02   1.2524098083e+01    0.2125683    0.1516395 -33.28  0.001220304    2.113    0.527
       311 -12.0797     36.9231    243.7979   1.2025761137e+02   1.8592366420e+01    0.6491098    0.3044072  89.88  0.002931167    2.266    0.559
       312 -10.0669    177.5006    234.9955   9.1101538255e+01   2.2947348497e-01     0.173878    0.1009513 -16.69 0.0008095109    2.452    0.592
       313 -11.1362    154.4780    227.4879   9.4660350088e+01   5.0987989165e+00    0.2785031    0.1949728  55.48  0.001499838    1.707    0.414
       314 -10.1786     24.1058    232.4675   1.2189911046e+02   2.2174061141e+01    0.1859896    0.1590601 -69.48 0.0006747463    1.419    0.295
       315 -10.1511     38.2247    232.7912   1.1925824395e+02   2.0583586507e+01    0.1713245    0.1244032  68.09  0.000631524    1.121    0.108
       316  -9.4988    169.7186    229.3187   9.1787054754e+01   2.3638473312e+00    0.1192755    0.1004827  62.92 0.0003228404    1.583    0.368
       317  -9.5015    144.7845     21.4114   4.5870510147e+01   4.5845355046e+01    0.1906213    0.1094108  52.98  0.000639464    1.560    0.359
       318  -9.8658    121.0941     20.4376   5.0076253020e+01   5.1578589637e+01     0.231611      0.17543  15.57  0.001287753    1.455    0.313
       319 -10.4305     89.6057     20.8622   5.8061465896e+01   5.8497279292e+01     0.240161    0.1501651  39.62 0.0007286018    1.416    0.294
       320 -10.1588    139.9929     19.8314   4.6204103599e+01   4.7163577822e+01    0.2843858    0.1630709  44.78 0.0007695693    1.688    0.407
       321  -9.4888    142.7625     16.9755   4.4814546256e+01   4.6785849070e+01    0.1733263    0.1509507 -71.33 0.0004113892    1.251    0.200
       322  -9.4014    114.4746     20.5031   5.1550862506e+01   5.3098753963e+01    0.1353195    0.1182572  39.63 9.792871e-05    1.016    0.016
       323  -9.6881    190.4996    226.4873   8.7122578279e+01  -4.2675438717e-01    0.2060333    0.1136847 -28.14  0.000716184    2.034    0.508
       324 -11.0211    120.3704    226.4807   1.0174419096e+02   1.0683186949e+01    0.2295111    0.1678182 -63.52 0.0008757522    1.576    0.366
       325 -10.0493     65.9763    226.2091   1.1319163729e+02   1.8553300715e+01    0.1981889    0.1649524 -85.01 0.0006646515    1.190    0.160
       326  -9.6848     17.5061    227.5281   1.2282738883e+02   2.3827369829e+01    0.1142829   0.08619237  72.03 0.0002610394    1.015    0.015
       327 -10.1249     39.9928     14.7633   7.3454905294e+01   6.7962123802e+01    0.3158916    0.1651104  33.23  0.001470674    1.806    0.446
       328 -10.8488      4.5354    226.1762   1.2513529630e+02   2.5330371457e+01    0.2822809    0.1164752  50.07  0.001524111    1.957    0.489
       329  -9.2226     54.6659     19.2578   6.9319238963e+01   6.5170725655e+01    0.1056187    0.1003942  51.93 0.0004484458    1.570    0.363
       330 -11.5113     21.1080    222.3519   1.2182802619e+02   2.4516131018e+01    0.2601762    0.1715915  86.92  0.001076534    1.286    0.222
       331 -10.2222     60.0445     16.7516   6.6078957883e+01   6.4582816789e+01    0.2168163    0.1586743   1.32   0.00026658    1.243    0.196
       332  -9.8950     62.6571     14.3019   6.3986364419e+01   6.4410413043e+01    0.2242791     0.116897  49.04  0.001132425    1.986    0.497
       333  -9.3480    126.5531    221.5407   9.9732559653e+01   1.0658444952e+01    0.1331992     0.116816  48.04 1.457756e-05    1.072    0.067
       334 -10.6461    177.9644     15.4902   3.9325125242e+01   3.8449316088e+01    0.2318929    0.1719374 -65.18 0.0003555231    1.366    0.268
       335  -9.5875    123.6920    221.6670   1.0036958745e+02   1.1087138231e+01    0.2143289    0.1444511  -8.65 0.0009929854    2.499    0.600
       336 -10.3646    109.5301    242.8831   1.0604156917e+02   9.2754553706e+00    0.2562807    0.1661848  61.88 0.0008086869    1.694    0.410
       337  -9.4379     41.6909    220.6987   1.1765892350e+02   2.2649225889e+01    0.1060978   0.09083766 -43.15 0.0007013485    1.602    0.376
       338  -9.3999    174.4859    219.7578   8.9250453780e+01   3.2177014982e+00    0.2963187   0.09816626  28.39 0.0008943936    4.458    0.776
       339 -10.2071    203.8040     14.8621   3.6327574738e+01   3.2469695145e+01    0.1719762    0.1616967  75.88 0.0004530475    1.185    0.156
       340 -11.5562      9.6189    217.1911   1.2370584155e+02   2.6685895564e+01    0.3125215    0.1715878  61.84  0.001930395    1.532    0.347
       341  -9.7000    148.7326     14.0525   4.2938687684e+01   4.5632061647e+01     0.174151    0.1614349  58.02  0.001104427    1.062    0.059
       342  -9.8312     37.9744    217.5140   1.1815596861e+02   2.3733904306e+01    0.1692815    0.1081784  38.09 0.0007313532    1.553    0.356
       343 -11.4749     30.0661    215.9203   1.1962846982e+02   2.4927437460e+01    0.3246049    0.2509049  16.25  0.002114304    1.823    0.451
       344 -11.8898    235.9890    214.4901   7.6352717997e+01  -5.3655068832e+00    0.4106559    0.2248286 -23.78  0.001478988    1.738    0.425
       345 -10.7621     21.5126    212.6798   1.2110685693e+02   2.6488925205e+01    0.3231858    0.1521842  56.89  0.001749638    1.901    0.474
       346  -9.9370     26.2698     14.1590   7.9733332868e+01   6.9807243517e+01    0.1742591    0.1168705 -10.08 0.0002626785    1.257    0.204
       347  -9.9772     30.9752     12.7938   7.6733702747e+01   6.9423741723e+01     0.179905     0.124342   0.11 0.0004567784    1.227    0.185
       348  -9.3066    194.6633    215.3036   8.4367145410e+01   7.2464132970e-01    0.1213807    0.1055096  62.27 0.0002209718    1.668    0.400
       349  -9.2684     50.3094    240.3179   1.1750782157e+02   1.7708408142e+01    0.1008179     0.090229 -35.16  0.000448194    1.638    0.390
       350 -10.0997    208.9555    212.0154   8.0956546940e+01  -9.8939849665e-01    0.2026652    0.1648038   1.48 0.0005022886    1.056    0.053
       351  -9.5731     76.3222    212.3097   1.0954004804e+02   2.0071658559e+01    0.1206584    0.1012134 -23.35 0.0003621605    1.648    0.393
       352 -12.4112      4.4309    208.6693   1.2421072548e+02   2.8927965536e+01    0.5646665    0.3114482 -83.02  0.003488702    1.512    0.338
       353 -10.1121    230.2916     10.3175   3.2986064968e+01   2.7121160205e+01    0.1067336   0.09025123  42.48 0.0002210864    1.600    0.375
       354 -10.1624    107.9932    209.5071   1.0212893722e+02   1.6003671651e+01    0.2025408   0.09651268  54.59 0.0008101237    2.524    0.604
       355  -9.5202    184.8259    208.3753   8.5134527939e+01   3.4916988084e+00      0.19362    0.1154038  24.95 0.0003983217    1.687    0.407
       356 -10.8112     94.8556     22.7762   5.7340946042e+01   5.7184100770e+01     0.379585    0.2562369   9.48    0.0020021    1.654    0.395
       357  -9.2543    188.2389    205.3513   8.3882840176e+01   3.4520940249e+00    0.1363169   0.09610745  -9.21 0.0003736851    1.574    0.365
       358 -11.0201     19.8666    201.8937   1.2067665388e+02   2.8969685112e+01    0.4893345    0.1396921 -73.54  0.002017213    3.019    0.669
       359 -10.3492    175.4152    202.7033   8.6081267835e+01   6.0859079886e+00    0.2377183    0.1990416  32.85 0.0005166554    1.152    0.132
       360  -9.4450    243.3295    202.2736   7.2786368784e+01  -4.6177436888e+00    0.1289867   0.08289286   0.21 0.0002578307    1.589    0.371
       361 -10.5340     10.8880    208.4094   1.2293291200e+02   2.8407388197e+01    0.2365877    0.1716431 -38.23  0.001002332    2.106    0.525
       362  -9.1970    223.6172    201.3270   7.6173736071e+01  -1.5595003998e+00    0.1185318     0.107984  84.46 0.0007015599    1.855    0.461
       363  -9.1316     34.3310    201.2927   1.1757739685e+02   2.7633685063e+01    0.1127998   0.09081697 -43.46 0.0007022399    1.631    0.387
       364  -9.4843    215.5069    194.5416   7.6406971463e+01   8.1424936191e-01    0.1377163    0.1136425  -2.50 4.836548e-05    1.054    0.051
       365 -11.1337     16.2778    193.3978   1.2080340885e+02   3.1182211784e+01    0.2640176    0.2346162  -7.29  0.001068481    1.629    0.386
       366  -9.5500    211.4674    188.4833   7.5999488512e+01   2.4966814700e+00    0.1392664    0.1180638  -4.31 0.0008093729    1.029    0.028
       367  -9.6204      2.1202    187.8409   1.2340797855e+02   3.3630812932e+01    0.1540442    0.1200524 -66.72 0.0006592249    1.336    0.251
       368 -11.1677     16.5330    184.5540   1.2006500100e+02   3.3153265403e+01    0.4143607     0.177229 -77.40  0.002036544    2.013    0.503
       369  -9.9853     14.7073    180.6585   1.2015817747e+02   3.4205736131e+01    0.1910194    0.1493169 -65.25 0.0006006138    1.291    0.225
       370  -9.4718     61.6377    184.8292   1.0964728268e+02   2.8194119142e+01    0.1931549    0.1167922 -81.31 0.0009462199    1.721    0.419
       371  -9.9380    167.5004    183.4998   8.4173820656e+01   1.1153500304e+01     0.144976    0.1349269   7.93 0.0008106835    1.009    0.009
       372  -9.7353     58.7891    182.1884   1.1000633928e+02   2.9175323803e+01    0.1766747    0.1533273 -45.35 0.0008562741    1.336    0.252
       373  -9.4001      1.5430    180.4802   1.2304226007e+02   3.5323848000e+01    0.1193129   0.09191814  86.20 0.0001705217    1.013    0.013
       374  -9.8676    244.0246    178.7601   6.8096066559e+01  -1.1166891216e+00    0.2000423    0.1219725 -17.50   0.00102642    1.646    0.392
       375 -10.6632     46.5446    177.8170   1.1244659735e+02   3.1677127141e+01    0.2793984    0.2232184 -89.52  0.001335299    1.120    0.107
       376  -9.5795     69.6245    178.1644   1.0682505628e+02   2.8715707256e+01    0.1894527    0.1147745 -53.93 0.0005359827    1.650    0.394
       377  -9.2857    200.6755    176.3111   7.5674405600e+01   6.5133290159e+00     0.131949    0.1166594 -86.79 0.0004274064    1.657    0.396
       378 -12.0694     34.3616    174.2705   1.1499652995e+02   3.3839003626e+01    0.2695616    0.2420319  24.36 0.0004601767    1.369    0.270
       379 -10.9401     17.9196    173.2277   1.1879403480e+02   3.5647551497e+01    0.3733622    0.2122473  64.94  0.002025957    1.759    0.432
       380  -9.3202     74.5197    171.4839   1.0463020941e+02   2.9639968363e+01    0.1381227    0.1294832 -79.83 3.460185e-05    1.046    0.044
