#   1 NUMBER                 Running object number                                     
#   2 MAG_AUTO               Kron-like elliptical aperture magnitude                    [mag]
#   3 X_IMAGE                Object position along x                                    [pixel]
#   4 Y_IMAGE                Object position along y                                    [pixel]
#   5 X_WORLD                Barycenter position along world x axis                     [deg]
#   6 Y_WORLD                Barycenter position along world y axis                     [deg]
#   7 A_WORLD                Profile RMS along major axis (world units)                 [deg]
#   8 B_WORLD                Profile RMS along minor axis (world units)                 [deg]
#   9 THETA_WORLD            Position angle (CCW/world-x)                               [deg]
#  10 FWHM_WORLD             FWHM assuming a gaussian core                              [deg]
#  11 ELONGATION             A_IMAGE/B_IMAGE                                           
#  12 ELLIPTICITY            1 - B_IMAGE/A_IMAGE                                       
         1 -11.9447    238.0728     72.6389   7.5534340482e+01   1.6653621409e+01     3.267322    0.5897366 -37.86   0.00827308    5.657    0.823
         2 -11.4368    166.0376     54.8336   8.2872981150e+01   3.6647737333e+01     1.795651     1.032149 -69.17  0.005196598    4.727    0.788
         3 -11.9920    147.2144     43.2783   8.3047679016e+01   4.3082536661e+01     3.824455     1.384288  67.12  0.007355894    9.522    0.895
         4 -12.7588    218.8015     34.0378   6.7313421608e+01   2.5843396185e+01     3.382108     1.579691 -56.56   0.01143188    3.493    0.714
         5 -11.6830    238.1376     10.9513   5.8579386501e+01   2.3404342607e+01    0.9972388    0.3322059 -42.63  0.002000752    2.965    0.663
         6  -9.7293    221.5964     13.7546   6.1001989042e+01   2.7217299530e+01    0.6087453     0.251749 -52.17  0.002146971    3.182    0.686
         7 -12.2738    119.5802      9.9951   7.6308211271e+01   5.4265357605e+01    0.9171871    0.7603251  54.40  0.003074492    1.270    0.213
         8  -8.0475    153.8050     10.9589   6.9469687461e+01   4.5423609719e+01    0.2602866    0.1493428 -45.47  0.001071482    2.080    0.519
         9 -10.0521    144.1142      7.3075   6.9824870675e+01   4.8338079414e+01    0.5887837    0.2682628  -2.16  0.002072387    2.841    0.648
        10  -9.6830      2.8597      8.7665   1.2496171981e+02   7.2267713958e+01    0.2186956    0.1332086  -2.31  0.001407699    1.943    0.485
        11  -7.9342    156.4304      8.4590   6.8045608403e+01   4.4968329454e+01    0.1469477    0.1409624  23.15 2.886096e-05    1.060    0.057
        12  -8.3001    228.0595     11.9857   5.9827740895e+01   2.5767252889e+01    0.2055665    0.1858623 -41.04 0.0004637534    1.090    0.083
        13 -10.3187    212.2773      4.2415   5.9152325550e+01   3.0451228695e+01    0.5647569    0.2177816 -44.78  0.001160699    2.816    0.645
        14  -9.0775    172.0441      2.4306   6.3382200064e+01   4.1306869403e+01    0.3558825    0.2435398 -51.62  0.001159901    1.694    0.410
        15  -8.0006    248.8034      2.5919   5.5452971011e+01   2.1628405923e+01     0.178989    0.1214181 -83.82 0.0009508319    1.655    0.396
        16  -9.1114    150.1254      1.9087   6.6578643315e+01   4.7243359334e+01    0.2255488    0.2048827 -47.65   0.00123167    1.253    0.202
        17  -9.0793    127.7436      2.4308   7.1076282845e+01   5.3018174415e+01    0.3565706    0.1279272  59.26  0.001230774    2.542    0.607
        18  -9.0863    124.8223    145.0354   1.1602102721e+02   2.8869535151e+01    0.2044264    0.1734351  42.26 0.0003003356    1.098    0.089
        19  -9.2588     56.8092    249.7577   1.3958630049e+02   2.0753279223e+01    0.1494896    0.1171477  60.62   0.00035162    1.176    0.150
        20  -9.1969    189.7727    136.0076   1.0012175047e+02   1.8169843920e+01    0.2544038    0.1826031  30.88 0.0003464436    1.270    0.213
        21  -8.4630     82.3126    246.3187   1.3548521832e+02   1.8387089833e+01   0.08228053   0.06972817  24.17  0.000206542    1.647    0.393
        22 -12.5763    241.3749    110.3028   8.4660854139e+01   1.1201796546e+01     1.829425    0.7286008 -24.06  0.007296686    2.404    0.584
        23  -8.1114    122.0533    130.0085   1.1386229218e+02   3.2241882385e+01     0.185895    0.1789282  36.91            0    1.024    0.024
        24  -7.6393     55.6304    126.3138   1.2978013114e+02   4.2456418071e+01    0.1297194   0.08015271  67.59 0.0001762258    1.777    0.437
        25 -10.5432    185.3642    120.6779   9.7492454367e+01   2.1492685777e+01    0.4607894    0.3109334 -25.86  0.002245773    1.527    0.345
        26  -7.7309    224.2867    121.6255   9.0270299422e+01   1.3206533997e+01      0.13312    0.1103824 -52.72 0.0007018258    1.719    0.418
        27  -8.0727    164.6539    119.8036   1.0171752203e+02   2.5981659216e+01    0.1900165     0.134439 -44.92 0.0002339933    1.560    0.359
        28 -11.0996    229.6162     24.8983   6.3346125325e+01   2.4129514943e+01    0.5445046    0.3352747  30.40  0.001673288    1.860    0.462
        29 -11.0592    227.6214     48.0072   7.0197121459e+01   2.2076581919e+01     1.107551    0.4741845 -37.44  0.003794493    2.265    0.558
        30  -7.9776     46.0850    114.6776   1.3070190919e+02   4.5964106508e+01    0.2105836    0.1406014  79.44 0.0007158074    1.565    0.361
        31 -10.0534    167.4129    113.0424   9.9471590138e+01   2.6582828729e+01     0.358724    0.3139772  82.14 0.0008802881    1.514    0.340
        32  -7.6929    182.4270    113.5132   9.6355202886e+01   2.3281924771e+01    0.1472166    0.1352281  11.70 0.0001022423    1.040    0.038
        33 -11.4129    187.5821    102.4524   9.2459399985e+01   2.3938333840e+01     1.808835    0.3629635 -34.16  0.004736842    4.875    0.795
        34 -11.6427    177.4256     51.9811   7.9616493502e+01   3.4182277176e+01    0.6537948    0.3887966   2.08  0.001276024    2.247    0.555
        35  -8.5358    226.2935    245.6749   1.1238039726e+02  -9.3574493680e-01   0.09081358   0.07169028  42.70 0.0003030289    1.620    0.383
        36  -7.7931    124.0000    237.9575   1.2810768679e+02   1.4255342403e+01    0.1275362   0.06007612 -56.65 0.0005698372    2.846    0.649
        37 -11.3785    177.3347     71.2189   8.5717833596e+01   3.1326163227e+01      1.00989    0.7303878 -29.12  0.001601671    1.358    0.264
        38  -7.6003    179.6740    105.3391   9.4859981753e+01   2.5229757072e+01    0.1462631    0.1221824 -75.09 0.0007051473    1.728    0.421
        39  -7.9946    129.2366    232.7801   1.2674271025e+02   1.4210427626e+01    0.1357979   0.08225054 -39.39 0.0008899215    2.488    0.598
        40  -8.8909    149.8079     94.0566   9.8603839235e+01   3.3782210947e+01     0.328116    0.2531145 -10.39 0.0008496944    1.448    0.310
        41  -8.1930    135.4618     92.6348   1.0177922205e+02   3.7085212957e+01    0.2696242    0.2202601  85.10  0.000683988    1.688    0.408
        42  -8.8225    159.0400     86.4434   9.4277861167e+01   3.3108793134e+01    0.3386067    0.2275138  32.12 0.0008484669    1.548    0.354
        43  -9.7858    162.1682     83.3507   9.2660449035e+01   3.2932332569e+01    0.5908288    0.3582512 -51.59  0.002403211    2.124    0.529
        44 -12.0591    238.6630    126.2690   8.8886296245e+01   9.7347406703e+00     1.166498    0.7947959  14.73  0.006217902    1.383    0.277
        45  -9.4555    143.6526     83.0339   9.6993982112e+01   3.7164700131e+01    0.3286548    0.2821306 -46.55 0.0008293863    1.255    0.203
        46  -8.6388    230.6857     78.3926   7.8190225761e+01   1.7589330991e+01    0.2579792     0.212239 -49.23 0.0007367523    1.472    0.321
        47  -8.5444    249.7340     75.9524   7.4754592106e+01   1.3694535780e+01     0.193355     0.164653 -12.21 0.0004608368    1.052    0.049
        48 -10.6691    158.7309     72.8606   9.0293940066e+01   3.5533427632e+01    0.4111431    0.2979412 -13.47  0.001219052    1.482    0.325
        49  -8.9785    203.9099    110.4806   9.1293841211e+01   1.9088423349e+01    0.3401455    0.2183467  19.77  0.001317938    1.725    0.420
        50  -7.9793    153.0000     69.0290   9.0433756889e+01   3.7537127626e+01    0.2439568    0.1778102  11.94 0.0004785371    1.590    0.371
        51  -9.1596    207.3058     66.0842   7.8538703776e+01   2.4728382562e+01    0.6274032    0.3385547 -63.85  0.001832639    4.843    0.794
        52 -10.1087    205.2572     58.2056   7.6553499939e+01   2.6292873969e+01     1.050629    0.5263837 -60.94  0.002908043    5.226    0.809
        53 -10.2143    194.9118     54.6680   7.7242484716e+01   2.9361574289e+01    0.3679211    0.2820499  27.63 0.0007779619    1.313    0.238
        54 -10.3357    200.6313     49.8741   7.4789026654e+01   2.8545436325e+01    0.5014924    0.3013394  31.15  0.001293395    1.846    0.458
        55  -9.6675    184.5789     63.6525   8.1937229994e+01   3.0689289995e+01    0.2892028    0.2495697  17.13 0.0003559969    1.113    0.101
        56  -8.3176    190.2777     65.9433   8.1548899660e+01   2.8938537530e+01    0.2094673    0.1819703  -6.16 0.0002300167    1.093    0.085
        57  -8.6957    131.0160     54.0265   9.0938990808e+01   4.5209582225e+01     0.225253    0.2096788  -4.52            0    1.025    0.024
        58  -9.5744    245.6842     52.9589   6.9217350145e+01   1.7280467216e+01     0.256891    0.1950842  47.28 0.0006844965    1.376    0.273
        59  -7.8444    249.5296     48.4653   6.7548741573e+01   1.6918923578e+01    0.1393892    0.1242152 -11.36 0.0002855154    1.002    0.002
        60  -7.8416    250.6511     34.5118   6.3709503143e+01   1.8165906541e+01     0.136606    0.1179173 -17.07 -6.588391e-06    1.050    0.047
        61  -8.2414    239.0355     33.0201   6.4569650350e+01   2.1015756576e+01    0.2227401    0.1521348  22.94 0.0004950493    1.645    0.392
        62  -7.9650    165.5560     32.8334   7.5388792635e+01   3.9833728865e+01    0.2199007    0.1350342 -37.18 0.0009332009    1.689    0.408
        63  -8.0796    178.8080     28.7175   7.1557928988e+01   3.6838689002e+01    0.3020552    0.1654536 -45.60 0.0008173762    2.126    0.530
        64 -10.5331    140.9651     30.6390   7.9766811579e+01   4.6436846939e+01    0.2954951    0.2726929 -32.27 0.0002473195    1.178    0.151
        65 -10.7172    183.1306     81.2461   8.7508908292e+01   2.8351153546e+01     1.029742    0.4264432 -34.24  0.003730851    2.350    0.574
        66  -9.5818     99.9988     25.9756   8.8954753841e+01   5.6569032226e+01    0.3602097    0.1707926 -42.46  0.001426748    2.344    0.573
        67 -10.9001    126.4353     22.6862   8.0073498271e+01   5.1070275246e+01    0.5940828    0.2865746  41.02  0.002347524    2.048    0.512
        68  -8.6889    212.1203     17.6059   6.3214266439e+01   2.9262216707e+01     0.271161    0.2050095 -17.02 0.0005288922    1.299    0.230
        69 -12.0112      4.5007    223.1633   1.4638676685e+02   2.9472678410e+01    0.5805165    0.3221721  86.48  0.004892898    1.525    0.344
        70  -8.2686     34.7868    227.7930   1.4191137816e+02   2.6087665378e+01    0.1230676    0.1031693  69.35 0.0007802388    1.268    0.212
        71 -12.5472     30.2900    199.7497   1.4129812139e+02   3.0937500624e+01    0.6167957    0.4706037  63.31  0.002594462    1.074    0.069
        72 -10.9458     38.4487    192.6888   1.3946042342e+02   3.1353584709e+01    0.3046695    0.2860458 -29.31  0.001151166    1.656    0.396
        73 -10.0994    240.6257    144.8504   9.2695321759e+01   7.0914317660e+00    0.3317586    0.1313359  41.04  0.001436206    2.270    0.560
        74 -12.6877     45.4559    185.5658   1.3770551183e+02   3.1895090134e+01    0.8711931     0.779506  46.74  0.005288547    1.330    0.248
        75  -7.8281    209.3239    197.3289   1.0810035368e+02   6.3607479618e+00    0.1271766   0.07650207  16.67 0.0007049678    1.697    0.411
        76  -7.2234    179.6986    184.6875   1.1141506411e+02   1.2903006481e+01    0.1258195   0.08585966  15.04 0.0002433163    1.609    0.379
        77  -8.4348    209.4890     12.8917   6.2083661430e+01   3.0395049288e+01    0.2561296    0.1979881 -77.65 0.0007961434    1.478    0.324
        78 -10.0333    179.0160    199.2072   1.1381059215e+02   1.1086603377e+01    0.1776195    0.1579731  19.63 0.0002434722    1.160    0.138
        79  -7.2703    203.6925    160.3701   1.0249862083e+02   1.1954258938e+01    0.1198785    0.1083072 -88.83 0.0007034483    1.761    0.432
        80  -7.9538      7.6114    153.8784   1.4311764183e+02   4.1087367222e+01    0.1424827    0.0737991  83.49 0.0003954249    1.601    0.375
        81  -9.8000    241.3916    149.9861   9.3658241267e+01   6.3457768742e+00    0.2025867    0.1805988  55.41  0.001259362    1.656    0.396
        82 -10.2718     67.5570    144.2089   1.2917935097e+02   3.7349339250e+01    0.5563174    0.2901553  53.56   0.00180338    1.935    0.483
