#   1 NUMBER                 Running object number                                     
#   2 MAG_AUTO               Kron-like elliptical aperture magnitude                    [mag]
#   3 X_IMAGE                Object position along x                                    [pixel]
#   4 Y_IMAGE                Object position along y                                    [pixel]
#   5 X_WORLD                Barycenter position along world x axis                     [deg]
#   6 Y_WORLD                Barycenter position along world y axis                     [deg]
#   7 A_WORLD                Profile RMS along major axis (world units)                 [deg]
#   8 B_WORLD                Profile RMS along minor axis (world units)                 [deg]
#   9 THETA_WORLD            Position angle (CCW/world-x)                               [deg]
#  10 FWHM_WORLD             FWHM assuming a gaussian core                              [deg]
#  11 ELONGATION             A_IMAGE/B_IMAGE                                           
#  12 ELLIPTICITY            1 - B_IMAGE/A_IMAGE                                       
         1 -12.7534    242.3639    115.8758   6.4897560332e+01   8.2615308101e+00     6.277679    0.5123739 -36.39   0.01276815    8.391    0.881
         2 -11.2954    204.1841     17.0991   4.4927995191e+01   3.1865661210e+01     2.745428    0.4979801  61.84  0.008443628    4.037    0.752
         3 -11.0883    238.3400     41.0104   4.7264008226e+01   2.0575980506e+01    0.5286562    0.4628811  32.64  0.001478704    1.428    0.300
         4 -10.5870    226.5073      6.6076   4.0033601758e+01   2.7524786181e+01     0.753158    0.2392317 -40.38  0.001751208    2.640    0.621
         5 -12.1533    138.1983     40.7244   6.3163394867e+01   4.5809823710e+01     1.714132     0.838228  53.89  0.007004503    1.925    0.481
         6 -11.7196    247.6743      5.4523   3.8087589490e+01   2.2752558322e+01      1.51116    0.3097457  62.33  0.003678709    4.214    0.763
         7  -9.3680    181.9085     23.6859   4.9634987567e+01   3.6819380827e+01    0.5099425    0.2238052 -42.24  0.002054553    2.297    0.565
         8 -12.7062    225.8646     46.7879   5.0163823947e+01   2.2732346382e+01     2.917034    0.9612704 -47.57  0.009557856    3.139    0.681
         9  -9.0608    141.7465     15.0354   5.3363683746e+01   4.8110464575e+01    0.3286847    0.1627219 -44.34  0.001380958    2.342    0.573
        10 -10.5691    119.4114      9.7338   5.5890397123e+01   5.4102646899e+01    0.6221936    0.4015155  39.24   0.00258185    1.450    0.311
        11  -7.7951    177.1725     12.1297   4.6825149478e+01   3.9320995942e+01    0.1929777    0.1497864 -62.73 0.0004337086    1.336    0.251
        12  -7.9338    168.9322     11.2681   4.7692871434e+01   4.1538987565e+01    0.1827472    0.1633092  66.38 0.0002944376    1.037    0.036
        13  -8.8946    136.0313      9.1899   5.2333786420e+01   5.0120660888e+01     0.292117    0.1934341 -18.98  0.000481063    1.653    0.395
        14  -8.5325    144.1965      7.1159   5.0149179512e+01   4.8272122934e+01    0.2828931    0.1161954 -11.52  0.001030512    3.379    0.704
        15  -7.6449      2.3333      6.3222   9.9969721268e+01   7.3293633963e+01    0.1181414   0.05897943 -27.42 0.0004484319    1.704    0.413
        16 -10.0633    209.1036      2.2385   4.0495184635e+01   3.2205766545e+01    0.2641875    0.2207936 -54.11 0.0007008838    1.158    0.136
        17  -8.1793    183.1401      2.6816   4.3298110853e+01   3.8712341169e+01    0.2271279    0.1606145 -82.09  0.001204145    1.414    0.293
        18  -7.8635    172.1477      2.7678   4.4645262754e+01   4.1524584546e+01    0.2448316    0.1163004 -62.29 0.0009463432    2.850    0.649
        19  -8.7685      4.4497      2.9518   9.7195629716e+01   7.3696393855e+01    0.1822648    0.1290322  56.78  0.001042739    3.606    0.723
        20  -8.4904    239.5394      1.3415   3.7758046421e+01   2.5031976420e+01    0.1825272    0.1068365  78.37 0.0002014155    1.604    0.377
        21  -9.1820     69.5107    145.4914   1.1033405904e+02   3.6929293910e+01    0.3286642    0.2740477  86.67  0.001190903    1.105    0.095
        22  -9.3514     66.4787    144.0278   1.1088237996e+02   3.7684684898e+01    0.4535118    0.2739395 -76.89  0.001907864    1.644    0.392
        23  -7.5341    154.2763    243.6294   1.0579274662e+02   3.9371734194e+00    0.1160512   0.08358084  67.22 0.0007006793    1.685    0.406
        24 -10.1443    121.6791    242.2083   1.1160625108e+02   9.3108039731e+00    0.2067672     0.175075  55.57 0.0002664214    1.090    0.083
        25  -8.5930    231.3401    126.0413   6.9091833230e+01   8.8566022021e+00    0.2033798    0.1712026 -32.09 0.0005046474    1.112    0.101
        26  -9.3449    168.0346    113.6951   7.8474404076e+01   2.5340282392e+01    0.3346944    0.2953676  84.51 0.0004048648    1.289    0.224
        27  -8.8144    154.1039    113.9369   8.1760774240e+01   2.8491782698e+01    0.2461562    0.2251284  28.11  0.001251931    1.142    0.124
        28  -9.9923    210.2733    110.0452   6.8934610406e+01   1.6215346022e+01    0.3444427    0.2682354  67.64 0.0005289431    1.498    0.333
        29  -7.3199    117.2186    110.0326   9.0172655416e+01   3.7270739993e+01    0.1922937    0.1214971 -47.81 0.0008311943    1.537    0.349
        30  -9.2284    215.2771    106.7241   6.7200684161e+01   1.5662953077e+01    0.2654213      0.25019  24.51 0.0008332653    1.102    0.093
        31 -10.4258    187.9895    102.1650   7.1175179594e+01   2.2874569540e+01    0.7796341    0.2896723 -32.27  0.002429503    3.098    0.677
        32  -8.9574    197.9252     98.5070   6.8261843734e+01   2.1173907016e+01    0.3682075    0.3015701  76.87  0.001555665    1.414    0.293
        33  -8.6478    151.2967     98.0304   7.8142518502e+01   3.2433400761e+01    0.2785684    0.2191792  33.00   0.00129883    1.376    0.274
        34  -9.5938    185.8841     92.3055   6.8935183129e+01   2.5214833366e+01    0.3180309    0.2339246 -28.66  0.001451712    1.411    0.291
        35  -8.1792    160.9804     91.1801   7.3934193905e+01   3.1497288012e+01    0.3892622    0.1943533  31.87  0.001235942    3.180    0.685
        36  -8.9041    164.9991     88.9982   7.2405980184e+01   3.0943350325e+01    0.2761235    0.2719801  82.54 0.0009769319    1.029    0.028
        37  -8.0752     98.9560     90.7740   9.0236025504e+01   4.5078383466e+01    0.1864529    0.1849643 -43.84  0.001057198    1.052    0.049
        38  -9.0264    145.5744     87.0717   7.6386105539e+01   3.5979299258e+01    0.3333286     0.271355 -46.31 0.0008086783    1.232    0.188
        39  -9.6363    249.7858     85.4204   5.6598067827e+01   1.1547039083e+01    0.4069397    0.2304022 -59.67  0.001758909    2.289    0.563
        40 -11.0027    181.4362     78.2782   6.5884804643e+01   2.8841148214e+01    0.7354624    0.6458818 -58.22  0.001602872    1.171    0.146
        41  -9.3187    221.6348     81.7669   5.9778578887e+01   1.8423799689e+01    0.4311785    0.2499514 -51.05  0.001509515    1.822    0.451
        42  -9.3466    216.8074     72.3251   5.8071275770e+01   2.1094842185e+01    0.3676121    0.2041278 -48.99  0.001314076    1.835    0.455
        43 -10.2922    162.0871     79.0864   7.0159068815e+01   3.3518899135e+01    0.3646349    0.2907888 -16.95 0.0005644977    1.416    0.294
        44  -7.8117    131.1516     74.9289   7.6346662283e+01   4.1699695866e+01    0.2186365    0.1816073  -4.20  0.001061248    1.381    0.276
        45  -8.3726    249.6159     73.2526   5.3722562345e+01   1.3434394750e+01    0.3255231    0.1670342 -48.83  0.001446156    1.899    0.473
        46  -9.3391    189.3965     72.6912   6.2779982802e+01   2.7804575663e+01    0.2623027    0.2570307  46.22 0.0003383617    1.055    0.052
        47 -10.0930    114.0429     69.8753   7.9419189229e+01   4.6442560570e+01    0.2353464    0.2140219 -31.43            0    1.067    0.063
        48  -7.9678    126.1279     67.8290   7.5399586232e+01   4.4184602241e+01    0.2214536    0.2088524 -85.17 0.0004948792    1.185    0.156
        49 -10.6249    208.1152     62.1754   5.6698190643e+01   2.4815456907e+01     0.707609    0.5029501  87.67  0.002319181    1.658    0.397
        50  -9.7339    200.4441     65.3088   5.8783276033e+01   2.6237382926e+01    0.3558208    0.2638981  39.47 0.0008870895    1.518    0.341
        51 -11.2883    182.2744     61.9603   6.0984904066e+01   3.1378720101e+01    0.5179239    0.3782999   9.59  0.001309349    1.889    0.471
        52  -9.9151    173.7144     64.9605   6.3500235084e+01   3.3072741272e+01    0.4143945    0.2262325  67.80   0.00149635    2.162    0.538
        53 -10.7013    161.8348     51.2124   6.1614513111e+01   3.8306076993e+01     0.547594    0.3698763 -65.37  0.002045301    1.911    0.477
        54 -10.3883    167.5892     57.0340   6.2293809323e+01   3.5925266561e+01    0.5936572    0.4115231 -44.47  0.002587015    1.472    0.321
        55  -7.9059    123.8596    228.1317   1.0959773870e+02   1.1296199047e+01    0.1905586    0.1359023  58.85 0.0003462549    1.262    0.208
        56  -8.5791    191.4611     53.6725   5.6973566477e+01   3.0316481645e+01    0.3151721    0.1948669 -56.11 0.0009924467    1.818    0.450
        57  -8.5732    232.9646    217.0327   8.7417628563e+01  -5.1750055302e+00    0.1799397      0.14649  15.71 0.0003326715    1.046    0.044
        58 -10.9622    150.2307     45.4720   6.2140464217e+01   4.2119374099e+01     0.655462    0.4288664 -78.18  0.002667472    2.365    0.577
        59  -9.4352    231.4938    199.3187   8.4507576769e+01  -2.5930352531e+00    0.3105025    0.2178027 -44.50 0.0008792825    1.830    0.454
        60  -7.6080     61.9441     47.4945   8.8893392930e+01   6.0019045359e+01    0.1741575    0.1283375  30.20  0.000382354    1.456    0.313
        61  -9.6225    247.5048     37.9862   4.5578069382e+01   1.8884640161e+01    0.4728818    0.2379904 -53.67  0.001565485    1.925    0.481
        62  -7.8792    112.5214     46.4788   7.1741320827e+01   5.0931428935e+01    0.1471776    0.1341348  10.47 -2.542689e-05    1.053    0.050
        63  -8.5754    191.5108     33.5369   5.1149927962e+01   3.3120161422e+01    0.4315989    0.1716656 -44.48  0.001481091    2.553    0.608
        64  -8.2514    250.5383     33.9815   4.4345622754e+01   1.8726001784e+01    0.2041827     0.117857 -34.32  0.001033894    1.602    0.376
        65  -9.1821    236.0453    197.2887   8.3322519730e+01  -3.0669410751e+00    0.2429247     0.196353  63.78  0.001419554    1.981    0.495
        66 -10.4464    248.8437     25.1488   4.2460507696e+01   2.0212997650e+01    0.4870456    0.2017018 -47.72  0.002170986    2.118    0.528
        67  -9.0345    219.4072    194.0641   8.5721330553e+01   2.1731854984e-01    0.2668631    0.1711905  43.12 4.433462e-05    1.530    0.347
        68 -10.2407    250.2610    191.6269   7.9792893932e+01  -4.6087395323e+00    0.2116795    0.1571712 -19.14 0.0007631684    1.242    0.195
        69  -8.4071    188.0645     45.7234   5.5218312259e+01   3.2353843727e+01    0.3723657     0.185081 -46.40  0.001486939    2.088    0.521
        70  -7.6323    196.0799     42.7174   5.3112404273e+01   3.0716669793e+01    0.1969348    0.1741974  81.57 0.0004397452    1.098    0.089
        71  -9.0515    220.4162    189.1655   8.4605965026e+01   7.6912552866e-01    0.2361733    0.1835116  24.73  0.000307369    1.153    0.133
        72 -12.7351     25.0641    181.3329   1.2463036320e+02   3.4002347386e+01    0.8457262    0.7444056 -36.01  0.006135307    1.730    0.422
        73  -8.6583    220.8999    184.3544   8.3585670713e+01   1.4108125401e+00    0.1962662    0.1761599 -22.38 0.0002890158    1.199    0.166
        74 -12.1329     40.0225    171.3099   1.2058791509e+02   3.4618439243e+01    0.8736002    0.7768008  87.96  0.003756568    1.184    0.155
        75  -7.6546      3.5310    130.4753   1.2520829875e+02   4.7070799805e+01    0.1178005   0.08904377 -80.39 0.0001729705    1.036    0.035
        76 -10.0768    188.5981    180.7917   8.9145486301e+01   8.0175307688e+00    0.2453594    0.2387601  35.47 0.0003957267    1.132    0.117
        77  -8.0162    141.0449    181.6568   9.9354045440e+01   1.6956520500e+01    0.1878175    0.1606155  42.92 0.0003967159    1.096    0.088
        78  -8.3990      1.3565    181.8343   1.2936030034e+02   3.6042643366e+01    0.1525238   0.07609081 -72.42 0.0009313863    1.698    0.411
        79  -8.3972    247.1464    179.8494   7.8025744915e+01  -2.4872175433e+00    0.1795798    0.1654072 -11.20 0.0003744454    1.240    0.194
        80  -9.0388     74.0135    178.8287   1.1388791726e+02   2.8689129084e+01    0.1984086    0.1633014 -88.72 0.0003402042    1.090    0.082
        81  -8.6658    209.1151    164.4709   8.1781029860e+01   6.8312745812e+00    0.2197307    0.1867055 -26.29   0.00027103    1.172    0.147
        82  -8.2508     74.1862    163.1398   1.1178726221e+02   3.2178795905e+01    0.1793552    0.1649465 -83.29 0.0003127887    1.134    0.118
