#   1 NUMBER                 Running object number                                     
#   2 MAG_AUTO               Kron-like elliptical aperture magnitude                    [mag]
#   3 X_IMAGE                Object position along x                                    [pixel]
#   4 Y_IMAGE                Object position along y                                    [pixel]
#   5 X_WORLD                Barycenter position along world x axis                     [deg]
#   6 Y_WORLD                Barycenter position along world y axis                     [deg]
#   7 A_WORLD                Profile RMS along major axis (world units)                 [deg]
#   8 B_WORLD                Profile RMS along minor axis (world units)                 [deg]
#   9 THETA_WORLD            Position angle (CCW/world-x)                               [deg]
#  10 FWHM_WORLD             FWHM assuming a gaussian core                              [deg]
#  11 ELONGATION             A_IMAGE/B_IMAGE                                           
#  12 ELLIPTICITY            1 - B_IMAGE/A_IMAGE                                       
         1 -13.6058    193.7926     28.7214   5.9594429003e+01   3.3096222601e+01    0.9173115    0.6832311   7.47  0.004432587    1.538    0.350
         2 -13.0430    202.2890     18.3080   5.5191788583e+01   3.2017742785e+01     1.139579    0.5116133  -3.61  0.003248736    3.526    0.716
         3 -12.2260    208.3581     13.7001   5.3062411956e+01   3.0900983571e+01    0.6901765    0.3405254 -25.80  0.002927238    1.953    0.488
         4 -10.8463     82.3170    230.7090   1.2335252640e+02   2.0715421467e+01    0.2387283    0.1645352  30.35  0.001708855    1.932    0.482
         5 -15.1799    245.8851    169.2615   8.6749722972e+01   2.6899216070e+00     3.245484    0.7462987 -33.54   0.01182095    4.413    0.773
         6 -14.6672    232.6581    162.3959   8.7568734560e+01   5.8362309299e+00     1.817391    0.9302191 -21.11  0.008951194    2.167    0.539
         7 -14.4889    228.9728    243.7205   1.0133398601e+02  -1.9955010879e+00     1.472917    0.9795798   1.75   0.01101957    1.653    0.395
         8 -15.3444    239.9421    232.9906   9.8218448445e+01  -2.6582717861e+00     2.856453      1.03361 -22.21   0.01444422    3.842    0.740
         9 -11.2295    164.9556    249.8793   1.1189381731e+02   6.7523593695e+00    0.3414881     0.135973  42.19   0.00164848    1.797    0.444
        10 -12.8288     94.4332    235.3669   1.2175286801e+02   1.8481234333e+01    0.7541258    0.6216696  -3.63  0.005592677    2.424    0.587
        11 -14.2822    115.9657    248.3879   1.1939691311e+02   1.3852423096e+01     2.522546    0.5964667  40.71   0.01125942    3.451    0.710
        12 -13.3994    106.1950    241.8904   1.2039748486e+02   1.6021092014e+01     1.218748    0.7240842  21.54  0.006472769    3.836    0.739
        13 -10.3029     70.1752    250.2407   1.2653562180e+02   1.9430113606e+01    0.1343611    0.0985233  57.73 0.0006319559    1.123    0.110
        14 -14.0617     55.2326    207.6212   1.2621529448e+02   2.7619592176e+01     2.648292      1.81095 -40.42   0.01660644    2.933    0.659
        15 -17.4077      6.8760    238.2401   1.3526827144e+02   2.7751340428e+01     15.34516     1.379984 -79.83   0.05281802   10.571    0.905
        16 -12.6526    217.2095    248.9973   1.0377782449e+02  -7.6532665395e-01    0.5858765    0.3307773  30.57  0.003376515    1.364    0.267
        17 -10.8438    110.8312    213.2797   1.1703338933e+02   1.9470732365e+01    0.2701681    0.2311943  75.43   0.00211074    1.182    0.154
        18 -10.6845    114.5218    211.9867   1.1625489162e+02   1.9131823855e+01    0.2532803    0.1559852  47.81  0.001348745    1.280    0.219
        19 -10.1129     74.4918    214.0268   1.2338797771e+02   2.4259408335e+01    0.1361796   0.09300476 -81.58 0.0004594238    1.505    0.335
        20 -12.1034     98.4599    209.0987   1.1879407832e+02   2.1872335621e+01    0.4349636    0.3373867  61.22   0.00224862    1.023    0.022
        21 -10.7336     38.0523    210.3412   1.2928479150e+02   2.9060321982e+01    0.1912767   0.09827955  68.60  0.001316524    1.588    0.370
        22 -10.6814     78.2787    208.7206   1.2230646871e+02   2.4633554142e+01     0.205729    0.1465748  51.11  0.001298411    1.182    0.154
        23 -12.1514     31.3812    205.7447   1.3014250156e+02   3.0509410786e+01    0.2399837    0.1455331  39.05  0.001778384    1.712    0.416
        24 -11.2074     76.9874    203.4033   1.2208506608e+02   2.5673823977e+01    0.4314918    0.1247381  40.17  0.002019484    2.949    0.661
        25 -12.3640    218.6687    198.5937   9.6355510241e+01   4.0424913776e+00    0.4412786    0.2162973  33.59  0.002369788    1.765    0.434
        26 -11.4894    188.6987    249.2646   1.0815100377e+02   3.3506186540e+00    0.3107962    0.1953021  33.88  0.002272308    1.240    0.194
        27 -10.7564     73.5501    184.2454   1.2098133741e+02   2.9433717749e+01    0.2704108    0.1849317 -43.08  0.001677374    2.301    0.565
        28 -14.1774    207.1255    246.3243   1.0497377672e+02   9.3866366497e-01     1.301926    0.8834721  29.34  0.008696823    1.161    0.139
        29 -10.7072     77.9221    178.4683   1.1955577670e+02   2.9912365361e+01    0.1875906    0.1479473 -56.71  0.001012038    1.555    0.357
        30 -10.7493     85.8072    168.0176   1.1680462526e+02   3.0785228164e+01      0.19041    0.1528629  55.37 0.0003843256    1.133    0.118
        31 -12.5136     73.7821    164.3907   1.1886797663e+02   3.3106439384e+01    0.3327399    0.2311067 -49.18  0.001222952    1.842    0.457
        32 -14.3146     11.0541    206.4899   1.3351422530e+02   3.2321856514e+01    0.8523765    0.4424042  31.39  0.004402202    2.404    0.584
        33 -10.7877     90.8763    161.8354   1.1497887757e+02   3.1241281086e+01    0.1671084    0.1629643  76.87 0.0005062729    1.264    0.209
        34 -11.7815     70.4986    145.0031   1.1723757345e+02   3.7390097449e+01    0.3012271    0.1939071 -83.82  0.001190041    1.538    0.350
        35 -12.7604     66.0449    142.1869   1.1788543544e+02   3.8537716900e+01    0.4857046    0.3223105  74.11  0.002348437    1.499    0.333
        36 -11.3187     92.5191    144.3208   1.1216282029e+02   3.4448306267e+01    0.2164233    0.2105382 -86.24 0.0004306055    1.203    0.169
        37 -14.3141    240.6835    129.6723   7.9415313214e+01   8.4061897567e+00     1.304952     1.125134 -10.04   0.00718967    1.109    0.098
        38 -13.4719    240.5683    107.5179   7.4314668727e+01   1.1312343309e+01     1.141708    0.8648427  76.81  0.005916573    1.920    0.479
        39 -12.4227    128.0964    129.2596   1.0136558109e+02   3.1486691608e+01    0.5455104    0.4422326  74.20  0.002878746    1.341    0.254
        40 -10.2336    100.6519    129.3191   1.0779644969e+02   3.6247076390e+01    0.2357555    0.1840438 -17.49  0.001089387    1.953    0.488
        41  -9.4732    109.2951    120.7122   1.0407996616e+02   3.6581171130e+01    0.1348228    0.1015115  80.40 0.0002213606    1.548    0.354
        42 -10.1090    167.7994    112.5733   8.8835238820e+01   2.6541286677e+01    0.2047656    0.1377695  61.09 0.0007023934    1.685    0.407
        43 -12.6840    246.1994     85.7183   6.8129833850e+01   1.2952550419e+01    0.5444688     0.346992 -54.71  0.002531285    2.111    0.526
        44 -13.9631    178.2435     48.6812   6.8517210500e+01   3.4573157382e+01     1.284786    0.7528573  -4.17  0.004925305    2.399    0.583
        45 -12.7374    184.7127     36.3495   6.3430712208e+01   3.4554269152e+01    0.4729808    0.3495866  -1.68  0.001502357    1.523    0.343
        46 -12.4929    101.4612    236.0666   1.2067834324e+02   1.7452154359e+01    0.7719169    0.4141061  29.19  0.004396268    2.806    0.644
        47 -11.3304     55.1014    239.6487   1.2820785855e+02   2.2662240926e+01    0.2176999    0.1158834  62.64  0.000741966    1.415    0.293
        48 -11.9246     50.5697    233.1209   1.2854552813e+02   2.4130136474e+01    0.2054804    0.1053172  61.76   0.00149176    1.469    0.319
