#   1 NUMBER                 Running object number                                     
#   2 MAG_AUTO               Kron-like elliptical aperture magnitude                    [mag]
#   3 X_IMAGE                Object position along x                                    [pixel]
#   4 Y_IMAGE                Object position along y                                    [pixel]
#   5 X_WORLD                Barycenter position along world x axis                     [deg]
#   6 Y_WORLD                Barycenter position along world y axis                     [deg]
#   7 A_WORLD                Profile RMS along major axis (world units)                 [deg]
#   8 B_WORLD                Profile RMS along minor axis (world units)                 [deg]
#   9 THETA_WORLD            Position angle (CCW/world-x)                               [deg]
#  10 FWHM_WORLD             FWHM assuming a gaussian core                              [deg]
#  11 ELONGATION             A_IMAGE/B_IMAGE                                           
#  12 ELLIPTICITY            1 - B_IMAGE/A_IMAGE                                       
         1 -12.6277    242.8092    124.9711   8.5717088896e+01   6.4468825215e+00     7.567314    0.5804403 -41.21   0.01453276    9.140    0.891
         2 -12.8826    241.4972    111.0701   8.2749072392e+01   9.1853640941e+00     3.545311    0.8364844 -36.24   0.00999089    4.277    0.766
         3  -9.8734    213.0096     18.2577   6.4593795060e+01   3.0081935619e+01    0.7627661    0.3102724 -59.96  0.002332205    3.231    0.690
         4 -13.0939    218.6086     36.1029   6.8201236032e+01   2.6502819933e+01       3.7534     1.159524 -53.19   0.01144894    4.498    0.778
         5 -12.3641    179.0808     75.4408   8.4717508323e+01   3.0290255732e+01     3.883596     1.264355 -49.45  0.006123632    4.157    0.759
         6 -10.2098    205.1631     58.4099   7.5615594098e+01   2.6587471088e+01     1.201681    0.5567673 -70.31  0.003016401    6.411    0.844
         7 -11.7044    165.9437     54.7338   8.1415728058e+01   3.6922765402e+01     2.764932     1.475114 -85.58  0.007455489    5.735    0.826
         8  -9.7774    234.7265      7.7046   6.0062623073e+01   2.6186487395e+01     0.351096    0.2179675 -47.14 0.0008806859    1.514    0.340
         9  -9.4341    238.4335      5.2773   5.9231446700e+01   2.5615504866e+01    0.2495286    0.1659016 -69.15 0.0007547224    1.315    0.239
        10  -9.5730    235.9522      1.5954   5.8666552326e+01   2.6576889248e+01     0.244904    0.1527985 -87.80 0.0005540833    1.402    0.287
        11 -11.0498    241.3700     14.9893   6.1022775171e+01   2.3838462945e+01    0.4931971    0.2678653 -72.11 0.0006343008    1.859    0.462
        12  -9.7554    237.6722     11.3198   6.0573449165e+01   2.5105402161e+01    0.2197083    0.1697075 -63.06 0.0006200974    1.142    0.125
        13  -9.9689    221.8117     13.9259   6.2652090165e+01   2.8482443245e+01    0.5311231     0.226693 -62.85  0.002150462    2.885    0.653
        14 -10.7723    144.6696      6.9675   7.0901569596e+01   4.7850096951e+01    0.7222248    0.3615413  -7.58  0.003209941    2.875    0.652
        15  -9.3875    187.6731     11.2393   6.5846147667e+01   3.7021400872e+01    0.2840934    0.2135453 -65.81 0.0006581576    1.358    0.263
        16  -9.5354    192.7705      8.2880   6.4470533862e+01   3.6078348498e+01     0.688071    0.2937884 -69.05  0.002370067    4.101    0.756
        17  -9.8459    183.4440      2.6238   6.4130517105e+01   3.8899233909e+01    0.5975811    0.3744827  87.11  0.003191536    1.547    0.353
        18 -10.2387    212.0368      3.8943   6.1328293278e+01   3.1886702767e+01    0.5304734     0.203372 -54.90  0.001734096    2.912    0.657
        19 -10.6647    247.2091      3.8355   5.8225049159e+01   2.3820132966e+01    0.4388192    0.3017925  84.79  0.001469925    1.254    0.203
        20  -9.0852    155.0995      2.8419   6.7995281749e+01   4.5732907501e+01    0.3374285    0.1512983 -28.67  0.001306181    2.461    0.594
        21 -10.0906    172.5973      2.3175   6.5403860745e+01   4.1560550003e+01    0.5397426    0.2549948  75.00  0.002064521    1.981    0.495
        22  -9.3264      6.5006      3.9972   1.1256659722e+02   7.1489260999e+01    0.1556758   0.07929726 -37.11  0.001035868    1.600    0.375
        23 -12.0932    119.6211     10.0163   7.6659315944e+01   5.3300507569e+01    0.7847521    0.6011956  60.98  0.003049474    1.255    0.203
        24  -7.8861    119.5581    240.5345   1.3198527634e+02   8.9550237308e+00    0.1269055    0.1029621  61.00 0.0001054025    1.008    0.007
        25  -7.8183     52.0161    250.8072   1.4488925965e+02   1.7143898453e+01    0.1365104   0.07081503  47.56            0    1.659    0.397
        26  -9.8209    235.0913     35.3584   6.6110143818e+01   2.2701476457e+01    0.9655656    0.2979332  66.26  0.003631334    3.059    0.673
        27  -8.9753    125.5243    236.3447   1.3034131278e+02   8.7062162215e+00    0.2593273    0.1259688 -60.25  0.001256365    2.388    0.581
        28  -8.4732     29.9985    229.1101   1.4696504556e+02   2.3936277480e+01    0.1685617    0.1197726  77.40 0.0003661258    1.015    0.015
        29  -8.6698    179.1522    117.1611   9.5794514180e+01   2.2324560239e+01    0.2157749    0.1829526 -74.18 0.0002422096    1.306    0.234
        30 -10.4126    186.9758    112.6766   9.3013682642e+01   2.1374557910e+01    0.4469237    0.2569411 -47.15  0.001447371    1.743    0.426
        31  -8.7557    183.4592    112.4488   9.3684598687e+01   2.2255935711e+01    0.2582413    0.1531634 -40.05  7.68569e-05    1.676    0.403
        32  -9.6893    167.5961    113.2229   9.7315216101e+01   2.5853298120e+01    0.3757328    0.3141879 -70.07 0.0007634611    1.315    0.240
        33  -8.2093     44.1545    111.7305   1.2984947744e+02   4.8315904384e+01     0.185712    0.1536996 -81.75 0.0007495843    1.231    0.187
        34  -9.0956    204.6865    110.4307   8.8957022239e+01   1.7617706519e+01    0.4647983    0.2535823  33.34  0.001689194    2.686    0.628
        35  -7.7050     21.5552    111.5386   1.3616768249e+02   5.0423775753e+01    0.1216899   0.09677302 -70.37 0.0001189915    1.068    0.064
        36 -12.1927    138.7761     35.6636   8.1129798599e+01   4.6147719255e+01      1.25075    0.8515531  55.67 0.0008941498    1.357    0.263
        37 -11.2872      4.7638    222.7811   1.5072178144e+02   2.7842893072e+01    0.4797392    0.3687519 -47.09  0.003057452    2.231    0.552
        38 -11.3193    229.7845     27.2073   6.4841052878e+01   2.5003908596e+01    0.4936721    0.3418115  46.93  0.001470391    1.793    0.442
        39  -7.6863    176.5119    102.4997   9.2563908162e+01   2.5894003035e+01    0.1588157    0.1488291 -78.47 -1.245606e-05    1.079    0.073
        40  -8.2529    160.3331    127.3084   1.0253116148e+02   2.4559781532e+01    0.1591995    0.1273069   5.57 0.0002526228    1.670    0.401
        41  -8.8305    149.7508     94.6838   9.6454957625e+01   3.3797872874e+01    0.3127275    0.2740631 -13.98  0.001003114    1.278    0.218
        42  -8.2755    135.1825     92.9023   9.9526160815e+01   3.7457170102e+01    0.2281135    0.2006947 -73.73 0.0005709508    1.269    0.212
        43 -10.1856    160.8518     85.4498   9.1314519929e+01   3.2952875406e+01    0.6456873    0.4594174  13.46  0.002720538    2.096    0.523
        44 -10.9956    158.7453     74.5077   8.8655930755e+01   3.5447919612e+01    0.6267269    0.3251066 -39.04  0.002532905    1.947    0.486
        45  -9.2840    249.8847     85.1847   7.5592958416e+01   1.1806967703e+01    0.3009676    0.2322698 -34.31 0.0004234392    1.297    0.229
        46  -9.3407    143.5025     83.4313   9.4753222353e+01   3.7426465106e+01    0.2889816    0.2796315 -61.10 0.0006863717    1.056    0.053
        47  -7.4537    150.4922     72.4803   8.9903839187e+01   3.7783837930e+01    0.1490888    0.1456966  47.83 0.0008103016    1.008    0.008
        48  -8.5534    187.9714     69.8504   8.1517689914e+01   2.9028554859e+01    0.2106149    0.2031549  84.25 0.0003353271    1.035    0.034
        49  -9.7372    208.5223     67.1530   7.7326611739e+01   2.4382272096e+01     1.489635    0.7576257 -83.32  0.004150184    5.221    0.808
        50 -11.7439      3.4412    217.7327   1.5064123403e+02   2.8955020417e+01     0.597739    0.3334422 -78.77  0.003578157    1.438    0.305
        51 -10.4436    200.6814     51.6708   7.4563393305e+01   2.8712910230e+01    0.4189978    0.3164801  45.57  0.001066643    1.462    0.316
        52  -9.8072    184.5493     65.1045   8.0847003644e+01   3.0661316773e+01    0.2669041    0.2647861  -9.59 0.0003366381    1.110    0.099
        53 -10.5676    184.4059    123.3193   9.6221697363e+01   1.9837576671e+01    0.5530637    0.3590993 -10.34  0.002026424    2.724    0.633
        54  -9.6974    243.5629     57.8066   7.0205882015e+01   1.7550523613e+01    0.3365265    0.2208738 -50.99 0.0005579307    1.376    0.273
        55 -11.7762    177.2018     53.7100   7.9014930796e+01   3.4275950968e+01    0.5563544    0.4078914   5.49  0.002294234    1.965    0.491
        56  -8.8567    128.6653     56.8226   9.0277368060e+01   4.5438382020e+01    0.3133827    0.2248048  71.75            0    1.779    0.438
        57  -8.7548    215.4805    116.5589   8.8458872192e+01   1.3953462582e+01    0.2784286    0.1451126 -28.04  0.001036034    2.372    0.578
        58 -10.3082    195.0384     56.2512   7.6656133771e+01   2.9431379144e+01    0.3831884    0.3177865  72.29 0.0006520445    1.151    0.131
        59  -7.3634    185.2734     43.2963   7.4752596949e+01   3.3755250997e+01    0.1367707     0.107931  31.99  0.000183101    1.525    0.344
        60  -7.7989    135.3039    107.3138   1.0345167400e+02   3.4441862053e+01    0.1543997    0.1240616  -1.35 0.0004302028    1.617    0.382
        61  -7.7024     49.6851    206.7189   1.4156414978e+02   2.6116239146e+01    0.1046436    0.0913109 -54.56 0.0002509742    1.574    0.365
        62  -8.1385    250.6008     34.8765   6.4381790757e+01   1.9246998363e+01    0.1822261    0.1159822 -39.32 0.0005309034    1.534    0.348
        63  -7.8374     73.2830     33.6154   9.8055952001e+01   5.9594765829e+01    0.1159682   0.09870576 -57.87 0.0007007902    1.735    0.423
        64 -10.0514    128.6210     22.2952   7.8921312741e+01   5.0063989721e+01    0.2684103    0.2067833  46.01  0.001278106    1.153    0.132
        65 -12.6959     46.5034    182.7230   1.3970823318e+02   3.1728188423e+01     0.993038    0.9284235 -74.55  0.004511741    1.327    0.246
        66 -10.8634     37.9471    190.8065   1.4230295892e+02   3.0945754104e+01    0.3541692    0.3032008 -45.22  0.001142221    1.660    0.397
        67  -9.9025    174.9901    202.7230   1.1529638591e+02   5.8658164390e+00    0.2220124    0.2021074 -44.01 0.0003667049    1.200    0.166
        68  -7.5946    175.9654    188.2357   1.1240028019e+02   8.4300244602e+00    0.1827475    0.1152812  44.85 0.0002064427    1.494    0.331
        69 -12.7270     31.1683    196.4179   1.4415276279e+02   3.0493708017e+01    0.8070406    0.6349499  82.40  0.002845547    1.065    0.061
        70  -9.6841    132.7081     18.9629   7.6962649451e+01   4.9485121767e+01    0.4034862    0.1858281  75.23  0.001453403    3.549    0.718
        71  -8.1601    232.2402     17.2052   6.2353657286e+01   2.5661919362e+01    0.1821464    0.1228716 -66.52 0.0004241495    1.353    0.261
        72  -7.5016    203.3327    160.6640   1.0103693990e+02   8.1352858265e+00    0.1509495    0.1196752 -84.09  0.000705214    1.737    0.424
        73  -7.9229      3.6652    154.7092   1.4589943133e+02   4.2155751790e+01    0.1099856   0.07186631 -53.04 0.0003058331    1.635    0.388
        74  -7.6651      5.7115    149.2865   1.4492959511e+02   4.3196214115e+01    0.1136652   0.07105205  77.18 0.0001743068    1.534    0.348
        75  -8.9777    121.0614    147.9940   1.1675690537e+02   2.8211499322e+01    0.2188676    0.2042633 -81.29  0.001188608    1.019    0.018
        76 -10.1975     67.7358    144.3537   1.2944494925e+02   3.7892824174e+01    0.6054119    0.3568739  62.67  0.002121818    2.091    0.522
        77  -8.9351    186.1259    139.6767   9.9812865964e+01   1.6091983935e+01    0.2701085    0.2220756 -32.86 0.0003326191    1.259    0.206
        78 -10.2372    232.5220    132.4094   8.9150440554e+01   7.2610438740e+00    0.2648789    0.2588129  70.75 0.0002382779    1.105    0.095
        79  -8.5097    118.9500    132.9389   1.1398687811e+02   3.2097510258e+01    0.2169259    0.2060336 -75.14 0.0003034458    1.007    0.007
        80  -9.2826    250.1724    113.7614   8.2017228291e+01   6.8904374998e+00    0.2452057    0.1872995 -35.57   0.00038912    1.213    0.176
        81  -8.2355     77.5270    248.5110   1.4040859689e+02   1.4060604849e+01    0.1195066   0.08985603  68.49 0.0008099653    1.004    0.004
