#   1 NUMBER                 Running object number                                     
#   2 MAG_AUTO               Kron-like elliptical aperture magnitude                    [mag]
#   3 X_IMAGE                Object position along x                                    [pixel]
#   4 Y_IMAGE                Object position along y                                    [pixel]
#   5 X_WORLD                Barycenter position along world x axis                     [deg]
#   6 Y_WORLD                Barycenter position along world y axis                     [deg]
#   7 A_WORLD                Profile RMS along major axis (world units)                 [deg]
#   8 B_WORLD                Profile RMS along minor axis (world units)                 [deg]
#   9 THETA_WORLD            Position angle (CCW/world-x)                               [deg]
#  10 FWHM_WORLD             FWHM assuming a gaussian core                              [deg]
#  11 ELONGATION             A_IMAGE/B_IMAGE                                           
#  12 ELLIPTICITY            1 - B_IMAGE/A_IMAGE                                       
         1 -14.6087    207.2740      6.1254   5.3786402144e+01   3.3272923734e+01     1.928048      1.42424  28.86   0.01193156    2.396    0.583
         2 -13.8901    171.4720     49.7928   6.7991668258e+01   3.6005042204e+01     1.497035     1.067028  31.23  0.005268584    1.954    0.488
         3 -14.1793    185.6377     35.4667   6.2472559295e+01   3.4671119948e+01    0.8477129    0.8030929 -47.84  0.003888992    1.274    0.215
         4 -13.6572    190.1146     29.3523   6.0508937164e+01   3.4418877207e+01    0.5842192    0.4961061  89.97  0.001549093    1.033    0.032
         5 -13.2982    190.2193     15.2980   5.7389115049e+01   3.5993709806e+01    0.7597721    0.4096789 -70.66  0.003680232    2.041    0.510
         6 -12.0539     58.5554      3.8316   7.8974303972e+01   6.4481519721e+01    0.2801317    0.1308151  40.26  0.001597319    1.713    0.416
         7 -12.2651    133.2391    203.6675   1.1227534051e+02   1.2198571567e+01    0.4349105    0.2856167  89.67  0.001767855    2.458    0.593
         8 -14.2460     11.6300    206.6297   1.4051056937e+02   2.8932220744e+01    0.7280384    0.4431583  24.36  0.004138676    2.192    0.544
         9 -18.6886     42.1670    243.4636   1.3750762489e+02   1.7261974659e+01      7.37639      6.82506  32.94   0.05164229    1.461    0.316
        10 -10.3297     53.0904    181.5976   1.2830567480e+02   3.0365775329e+01    0.2728402    0.2239268 -22.35  0.001266942    1.635    0.388
        11 -19.1071     23.4580    103.1556   1.2362387692e+02   5.2682618174e+01     17.02903    0.9709561 -61.32   0.02806744   15.476    0.935
        12  -9.7996    168.3078    176.6853   9.8941622919e+01   1.1718759595e+01    0.2396973    0.1859466 -65.65 0.0005313078    1.470    0.320
        13 -10.3437    165.7405    172.8512   9.8719998100e+01   1.3081019765e+01    0.3047081    0.2354619 -75.14 0.0009990607    1.617    0.382
        14 -11.7752    139.1317    173.2328   1.0506640880e+02   1.8215100901e+01     0.371057    0.2397089  71.11  0.001432026    2.378    0.579
        15 -11.9355    153.1834    193.7099   1.0580207123e+02   1.0790354769e+01    0.4090494    0.2886299  65.80  0.001336355    1.852    0.460
        16 -10.0893     65.0235    170.9843   1.2367297085e+02   3.1450414424e+01    0.2171874    0.2019465 -88.48 0.0005230954    1.053    0.050
        17 -10.8622    201.7572    168.9039   9.0199068860e+01   6.9669558553e+00    0.4376977     0.289999 -59.20  0.001640475    1.748    0.428
        18 -11.2105    204.4571    165.4611   8.8940547053e+01   7.1710355718e+00    0.5775862    0.3083588 -54.52  0.001760012    2.081    0.519
        19 -10.6198    140.1008    168.6920   1.0388837725e+02   1.9105892456e+01    0.2548441     0.195405  61.41 0.0006353034    1.470    0.320
        20 -12.5325    136.0566    198.9590   1.1077391954e+02   1.2764814384e+01    0.4282623    0.3572264  85.72  0.002191276    1.385    0.278
        21 -11.5941    193.9567    166.8658   9.1346253083e+01   8.8753096800e+00    0.3489013    0.3195971 -65.00 0.0007577206    1.165    0.142
        22 -10.8472    190.2760    161.1584   9.0883115611e+01   1.0805749879e+01     0.381157    0.2856667 -72.79  0.001446843    1.715    0.417
        23 -11.3264    189.1355    155.0137   8.9782711414e+01   1.2348716481e+01    0.4864639      0.39901 -63.94  0.001944343    1.306    0.234
        24 -11.1671    158.5920    201.9986   1.0613944814e+02   7.9599171114e+00    0.5111769    0.2540552 -68.56  0.001486658    4.762    0.790
        25 -10.9330    160.9178    165.5772   9.8275370038e+01   1.5691366340e+01    0.2979445    0.2137903 -65.02 0.0005966671    1.607    0.378
        26 -10.0449      7.2799    162.0296   1.3723741756e+02   3.9943709495e+01    0.1690898    0.1345044 -77.59 0.0003656764    1.005    0.005
        27  -9.5601      2.9404    161.8420   1.3827936762e+02   4.0321877301e+01    0.1578817    0.1221178  75.15 0.0004727768    1.277    0.217
        28 -12.7159     99.0256    153.4354   1.1129858689e+02   3.0558803465e+01     0.719631    0.4796994 -35.89  0.003156433    1.729    0.422
        29 -11.6326    133.7858    145.1044   1.0028405423e+02   2.5991057111e+01      1.25056    0.3141925 -54.46  0.002827384    5.660    0.823
        30 -10.8073     59.3326    188.4552   1.2771781546e+02   2.7836647972e+01    0.3787783    0.2693395 -45.26  0.001958486    1.598    0.374
        31 -10.4736    174.6280    149.1704   9.1567307252e+01   1.6583599797e+01    0.2763616    0.2241942  46.94 0.0006297383    1.293    0.227
        32 -12.1979    141.1467    198.1694   1.0943626043e+02   1.2013768835e+01    0.3960394    0.3224038 -55.63 0.0008860461    1.251    0.200
        33 -12.3812    109.1010    139.7146   1.0555332155e+02   3.2118397826e+01    0.7579229    0.3853583 -35.65  0.002696636    2.543    0.607
        34  -9.4351     90.6284    146.2460   1.1210754407e+02   3.3789712617e+01    0.1530475    0.1142364  67.80 0.0006943399    1.626    0.385
        35 -10.0851     86.7981    143.6042   1.1262611386e+02   3.5081520223e+01    0.2058256    0.1384634  49.05 0.0004191891    1.626    0.385
        36 -12.4320     97.9934    139.1024   1.0849056352e+02   3.4287896264e+01    0.3064733     0.291738 -42.77 0.0004342969    1.047    0.045
        37 -11.0699    151.0117    182.9402   1.0419560798e+02   1.3649168196e+01    0.2312768    0.2219459 -78.17 0.0004836804    1.073    0.068
        38 -11.4782    105.9577    130.5558   1.0428532779e+02   3.4906258300e+01    0.4091113    0.3375984 -60.04  0.001231108    1.213    0.176
        39 -11.5397    103.8680    125.9867   1.0377413021e+02   3.6375397520e+01    0.3123613    0.2683674 -13.80 0.0007158325    1.320    0.242
        40 -11.1544    116.0850    129.8763   1.0133655171e+02   3.3130386053e+01    0.3616123    0.2883321 -18.22 0.0007449412    1.520    0.342
        41 -10.8986    135.7897    128.1449   9.5750572738e+01   2.9524729051e+01    0.5308065    0.1232753 -50.54  0.001278636    4.884    0.795
        42 -10.6738    160.3535    127.4372   8.9682546875e+01   2.4414224947e+01    0.4019634    0.2590836 -72.01   0.00157039    2.253    0.556
        43 -10.6121    120.6700    123.9297   9.8643771312e+01   3.3599436441e+01    0.2557872    0.1884922 -30.94  0.001160885    1.513    0.339
        44  -9.8655    135.0000    119.9510   9.3915839641e+01   3.1531510637e+01    0.2607072   0.08719768 -46.10 0.0008003695    2.928    0.658
        45 -10.0494    111.0433    118.9953   1.0003247367e+02   3.6630898796e+01    0.2204684    0.2170397 -64.97 0.0003259443    1.033    0.032
        46 -11.2463     69.0096    115.9849   1.1172905257e+02   4.4519901854e+01    0.2231349    0.2004893 -39.28 0.0004925546    1.030    0.029
        47 -11.5869     64.5713    114.4871   1.1276453213e+02   4.5500294778e+01    0.2626749    0.2197674  26.76  0.001457261    1.296    0.229
        48 -10.4988    168.2430    112.9664   8.4420733533e+01   2.5745305346e+01    0.3263105    0.2497714 -72.88 0.0009515212    1.506    0.336
        49 -10.5914    135.0000    111.4845   9.1756306838e+01   3.3375657015e+01    0.5109897   0.08655334 -44.88   0.00114516    5.824    0.828
        50 -10.4788    205.6244    110.1026   7.6570245779e+01   1.8132772531e+01    0.2595285    0.2103957  49.65 0.0006890021    1.366    0.268
        51 -11.5215     99.3122    180.8070   1.1649140153e+02   2.3658309979e+01    0.2995681     0.287756  55.29 0.0005564864    1.086    0.080
        52  -9.3260    128.6674     95.3158   8.9067615619e+01   3.8072015892e+01    0.1526255    0.1193261 -87.88 0.0003718656    1.686    0.407
        53  -9.9732     41.5318     91.9632   1.1491572011e+02   5.3405541670e+01    0.1871631    0.1658247 -12.27 0.0003875697    1.122    0.109
        54  -9.3568    152.5202     80.4831   7.9481809782e+01   3.5539242659e+01    0.1440811     0.138171  76.87 7.111833e-05    1.011    0.011
        55  -8.9364     73.4930     73.4871   9.8761881687e+01   5.2768260151e+01    0.1353333    0.1224822  -6.93 0.0001551704    1.013    0.013
        56 -12.2701    167.8201     67.7037   7.3130756482e+01   3.4167563049e+01    0.6482639    0.3721621 -81.09  0.001157449    3.111    0.679
        57  -9.5258    163.6521    239.7349   1.1158328438e+02  -5.7285569749e-01    0.1353177   0.09984413   5.50 0.0001731353    1.611    0.379
        58 -11.0677    158.5040    238.4928   1.1247567805e+02   5.0855066040e-01    0.2674563    0.1352732 -50.40  0.001209197    2.166    0.538
        59 -10.9887    169.0289    235.9893   1.0983719131e+02  -7.5347459994e-01    0.2169281    0.1867519 -38.67 0.0003476999    1.230    0.187
        60  -9.8385    220.5314    229.0701   9.8206756964e+01  -7.5833473432e+00    0.3088827    0.1160786 -52.27  0.001026078    4.679    0.786
        61 -12.2000    193.1755    195.0583   9.7282274303e+01   3.1567772259e+00     1.039735    0.5161968 -64.46  0.002980116    5.313    0.812
