#   1 NUMBER                 Running object number                                     
#   2 MAG_AUTO               Kron-like elliptical aperture magnitude                    [mag]
#   3 X_IMAGE                Object position along x                                    [pixel]
#   4 Y_IMAGE                Object position along y                                    [pixel]
#   5 X_WORLD                Barycenter position along world x axis                     [deg]
#   6 Y_WORLD                Barycenter position along world y axis                     [deg]
#   7 A_WORLD                Profile RMS along major axis (world units)                 [deg]
#   8 B_WORLD                Profile RMS along minor axis (world units)                 [deg]
#   9 THETA_WORLD            Position angle (CCW/world-x)                               [deg]
#  10 FWHM_WORLD             FWHM assuming a gaussian core                              [deg]
#  11 ELONGATION             A_IMAGE/B_IMAGE                                           
#  12 ELLIPTICITY            1 - B_IMAGE/A_IMAGE                                       
         1 -13.0119    190.8982     35.0709   5.9417931085e+01   3.2613096402e+01    0.8624222     0.709141 -60.68   0.00309007    1.066    0.062
         2 -13.5854    199.6204     24.0956   5.5792513728e+01   3.1882294145e+01    0.7706044     0.636466 -13.71  0.001766477    1.514    0.340
         3 -11.2595    221.8261      1.7111   4.9070044810e+01   2.9355751438e+01    0.3929861    0.1408143  80.04  0.001830148    2.728    0.633
         4  -9.9799    184.6537    216.3043   1.0033070065e+02   5.2485007245e+00     0.110514   0.09211369  47.20 0.0005830315    1.692    0.409
         5 -19.5629     12.6836    139.3818   1.3564287273e+02   4.5421446401e+01     20.18947     4.966399 -82.59   0.06189672    4.321    0.769
         6 -16.4094    151.1056      5.7087   5.5058599282e+01   4.5558348391e+01     5.474236     1.023032  76.43   0.01492784    5.274    0.810
         7 -10.1035     99.5109    180.9373   1.1423670280e+02   2.4522012438e+01    0.2213866    0.1776253  34.88 0.0005802262    1.110    0.099
         8 -10.0594    205.8269    180.6109   9.0361236929e+01   7.5333862559e+00    0.1639551    0.1115417  42.07 0.0007278394    1.691    0.409
         9 -12.0977     80.8034    172.9318   1.1820854881e+02   2.9175353247e+01     0.461692    0.3687304 -80.24 0.0008768549    1.390    0.281
        10 -12.2736     77.0917    177.8818   1.1992759673e+02   2.8567766184e+01    0.5443208    0.3992481  -6.37  0.002683229    1.854    0.461
        11 -16.3527     78.6988     10.7958   6.9827484526e+01   6.3946769573e+01     2.958187     1.560415  65.62   0.01149349    1.789    0.441
        12 -13.6773     87.9132    163.9635   1.1483294511e+02   3.0189636186e+01     2.343944    0.6110893  48.24 0.0006891709    6.044    0.835
        13 -13.4587     68.3684    144.2431   1.1760913947e+02   3.7991908377e+01    0.9841807    0.6524542  71.38  0.002977538    1.828    0.453
        14 -13.2112     76.3904    158.9296   1.1743766297e+02   3.3161950952e+01     0.703369     0.577882 -58.65  0.001026343    1.297    0.229
        15 -10.2438    195.6346    168.9445   9.0046819323e+01   1.0885512964e+01     0.254658    0.2140161  -7.69 0.0005625649    1.047    0.045
        16 -12.1413     94.1153    156.4510   1.1178584229e+02   3.0955563661e+01     0.620867    0.4297112 -21.72  0.001554226    2.035    0.508
        17  -9.8275    139.9955    156.8746   9.9563597202e+01   2.2720527004e+01    0.2166365    0.2017566  40.50 0.0004491863    1.099    0.090
        18  -9.8914    189.1491    154.8244   8.8492405761e+01   1.4270763292e+01    0.1951649    0.1509831  -0.15  0.001092677    1.341    0.254
        19 -10.8628    133.9263    145.0438   9.8636323484e+01   2.6320219777e+01    0.8937643    0.2163802 -52.83  0.002132111    6.182    0.838
        20 -10.8147    106.2916    140.7876   1.0525589821e+02   3.2499373587e+01    0.5071825    0.2965348 -26.97  0.001870378    2.731    0.634
        21 -11.6440     94.2084    141.1239   1.0891349868e+02   3.4592277582e+01    0.3038619    0.2778653 -17.23 0.0004446596    1.217    0.178
        22 -11.4675     61.1060    118.3339   1.1543473203e+02   4.5701134906e+01    0.4827715    0.3172868  -1.92  0.001994274    2.246    0.555
        23 -11.6357     66.3033    114.5548   1.1274706885e+02   4.5887806388e+01    0.6788607    0.3585615  24.37   0.00265173    2.145    0.534
        24 -13.2544     57.7194    127.9343   1.1844808601e+02   4.3692925321e+01    0.9538903    0.4426162 -74.70  0.003472536    2.645    0.622
        25  -9.0788    163.7552    204.9951   1.0275495365e+02   9.9286611264e+00    0.1516724    0.1064683 -37.54 0.0004320645    1.547    0.354
        26 -12.0080     69.3663    134.3276   1.1557075388e+02   4.0358364302e+01    0.5030418    0.2022996  40.28  0.001829984    2.305    0.566
        27 -10.8685    114.3218    130.8400   1.0078947422e+02   3.3264254599e+01    0.3154871    0.2677418 -26.46 0.0009491277    1.311    0.237
        28 -10.1283    105.8515    130.8020   1.0324387202e+02   3.4913762258e+01    0.3258785     0.291503  76.32  0.001375253    1.218    0.179
        29  -8.6074    144.7130    129.2941   9.2443274226e+01   2.7458204056e+01    0.1441639    0.1201244  87.51 0.0001926999    1.545    0.353
        30 -10.2835    101.5277    127.3653   1.0377511688e+02   3.6546603539e+01    0.2994839    0.2572111 -13.88   0.00086971    1.361    0.265
        31 -10.0270     95.0046    200.2909   1.1806284514e+02   2.1091461261e+01     0.250491    0.1766216  65.86  0.001197935    1.693    0.409
        32  -9.6145    125.6713    127.3190   9.6831860869e+01   3.1778329272e+01    0.1568842    0.1224848  79.24 0.0003526278    1.685    0.406
        33 -11.3327    193.6546    193.2348   9.4831751927e+01   7.4043991818e+00    0.5729375    0.3147777 -41.98   0.00303713    1.973    0.493
        34  -9.9178    109.8102    119.8153   9.9515093060e+01   3.6686200630e+01    0.2288061    0.2107264   1.07 0.0005788985    1.184    0.156
        35 -11.1132     81.9133    195.6816   1.2085455519e+02   2.3919424699e+01    0.3220069    0.2614538   0.23  0.001814185    1.475    0.322
        36  -9.4728    205.8048    110.1992   7.5959551570e+01   1.8588173609e+01    0.1785368    0.1514262   0.79 0.0006521296    1.302    0.232
        37 -11.2561     70.7298    104.5870   1.0882547601e+02   4.7696166108e+01    0.5779206     0.444598  32.04  0.002546201    1.301    0.231
        38 -11.1109     59.5065     92.9027   1.1030199746e+02   5.2437625723e+01    0.6734477    0.3108624  29.23  0.002540865    2.270    0.560
        39 -12.3401     68.7055     88.0023   1.0524244049e+02   5.2122950817e+01    0.8231394     0.728992  52.01  0.002605596    1.152    0.132
        40 -12.3981     79.7011     80.3295   9.8652407760e+01   5.1865654377e+01    0.9786499    0.6463911  20.58  0.003114528    1.951    0.487
        41 -12.6616     74.2727     73.5764   9.8563515802e+01   5.4440910925e+01     1.177713    0.5827042  43.70   0.00412133    1.985    0.496
        42 -11.5842     55.9726     69.1501   1.0491711465e+02   5.8725292812e+01    0.7077444    0.5031826 -50.93  0.002543851    1.410    0.291
        43 -10.1505     50.7109     63.6250   1.0554008912e+02   6.0829765255e+01    0.3663671    0.2182267 -54.26 0.0009483729    1.710    0.415
        44 -10.6366    162.9820     64.0116   7.1216341006e+01   3.5325619959e+01    0.3594725    0.2506063 -71.59  0.001009104    1.667    0.400
        45  -9.8207    163.4603     55.5297   6.8681242275e+01   3.6487596921e+01    0.1427034    0.1334856 -78.24 6.627658e-05    1.018    0.017
        46 -12.4614    180.1369     44.4842   6.3169978088e+01   3.3965539086e+01    0.5935241    0.4605728  -8.01   0.00101287    1.681    0.405
        47  -9.1933    171.7154    241.3638   1.0645972138e+02   3.4164289333e+00    0.1042224     0.086087  46.07 0.0007019601    1.688    0.407
        48 -11.5055    172.1415    221.4406   1.0356431410e+02   6.1879484916e+00    0.2449435    0.1930601 -49.60  0.001575386    1.748    0.428
