#   1 NUMBER                 Running object number                                     
#   2 MAG_AUTO               Kron-like elliptical aperture magnitude                    [mag]
#   3 X_IMAGE                Object position along x                                    [pixel]
#   4 Y_IMAGE                Object position along y                                    [pixel]
#   5 X_WORLD                Barycenter position along world x axis                     [deg]
#   6 Y_WORLD                Barycenter position along world y axis                     [deg]
#   7 A_WORLD                Profile RMS along major axis (world units)                 [deg]
#   8 B_WORLD                Profile RMS along minor axis (world units)                 [deg]
#   9 THETA_WORLD            Position angle (CCW/world-x)                               [deg]
#  10 FWHM_WORLD             FWHM assuming a gaussian core                              [deg]
#  11 ELONGATION             A_IMAGE/B_IMAGE                                           
#  12 ELLIPTICITY            1 - B_IMAGE/A_IMAGE                                       
         1 -13.6333    219.8523     10.1182   3.0076002959e+01   3.0045203098e+01      2.36221    0.9221571 -71.59  0.009906046    3.292    0.696
         2 -10.6443    229.5119      3.4762   2.8048398560e+01   2.8751580985e+01    0.3148983    0.2618589 -76.69  0.001470968    1.131    0.116
         3 -10.4922    224.6159      1.8136   2.8047147393e+01   2.9919693528e+01    0.3303612    0.1845779  89.50 0.0009708924    1.570    0.363
         4 -13.2769    244.7426      4.6654   2.7311191416e+01   2.5617849844e+01     1.265805     1.019834 -71.49  0.007025567    1.120    0.107
         5 -11.6787    198.0380      2.9925   3.0292326912e+01   3.5469172442e+01    0.3404544    0.2388694 -55.04  0.002200147    1.319    0.242
         6 -10.1146    143.5803      9.9716   3.8151300285e+01   4.7409493273e+01    0.3720348    0.2083171 -78.40  0.001746322    2.332    0.571
         7  -9.4760    167.3908      8.2127   3.4569068752e+01   4.1955340977e+01    0.1715456    0.1046721 -44.98 0.0009530185    1.689    0.408
         8  -8.4563    114.3525      8.6715   4.2668622695e+01   5.4372984495e+01    0.1288086   0.09271155 -73.92 0.0007047227    1.770    0.435
         9 -11.2480    203.5033      6.3704   3.0584610478e+01   3.3936789812e+01    0.2725309    0.1747825 -60.49 0.0009563098    1.393    0.282
        10 -10.5890    185.6373      9.1157   3.2842599493e+01   3.7653437149e+01    0.2133373    0.1476505 -87.30 0.0005933643    1.280    0.218
        11 -10.8678    182.8796      1.8533   3.1370578169e+01   3.8970827608e+01    0.2775218    0.1681113  61.11  0.001615244    1.567    0.362
        12  -9.2298    202.9860    131.4856   5.9924268485e+01   1.4836997545e+01    0.2142539    0.1465598  47.49  0.001038805    1.609    0.379
        13 -12.2516    157.1217    105.4321   6.2994317307e+01   2.9844522842e+01    0.7609855    0.5291563  87.94  0.002448467    2.264    0.558
        14 -11.4078    151.2641     98.2730   6.2427766404e+01   3.2611415581e+01    0.4358212    0.3499683  76.19  0.001335036    1.471    0.320
        15 -11.2290    184.2341     95.0807   5.4695425781e+01   2.5739835437e+01    0.3829373    0.2907104  85.00    0.0014695    1.599    0.375
        16  -9.7404    242.3337     88.7698   4.4369516527e+01   1.4770011189e+01    0.2043849    0.1859822 -70.48 0.0003354772    1.130    0.115
        17  -9.9596    188.0010     81.9871   5.0719937376e+01   2.7220205562e+01    0.2369502    0.1659429 -70.02 0.0006492286    1.670    0.401
        18  -9.0331    139.6307     79.3045   5.9819740960e+01   3.8919452800e+01    0.1564166     0.118969 -84.69 0.0007034022    1.751    0.429
        19  -9.7290     52.3943     79.2214   8.7630111031e+01   5.5607297085e+01    0.1916836    0.1293235 -59.47 0.0006338852    1.632    0.387
        20  -9.8660    236.9940     76.3617   4.2392592554e+01   1.7750002582e+01    0.2702667    0.1828606 -83.92  0.001481064    1.727    0.421
        21  -9.9105    117.6703     77.3481   6.4895103579e+01   4.4247797882e+01    0.2304312    0.1841228 -84.69 0.0007910021    1.701    0.412
        22 -10.7094    145.8546     75.1226   5.7153781631e+01   3.8219521917e+01    0.2714986    0.2066094 -31.74  0.001158736    1.389    0.280
        23  -9.0127     23.2007     75.3847   9.8534554296e+01   5.9531249193e+01    0.1720834    0.1151547  31.37 0.0009471347    1.735    0.424
        24 -11.0800    167.5527     73.1838   5.2109684112e+01   3.3444410292e+01    0.3022323    0.2292989 -84.03  0.001490187    1.549    0.354
        25  -8.8089    243.4616     71.9318   4.0720415643e+01   1.7179377689e+01    0.1927064    0.1056647 -42.26 0.0004414087    1.538    0.350
        26  -9.0497    195.5136     65.4876   4.5407190837e+01   2.8214481117e+01    0.2403571    0.1307515  76.49  0.001028079    2.274    0.560
        27  -9.2832    186.3048     64.8785   4.6664174065e+01   3.0412116592e+01     0.239974    0.1861243  80.87  0.000758649    1.317    0.241
        28  -9.7927    118.6566     62.6501   5.9971272802e+01   4.6632835016e+01    0.2975067    0.2179375 -80.68  0.001351453    2.065    0.516
        29 -10.4560    160.9423     61.4562   5.0125876874e+01   3.6908286776e+01    0.2845689    0.2002938 -11.92  0.001328958    1.976    0.494
        30  -9.0060    228.6816     57.3226   3.9265543170e+01   2.2267035866e+01     0.136742   0.08280778 -65.54 0.0004450773    1.669    0.401
        31 -11.7890    172.9363     39.6999   4.2156279779e+01   3.7145005140e+01    0.6288136    0.3013036 -49.94  0.002774153    2.210    0.547
        32 -10.7080    178.9723     54.3104   4.5091274052e+01   3.3712272528e+01    0.4544121    0.2578147 -83.35  0.001843576    2.660    0.624
        33 -11.0222    175.4474     48.4532   4.4098791342e+01   3.5376060008e+01    0.4740499    0.1764343 -40.01  0.001875033    2.570    0.611
        34  -8.7857    207.0032     54.4842   4.1190821292e+01   2.7291036933e+01    0.1940625    0.1246345  70.52  0.001021834    1.564    0.361
        35  -9.9808    154.2993     54.1569   4.9307839226e+01   3.9600386615e+01    0.2692239     0.178304 -86.94 0.0009853117    2.011    0.503
        36  -9.7909    125.4551     48.4893   5.3674650800e+01   4.7264647802e+01     0.321052    0.2111507 -74.99  0.001379741    2.456    0.593
        37  -8.1928    154.2560     47.6544   4.7438274511e+01   4.0541428483e+01    0.1410654    0.1013693 -66.07 0.0003084726    1.590    0.371
        38 -10.3244    247.5003     45.3403   3.4919953964e+01   2.0195671665e+01    0.3759963     0.231267  81.58  0.002247578    1.689    0.408
        39  -8.9787    186.3571     43.2889   4.1183001879e+01   3.3524998266e+01    0.1319195   0.09926722  38.79 0.0007025708    1.682    0.405
        40  -9.4068     31.1239     41.4376   8.4273356290e+01   6.5639387648e+01    0.2279412    0.1657298 -59.22  0.001125849    1.935    0.483
        41  -9.4876    206.5045     41.0694   3.8131620677e+01   2.9249605371e+01    0.1908543    0.1616226 -84.30 0.0009651579    1.057    0.054
        42 -10.1031    188.4057     38.8472   3.9800103344e+01   3.3633950732e+01    0.2237308    0.1924234  23.22 0.0006043296    1.566    0.361
        43  -8.9392     17.6836     38.3348   8.9818848499e+01   6.7521813707e+01    0.1046847   0.09771904  63.75 0.0005695855    1.693    0.409
        44 -10.8097    215.8447     35.5232   3.5870689896e+01   2.7930501630e+01    0.3887586    0.1883612 -57.56  0.001888467    2.029    0.507
        45  -9.5509    200.2342     35.4181   3.7531492860e+01   3.1376640259e+01    0.1805765    0.1120052  85.40  0.000576158    1.615    0.381
        46  -9.6899     90.7776     34.0183   5.7775002362e+01   5.6932121525e+01    0.2730053    0.2066208 -63.14  0.001439992    1.960    0.490
        47  -9.3938    164.0400     34.5489   4.2097391636e+01   3.9910212678e+01    0.2036403    0.1210678  65.93 0.0003867253    1.539    0.350
        48  -9.5865     36.8870     33.7296   7.8423583055e+01   6.6247627523e+01    0.2060684    0.1705033 -66.98  0.001154548    2.118    0.528
        49  -9.4328    182.5039     32.9939   3.9094202745e+01   3.5739587290e+01    0.2220249    0.1648721  55.01 0.0005395019    1.403    0.287
        50 -10.5280    174.4820     28.1286   3.8891454807e+01   3.8200453316e+01     0.423214    0.2329165  89.89  0.001958965    2.128    0.530
        51 -10.6549    208.0771     27.0068   3.4757313025e+01   3.0667668085e+01    0.2782805    0.2162354  73.94 0.0005052589    1.246    0.197
        52  -9.9859    193.6727     25.9586   3.6028282486e+01   3.4008747206e+01    0.1771455     0.152212 -70.13 0.0006452159    1.070    0.066
        53 -10.0480    164.0218     25.3270   3.9571676933e+01   4.0996058857e+01    0.2400242    0.1828369 -49.77 0.0007024038    1.352    0.260
        54 -11.0807    241.7298    246.5363   7.5227477148e+01  -1.0717028683e+01    0.3247174     0.280429  26.40  0.001709527    1.625    0.385
        55  -9.9076     15.4817    233.5372   1.2040913360e+02   2.2121343484e+01    0.2114245    0.1651256  70.04 0.0007805977    1.013    0.013
        56  -9.6308     12.5971    227.2733   1.2062010504e+02   2.3726224433e+01    0.2657359    0.1358412  61.95 0.0009905256    1.686    0.407
        57 -10.6296    201.2363     24.2870   3.4830741898e+01   3.2500580595e+01    0.2429847    0.1507214  86.19 0.0006387324    1.526    0.345
        58  -8.5082     57.6667     29.3249   6.7400470084e+01   6.3823080701e+01    0.1137216    0.1055068  86.95 0.0007051037    1.711    0.415
        59  -9.0288    159.6767     20.2970   3.8799904928e+01   4.2575546245e+01    0.1341007   0.09002058 -72.79 0.0007022513    1.623    0.384
        60  -9.2395    144.1473     17.8766   4.0409842994e+01   4.6523387023e+01    0.1988029    0.1635024 -85.05 0.0006015382    1.222    0.182
        61  -9.9819    183.7954     15.5923   3.4603318716e+01   3.7415953527e+01    0.2367145    0.1755318 -67.22  0.000700352    1.261    0.207
        62  -9.1567    107.9379     14.6563   4.6105886195e+01   5.5306612140e+01    0.1865475    0.1425664  60.34 0.0006918342    1.172    0.147
        63 -10.7482     35.1480    216.3567   1.1513578498e+02   2.3795276289e+01    0.3275883    0.2342829 -52.11  0.001377603    1.674    0.403
        64  -9.6241     54.2515    212.8208   1.1051564507e+02   2.2363030372e+01    0.3209785    0.1594932  53.50  0.001253305    1.954    0.488
        65  -9.5408     26.9903    207.9955   1.1627234003e+02   2.6566493042e+01    0.1871641    0.1435567 -44.03  0.001128874    1.688    0.408
        66  -8.6174    128.0073    206.7286   9.2155888638e+01   1.2863306035e+01     0.187898    0.1185467  35.33   0.00052808    1.484    0.326
        67 -10.7415     54.5111    194.7300   1.0852064422e+02   2.6589525525e+01     0.271663    0.2018702  76.09 0.0007375133    1.315    0.240
        68 -10.0604    169.2032    190.4072   7.9643032577e+01   9.2380410926e+00    0.2076781     0.132441  45.72 0.0009528418    1.699    0.412
        69 -11.5254    190.7276    182.2816   7.3361174808e+01   7.1060687427e+00    0.3477839    0.3086169   3.17 0.0009700679    1.065    0.061
