#   1 NUMBER                 Running object number                                     
#   2 MAG_AUTO               Kron-like elliptical aperture magnitude                    [mag]
#   3 X_IMAGE                Object position along x                                    [pixel]
#   4 Y_IMAGE                Object position along y                                    [pixel]
#   5 X_WORLD                Barycenter position along world x axis                     [deg]
#   6 Y_WORLD                Barycenter position along world y axis                     [deg]
#   7 A_WORLD                Profile RMS along major axis (world units)                 [deg]
#   8 B_WORLD                Profile RMS along minor axis (world units)                 [deg]
#   9 THETA_WORLD            Position angle (CCW/world-x)                               [deg]
#  10 FWHM_WORLD             FWHM assuming a gaussian core                              [deg]
#  11 ELONGATION             A_IMAGE/B_IMAGE                                           
#  12 ELLIPTICITY            1 - B_IMAGE/A_IMAGE                                       
         1 -14.6345    217.6726      4.8637   4.2606105104e+01   2.9166073957e+01     2.976228     1.645722  47.85   0.01144154    2.055    0.513
         2 -13.8721    190.5409     36.4933   5.4660155342e+01   3.2612030092e+01     0.928544    0.8550924 -16.78  0.003644381    1.051    0.048
         3 -14.1799    196.6374     29.3339   5.1708521096e+01   3.1903825552e+01     1.261611    0.9682422  -1.50  0.001481714    1.402    0.287
         4 -13.9299    177.7668     48.2152   6.0190950437e+01   3.4342869023e+01     1.730752     1.199241  29.15  0.004835057    1.656    0.396
         5 -12.3647     49.0976    233.3658   1.2308361735e+02   2.3635779488e+01    0.2426362    0.1328667  61.34 0.0009044902    1.560    0.359
         6 -16.9509     70.4995    146.4233   1.1089065419e+02   3.7128400153e+01     11.93625     5.485576  72.59   0.03835576    5.187    0.807
         7 -11.3151     69.3865    208.7665   1.1765178948e+02   2.5341852031e+01     0.179671    0.1239699  69.09 0.0005211849    1.396    0.284
         8 -10.6404     73.6414    207.3634   1.1669462306e+02   2.5071116280e+01    0.3807568    0.2582616  33.08  0.002583956    1.400    0.286
         9  -9.8851     43.7789    211.5598   1.2284093850e+02   2.7704318390e+01    0.2588725    0.1242381 -84.00  0.001355288    2.272    0.560
        10 -11.1314     39.2129    211.7446   1.2372752808e+02   2.8139846230e+01    0.2517303    0.1358244  77.88  0.001637301    1.844    0.458
        11 -11.2706     50.4928    208.1476   1.2132476758e+02   2.7577241017e+01    0.4289815    0.2290372  54.37  0.002763167    1.527    0.345
        12 -13.5578     58.0147    202.5671   1.1943916759e+02   2.7714882475e+01    0.4466189    0.3449819  76.16  0.001775585    1.219    0.180
        13 -10.7002     33.1320    206.0368   1.2459122834e+02   2.9725183433e+01    0.1454046    0.1355809 -20.22  0.001200607    1.610    0.379
        14 -11.4762     96.5214    200.7506   1.1147138877e+02   2.3275718896e+01    0.4316917    0.3006288 -26.45  0.001276549    2.324    0.570
        15 -12.2147    195.6001    197.3648   9.2042246493e+01   9.1784143907e+00    0.9639784    0.7831823  85.73  0.005797299    2.692    0.628
        16  -9.9670      2.6173    201.8782   1.3028553887e+02   3.3163455205e+01   0.08280162   0.05915408  26.05 0.0006204706    1.653    0.395
        17 -17.9256     27.4560    243.3954   1.2727727113e+02   2.4258717997e+01     7.165542     2.909305  31.89   0.04580983    2.186    0.543
        18  99.0000     38.8191    224.5765   1.2447694699e+02   2.6062544943e+01    0.3129661    0.1755937  67.54  0.002212936    1.578    0.366
        19 -12.2416     33.5181    198.6768   1.2411148588e+02   3.0988288258e+01    0.1946968    0.1447888  43.38 0.0005123744    1.221    0.181
        20 -19.1845     10.0232    104.1739   1.2311006909e+02   5.2894376289e+01     15.73987    0.8098478 -76.16   0.02804711   15.060    0.934
        21 -10.6894     80.5682    194.4518   1.1411044045e+02   2.6438288813e+01    0.3988598    0.1662094  44.43  0.001962435    1.958    0.489
        22 -10.7297     44.7239    195.4453   1.2163516056e+02   3.0432254559e+01    0.1721431    0.1256587  60.46 0.0003033895    1.102    0.092
        23 -11.2586     53.5901    231.4149   1.2217190017e+02   2.3463022184e+01    0.1731808    0.1324534  64.31  0.001423691    1.145    0.127
        24 -11.0261     97.5844    193.1680   1.1042639544e+02   2.4416689339e+01    0.3106819    0.2273539   6.09  0.001864191    1.996    0.499
        25 -10.8466     71.4509    178.9772   1.1451617644e+02   3.0426581307e+01    0.3011258    0.1767221  62.31  0.001703166    1.736    0.424
        26 -12.8373     67.5905    188.8408   1.1631555442e+02   2.9057570995e+01    0.6214549    0.5645904 -58.99  0.002879508    1.358    0.263
        27 -10.2069     73.5483    189.5722   1.1511477285e+02   2.8194470067e+01     0.164625   0.08662485  45.12            0    1.575    0.365
        28  -9.6289     39.8115    192.9552   1.2248272759e+02   3.1396452585e+01     0.178882    0.1311632  45.79 0.0008421728    1.183    0.155
        29  -9.2178     24.9126    191.7093   1.2547503152e+02   3.3077588556e+01    0.1341445   0.07281297  44.10 0.0002731016    1.481    0.325
        30 -12.5551    149.2595    187.2609   9.9085937487e+01   1.7728042099e+01     0.395337    0.3130247 -84.75  0.002223628    1.959    0.490
        31  99.0000     38.2941    220.6992   1.2437697344e+02   2.6742218886e+01    0.3032222    0.1382137  23.10  0.001645382    2.968    0.663
        32  -8.8286     59.4524    184.4765   1.1767471388e+02   3.0832380169e+01    0.1132576       0.0961  59.69 0.0005728162    1.046    0.044
        33 -11.8653     98.8755    181.0492   1.0871696651e+02   2.6373633434e+01    0.3621744    0.2689103  11.01  0.001792157    1.806    0.446
        34  -9.5062     65.2440    175.3814   1.1554025244e+02   3.1883689305e+01    0.1667238   0.09116184  45.13  0.000430294    1.566    0.361
        35  -9.7617     50.9656    172.6827   1.1852160788e+02   3.4076524783e+01    0.2283914    0.1258369  44.27 0.0007243146    1.554    0.356
        36 -10.1701     45.5063    172.0258   1.1970743467e+02   3.4803327583e+01    0.2746761    0.1258688  42.47  0.001421486    1.836    0.455
        37  -9.7436     42.4264    171.4861   1.2036420939e+02   3.5237302295e+01    0.2273313    0.1610348  59.98 0.0009225635    1.197    0.164
        38  -9.9577    163.1647    168.7098   9.3289632813e+01   1.8311807199e+01     0.192597    0.1755466 -53.41 0.0008455499    1.369    0.270
        39  -9.2346    200.5302    168.4555   8.6206968795e+01   1.2056647631e+01     0.125059    0.1046286  14.93 0.0001358881    1.032    0.031
        40 -10.5333     59.1797    228.3829   1.2097788831e+02   2.3329382152e+01    0.1389723    0.0892428  48.72 0.0004536601    1.158    0.136
        41 -10.0886    192.3658    164.7695   8.6987064993e+01   1.3921916606e+01    0.1997805    0.1854804  17.11 0.0006883889    1.207    0.171
        42  -9.2295     43.8799    220.1046   1.2330989266e+02   2.6272925994e+01    0.1601654    0.1202393 -67.70   0.00125468    1.631    0.387
        43 -10.7156    158.2748    161.7524   9.3031261569e+01   2.0248992149e+01    0.2358328    0.1713391  34.43 0.0007352234    1.236    0.191
        44 -12.8256     95.6333    153.7614   1.0570312157e+02   3.2052263267e+01    0.5993184    0.4724686 -18.11  0.003421298    1.753    0.430
        45 -10.4581    188.4690    154.9791   8.5820693476e+01   1.5980866739e+01    0.5116309    0.1621814  40.97  0.001960718    2.922    0.658
        46 -11.7265    133.8510    145.3595   9.5239402950e+01   2.7387066982e+01     1.077891    0.2915253 -53.12  0.003071615    5.611    0.822
        47 -10.3686    113.4657    151.4666   1.0107661404e+02   2.9706802624e+01    0.2873162    0.1879259  74.74  0.001093111    2.320    0.569
        48 -10.4772    174.3432    148.8330   8.7307783612e+01   1.9443973208e+01    0.2619221     0.238807  64.05  0.001132982    1.383    0.277
        49 -11.2004    144.3474    146.5859   9.3127013793e+01   2.5286117964e+01    0.4159042    0.2367616 -58.96   0.00184745    2.481    0.597
        50  -9.7180    114.3012    143.6349   9.9501244862e+01   3.1100060687e+01    0.1379699    0.1028443  77.19 0.0006911189    1.731    0.422
        51 -12.1924    107.6299    139.2902   1.0034164441e+02   3.3083681582e+01      0.50725    0.3696329 -24.41  0.002617321    1.848    0.459
        52 -10.2465     49.2154    216.8326   1.2211892807e+02   2.6252928560e+01    0.3033373    0.1993942  14.31  0.001961551    2.288    0.563
        53 -12.5755     95.2338    139.3349   1.0346913581e+02   3.5069746514e+01    0.2761102    0.2648179  10.79  0.000457631    1.167    0.143
        54 -11.3532    135.7801    127.7337   9.1179846353e+01   3.0344920388e+01    0.5389259    0.1550544 -47.68  0.001724096    3.783    0.736
        55 -11.2879    105.9292    130.9741   9.9202267243e+01   3.5076194140e+01    0.3860812    0.3009483 -60.95  0.002021179    1.344    0.256
        56 -11.2321    114.5231    129.9730   9.6823734209e+01   3.3800245840e+01    0.3068316    0.2639135 -19.55 0.0007166319    1.344    0.256
        57 -10.2187    160.4265    127.2630   8.5550151453e+01   2.5643302926e+01    0.3295943     0.231617 -56.59  0.001615729    1.828    0.453
        58 -11.1554    102.2044    125.9559   9.9179666059e+01   3.6755581997e+01    0.2846706    0.2359124 -16.84 0.0008260061    1.501    0.334
        59 -11.4383    119.8650    123.8032   9.4188487762e+01   3.4090181527e+01    0.5429714    0.3147408 -21.94  0.002035733    3.223    0.690
        60  -9.4122    152.4848    119.9375   8.5582519787e+01   2.8517544906e+01    0.2128391    0.1393943 -41.09  0.001019266    1.564    0.361
        61 -10.2697    109.9791    119.0056   9.5680921580e+01   3.6867329272e+01    0.2029825    0.1988856  48.22 0.0003255723    1.014    0.014
        62 -10.1449    167.9600    112.9216   8.0567146495e+01   2.6567267070e+01    0.3253773    0.2361938 -77.23  0.001446286    2.385    0.581
        63 -11.6606    118.6068    110.4911   9.1471310476e+01   3.7032973002e+01    0.5822701    0.3443286  58.64  0.002479488    2.133    0.531
        64 -10.1427    205.4535    110.1420   7.2851910246e+01   1.9260792165e+01    0.2877075    0.1861681  36.64 0.0008955004    1.556    0.357
        65  -9.6236    134.5177    106.0128   8.6347941427e+01   3.4771946722e+01    0.2254046     0.142981 -41.70 0.0009435359    1.585    0.369
        66 -10.4011     58.6516    214.1358   1.2014320895e+02   2.5674563083e+01    0.3870452    0.2956936   9.98 0.0009685207    1.908    0.476
        67 -11.1181     41.7597     91.9214   1.1080692619e+02   5.3085169740e+01    0.2051537     0.191889  37.52  0.000529547    1.205    0.170
        68  -9.8901    186.0235     85.9652   6.9988721708e+01   2.6971249575e+01    0.2274516    0.2138227 -12.32 0.0008704246    1.036    0.035
        69  -9.0115    154.6638     80.7031   7.4652347107e+01   3.5001754842e+01    0.1561575    0.1146947  16.35 0.0004711292    1.651    0.394
        70 -11.9047    162.0844     63.2030   6.7738899845e+01   3.6079356196e+01     0.440246    0.3262674 -76.08 0.0006121427    1.853    0.460
        71  -9.1616    169.2469    236.9797   1.0207548770e+02   8.2707393915e+00    0.1063356   0.08949035 -24.17 0.0003516331    1.485    0.327
        72 -11.3101     62.3120    236.2416   1.2089870947e+02   2.1790569275e+01    0.1724495    0.1289703  66.85  0.001317266    1.229    0.186
        73 -10.7671     51.7917    226.7551   1.2222871056e+02   2.4379631742e+01     0.178748   0.09516117  65.56 0.0006005445    1.768    0.434
        74 -11.7287    163.9877     55.9513   6.5050186989e+01   3.6697181685e+01    0.4130286    0.2907321  58.16 0.0005402755    1.470    0.320
