#   1 NUMBER                 Running object number                                     
#   2 MAG_AUTO               Kron-like elliptical aperture magnitude                    [mag]
#   3 X_IMAGE                Object position along x                                    [pixel]
#   4 Y_IMAGE                Object position along y                                    [pixel]
#   5 X_WORLD                Barycenter position along world x axis                     [deg]
#   6 Y_WORLD                Barycenter position along world y axis                     [deg]
#   7 A_WORLD                Profile RMS along major axis (world units)                 [deg]
#   8 B_WORLD                Profile RMS along minor axis (world units)                 [deg]
#   9 THETA_WORLD            Position angle (CCW/world-x)                               [deg]
#  10 FWHM_WORLD             FWHM assuming a gaussian core                              [deg]
#  11 ELONGATION             A_IMAGE/B_IMAGE                                           
#  12 ELLIPTICITY            1 - B_IMAGE/A_IMAGE                                       
         1  -7.9021    250.4791     11.1037   6.1408963981e+01   2.1195415514e+01    0.1940582    0.1185835 -32.26  0.001030174    1.585    0.369
         2  -8.5212    244.1544      4.1271   6.0258255122e+01   2.3422117440e+01       0.1974    0.1291088 -62.53  0.001088053    1.373    0.272
         3  -7.7040    184.6680    249.6738   1.2319189077e+02  -2.5410803704e-01    0.1162109   0.07613099  20.87 0.0007051174    1.710    0.415
         4  -7.6390    176.5198    250.4825   1.2469184399e+02   9.4501322762e-01    0.1171751   0.08804702  39.91 2.475885e-05    1.006    0.006
         5  -8.1309    153.6601    250.5393   1.2863904488e+02   4.5855395142e+00     0.217611   0.08895592  39.69 0.0008775466    1.978    0.495
         6  -9.0935    165.2204    246.4479   1.2614639215e+02   3.2806658333e+00    0.2726806    0.1668318  27.57  0.001334274    1.799    0.444
         7  -8.6459    144.1212    248.5996   1.3007324138e+02   6.3682837855e+00    0.1952336    0.1536594 -22.71  0.001322291    1.994    0.498
         8  -8.9469    127.4946    248.7022   1.3296893194e+02   8.9615739884e+00    0.3905441    0.1724319  31.36  0.001701448    3.424    0.708
         9  -7.6920      4.0165    248.8101   1.5300425068e+02   2.4792535610e+01    0.1457658   0.06532287  71.36  0.001023446    1.598    0.374
        10  -7.9567    113.7897    248.4001   1.3530493209e+02   1.1102031964e+01    0.1606669   0.08916335  38.07 0.0009446451    1.708    0.415
        11  -9.3341    176.5183    244.3509   1.2391200477e+02   1.7250650660e+00      0.52785     0.249097  23.69  0.002060879    4.289    0.767
        12  -9.3255    136.4708    246.4779   1.3117331017e+02   7.8822676924e+00      0.29288    0.1251894  33.65  0.001340101    2.801    0.643
        13  -8.2039     63.5208    247.4853   1.4369965267e+02   1.8301250245e+01     0.109168   0.07650212  63.62 0.0002765653    1.004    0.004
        14  -9.3384    150.4191    245.3751   1.2860681191e+02   5.8151579011e+00    0.2331002     0.174235  10.92  0.001471003    1.991    0.498
        15  -8.9228    195.7137    243.7318   1.2050320567e+02  -1.2993241072e+00    0.2794941    0.1299586  37.91  0.001516384    1.689    0.408
        16  -9.4555    170.5549    240.6212   1.2447585126e+02   3.1910938039e+00    0.5111688    0.2642822  21.48  0.002145534    3.778    0.735
        17  -7.8718    187.8895    239.8330   1.2132413321e+02   4.5019527475e-01    0.2537549    0.1103273  30.68  0.001161765    2.576    0.612
        18  -8.5429    119.9551    246.5080   1.3405483724e+02   1.0450880224e+01    0.1830951   0.08967525  43.08  0.001033899    1.614    0.380
        19  -8.1913    132.9460    241.0000   1.3119506699e+02   9.2509723547e+00    0.1977175   0.05310451  42.78   0.00079493    2.891    0.654
        20  -8.3930    156.9188    245.9057   1.2753066390e+02   4.6944089181e+00    0.2534555    0.1759856  17.71  0.001540144    1.986    0.497
        21  -8.9362    160.2292    235.9907   1.2571925287e+02   5.5390740329e+00    0.3032008    0.1403905  31.91  0.001410735    2.492    0.599
        22  -7.9161    148.1901    236.5449   1.2795317438e+02   7.4483052065e+00    0.3148247   0.09627817  41.07  0.001314733    2.687    0.628
        23  -8.6453    170.8476    234.4674   1.2361376796e+02   3.9833408643e+00    0.2107081    0.1562881 -16.50    0.0013143    1.919    0.479
        24  -7.6243    205.0044    234.4885   1.1758010354e+02  -1.6798294098e+00    0.1731538   0.08210542  26.63 0.0008095225    2.463    0.594
        25  -7.5165    202.7680    229.9749   1.1729916915e+02  -7.5314617505e-01    0.1347567    0.1000318 -30.48 0.0005844466    1.617    0.382
        26  -7.9065    189.2336    230.3355   1.1974748509e+02   1.4588769502e+00    0.2408566    0.1215891  31.96  0.001229729    1.903    0.475
        27  -8.0802    152.5227    227.6412   1.2604429387e+02   8.0613055730e+00    0.2452084    0.1636202  26.96  0.001404995    1.739    0.425
        28  -7.6306      4.1909    228.6463   1.5223896133e+02   2.8162327995e+01    0.1188929   0.08371528  40.43  0.000945064    1.716    0.417
        29  -8.4738    146.7986    242.3959   1.2889756176e+02   6.8221496288e+00    0.1681729    0.0908946  37.48 0.0006489457    1.632    0.387
        30  -7.9008    174.5052    222.9467   1.2134615466e+02   4.9957985366e+00    0.1643254    0.1252796 -39.16  0.001037135    1.618    0.382
        31  -7.3910    216.3253    220.0000   1.1336633180e+02  -1.7532021492e+00    0.1839296   0.09174172 -11.85 0.0007048995    4.292    0.767
        32  -8.0571    194.0191    219.9409   1.1733082794e+02   2.0446807501e+00    0.2012733     0.135611  15.01  0.001129483    1.771    0.435
        33  -7.9171    148.6783    219.6551   1.2570495244e+02   9.9630738654e+00     0.120804   0.09368757  14.93  0.000704995    1.732    0.423
        34  -7.1420    169.2784    213.6647   1.2095606356e+02   7.3003392317e+00     0.121611   0.09342564  71.24 0.0003588288    1.611    0.379
        35  -7.8154    186.3303    211.3589   1.1739788183e+02   4.6108789907e+00    0.1317026   0.09134386  13.92 0.0007042318    1.794    0.442
        36  -7.6932      4.6435    211.3260   1.5144304266e+02   3.1220570603e+01    0.1153407   0.04948717  64.94 0.0004162292    1.774    0.436
        37  -8.0573    219.2360    206.6333   1.1062019408e+02  -5.2612133072e-01    0.2662091    0.1436097 -25.58  0.001360417    2.185    0.542
        38  -7.9341    178.4704    208.0016   1.1834203048e+02   6.5252758036e+00    0.2662581    0.1480895  17.43  0.001041506    3.525    0.716
        39  -7.4734    206.7538    204.9978   1.1258189841e+02   1.8830574425e+00    0.1532617    0.1080935 -32.77 0.0008890923    1.605    0.377
        40  -8.1269    250.3111    199.5912   1.0403903125e+02  -4.8423323931e+00    0.2030143    0.1033429 -28.15  0.001072687    2.001    0.500
        41  -7.7461    210.3040    200.3214   1.1112539453e+02   1.9058627466e+00    0.1314649   0.09012806  13.54 0.0003399694    1.634    0.388
        42  -7.7820    243.5130    198.4872   1.0497171125e+02  -3.5958568426e+00    0.1248074     0.101737  14.87 -3.060157e-05    1.005    0.005
        43  -7.4131    202.3388    195.3437   1.1171285006e+02   4.0730061386e+00    0.1384341   0.09383641  13.44 0.0007048884    1.775    0.437
        44  -9.1155    184.5651    194.7927   1.1498817327e+02   7.4668003042e+00    0.2420688    0.2000469  31.34  0.001454482    1.100    0.091
        45  -8.3709    237.8198    193.3884   1.0500129042e+02  -1.9891619591e+00    0.2448364    0.1709873 -16.42   0.00144796    1.448    0.309
        46  -8.2569    231.1763    192.8983   1.0605940947e+02  -7.7513022500e-01    0.2232396    0.1540737  -3.24 0.0004131496    1.575    0.365
        47  -8.1064    224.5320    191.7112   1.0700955730e+02   5.5996963126e-01    0.2362619    0.1225673 -27.93  0.001145557    2.138    0.532
        48  -8.7386    243.7145    188.9722   1.0317149830e+02  -2.4234395018e+00    0.3537129    0.2413892  -3.26   0.00170888    1.516    0.340
        49  -8.5204    249.5693    183.9723   1.0123740339e+02  -2.7727846536e+00    0.3803836     0.222803  -3.89  0.001902719    2.105    0.525
        50  -7.0946    214.6840    190.6987   1.0859482528e+02   2.4836776269e+00    0.1343719   0.09204992  14.56 0.0007021279    1.616    0.381
        51  -8.0048    237.5117    186.4767   1.0375506738e+02  -1.0241237287e+00     0.234173    0.1145705 -20.19  0.001040748    2.547    0.607
        52  -9.0336    242.5586    178.3666   1.0132354712e+02  -8.1930824106e-01    0.4932608    0.2546506 -26.72  0.002424908    1.989    0.497
        53  -8.2241    230.8732    174.1493   1.0250766927e+02   1.8841232052e+00    0.3174143     0.154611 -22.99   0.00136611    2.493    0.599
        54  -7.8408    237.3919    167.8384   1.0009907353e+02   1.5826009905e+00    0.1905547    0.1173633 -18.10 0.0009485958    1.755    0.430
        55  -8.4401    244.5816    166.1958   9.8540436223e+01   4.9536274141e-01    0.3259036    0.1222275 -30.17  0.001309499    2.738    0.635
        56  -8.8359    245.2476    151.4961   9.5348929442e+01   2.4743206441e+00    0.3343122    0.1866555   3.74  0.001297732    3.145    0.682
        57  -8.2545    244.0000    147.9530   9.4792143653e+01   3.2323324830e+00    0.2212204   0.07259469 -33.55 0.0008001663    2.927    0.658
        58  -8.2963    234.4821    145.5000   9.5862643226e+01   5.4682518056e+00    0.2510347    0.1284744 -21.90 0.0008345776    2.326    0.570
        59  -7.2215    199.9689    144.0000   1.0186656440e+02   1.2928631650e+01      0.24323   0.08067817  48.30 0.0008000437    2.926    0.658
        60  -9.6210    242.1643    133.2449   9.1837180821e+01   5.8064521798e+00    0.3816834    0.1878184 -35.17  0.001681865    1.915    0.478
        61  -7.6934    129.9928    141.5166   1.1662456463e+02   2.8358782512e+01    0.2162538    0.1409034  44.07 0.0004143282    1.503    0.335
        62  -8.9427    232.0061    128.8132   9.2515617859e+01   8.5944193859e+00    0.2877973    0.2012082  -7.83  0.001133477    1.684    0.406
        63  -8.8608    247.7080    128.9536   8.9973172517e+01   5.3443820958e+00    0.2882862    0.2338171  41.46  0.001220764    1.288    0.223
        64  -9.6175    239.8777    123.9021   9.0069045259e+01   7.7177160627e+00    0.4830548    0.2768842 -25.02  0.002065562    1.788    0.441
        65  -8.4025    249.2211    123.8870   8.8581758080e+01   5.8045510306e+00    0.2857893    0.1852199 -28.00  0.001442791    1.442    0.307
        66  -9.3281    247.7978    116.1862   8.7023648595e+01   7.2627235438e+00    0.4280594    0.2350917 -34.85   0.00173368    1.670    0.401
        67  -9.1903    231.2480    114.3040   8.9214791004e+01   1.1085619252e+01    0.6195192    0.2555633 -38.14   0.00238906    2.278    0.561
        68 -10.0795    241.3246    108.2598   8.6149736477e+01   9.8508910908e+00    0.5379108    0.2818552 -22.03      0.00222    2.199    0.545
        69  -7.6220    126.9613    126.0723   1.1400861168e+02   3.2326114055e+01    0.1783128    0.1625409 -63.80 0.0004519021    1.087    0.080
        70  -8.1668    230.4504    101.6882   8.6264367702e+01   1.3295026060e+01    0.2579764    0.1719781  33.07  0.001189912    1.766    0.434
        71  -9.3182    242.0000     93.4462   8.2461552154e+01   1.1999555123e+01    0.5349607     0.107272 -34.59  0.001509789    4.215    0.763
        72  -8.9724    248.5933     96.7393   8.2303952904e+01   1.0055107932e+01    0.2748826    0.1301036 -28.42  0.001131313    2.081    0.519
        73  -8.0722    249.7436     86.9169   7.9777311818e+01   1.1283349752e+01    0.1867598     0.112899 -30.30 0.0008791544    1.544    0.352
        74  -7.4681    242.6982     37.6792   6.8511514260e+01   1.9837876438e+01    0.1316471    0.1059118  26.76 0.0005889075    1.628    0.386
        75  -9.9943    143.4050     26.6839   7.9723979279e+01   4.6830541146e+01    0.2626379    0.2360093  41.99 0.0002399105    1.065    0.061
        76  -9.0299    246.8278     16.4454   6.2960089878e+01   2.1443541001e+01    0.2111744    0.1575551 -28.32 0.0008864409    1.413    0.292
        77  -8.1353    193.1690    249.2559   1.2168531943e+02  -1.5537213268e+00    0.1899106    0.1066597  15.57 0.0009539869    2.791    0.642
