#   1 NUMBER                 Running object number                                     
#   2 MAG_AUTO               Kron-like elliptical aperture magnitude                    [mag]
#   3 X_IMAGE                Object position along x                                    [pixel]
#   4 Y_IMAGE                Object position along y                                    [pixel]
#   5 X_WORLD                Barycenter position along world x axis                     [deg]
#   6 Y_WORLD                Barycenter position along world y axis                     [deg]
#   7 A_WORLD                Profile RMS along major axis (world units)                 [deg]
#   8 B_WORLD                Profile RMS along minor axis (world units)                 [deg]
#   9 THETA_WORLD            Position angle (CCW/world-x)                               [deg]
#  10 FWHM_WORLD             FWHM assuming a gaussian core                              [deg]
#  11 ELONGATION             A_IMAGE/B_IMAGE                                           
#  12 ELLIPTICITY            1 - B_IMAGE/A_IMAGE                                       
         1 -14.3254    194.9576     14.0538   6.9259203417e+01   3.4537029178e+01     2.423295     1.565701   1.53  0.008560686    1.789    0.441
         2 -14.0700    200.9289      7.4382   6.6683156278e+01   3.3673719032e+01     3.105471     1.414959  30.83  0.002013134    3.276    0.695
         3 -11.0986     32.1735      2.8696   1.0696308517e+02   7.3238805245e+01    0.2769355     0.236656 -71.05  0.001674058    1.927    0.481
         4 -15.1610      2.9457     18.3806   1.3408677285e+02   7.2895785977e+01     21.57543     1.757797 -66.67   0.03497452   18.292    0.945
         5 -11.8277    247.6272    249.2965   1.1353506768e+02  -2.5342663639e+00    0.4021339    0.2388442  43.39  0.002743502    2.530    0.605
         6 -11.0732    109.6420    249.7557   1.3623240606e+02   1.4156519304e+01    0.2020926    0.1867288  59.97  0.001074371    1.288    0.224
         7 -11.1992     98.5636    249.5532   1.3813993566e+02   1.5472599589e+01    0.2657319    0.2011968  69.32  0.002168002    1.492    0.330
         8 -11.6050    102.6308    247.7899   1.3729405071e+02   1.5237264809e+01    0.2961296    0.2005892  43.21 0.0005250594    1.118    0.106
         9 -10.7656     88.9749    249.0294   1.3976552493e+02   1.6632457496e+01    0.2085088    0.1082753  42.28 0.0006465387    1.402    0.287
        10 -11.7084     83.6611    244.4253   1.4036800606e+02   1.7864533109e+01    0.3973589    0.1947833  59.29  0.002254853    2.205    0.546
        11 -11.2328     81.6676    248.5039   1.4099622477e+02   1.7516444323e+01    0.2997974     0.186438  59.54  0.001309869    1.532    0.347
        12 -10.7360     77.5293    244.5020   1.4144989144e+02   1.8531100391e+01    0.2458644   0.09858277  40.39  0.001445483    1.774    0.436
        13  -9.9256     74.2949    250.4218   1.4239121612e+02   1.8050888664e+01    0.1858877   0.07822476  31.33 0.0007083545    2.053    0.513
        14 -11.7437     66.7139    249.9388   1.4366013036e+02   1.8919995768e+01     0.378077    0.2832814  17.44  0.001880296    1.683    0.406
        15 -11.8606     66.9731    243.3919   1.4322771061e+02   1.9825520132e+01    0.3643352    0.1981919  42.77  0.001668016    1.340    0.254
        16 -14.6815     35.1703    246.5082   1.4883636377e+02   2.2523050514e+01     10.64486     2.719286  24.89   0.02582474   16.239    0.938
        17 -14.8819     57.3472    218.5083   1.4341827628e+02   2.4681345196e+01       2.7475     1.141898  39.73   0.01370839    1.823    0.451
        18 -10.7938    128.4921    245.3441   1.3255073676e+02   1.2451189387e+01    0.1944836   0.07455886  35.63 0.0009455561    1.942    0.485
        19  -9.9350    228.9445    228.5603   1.1348770963e+02   1.4826095459e+00    0.2269166    0.1696406 -56.21  0.001345041    3.941    0.746
        20 -11.2497    124.2282    249.9949   1.3372408738e+02   1.2384817920e+01    0.3816787   0.09922485  36.85   0.00183921    2.733    0.634
        21 -11.1997    174.0645    222.1206   1.2180743333e+02   9.4119132987e+00    0.2947835    0.2114559  42.45  0.001472811    1.425    0.298
        22  -9.2039    152.6739    212.9496   1.2451372027e+02   1.3565123941e+01    0.1441641    0.1286386  17.44 0.0003193295    1.141    0.124
        23 -10.4995     33.6669    206.2035   1.4724798961e+02   2.9124141323e+01    0.2925278    0.1377498  35.07  0.001468939    1.801    0.445
        24  -9.8914    185.8613    238.8694   1.2192399784e+02   5.9248968428e+00     0.135466    0.1079158  34.39 0.0004563553    1.328    0.247
        25 -11.6837     72.4034    196.7492   1.3874703556e+02   2.6739146609e+01    0.3432682    0.2351791 -38.97  0.001799505    2.072    0.517
        26 -11.7458     77.0483    189.4843   1.3708067171e+02   2.7499055043e+01    0.2438409    0.2075595 -40.08 0.0006634973    1.487    0.328
        27 -10.5527    192.6637    194.1166   1.1433402528e+02   1.0265760746e+01    0.5507454    0.3057402 -58.42  0.001995111    6.568    0.848
        28 -11.1576     85.3344    177.2661   1.3394554229e+02   2.8742377557e+01    0.2151775    0.2012995  72.39 0.0003521448    1.089    0.082
        29 -13.2903     73.0920    174.9040   1.3645485718e+02   3.0731847921e+01    0.4229457    0.2562377 -41.00  0.001579376    2.255    0.557
        30 -10.4706    119.0069    175.1600   1.2614858842e+02   2.4434757611e+01     0.300455    0.1751066  22.05  0.001492738    2.054    0.513
        31 -12.1735     50.3450    129.8033   1.3687493219e+02   4.2938330800e+01    0.4449335    0.2718422  51.85  0.001506935    1.649    0.394
        32 -13.1209     57.7663    130.6281   1.3490782835e+02   4.1923281806e+01     1.630478    0.5803397 -78.89  0.004953784    5.239    0.809
        33 -12.5956     91.7980    168.2991   1.3135702096e+02   2.9610271821e+01     1.498384    0.4705917  46.75   0.00572003    3.269    0.694
        34 -12.1478     91.9955    151.0017   1.2886659123e+02   3.3049999621e+01    0.2581274    0.2362181  -6.47 0.0004981172    1.267    0.211
        35 -11.9322     47.0931    148.6256   1.3993619491e+02   3.9097820763e+01    0.4059083     0.240991 -76.48  0.002288576    1.619    0.382
        36  -9.6906    134.0000    144.4833   1.1755031964e+02   2.7689202650e+01    0.3771345   0.07756536 -47.64  0.001073567    5.138    0.805
        37 -13.8619     11.0929    206.8788   1.5159506534e+02   3.0967812326e+01     1.026093    0.7107679  36.32  0.002621509    1.383    0.277
        38  -8.6598    192.4193    144.4124   1.0514198860e+02   1.7244222552e+01     0.132801    0.1152867   7.60 0.0001040258    1.025    0.024
        39 -13.4061     67.4511    144.1735   1.3414596190e+02   3.7761812682e+01     1.382303    0.7113944  79.56  0.005604301    3.260    0.693
        40 -10.1017    112.8211    136.6918   1.2118548884e+02   3.2798830259e+01    0.3274544    0.2378868  -7.19  0.001127147    1.943    0.485
        41 -10.7183    100.4442    134.0373   1.2386413946e+02   3.5337962102e+01    0.2729499    0.2252086 -27.50 0.0006193249    1.393    0.282
        42 -11.0233     70.1766    134.9236   1.3210906587e+02   3.9451502878e+01    0.3874747    0.1628347  36.83  0.001710779    2.271    0.560
        43 -12.9374     49.6375    230.9225   1.4558640733e+02   2.3486423344e+01    0.3207101    0.3068066   4.63  0.001121821    1.473    0.321
        44 -11.9379     42.8902    129.7073   1.3895480068e+02   4.3733008345e+01    0.3772199    0.1811683  35.08  0.001887902    2.047    0.511
        45  -9.5360    118.3339    128.8936   1.1823645838e+02   3.3460347370e+01    0.3456606    0.1911429 -16.88  0.001023569    5.261    0.810
        46  -9.4305    108.9424    123.8157   1.1961498123e+02   3.6118412238e+01    0.1961694    0.1795153   3.82 0.0003064605    1.168    0.144
        47 -10.3210    102.7282    151.5249   1.2630225216e+02   3.1373473844e+01    0.3253309    0.2704076  -1.46   0.00106868    1.468    0.319
        48 -11.0161    168.3608    113.4108   1.0288470820e+02   2.6842733051e+01    0.3745704    0.3156202 -71.96  0.001240266    1.650    0.394
        49  -9.4391    105.4649    147.0629   1.2489162290e+02   3.1859021360e+01    0.2586633    0.1778304 -29.54  0.001320974    1.876    0.467
        50 -15.6664      9.3881    240.2632   1.5291613523e+02   2.5697960600e+01     6.976511     1.130334 -72.25   0.03285072    5.648    0.823
        51 -12.3213    140.0992    248.5547   1.3084425435e+02   1.0620031967e+01    0.3942057    0.3056296  45.80  0.003187692    1.283    0.221
        52 -10.7945    163.0239    249.0483   1.2697658922e+02   7.7057097767e+00    0.2197406    0.1128342  34.19  0.001450792    1.425    0.298
