#   1 NUMBER                 Running object number                                     
#   2 MAG_AUTO               Kron-like elliptical aperture magnitude                    [mag]
#   3 X_IMAGE                Object position along x                                    [pixel]
#   4 Y_IMAGE                Object position along y                                    [pixel]
#   5 X_WORLD                Barycenter position along world x axis                     [deg]
#   6 Y_WORLD                Barycenter position along world y axis                     [deg]
#   7 A_WORLD                Profile RMS along major axis (world units)                 [deg]
#   8 B_WORLD                Profile RMS along minor axis (world units)                 [deg]
#   9 THETA_WORLD            Position angle (CCW/world-x)                               [deg]
#  10 FWHM_WORLD             FWHM assuming a gaussian core                              [deg]
#  11 ELONGATION             A_IMAGE/B_IMAGE                                           
#  12 ELLIPTICITY            1 - B_IMAGE/A_IMAGE                                       
         1 -13.9045    215.3219      9.4342   3.8418689497e+01   3.0242214339e+01     1.955557        1.144  44.75  0.009137808    2.167    0.539
         2 -13.0486    175.5492     54.0098   5.5877386323e+01   3.4409416310e+01     1.686669     1.092952  23.78  0.005298005    2.227    0.551
         3 -13.5484    190.8314     39.8585   4.9305840459e+01   3.2590895433e+01     1.185099    0.9835111 -21.61  0.004140231    1.328    0.247
         4 -12.7099    195.5843     34.4270   4.7130861422e+01   3.2119815003e+01     0.586825    0.5646782  -7.76  0.001189484    1.183    0.155
         5 -10.4594    189.6437     14.7067   4.2461292279e+01   3.5896138738e+01    0.2581502    0.2181918 -72.79 0.0007769776    1.128    0.114
         6 -10.6169     47.0113     10.5101   7.4748475363e+01   6.7926202988e+01    0.1796092    0.1083256  33.93  0.001039166    1.609    0.378
         7 -10.3881     66.4953    204.5200   1.1551012436e+02   2.3654959326e+01    0.2849167    0.1807934 -47.41 0.0008356057    2.083    0.520
         8 -12.3837    248.2971    244.5974   8.5562356904e+01  -1.0814097896e+01    0.6808675    0.4299951 -40.35  0.004282866    2.242    0.554
         9 -19.5241     21.2954    146.4980   1.1973772546e+02   4.1793612644e+01     19.26203     4.835475 -75.25   0.06695354    3.780    0.735
        10  99.0000     70.6666    200.1965   1.1417577820e+02   2.4010897924e+01    0.1930253    0.1807874 -38.15 0.0005882931    1.431    0.301
        11 -10.9268    192.9498    194.9576   8.7123037777e+01   4.6267273530e+00    0.9114445    0.4612669 -60.44  0.002881787    5.405    0.815
        12  -8.9668    186.8370    186.6073   8.6781245969e+01   7.1806068162e+00     0.217511    0.1826743  84.50  0.000784485    1.751    0.429
        13 -10.3818     56.6166    201.3607   1.1725197690e+02   2.5588731718e+01    0.3085586    0.2019784 -40.24  0.001663135    2.385    0.581
        14 -11.8791     58.8485    195.2032   1.1616904756e+02   2.6628539146e+01    0.4173113     0.256916 -52.18  0.001377772    1.915    0.478
        15 -10.7841     55.1643    222.7487   1.1943947884e+02   2.1404820855e+01    0.1659483    0.1174608  62.51 0.0004587849    1.146    0.127
        16  -9.7591     75.0749    250.2741   1.1800272874e+02   1.3776718221e+01    0.2140663    0.1037498 -57.19  0.001207734    2.525    0.604
        17  -9.8069     82.0547    194.9491   1.1110464302e+02   2.3544922591e+01    0.2099613    0.1724291  54.02 0.0004999939    1.127    0.113
        18  -9.3530     61.3214    219.9266   1.1801325677e+02   2.1186854959e+01    0.1344803     0.120989 -58.61  0.000560457    1.458    0.314
        19 -11.7909    149.7117    188.5386   9.5064926651e+01   1.3659800312e+01    0.5274125     0.369566 -75.05  0.001592952    2.052    0.513
        20 -10.7923     95.3343    188.4955   1.0729259344e+02   2.2959044170e+01    0.4577664    0.3656518  80.25  0.001579859    1.246    0.198
        21  99.0000     49.0843    218.4354   1.2025463114e+02   2.2996702009e+01    0.2777067    0.1528336  79.02  0.001567298    1.792    0.442
        22 -11.7322    143.8258    178.6861   9.4604776409e+01   1.6734177808e+01    0.5542243    0.2848351 -48.95  0.002178617    2.047    0.511
        23 -11.1300     99.0465    181.0683   1.0536248477e+02   2.4010102072e+01    0.4680867     0.305922 -43.65  0.001568155    1.818    0.450
        24 -10.2381    188.5101    176.6889   8.4478930350e+01   8.6578611156e+00    0.3966227    0.3324116 -60.34  0.001852777    1.499    0.333
        25 -11.3827    238.5271    174.1826   7.4363963680e+01   4.9926082755e-02    0.3110284    0.1819438  43.56  0.001570744    1.866    0.464
        26  -9.5397     83.9555    173.6923   1.0783023533e+02   2.8001102806e+01    0.2211969    0.1722918 -58.47 0.0004106421    1.303    0.232
        27  -8.8332    194.3243    171.9568   8.2314700577e+01   8.4153183348e+00    0.2010594    0.1802327 -18.14 0.0009367843    1.087    0.080
        28 -10.8833    139.5916    171.5212   9.4239654253e+01   1.9028028544e+01    0.4039526    0.2629715  48.92  0.001896698    1.529    0.346
        29 -10.5853     56.3193    217.8845   1.1881047357e+02   2.2223314564e+01    0.2965643    0.1437539  77.95  0.001438266    2.450    0.592
        30  -9.8065    184.8503    212.5674   9.1879660636e+01   3.1180239947e+00     0.239241    0.1834412 -64.28   0.00132445    1.931    0.482
        31 -10.4795     37.5737    211.9556   1.2196743351e+02   2.5633065475e+01    0.1542207    0.1134919  75.25 0.0001508293    1.076    0.070
        32 -10.2519    149.6421    177.5543   9.3078273878e+01   1.5880621662e+01    0.2522123    0.2394994  86.66 0.0005863569    1.143    0.125
        33 -10.3327    240.1832    169.1595   7.3036494080e+01   5.5218466698e-01    0.1726365    0.1576657 -38.76 0.0005928497    1.339    0.253
        34 -10.2292    230.5538    167.8044   7.4462257704e+01   2.4384079582e+00    0.3211829    0.1137927 -44.14  0.001148219    3.226    0.690
        35  -9.2847    187.7556    163.0335   8.1794177787e+01   1.1347843695e+01    0.3053779     0.196421 -52.75 0.0009839236    1.848    0.459
        36 -10.9570     90.2997    157.7737   1.0376590753e+02   3.0746101716e+01    0.2794341    0.2562365 -52.95 0.0004933096    1.159    0.137
        37 -11.5686     96.1914    151.1945   1.0109212600e+02   3.1362094116e+01    0.6123518     0.488829 -25.05  0.003142631    1.602    0.376
        38 -10.7697    133.8521    145.5784   9.0340407249e+01   2.5837686120e+01     1.259174    0.3148072 -54.41  0.002921588    5.958    0.832
        39 -10.0572    187.4733    151.8192   7.9392592735e+01   1.3554789774e+01    0.2762708    0.2439294  89.13  0.001316942    1.460    0.315
        40  -9.1931    113.0025    150.9884   9.6729720412e+01   2.8525667627e+01     0.241776    0.1789002  80.37  0.000899196    1.702    0.412
        41  -8.5363    139.2802    150.6657   9.0106020382e+01   2.3629439265e+01    0.1513965    0.1201552  88.53 0.0003581608    1.612    0.380
        42  -9.5472    174.8712    149.1289   8.1499438688e+01   1.6686900721e+01    0.2327724    0.2107431  88.68 0.0008135237    1.332    0.249
        43  -9.3053    108.9026    147.1181   9.7012678737e+01   3.0160892676e+01     0.227156    0.1906113  78.18 0.0004587096    1.298    0.230
        44  -9.7191    143.4914    145.4683   8.7946002732e+01   2.3936318106e+01    0.2839229    0.1460146 -58.44   0.00103531    2.432    0.589
        45 -10.9459    107.8244    137.8420   9.5380855271e+01   3.2541445707e+01    0.6203015    0.4238898 -44.56  0.002905774    1.481    0.325
        46 -10.8602    105.6101    130.9516   9.4481624601e+01   3.4570767275e+01    0.4578842    0.4068751 -18.70  0.002422073    1.279    0.218
        47 -11.6633     95.9400    137.1152   9.8430389910e+01   3.4768981531e+01    0.3079124    0.2727511 -75.73 0.0003949472    1.107    0.097
        48 -10.2487    114.8243    128.8247   9.1499035570e+01   3.3377497075e+01    0.3339608    0.2998857 -14.53 0.0007419599    1.249    0.199
        49  -9.3919    160.7249    128.5692   7.9846129154e+01   2.3966955353e+01    0.2799502    0.1990188 -64.46  0.001204331    1.782    0.439
        50 -10.1615    135.0937    121.9518   8.4484175917e+01   3.0909676578e+01     0.704547   0.08548687 -45.15  0.001315315    8.115    0.877
        51 -10.4055    120.0743    123.2130   8.8752761835e+01   3.3670656011e+01    0.4714906    0.2722579 -30.63  0.001499211    2.303    0.566
        52 -10.4311    102.4455    124.5500   9.3911919274e+01   3.6654272485e+01    0.2878565    0.2405955 -23.00 0.0003223089    1.377    0.274
        53  -9.0213     56.6499    210.8047   1.1812447620e+02   2.3614611698e+01    0.2310088   0.09686922 -65.43  0.001117843    2.306    0.566
        54  -9.3621    110.0323    118.0686   9.0248941330e+01   3.6794011984e+01     0.221168    0.2136779 -62.35 0.0003169083    1.026    0.026
        55  -9.9559    231.2264    113.7724   6.2180894211e+01   1.1437308630e+01    0.2642058    0.2493651  26.89  0.000727072    1.149    0.130
        56  -9.4073    167.6115    112.4247   7.4135219257e+01   2.5783443978e+01    0.3413127    0.2452572 -71.98   0.00143147    1.965    0.491
        57 -11.2901    118.7021    110.5358   8.5922619659e+01   3.6843094781e+01     0.662939    0.4493628  67.41   0.00265309    2.074    0.518
        58  -9.6438    205.4157    110.2222   6.5805880921e+01   1.7607763536e+01    0.3103988    0.2503642  45.02 0.0009502911    1.308    0.236
        59  -9.7994    134.5300    105.7965   8.0391534712e+01   3.4592169834e+01    0.3938362    0.1509535 -46.45  0.001294272    2.596    0.615
        60  99.0000     43.7040    210.2508   1.2064405453e+02   2.5284670630e+01    0.3470043    0.1542751  71.04  0.001463415    2.549    0.608
        61  99.0000     43.5999    205.3833   1.2026742675e+02   2.6303350546e+01    0.2551915    0.1985403 -10.16   0.00135271    2.360    0.576
        62  -9.5522    160.5121    205.5165   9.5654305761e+01   8.5268824983e+00    0.1359665    0.1203906  26.91   0.00080988    1.048    0.045
        63  -8.8521     93.8224    205.3930   1.0984256176e+02   1.9611746623e+01    0.2021806    0.1654008 -24.36 0.0008051127    1.788    0.441
        64  -8.6575    154.3346     82.2991   6.8725628431e+01   3.4838860964e+01    0.1604429    0.1223001  14.90 0.0007032792    1.653    0.395
        65  -8.9511     68.8684     71.8740   9.0442562393e+01   5.4171007661e+01    0.2023641     0.170042 -22.22            0    1.132    0.117
        66 -10.1517     71.8436    245.1423   1.1816789465e+02   1.5096835711e+01    0.1874684    0.1439663 -63.13 0.0009667095    1.587    0.370
        67 -11.5095    248.8232    229.8497   8.3022352339e+01  -9.1839846779e+00    0.3672228    0.1971379 -16.84  0.002074029    1.890    0.471
        68  -8.4302    167.6023    230.5193   9.8131804993e+01   3.1242449241e+00    0.1246663    0.1066706  32.72 0.0001206262    1.034    0.033
        69  -9.9221     58.6424    229.0871   1.1929673336e+02   1.9746104963e+01     0.149153    0.1150824  85.48 0.0003773433    1.174    0.148
        70 -10.1718     96.4757    202.0266   1.0885040334e+02   1.9904721297e+01    0.2752488    0.2255557 -74.97  0.001207319    1.246    0.197
        71 -11.4073     50.4443    224.7283   1.2049028102e+02   2.1595029440e+01    0.2129837    0.1344983  73.16  0.000647596    1.385    0.278
