#   1 NUMBER                 Running object number                                     
#   2 MAG_AUTO               Kron-like elliptical aperture magnitude                    [mag]
#   3 X_IMAGE                Object position along x                                    [pixel]
#   4 Y_IMAGE                Object position along y                                    [pixel]
#   5 X_WORLD                Barycenter position along world x axis                     [deg]
#   6 Y_WORLD                Barycenter position along world y axis                     [deg]
#   7 A_WORLD                Profile RMS along major axis (world units)                 [deg]
#   8 B_WORLD                Profile RMS along minor axis (world units)                 [deg]
#   9 THETA_WORLD            Position angle (CCW/world-x)                               [deg]
#  10 FWHM_WORLD             FWHM assuming a gaussian core                              [deg]
#  11 ELONGATION             A_IMAGE/B_IMAGE                                           
#  12 ELLIPTICITY            1 - B_IMAGE/A_IMAGE                                       
         1 -12.4385     84.0865     23.6523   5.0741666570e+01   5.9555036909e+01    0.5320786    0.3478938 -63.22  0.002347466    3.144    0.682
         2 -11.2595    101.6690     25.1459   4.6004918353e+01   5.6017745424e+01    0.2156292    0.1650032 -41.87  0.001179828    1.447    0.309
         3 -12.2859    210.5984      8.0889   1.9679652333e+01   3.0996482129e+01    0.4399009     0.215565 -45.15  0.001903032    2.029    0.507
         4 -10.9388     85.3784     11.1695   4.4983900558e+01   6.0987145240e+01    0.1837316    0.1083809 -35.36 0.0009491593    1.742    0.426
         5 -11.4249    144.6918      6.0944   2.8545824005e+01   4.8400976924e+01    0.4146874     0.248425  11.59  0.001856092    2.123    0.529
         6 -10.7676     67.1921      1.8454   4.6662772496e+01   6.5260123085e+01    0.1716833    0.1501929  -8.58 0.0004716126    1.189    0.159
         7 -10.2796     35.6728      1.7212   5.9052137196e+01   6.9672095146e+01    0.1156707   0.07194294  -6.78 0.0003608615    1.595    0.373
         8  99.0000     17.5635    242.6657   1.0450699462e+02   2.4123167239e+01    0.3015914    0.1373069  66.59  0.002152767    1.553    0.356
         9 -15.9767     27.9434    146.2927   9.6238059421e+01   4.1268115630e+01     2.596534     1.970875 -78.06   0.01658668    1.128    0.113
        10 -11.8218    116.1689    240.1759   8.9122398570e+01   1.1693195697e+01    0.1804004    0.1355336  58.89 0.0003539448    1.025    0.024
        11 -10.3399    165.9844    240.2886   8.0793137796e+01   3.6147718850e+00    0.1618861    0.1247296  46.68  0.001126987    1.020    0.020
        12 -10.6995    157.3769    234.1194   8.1493161124e+01   5.9057196094e+00    0.1557896    0.1349254  59.81  0.001125654    1.144    0.126
        13 -10.8378    117.4859    233.4174   8.8222747988e+01   1.2532342249e+01    0.2760347    0.2116443  11.94  0.001656684    2.595    0.615
        14 -11.0238    132.2524    232.1725   8.5574328650e+01   1.0363705067e+01    0.2147242    0.1269815  42.12 0.0009173522    1.502    0.334
        15 -11.7959    178.0389    229.1528   7.7278616699e+01   3.0648815898e+00     0.188409    0.1608864  61.29 0.0006942791    1.239    0.193
        16 -12.5693    150.3751    228.4023   8.1994178226e+01   7.9181040103e+00    0.3208451    0.2290584  41.80  0.001056547    1.245    0.197
        17 -12.3544    113.0181    228.0517   8.8428532780e+01   1.4087633504e+01    0.3109651     0.233126  69.59  0.001464497    1.138    0.121
        18 -12.9336    187.1384    226.6182   7.5344140478e+01   1.8284968028e+00    0.3125291    0.2544436  -7.61  0.001253459    1.562    0.360
        19 -11.9793     87.9621    250.6399   9.4553749581e+01   1.4248605749e+01    0.3188598    0.0810601  43.14  0.001136451    3.283    0.695
        20 -10.9452    232.0278    227.2744   6.7800979371e+01  -5.8755202426e+00     0.170733    0.1272358  31.20 0.0006984801    1.047    0.045
        21 -11.0722    138.2142    226.1110   8.3839602219e+01   1.0313777953e+01    0.2104208    0.1596142 -81.79  0.001190587    1.544    0.352
        22 -10.3739    215.4757    226.5343   7.0463090939e+01  -3.0340346938e+00    0.1204406   0.09515032  34.78 0.0001726817    1.042    0.040
        23 -11.7975    171.2881    225.0020   7.7886265904e+01   4.8112367480e+00    0.2404203    0.1611719  68.12 0.0006565566    1.853    0.460
        24 -13.0908    173.1947    219.7179   7.6809887325e+01   5.2320549614e+00    0.3693772    0.2634161  23.25  0.001364423    1.676    0.403
        25 -11.0868    144.6008    225.1827   8.2605791707e+01   9.3825571094e+00    0.1935903    0.1171447 -59.57  0.001131007    2.046    0.511
        26 -12.5839    125.5312    222.3027   8.5621498113e+01   1.3017783492e+01    0.4931813    0.3233278  74.46  0.002431615    1.635    0.388
        27 -12.2706    115.4507    218.5438   8.6978420711e+01   1.5273796543e+01    0.3878006    0.2333704  71.93   0.00182047    1.776    0.437
        28 -12.4340    119.1855    216.1907   8.6043989708e+01   1.5067734900e+01    0.3731083    0.2247997 -82.38  0.001814147    2.105    0.525
        29 -10.5124    106.2952    226.3233   8.9405029530e+01   1.5412990942e+01   0.09813099   0.09010464  27.80  0.000180042    1.619    0.383
        30 -11.3218    118.8398    224.9318   8.7089381234e+01   1.3673223341e+01    0.1591235    0.1408192  57.68 0.0003625843    1.236    0.191
        31 -10.9414    179.5288    224.5192   7.6372857522e+01   3.4394294275e+00    0.1234765   0.09839979  44.52 6.201412e-05    1.011    0.011
        32 -11.5157    159.6059    222.1368   7.9560644218e+01   7.2643318919e+00    0.2265819    0.1343889  51.75  0.001107036    1.407    0.289
        33 -11.2939    106.1372    220.7421   8.8858130548e+01   1.6370670217e+01    0.2197847    0.1625499 -61.98  0.001481027    1.607    0.378
        34 -12.1961    193.6044    218.7319   7.3048852974e+01   1.7494094110e+00    0.2593848    0.1950696 -71.59   0.00153415    2.106    0.525
        35 -10.7570    138.8597    217.8660   8.2712485367e+01   1.1508234425e+01     0.168552    0.1222548  65.94 0.0004415108    1.296    0.228
        36 -11.5372    144.9165    216.6847   8.1469907931e+01   1.0657572544e+01    0.2375499     0.169115  69.81 0.0009633544    1.464    0.317
        37 -12.2578    137.6949    207.7859   8.1616930262e+01   1.3372475913e+01    0.3147292    0.2171615  34.02   0.00180834    1.630    0.386
        38 -11.8086    142.9998    211.6062   8.1148668399e+01   1.1812044905e+01    0.3328198    0.2522623 -38.19  0.001999233    1.803    0.445
        39 -13.7054    147.2170    203.6565   7.9269504412e+01   1.2387487646e+01    0.4580123    0.4231057 -19.02  0.003052639    1.434    0.303
        40 -11.0167    129.8887    216.4720   8.4153542497e+01   1.3252270102e+01    0.1769025    0.1611607  45.56 0.0005102591    1.285    0.222
        41 -13.3547    124.7522    212.1803   8.4559847663e+01   1.4831520540e+01    0.5722914     0.456469 -26.20  0.003511604    2.102    0.524
        42 -12.3951    124.1442    206.0264   8.3905423995e+01   1.5996947317e+01    0.3972069    0.2899816  18.49  0.001774113    2.327    0.570
        43 -11.9832    121.4790    200.5275   8.3700232184e+01   1.7423622906e+01    0.2249635    0.1891037  62.95 3.981244e-05    1.044    0.043
        44 -13.5841    123.8945    197.3319   8.2818890591e+01   1.7591361860e+01    0.4763859    0.4102833  84.52  0.001810521    1.135    0.119
        45  -8.4422      2.4554    215.5138   1.0549810361e+02   3.0166813043e+01    0.1000418   0.06496034  76.47 0.0008088277    1.005    0.005
        46 -13.2363    183.9419    213.0063   7.3895644905e+01   4.2767387670e+00    0.3055436    0.2618465 -15.53   0.00201906    1.428    0.300
        47 -13.6006    153.5445    211.0359   7.9136367617e+01   1.0046718382e+01    0.5495384    0.3997646  11.42  0.002987656    2.268    0.559
        48 -13.4581    157.6967    212.7134   7.8611712800e+01   9.0420204253e+00    0.3751897    0.2969642   4.75  0.001722764    1.884    0.469
        49  99.0000     14.1961    211.9165   1.0352951724e+02   2.9677664131e+01    0.4053995    0.1378164  79.29  0.002019173    3.107    0.678
        50 -10.5787     13.4176    207.6390   1.0342666842e+02   3.0521483027e+01    0.1353493   0.08796513  79.31   0.00104941    1.059    0.056
        51 -10.9209      1.5570    212.2197   1.0548709184e+02   3.0826350692e+01    0.1157535   0.07013004 -78.59 0.0005685032    1.497    0.332
        52 -11.9854    229.5717    206.9904   6.4858495147e+01  -3.0848127616e+00    0.2601532    0.2230951 -22.46  0.001281873    1.335    0.251
        53 -13.3355    168.6551    205.4504   7.5533547498e+01   8.1998064132e+00    0.3632993    0.2739273  61.88   0.00143949    1.338    0.253
        54 -10.3154      6.2160    207.4465   1.0454834341e+02   3.1243848579e+01   0.09172761   0.05796473 -69.50 0.0002427528    1.731    0.422
        55 -10.5578    247.6632    206.3185   6.1683358207e+01  -6.0933926665e+00    0.1066445   0.09702934  69.04 0.0007049117    1.703    0.413
        56 -11.2895    219.8018    206.1543   6.6407428722e+01  -1.2555585749e+00    0.2337304    0.1517632  37.66  0.000588466    1.284    0.221
        57 -11.1231     18.6986    205.1568   1.0244389513e+02   3.0448944191e+01    0.2016144    0.1130462 -88.33  0.001327733    1.386    0.279
        58 -15.3637    122.2168    158.9982   7.7329053286e+01   2.5369009150e+01     1.046478    0.7445707 -71.26  0.003920875    1.486    0.327
        59 -15.1167    117.9862    179.4304   8.1473087826e+01   2.1993805441e+01     1.082587    0.7310862 -47.41  0.004815309    1.783    0.439
        60 -16.1663    139.5693    168.8452   7.5326386011e+01   2.0145436234e+01     1.779951     1.062864 -69.21  0.008157624    2.165    0.538
        61 -14.5840    121.8228    165.7009   7.8541178379e+01   2.4063275755e+01      1.00408    0.3961434  41.14  0.003996346    2.552    0.608
        62 -13.2402    134.2899    198.1967   8.0947987878e+01   1.5630161064e+01    0.3940925    0.3566407  16.39 0.0007654376    1.475    0.322
        63 -14.5320    139.2410    195.5352   7.9618386546e+01   1.5222311897e+01     1.155706    0.4784845  59.80  0.004264104    3.412    0.707
        64 -11.7084    213.8881    201.2405   6.6603544487e+01   4.6313656366e-01    0.3938196    0.2268673  61.87  0.001792138    2.703    0.630
        65 -10.6854    141.4468    202.4736   8.0187997964e+01   1.3617762926e+01     0.128291    0.1074333  57.35 0.0001480068    1.012    0.012
        66 -10.7892     13.6160    201.8727   1.0308146719e+02   3.1552595398e+01    0.2354577   0.09213001  51.92  0.001454741    2.038    0.509
        67 -12.2023    225.2835    198.8505   6.4172893759e+01  -1.2868083034e+00    0.3183288    0.2358344 -45.95  0.001429291    1.762    0.433
        68 -11.3439     16.2350    197.9373   1.0242745416e+02   3.2026305881e+01    0.2001515    0.1188405  62.15  0.000981609    1.330    0.248
        69 -13.9482    189.4971    195.1066   6.9987039088e+01   5.9052786578e+00    0.7022508    0.3039294  49.32  0.002595403    2.112    0.527
        70 -13.2070    151.9447    195.8331   7.7219494642e+01   1.2858846852e+01    0.3962438     0.196721 -51.90  0.001199285    2.335    0.572
        71 -13.3808    147.9857    193.4226   7.7615310503e+01   1.4006080802e+01    0.3883143    0.3075958  15.09  0.002202382    1.777    0.437
        72 -11.4238     26.5169    195.1902   1.0052275725e+02   3.1505398985e+01    0.2054395    0.1328905 -76.69  0.001298051    1.399    0.285
        73 -10.3386     25.2215    191.4154   1.0049109740e+02   3.2359235734e+01    0.1399552   0.07683035  56.96 0.0003578526    1.525    0.344
        74  -9.9088    238.5127    196.5014   6.1460357481e+01  -3.3430380700e+00    0.1271262    0.1048681  21.46 0.0002190693    1.009    0.009
        75 -13.9269    165.8392    193.8110   7.4239739635e+01   1.0606891868e+01    0.5769656    0.3201852  55.69 0.0009728184    1.790    0.441
        76 -11.6542    212.8386    194.2521   6.5560304407e+01   1.6228936016e+00    0.2915686     0.203717 -60.11  0.001024421    2.262    0.558
        77 -15.4098     88.4974    185.7779   8.8215729446e+01   2.5506996492e+01     1.130699    0.6167673 -72.93  0.004721269    1.867    0.465
        78 -13.1620    172.9297    188.6827   7.2030572827e+01   1.0107644523e+01     0.350019    0.2409431  63.42  0.001085774    1.621    0.383
        79 -13.2666    135.9669    185.5786   7.8777346338e+01   1.7623141891e+01    0.4404413     0.346644 -54.81  0.001779465    1.426    0.299
        80 -12.6106    111.0064    188.7317   8.4169929040e+01   2.1371635391e+01    0.2839583    0.1843032 -62.07  0.001242158    1.627    0.386
        81 -14.2695    126.9199    185.7055   8.0596969332e+01   1.9221533408e+01    0.6887174    0.5760593  -7.46  0.003972189    1.912    0.477
        82 -12.4368    180.0279    188.7135   7.0675165732e+01   8.7313723608e+00    0.2370307    0.1921713 -85.21  0.001343662    1.629    0.386
        83 -12.2825    143.3096    188.7865   7.7817371447e+01   1.5691734917e+01    0.2446291    0.1688632  24.25  0.001235134    2.044    0.511
        84 -11.0183    248.2754    186.0364   5.7843437611e+01  -3.7435408236e+00    0.2356028    0.1508888  21.58 0.0008435613    1.525    0.344
        85 -13.1801    159.0975    190.8931   7.5067594726e+01   1.2374182491e+01    0.3721902    0.2485704 -45.69  0.002023305    1.741    0.425
        86 -12.4313    186.0558    185.6885   6.8994900225e+01   8.0491921448e+00    0.2512768     0.206641  31.85 0.0003659986    1.158    0.136
        87 -11.3161     32.0033    184.9708   9.8825253745e+01   3.2901283601e+01    0.2969116     0.167776  36.62  0.001879828    2.104    0.525
        88 -10.7718    213.5254    184.5420   6.3657116218e+01   2.8868038405e+00    0.1337924    0.1160535  29.63 5.564036e-06    1.011    0.011
        89 -13.8551    164.0945    181.1577   7.2466371150e+01   1.3110627728e+01    0.5093387    0.3812046   4.47   0.00258901    2.042    0.510
        90 -15.5880    128.9636    167.6335   7.7347726947e+01   2.2372937368e+01    0.9536973    0.8726899 -39.11  0.005785663    1.342    0.255
        91 -13.3445    177.8515    182.2311   6.9958027017e+01   1.0228202035e+01    0.4556368    0.2606389  30.07  0.002053251    2.114    0.527
        92 -11.1628     23.1213    181.6109   1.0017796458e+02   3.4475248618e+01    0.1368238    0.1038576  66.96  0.000360242    1.204    0.169
        93 -11.3367      8.5857    182.1367   1.0278148185e+02   3.5743256995e+01    0.1621687    0.1492826  35.89  0.001212923    1.723    0.419
        94 -12.2486    159.0145    178.4727   7.3012909118e+01   1.4579559506e+01    0.3168869    0.1826033  30.81   0.00116108    2.194    0.544
        95 -13.5093    154.7163    177.7415   7.3749764847e+01   1.5547430627e+01    0.3554723    0.3202099   5.08   0.00211923    1.382    0.276
        96 -12.1958    191.0319    177.4903   6.6544414628e+01   8.3980394819e+00    0.1987125     0.190654 -16.35 0.0006043587    1.145    0.127
        97 -11.3509     28.9294    177.7706   9.8830369569e+01   3.4649459334e+01    0.2114062    0.1199916  85.20 0.0007675333    1.447    0.309
        98 -13.5118    144.4279    181.4832   7.6442360220e+01   1.6820258870e+01    0.4906943    0.2999806  34.18  0.002035735    1.861    0.463
        99 -10.3644     20.4851    175.5146   1.0021650146e+02   3.5939512904e+01    0.1100131   0.08011965  85.15 -6.931186e-05    1.031    0.030
       100 -12.9940    175.0823    173.3027   6.8878438306e+01   1.2312972469e+01    0.3080966    0.2322734 -76.47  0.001580302    1.802    0.445
       101 -10.5359     31.5148    172.4400   9.7913112095e+01   3.5456023742e+01     0.150806   0.08422712  57.16 0.0001231974    1.600    0.375
       102 -10.9593     27.7329    171.5837   9.8561335294e+01   3.6016403841e+01    0.2280934    0.1124886  42.79  0.001379774    2.035    0.509
       103 -13.2065    159.9402    168.9942   7.1136603760e+01   1.6133835142e+01    0.4530887    0.2651168 -53.63  0.001865473    1.928    0.481
       104 -14.3452    157.5583    158.1621   6.9585068905e+01   1.8669302007e+01    0.6164713    0.4039819  38.30  0.002775836    1.557    0.358
       105 -11.1414    197.4841    170.4789   6.3959650548e+01   8.2455659315e+00    0.1405807    0.1251199  30.55 0.0003572115    1.039    0.037
       106 -11.8504    188.7911    169.2560   6.5404381988e+01   1.0224981649e+01    0.3023136    0.1546474  30.25  0.001180115    2.588    0.614
       107 -13.7470    171.7497    167.9286   6.8536076683e+01   1.3943893621e+01    0.4510067    0.3012699 -43.79  0.001904863    1.647    0.393
       108 -12.6472    167.4769    167.8731   6.9390933837e+01   1.4822661275e+01    0.2967587    0.2470986  -1.77 0.0007775592    1.547    0.354
       109 -12.3993    199.4212    165.9013   6.2678016383e+01   8.6033122915e+00     0.368598    0.1903878  63.50   0.00132888    3.273    0.694
       110 -14.4557    153.7133    167.3688   7.2121504552e+01   1.7679134495e+01    0.6010209    0.5281662   7.97  0.002382712    1.428    0.300
       111 -11.4243    205.1702    164.8230   6.1361155341e+01   7.5968179677e+00    0.1969034    0.1566221  18.65 0.0003713329    1.318    0.241
       112  99.0000     21.1544    239.3174   1.0384442742e+02   2.4287963666e+01    0.2503253    0.1190466 -69.66  0.001753639    2.200    0.546
       113 -10.8179      3.6207    162.2700   1.0241650589e+02   4.0081160690e+01    0.2373281    0.1115235  78.55  0.001429373    1.827    0.453
       114 -13.8043    171.0476    160.1859   6.7176665874e+01   1.5502963130e+01    0.5135063    0.3755452  59.91  0.002607903    1.411    0.291
       115 -16.0354     61.9753    206.1713   9.5212522292e+01   2.5290734686e+01     1.518315    0.5298271  50.46  0.007699755    2.336    0.572
       116 -14.8746    106.3605    123.3298   7.4247165044e+01   3.5934296459e+01     1.074358    0.7223642  18.93  0.004795251    2.404    0.584
       117 -14.3781    100.8741    120.4989   7.5025132986e+01   3.7516509352e+01    0.6944659    0.3899562 -59.70  0.003178246    1.730    0.422
       118 -15.4994    109.7518    150.9412   7.8695526758e+01   2.9288560880e+01     1.337562     0.768214 -64.11  0.006378233    1.788    0.441
       119 -14.0543    103.0235    142.1921   7.8696158296e+01   3.2339016129e+01    0.9354194    0.3721325  53.70  0.002796809    2.940    0.660
       120 -17.3980     54.3142    118.3425   8.6466328781e+01   4.4666537257e+01     4.462255     2.550026  50.54    0.0240302    1.921    0.480
       121 -11.7980    184.4123    156.2881   6.3668787107e+01   1.3403590766e+01    0.2511749    0.1748112  66.37 0.0007890916    1.756    0.430
       122 -12.2409     37.5749    154.9114   9.5080842093e+01   3.8466000945e+01    0.2950565    0.1792526  71.04  0.001805729    1.528    0.346
       123 -11.4537      3.4345    154.1287   1.0189327770e+02   4.1742964416e+01    0.2721963    0.1289448  80.24  0.001111677    1.838    0.456
       124 -12.0828    212.2481    154.0500   5.7770497619e+01   7.8827169096e+00    0.2709643    0.2058529  53.45 0.0007142327    1.367    0.269
       125 -14.5038    170.5382    151.0510   6.5426864673e+01   1.7321787928e+01    0.7862636    0.4492278  52.23  0.003466083    1.711    0.416
       126 -12.5088    170.2978    146.0377   6.4419527980e+01   1.8329545115e+01    0.2899231    0.2550881 -33.04 0.0007548619    1.232    0.188
       127 -12.6380    143.7277    140.9206   6.9117317471e+01   2.4958922503e+01    0.2796662    0.2021695  49.73 0.0006422251    1.333    0.250
       128 -14.3479    146.9289    149.3906   7.0137412083e+01   2.2572536154e+01    0.6688902    0.4343777  54.11 0.0007770389    1.502    0.334
       129 -14.0498    127.4484    147.2220   7.4035917162e+01   2.6858897902e+01    0.7274337    0.3353204  58.11  0.002729684    2.707    0.631
       130 -13.9084    134.2923    146.2526   7.2311953491e+01   2.5741270123e+01    0.4718961    0.2981333 -59.44  0.002225225    1.676    0.403
       131 -12.0288     75.0010    150.0598   8.6371761126e+01   3.4939740640e+01    0.2729857    0.1739559  75.82  0.001230422    1.673    0.402
       132 -11.1298    136.7303    240.2952   8.5713849698e+01   8.4272904991e+00    0.2932382    0.1384863 -51.22  0.001634761    2.739    0.635
       133 -10.3684    198.0018    242.9533   7.5777113773e+01  -2.0481795414e+00    0.1442819    0.1005498  40.59 0.0003791793    1.086    0.079
       134 -10.6848    224.4418    148.1975   5.4243223292e+01   6.2656105598e+00    0.2519419    0.1909518 -83.74  0.001183459    2.208    0.547
       135 -12.6812    179.9152    150.3598   6.3340594102e+01   1.5443757357e+01     0.271376    0.2225956 -28.99 0.0006197774    1.345    0.257
       136 -13.1791    156.2155    145.1073   6.7237212837e+01   2.1513049681e+01    0.4293477    0.2080388  50.44  0.001082591    2.012    0.503
       137 -12.6261     93.7284    143.4075   8.1064212479e+01   3.3598292098e+01    0.2998089    0.2403726 -77.06  0.001028679    1.147    0.128
       138 -11.5166    202.9913    143.2894   5.7183551778e+01   1.1686888412e+01    0.2102444    0.1826549  37.66  0.000436993    1.096    0.088
       139 -11.9162    151.0703    141.9375   6.7697517717e+01   2.3230407301e+01    0.2268102    0.2164012  53.29 0.0005190056    1.055    0.053
       140 -16.8082     91.8260    201.6599   8.9393630200e+01   2.1955470207e+01     2.689849     1.403566 -49.82   0.01396301    2.630    0.620
       141 -11.2043    168.5428    138.4738   6.3143482022e+01   2.0175270879e+01    0.1485195    0.1419661  63.39 0.0001241501    1.025    0.024
       142 -12.7657    159.6968    136.2045   6.4556605491e+01   2.2551986880e+01    0.4138159    0.2565925 -27.28   0.00171037    2.226    0.551
       143 -12.6327      4.3607    135.3503   1.0025237194e+02   4.5562320677e+01    0.3239103    0.1292097 -83.41  0.001728265    2.056    0.514
       144 -13.1177    140.4243    134.5343   6.8511264239e+01   2.6967390984e+01    0.4837985    0.2772757  36.63  0.002047066    1.983    0.496
       145 -13.0112    110.0200    131.2514   7.4972463291e+01   3.3530900643e+01    0.2845359    0.2600456  55.32  0.001011625    1.140    0.123
       146 -12.9008    131.4462    131.5641   6.9949800429e+01   2.9412719097e+01    0.4353276    0.2466552 -64.49  0.001612217    2.174    0.540
       147 -14.3403    123.7219    129.5503   7.1342389076e+01   3.1360037509e+01    0.8543549    0.4903969  78.19  0.002926437    3.581    0.721
       148 -12.8899    120.6634    123.3372   7.0736082940e+01   3.3301142035e+01    0.4761338    0.2570451  63.64  0.001820353    2.632    0.620
       149 -12.4997    119.6902    120.3196   7.0305065068e+01   3.4147671534e+01    0.2943936    0.2444664  57.98  0.001134374    1.216    0.177
       150 -14.7178    154.2969    127.6507   6.3820028914e+01   2.5459687162e+01     1.144054    0.6764644  48.97  0.004968119    1.657    0.396
       151 -11.7332    137.7917    131.0245   6.8355297542e+01   2.8246787527e+01    0.2687463    0.2110838  42.12 0.0005665379    1.307    0.235
       152 -11.2769    189.6489    122.2469   5.4923255605e+01   1.8500959535e+01    0.3399349    0.2431905  80.83  0.001460072    1.998    0.500
       153 -15.0783    112.0792    141.1138   7.6394665614e+01   3.1002438527e+01    0.9738157    0.5424374  42.75  0.004503213    1.828    0.453
       154 -11.0187    205.5089    122.4725   5.1835816168e+01   1.4779553038e+01    0.2306249    0.1466005 -23.58 0.0009774346    1.810    0.448
       155 -10.0007    250.6961    119.3462   4.3136320397e+01   5.2401366808e+00     0.141535    0.1079677 -59.89 0.0006182191    1.691    0.409
       156 -11.0999    134.0143    127.6170   6.8486766005e+01   2.9740951249e+01     0.203335    0.1812708  55.09 0.0005377777    1.109    0.098
       157 -11.5959    144.8789    115.8663   6.3191076463e+01   2.9950540857e+01    0.2348237    0.2173278   4.11  0.001241469    1.239    0.193
       158 -13.6246    106.4704    113.8102   7.2157746419e+01   3.8030911070e+01    0.5336075    0.3993974 -11.73  0.001803748    2.113    0.527
       159 -14.0718     83.3028    114.1473   7.8217266662e+01   4.1764812630e+01    0.4911382    0.3845646 -73.43  0.002438521    1.204    0.169
       160 -13.7831     88.5306    110.4577   7.6079109248e+01   4.1792435844e+01    0.4856366    0.2998105 -41.46   0.00180612    1.786    0.440
       161 -12.7735     92.9764    114.4976   7.5778107352e+01   4.0175132831e+01    0.2713399    0.1880862 -76.06  0.001356292    1.580    0.367
       162 -12.4549    115.0116    110.4775   6.9211064900e+01   3.7196799329e+01    0.3349098    0.2364996 -58.84 0.0009352769    1.399    0.285
       163 -16.0738    102.5195    133.1311   7.7142222152e+01   3.4422190234e+01     2.421973    0.7232206  48.51  0.008035306    3.641    0.725
       164 -12.2227    165.1383    110.8073   5.7283442049e+01   2.6427944559e+01    0.4319646    0.2013983 -51.14  0.001531415    2.463    0.594
       165 -11.6769    121.6910    111.0763   6.7666512389e+01   3.5777832232e+01    0.3853584    0.2243058 -36.07  0.001611957    2.046    0.511
       166 -12.4579    141.9578    107.5219   6.1804105994e+01   3.2332130864e+01     0.533926      0.32856  34.84  0.002241347    1.915    0.478
       167 -10.8808     18.9806    105.6595   9.3651951647e+01   5.0868848992e+01    0.2009451     0.122051 -62.19 0.0007180278    1.322    0.243
       168 -10.4889    174.8239    106.3753   5.4018183162e+01   2.5017281785e+01    0.2098599    0.1431057  41.26 0.0002240469    1.514    0.339
       169 -12.2845     72.6275    105.3562   7.9260149976e+01   4.5283611939e+01    0.2732188    0.1834749 -46.14 0.0008060067    1.481    0.325
       170 -10.2311    217.6832    105.6366   4.5375181045e+01   1.4859482552e+01    0.1605793    0.1168671  11.99 5.764075e-06    1.768    0.434
       171 -10.6679    117.1709    103.7560   6.7025113995e+01   3.8250974180e+01    0.1997182    0.1750109 -20.53 0.0005858762    1.328    0.247
       172 -12.1601      1.9321    102.4558   9.7611830020e+01   5.2715998224e+01    0.3656463     0.120141 -76.65  0.001739832    2.454    0.593
       173 -11.7188     65.4799     95.1856   7.9096693626e+01   4.8514693857e+01    0.2193094    0.1892236  38.10 0.0006182833    1.347    0.257
       174 -15.1282     89.0865    100.2627   7.3650444736e+01   4.3985729516e+01     1.141634    0.6369397  59.70  0.004896183    2.461    0.594
       175 -14.2670     72.7822     97.3364   7.7504743062e+01   4.7061663511e+01    0.5996789    0.4820952  69.57  0.002364231    1.414    0.293
       176 -12.7803     58.1552     99.8262   8.2120098069e+01   4.8382935241e+01    0.3584683    0.2968552 -68.31  0.001140135    1.035    0.034
       177 -11.4332     60.2442     95.9878   8.0753703442e+01   4.8990461575e+01    0.1993463     0.175838  74.72 0.0003760738    1.233    0.189
       178 -12.5050     60.0093     92.0531   7.9986911373e+01   4.9895474031e+01    0.3388524    0.2825699  89.73  0.001280117    1.282    0.220
       179 -11.3629    179.0068    100.0305   5.1447104184e+01   2.5225085691e+01    0.2359265    0.2323591  82.84  0.000487624    1.026    0.026
       180 -13.1812     14.7823    105.5754   9.4719347602e+01   5.1198164456e+01    0.4109601    0.1825447 -57.32  0.002286171    1.837    0.456
       181 -17.5378     51.3641    228.7124   9.8690375878e+01   2.2615136967e+01     4.163695     1.941206  51.36    0.0266778    1.666    0.400
       182 -11.1649    237.7355     98.7576   4.0226348698e+01   1.1314199858e+01    0.2438604    0.2244765 -56.05 0.0004623736    1.155    0.134
       183 -13.0428    105.3630    103.9993   7.0164229105e+01   4.0400725041e+01     0.499991    0.3159127  66.23  0.001905849    2.141    0.533
       184 -10.3197    191.6818     98.6838   4.8486039327e+01   2.2378303926e+01    0.1606071     0.122538  15.37 0.0007039316    1.654    0.395
       185 -12.4050     98.7004     95.7674   6.9930676806e+01   4.3383067672e+01    0.2662539    0.2036781 -30.59 0.0008699616    1.494    0.331
       186 -13.2571     35.7530     93.7189   8.7268361670e+01   5.2099719358e+01         0.35    0.2477379  -2.94  0.001576689    2.129    0.530
       187 -10.9864    214.1742     92.7987   4.2680345792e+01   1.7891193940e+01     0.213734    0.1804537  11.68 0.0005962969    1.338    0.253
       188 -10.5072    196.4912     92.4796   4.5872696416e+01   2.2310532195e+01    0.1536644    0.1526632 -46.87 0.0002185239    1.011    0.011
       189 -10.9959    183.0391     92.0134   4.8427446565e+01   2.5735139847e+01    0.1912046    0.1902975 -31.74  0.001010689    1.006    0.006
       190 -11.6852     21.5437     91.2619   9.0867845538e+01   5.3823561648e+01    0.1730154    0.1608676  44.09 0.0006531319    1.365    0.267
       191 -12.1501      2.7184     90.8656   9.6013838738e+01   5.5148077400e+01    0.1961797    0.1653936 -76.87 0.0003736389    1.153    0.133
       192 -12.4384     39.0144     95.7295   8.6705910038e+01   5.1349413241e+01    0.2408846    0.2125856  -5.61   0.00116084    1.487    0.328
       193 -13.7071     79.3497    100.4187   7.6361612013e+01   4.5438718027e+01    0.5624346    0.2798286 -58.09  0.001898351    1.831    0.454
       194 -17.6820     68.4993    187.8020   9.2301067021e+01   2.7950804462e+01     2.849224     2.304459 -77.58   0.01995329    1.262    0.208
       195 -12.0752     11.6988     88.1547   9.3161386897e+01   5.5185884659e+01    0.4001884    0.1695538 -73.06  0.002051309    1.914    0.478
       196 -11.2991    170.9972     88.0243   4.9853262939e+01   2.9452860803e+01    0.2376544     0.233734 -67.87 0.0004198168    1.024    0.023
       197 -13.1082     72.9559     88.2602   7.5360973190e+01   4.9049788784e+01    0.3322954    0.2461649  82.60    0.0017709    1.759    0.431
       198 -12.7429     62.6780     82.7066   7.7072992997e+01   5.1625071021e+01    0.3027964    0.2423082 -71.90  0.001355312    1.255    0.203
       199 -12.5524     66.0169     87.0465   7.7106890762e+01   5.0248748245e+01    0.3063565    0.1938755 -56.49  0.000749903    1.363    0.266
       200 -12.7583     68.0746     83.4860   7.5643089920e+01   5.0758442430e+01    0.2572936    0.2313924  67.32 0.0008970085    1.269    0.212
       201 -11.9050     50.5285     78.5228   7.9792679731e+01   5.3959301014e+01    0.1846168    0.1466746  81.96  0.001123625    1.529    0.346
       202 -13.6940     53.5833     85.0246   8.0337957714e+01   5.2201408055e+01    0.5715451    0.4065254 -81.64  0.002561206    1.581    0.367
       203 -12.0825     59.5115     86.4589   7.8894604602e+01   5.1192789113e+01    0.2605101    0.1428428 -60.50 0.0007007597    1.604    0.376
       204 -12.7445     31.5833     87.7706   8.7399336428e+01   5.3779040044e+01    0.2378106    0.1843712   0.54  0.001564029    1.776    0.437
       205 -11.6222    177.8470     86.9886   4.8104201442e+01   2.7951062479e+01    0.2563692    0.2244076  52.93 0.0003762832    1.141    0.123
       206 -11.3026     45.7643     86.5668   8.2996182047e+01   5.2706417368e+01    0.1476163    0.1162676  52.53 0.0003137196    1.501    0.334
       207 -11.3915    148.3784     87.8963   5.4957406165e+01   3.4894797938e+01    0.2532193    0.2094892  62.94 0.0003289045    1.281    0.220
       208 -13.1238    106.9707     80.8835   6.3644976125e+01   4.5077449245e+01    0.5240575    0.3557659 -65.79  0.002415396    1.824    0.452
       209 -10.2526    222.4095     82.1668   3.8455430569e+01   1.7641274186e+01    0.2066966    0.1348043 -43.77 0.0004323187    1.513    0.339
       210 -11.6878    206.6536     81.4680   4.0976097232e+01   2.1679367987e+01    0.3003748    0.2592496 -74.62   0.00108642    1.288    0.223
       211 -11.0526    182.7920     77.3004   4.4324462994e+01   2.8454501623e+01    0.3850809    0.2853331 -24.91  0.001758417    1.447    0.309
       212 -12.0327    152.3376     80.5341   5.1885830289e+01   3.5397028689e+01    0.3658779    0.2603058  32.54 0.0009565286    1.608    0.378
       213 -12.9554     87.7057     78.7754   6.8572794258e+01   4.8885908125e+01    0.4348842    0.2822248 -38.85  0.001981593    1.507    0.337
       214 -12.4878     28.2923     79.8627   8.6902937315e+01   5.5776715697e+01    0.2315658    0.1561882  36.07  0.001473593    1.824    0.452
       215 -12.6842     77.3950     81.6037   7.2387307053e+01   4.9866975923e+01    0.3308315    0.2046189  56.02  0.001595159    2.109    0.526
       216 -11.1444    120.4723     78.7390   5.9335715851e+01   4.2858289422e+01    0.2583677    0.2046211  45.58 0.0005836203    1.315    0.240
       217 -11.2969    112.4710     76.4530   6.0826661355e+01   4.4930464058e+01    0.3975537    0.1384581 -44.44  0.001055486    2.724    0.633
       218 -11.9211    115.9284     74.5627   5.9311390119e+01   4.4622520477e+01    0.3432782    0.2611731  -9.52 0.0009759762    1.673    0.402
       219 -11.0761      6.9933     78.0341   9.2983128116e+01   5.7640120349e+01    0.1357889    0.1028804 -66.99 0.0003729508    1.024    0.024
       220 -10.9991    190.2032     77.3300   4.2875468777e+01   2.6562057751e+01    0.3252594    0.1267986  48.64  0.001084339    2.559    0.609
       221 -13.1697     74.8811     75.7178   7.1580875057e+01   5.1490352089e+01    0.4127825    0.3213536  20.48 0.0007802711    1.545    0.353
       222 -10.7877    158.1609     75.8683   4.9157274500e+01   3.4870984107e+01    0.2113665    0.1818369  18.72            0    1.299    0.230
       223 -10.4490    177.7936     75.1119   4.4700525025e+01   3.0109986103e+01    0.2148587    0.1857258  14.84 0.0004881954    1.305    0.233
       224 -12.0026     31.8701     74.7314   8.4770176428e+01   5.6586392274e+01    0.2798187    0.2067093  -4.83  0.001682292    1.813    0.449
       225 -10.5769    205.6437     74.2843   3.9170338925e+01   2.3136466503e+01    0.1601485    0.1191462 -73.59  0.000701976    1.669    0.401
       226 -12.2514     51.0022     73.7736   7.8515052199e+01   5.4930484993e+01    0.2430457     0.157179 -54.78 0.0006939312    1.278    0.217
       227 -10.4688    232.4556     73.4935   3.4578998528e+01   1.6563989025e+01    0.1475808    0.1408242 -38.58 9.380661e-05    1.012    0.011
       228 -10.5447    125.0004     73.5061   5.6557872753e+01   4.2948852160e+01    0.2201901    0.1484438  46.60 0.0005317631    1.531    0.347
       229 -11.2358     94.4759     73.0272   6.4933643733e+01   4.8953733278e+01    0.2166445    0.1295853 -47.01 0.0003869776    1.540    0.351
       230 -10.8489    219.9383     72.4925   3.6268603220e+01   1.9813056940e+01    0.2246056    0.1506147  60.89 0.0005788749    1.540    0.351
       231 -11.2674      4.0121     72.5221   9.3005526882e+01   5.8971500649e+01    0.1289759    0.1124785  13.84 0.0005081738    1.548    0.354
       232 -13.2394    100.0871     66.3451   6.1251744409e+01   4.9301398329e+01    0.6558312    0.3156699 -44.36  0.002762501    1.938    0.484
       233 -10.8578      2.0021     68.6900   9.3002370857e+01   5.9879885741e+01    0.1527894    0.1182615 -61.57 0.0007630122    1.079    0.073
       234 -11.1057     87.2898     68.3439   6.5683377898e+01   5.1118191519e+01    0.1416578    0.1025688 -19.37 0.0007024917    1.653    0.395
       235 -12.3010     60.1955     67.3796   7.3917459354e+01   5.5209191948e+01    0.3122126    0.1996395 -22.94  0.001591881    2.028    0.507
       236 -10.1863    174.5276    243.5456   7.9765447216e+01   1.7687194324e+00    0.1174802   0.08868731  45.32 0.0002404194    1.004    0.004
       237 -11.4147    197.9773     66.5339   3.8336328493e+01   2.6378881953e+01    0.3296417    0.1925214  13.88  0.001050312    3.575    0.720
       238 -12.0046    188.5447     65.9928   3.9908175653e+01   2.8910783830e+01    0.4334588    0.2383944 -46.07  0.001137699    1.905    0.475
       239 -11.2206    250.0052     66.1413   3.0204270821e+01   1.3489960618e+01    0.2061765    0.1910698 -47.73 0.0003451022    1.015    0.015
       240 -10.7315     78.8929     65.6707   6.7467878225e+01   5.2985390569e+01    0.1761326    0.1679445 -42.86 0.0004111119    1.093    0.085
       241 -11.8348    114.2437     63.8221   5.6414996661e+01   4.7055067598e+01    0.3785894    0.2360224 -62.64 0.0007924019    2.333    0.571
       242 -12.2963    109.6525     60.1816   5.6512024680e+01   4.8662035619e+01    0.3303029     0.281089  57.27  0.001604039    1.326    0.246
       243 -10.3551     91.0034     62.7687   6.2831326108e+01   5.1611311331e+01    0.1705154     0.116984  40.12 0.0004416511    1.586    0.369
       244 -12.5484     45.1675     61.2659   7.7223995517e+01   5.8183461577e+01    0.2856067    0.2407359 -11.66  0.001612022    1.338    0.253
       245 -11.7694     13.1595     62.1610   8.8218948285e+01   6.0616415462e+01    0.1812853    0.1216048 -49.13 0.0007342743    1.229    0.187
       246 -11.6533      3.8169     59.4356   9.0792127367e+01   6.1708035120e+01    0.2596504    0.1811825  -2.99  0.001436552    1.908    0.476
       247 -11.1475    153.5040     57.5764   4.4519924653e+01   3.9255354239e+01     0.256265    0.2487285  -6.66 0.0005041346    1.030    0.029
       248 -11.5210     98.9078     57.5997   5.8772769273e+01   5.1201613528e+01    0.2535292     0.182236 -29.61 0.0006832287    1.365    0.267
       249 -11.6617    193.2351     57.4281   3.6528120980e+01   2.9069907986e+01    0.2271446    0.1502351  75.45 0.0009621339    1.752    0.429
       250 -11.0976    139.7536     56.8058   4.7476242196e+01   4.2708536107e+01    0.2138559    0.1844248 -77.46 0.0009268764    1.385    0.278
       251 -13.3467     29.0176     56.1581   8.1443615874e+01   6.0723995250e+01    0.4656684    0.2349125  43.17  0.002487632    2.698    0.629
       252 -10.5561    225.3234     56.6823   3.1161820756e+01   2.0893266090e+01    0.1581721    0.1088294 -64.33 0.0007043909    1.669    0.401
       253 -10.7033    119.5288     58.4985   5.3221700418e+01   4.6944606822e+01    0.1465766    0.1390652 -15.29   3.7175e-05    1.005    0.005
       254 -11.3768    196.1323     62.3668   3.7460605993e+01   2.7530903228e+01    0.2274963    0.1473685  74.28 0.0009471374    1.810    0.447
       255 -11.5581    181.2779     51.5568   3.6929171638e+01   3.3116623509e+01    0.2930372    0.1533944  64.50 0.0009619005    2.019    0.505
       256 -11.7703    174.0635     50.4222   3.7944742067e+01   3.5176525474e+01    0.3475898    0.2649695  79.05  0.001628626    1.482    0.325
       257 -11.4065     94.4273     51.0767   5.7905375855e+01   5.3221608466e+01    0.2868249    0.1655079 -24.66  0.001264233    2.030    0.507
       258 -11.9847     29.2150     50.1844   7.9809993157e+01   6.1916731449e+01    0.2128039    0.1594559 -47.25 0.0008185414    1.040    0.039
       259 -11.5172     17.8004     50.0482   8.3903258639e+01   6.2798846022e+01    0.2988317    0.1282897 -55.95  0.001428762    1.695    0.410
       260 -11.6631     20.2119     46.2010   8.2039435629e+01   6.3400886144e+01    0.2130277    0.1189217 -49.50 0.0006882446    1.342    0.255
       261 -11.9745     37.9739     50.2590   7.6670353438e+01   6.1125416500e+01    0.1681854     0.141781 -38.57  0.001119462    1.073    0.068
       262 -11.4138    132.3689     48.4331   4.6464353382e+01   4.5836427379e+01    0.3902558     0.145132  53.41  0.001058274    2.735    0.634
       263 -10.5211      1.4501     47.4839   8.9217567899e+01   6.4251544328e+01    0.1106917   0.08060468 -58.12 2.206343e-05    1.024    0.023
       264 -11.0682    142.7292     46.4373   4.3288777213e+01   4.3708962310e+01    0.2203127     0.134223  43.45 0.0009530928    1.649    0.394
       265 -11.1972    153.1040     44.8741   4.0434661616e+01   4.1397018739e+01    0.2185411    0.2024119 -60.69 0.0002773839    1.162    0.140
       266 -11.2207    195.9322     44.4714   3.2229936383e+01   3.0310401431e+01    0.2344844    0.1473281  63.81  0.001025019    1.573    0.364
       267 -10.7615    189.1280     43.1024   3.2951001194e+01   3.2306465554e+01    0.2149466    0.1777689 -73.76 0.0006147315    1.317    0.241
       268 -10.5915     51.2278     43.0034   6.9597619315e+01   6.1130779785e+01    0.1702317   0.08762583 -46.92 0.0005415715    1.633    0.388
       269 -12.6425     35.0646     39.8994   7.4603391413e+01   6.3411266570e+01    0.3836378    0.2238715   9.45  0.002162789    2.269    0.559
       270 -11.4315    146.0279     39.4696   4.0148760293e+01   4.3966738459e+01    0.2170639     0.197528 -21.83  6.75605e-05    1.110    0.099
       271 -11.2636    104.0887     39.9486   5.1021741707e+01   5.3303950230e+01    0.2154898    0.1918184   2.63 0.0005461626    1.071    0.066
       272 -11.1233     60.1513     37.7001   6.4505783146e+01   6.0988615348e+01    0.2248075    0.1559715 -47.57  0.001006794    1.406    0.289
       273 -12.6726     10.5640     35.4656   8.2830537136e+01   6.6122798513e+01    0.4115445    0.2626761 -67.11  0.002704561    1.557    0.358
       274 -13.2696     30.2899     33.5712   7.4395280635e+01   6.5028162297e+01    0.4643642    0.2660111 -19.85  0.002084986    2.056    0.514
       275 -11.8578     43.9422     33.9592   6.9189272744e+01   6.3614185721e+01    0.2281969    0.1735353  33.52  0.000725687    1.598    0.374
       276 -11.0814    223.2692     32.6783   2.4923612994e+01   2.4776080271e+01    0.2211597    0.1289865 -11.95 0.0009055095    2.325    0.570
       277 -10.3649    124.1716     33.1259   4.3041543736e+01   5.0069454504e+01    0.1848821    0.1701794 -65.90 0.0003608193    1.287    0.223
       278 -11.3767    106.8346     32.3473   4.7363449990e+01   5.3930850943e+01    0.2719414    0.1906728 -22.87 0.0007783926    1.397    0.284
       279 -10.6685    214.6394     31.3005   2.5661965134e+01   2.7188613300e+01    0.1582794    0.1042088 -66.97 0.0007036118    1.718    0.418
       280 -12.2404    170.3393     30.0172   3.2107167530e+01   3.9064486629e+01    0.4638874    0.2777729  -5.26  0.001881161    2.305    0.566
       281 -10.2649    242.2077     30.3706   2.2080343534e+01   2.0317131884e+01    0.1817441    0.1272356  87.13  0.000234241    1.494    0.331
       282 -11.3962    140.3444     29.7335   3.7984137987e+01   4.6732312208e+01     0.405416    0.2105301  34.10  0.001589167    2.322    0.569
       283 -12.1616     74.3251     30.2482   5.6668115615e+01   6.0186008567e+01    0.2884026    0.1694996  37.45 0.0009182644    1.813    0.448
       284 -12.4247     39.1034     29.1737   6.9343749220e+01   6.4978759775e+01    0.2841598    0.2062064 -18.32 0.0009816175    1.311    0.237
       285 -10.9748    155.8772     29.1878   3.4546034562e+01   4.2921924308e+01    0.2099348    0.1672188  29.08 0.0004180153    1.319    0.242
       286 -11.1714    178.9605     27.9873   2.9970775854e+01   3.7052110661e+01    0.2162764    0.2092923  54.25  0.001210028    1.032    0.031
       287 -10.9744    238.0215    248.8277   7.0096331102e+01  -9.0391075919e+00    0.1769032    0.1437333   5.50 0.0008788292    1.265    0.210
       288 -10.5395    177.4933    249.4839   8.0010723321e+01   5.4057587838e-01     0.115795   0.08622444  44.17 0.0008104327    1.005    0.005
       289 -10.5193     20.6680     23.2966   7.4814455214e+01   6.7681717451e+01   0.09679787   0.08585862 -79.31 0.0003774832    1.641    0.391
       290 -10.3949    250.0263     22.2447   1.9237755995e+01   1.9439533455e+01    0.1685215    0.1109671  73.17 0.0004189981    1.523    0.343
       291 -10.2926    134.5174     18.5088   3.5159605251e+01   4.9563387735e+01    0.1433842     0.130646  29.67 6.136842e-05    1.021    0.020
       292 -11.4319    172.1785     22.6136   2.9379917622e+01   3.9510303498e+01    0.3808644     0.199778 -19.32  0.001554958    2.192    0.544
       293 -10.7037    127.4591    246.6942   8.7915573068e+01   8.9738994278e+00     0.273643    0.1324532 -51.14  0.001581299    2.778    0.640
       294 -10.0603    200.2576    247.2907   7.5988797851e+01  -2.9160289398e+00    0.1067326   0.07294825  23.63            0    1.490    0.329
       295 -11.8866    179.8879    244.1083   7.8942577232e+01   8.0919067382e-01    0.1927845    0.1824298 -62.39 0.0009800395    1.402    0.287
       296  99.0000     14.4416    237.4954   1.0471995101e+02   2.5282762726e+01    0.2176215     0.123865  55.86   0.00172352    1.361    0.265
