#   1 NUMBER                 Running object number                                     
#   2 MAG_AUTO               Kron-like elliptical aperture magnitude                    [mag]
#   3 X_IMAGE                Object position along x                                    [pixel]
#   4 Y_IMAGE                Object position along y                                    [pixel]
#   5 X_WORLD                Barycenter position along world x axis                     [deg]
#   6 Y_WORLD                Barycenter position along world y axis                     [deg]
#   7 A_WORLD                Profile RMS along major axis (world units)                 [deg]
#   8 B_WORLD                Profile RMS along minor axis (world units)                 [deg]
#   9 THETA_WORLD            Position angle (CCW/world-x)                               [deg]
#  10 FWHM_WORLD             FWHM assuming a gaussian core                              [deg]
#  11 ELONGATION             A_IMAGE/B_IMAGE                                           
#  12 ELLIPTICITY            1 - B_IMAGE/A_IMAGE                                       
         1 -15.3689      6.5104     69.2917   1.1633525457e+02   6.0500805020e+01     1.520375    0.9761678 -73.53  0.005419023    1.372    0.271
         2 -14.2211      7.2116     47.3904   1.1119938795e+02   6.5134851833e+01     1.078923    0.9144529 -82.60   0.00785974    1.432    0.302
         3 -12.9631    119.7362     26.8633   6.2901850510e+01   5.1910303566e+01     1.196561    0.6451966  27.87  0.004915174    2.310    0.567
         4 -14.7052    119.6388     54.6119   7.3292258914e+01   4.7816225077e+01     1.125337    0.8978901  30.39  0.002903446    1.277    0.217
         5 -14.8274    119.7827     38.0851   6.7192245002e+01   5.0386827630e+01     1.917933    0.7206516  47.08   0.00704728    2.526    0.604
         6 -13.2108    139.2188     22.2344   5.6839761695e+01   4.7753307599e+01    0.8618096    0.3724723  56.62   0.00202728    2.076    0.518
         7 -14.6701    166.6506     30.1298   5.4482926170e+01   3.9807851776e+01     1.227711      1.13266  80.44  0.004148519    1.082    0.076
         8 -14.8165    147.6535     30.3480   5.8044921557e+01   4.4661511016e+01     1.536953    0.9233758  58.37  0.005272274    1.579    0.367
         9 -12.5692    232.5569      2.2936   3.8799130825e+01   2.6243865964e+01     1.487721    0.4412931  58.72  0.005738017    3.264    0.694
        10 -15.4537    212.1398     41.0224   5.0923852486e+01   2.6671452583e+01     2.721481     1.696748  70.20   0.01006228    1.641    0.391
        11 -13.7130    188.8261     25.8610   4.9751158182e+01   3.4557705705e+01     1.861396    0.6846035 -55.41  0.005343149    4.706    0.788
        12 -13.9551    188.6705     13.9822   4.6268948380e+01   3.5928712116e+01     1.677165    0.8216528 -55.04  0.006906237    2.384    0.581
        13 -13.2500    131.7338     32.6138   6.2247303064e+01   4.8319408830e+01    0.6582324    0.4708161 -14.49  0.002082908    1.492    0.330
        14 -14.7508     42.1376      6.5595   7.9311803778e+01   6.9040594545e+01     1.952418     1.081533   3.89   0.01010016    2.204    0.546
        15 -13.5742      2.9337     12.6569   1.0182150677e+02   7.1989368241e+01    0.9861961    0.4169231 -54.76  0.005349089    2.185    0.542
        16 -15.1888      8.6299     29.4636   1.0526649709e+02   6.8603050509e+01     1.461191    0.7433432  16.73  0.008691786    2.328    0.570
        17 -14.3495     13.8012     20.9644   9.9635991224e+01   6.9804625180e+01    0.5524603    0.4036796  10.16  0.002263555    1.511    0.338
        18 -12.7142      9.5219     16.9887   1.0017048443e+02   7.0809421249e+01     0.222829    0.1416418 -35.27 0.0006399047    1.158    0.137
        19 -14.9177     23.4481     13.9455   9.1809492141e+01   7.0155375189e+01     1.020198     0.522589  26.04   0.00537562    2.144    0.534
        20 -12.9573     71.9002     16.6426   7.2560955007e+01   6.3079792282e+01    0.7257427      0.33086 -25.69  0.001872467    2.116    0.527
        21 -13.6264    215.1251      9.8948   4.2228027562e+01   2.9662071321e+01     0.977808    0.5998868  47.30  0.002947926    1.866    0.464
        22 -11.8797     46.9040     21.3683   8.4484825524e+01   6.6299600864e+01    0.4094712    0.3214316 -10.54  0.002159215    1.054    0.051
        23 -15.4700     97.9465     12.5386   6.2619231666e+01   5.8444079856e+01     1.710405     0.783661  49.85  0.003706567    1.977    0.494
        24 -11.4286     60.3278     16.9470   7.6965475663e+01   6.4982308819e+01    0.3491618    0.2025352 -28.94  0.001533816    1.560    0.359
        25 -11.6635    153.0311      8.7659   4.9617023670e+01   4.5652561779e+01    0.3196157    0.2576707  36.62  0.001065591    1.243    0.195
        26 -12.9957      7.8594      2.6199   9.4519767027e+01   7.3283725119e+01    0.6462885    0.4333306  38.05  0.002628111    2.330    0.571
        27 -11.0149     59.1174      6.4449   7.2266546265e+01   6.6499038207e+01    0.2667384    0.2278579  64.99  0.001693773    1.873    0.466
        28 -10.2780    160.5083      6.4832   4.7720076575e+01   4.3946054705e+01     0.140138    0.1253292  55.75 0.0001770025    1.047    0.045
        29 -10.8248     68.1877      4.7035   6.8091985866e+01   6.5134405221e+01    0.2602613    0.1582469 -35.73   0.00142053    1.863    0.463
        30 -13.2796    223.8879     20.8846   4.4197743847e+01   2.6290182821e+01     1.293262    0.5731587  49.94  0.005274797    2.597    0.615
        31 -11.0404    112.2249      1.6250   5.4494865553e+01   5.6285842846e+01    0.2776173    0.1769762  53.72  0.001464841    1.391    0.281
        32 -11.6421    119.6667      3.6964   5.3765833484e+01   5.4367674138e+01    0.4239907    0.1969201  70.25  0.001754657    2.458    0.593
        33 -11.6896    116.9662      1.4789   5.3432882316e+01   5.5191649177e+01    0.3361547    0.2134463  58.06 0.0007262854    1.428    0.300
        34 -12.0088     78.1068      2.3340   6.3677347147e+01   6.3521462278e+01    0.3267018    0.2582797  29.74  0.001320184    1.110    0.099
        35 -11.0458     83.0214      1.2331   6.1674241307e+01   6.2653842714e+01    0.2735057    0.1159269  54.68  0.001083035    2.287    0.563
        36 -11.9385     61.6615      2.0078   6.9041679930e+01   6.6561152019e+01    0.3656949    0.2035002  47.46  0.001321665    1.875    0.467
        37 -14.0111    218.3681     15.3973   4.3339793079e+01   2.8266385724e+01     1.061975    0.6414977  36.61  0.004959056    2.265    0.558
        38 -10.7089     28.3005      1.6349   8.3160111389e+01   7.1434682735e+01    0.1900063    0.1256367  11.31  0.001096098    1.414    0.293
        39 -11.1536     54.0077      1.3580   7.1598565404e+01   6.7898926468e+01    0.1616291    0.1029721  36.47 0.0009609139    1.506    0.336
        40 -10.6419     38.2393    145.8068   1.1869607162e+02   4.0409821557e+01    0.1664407    0.1288123 -58.11 0.0005099825    1.332    0.249
        41 -12.4837    109.6835    249.2489   1.1536387664e+02   1.0156757213e+01    0.3268764    0.1907681  52.49   0.00206172    1.347    0.257
        42 -12.9541     55.6117    246.8457   1.2428030081e+02   1.7913836368e+01    0.7507938    0.3462664  34.13  0.004156466    2.669    0.625
        43 -13.3811     28.2911    246.0864   1.2857681364e+02   2.1217166597e+01    0.4738738    0.2716331  73.58  0.003130102    1.325    0.245
        44 -11.7086      2.6899    249.8497   1.3257132079e+02   2.3212276588e+01    0.2747475    0.1355388  49.36  0.001666788    1.582    0.368
        45 -13.7117      9.0515    245.6761   1.3147804037e+02   2.3285429732e+01    0.6758183    0.3208632  60.15   0.00318097    1.478    0.324
        46 -12.5475     44.6058    134.3879   1.1561558886e+02   4.2395293444e+01    0.6455169    0.3986995 -75.49  0.003538856    1.414    0.293
        47 -10.3101     81.1200    135.8908   1.0638275500e+02   3.7340030112e+01    0.1769909    0.1522528 -47.09  0.001005866    1.245    0.197
        48 -11.8953    245.6684    134.3377   6.9611687264e+01   4.4887715347e+00    0.2152665    0.1693846 -61.20  0.001129214    1.736    0.424
        49 -10.4874     11.0231    134.2776   1.2398022720e+02   4.5474759785e+01    0.1535599    0.1276903  83.47 0.0004936417    1.144    0.126
        50 -11.7436    222.4916    128.5009   7.2214210952e+01   1.0163746654e+01    0.1476867    0.1356005 -12.49 0.0002361216    1.003    0.003
        51 -11.1936     25.3431    127.1708   1.1960916116e+02   4.5955877229e+01    0.2370064    0.1872158 -66.11 0.0008031845    1.146    0.128
        52 -13.1181     28.6912    122.5292   1.1812295435e+02   4.6744422853e+01    0.5145686    0.2950454 -63.11  0.002891929    1.414    0.293
        53 -12.6558    133.7686    102.7401   8.4683133508e+01   3.5258168066e+01     1.307265    0.3616555  50.20  0.003525426    4.241    0.764
        54 -13.2755     82.6148    114.1926   1.0160295530e+02   4.2239426898e+01     1.830043     1.272197  -2.85  0.008073408    2.392    0.582
        55 -13.2045    120.1887    102.3935   8.8169339891e+01   3.8196558993e+01    0.7203584     0.343931  41.00  0.001993773    2.223    0.550
        56 -13.8835    106.0779    121.6982   9.6831747743e+01   3.6541994309e+01     1.498668    0.9789958  38.51  0.006981377    1.637    0.389
        57 -14.7849    106.7112    105.5928   9.2724447648e+01   4.0118824575e+01     1.655451     1.326147 -27.47  0.006446824    1.385    0.278
        58 -10.6449     60.0516    125.3528   1.1010011561e+02   4.2734590604e+01    0.2350658    0.1347792  21.65  0.001091906    2.450    0.592
        59 -12.1372    180.5484    121.2148   7.8626546654e+01   2.0843464738e+01    0.3953244    0.2301906  47.86   0.00148405    1.736    0.424
        60 -11.6106     34.5632     86.7089   1.1030224111e+02   5.4570675198e+01    0.2304121    0.1906576 -52.74 0.0005773415    1.065    0.061
        61 -12.2492      4.9761    119.1633   1.2393211721e+02   4.9329944230e+01    0.5227695    0.4095288 -34.47  0.003670498    1.639    0.390
        62 -11.7927     40.5162    243.7620   1.2652427009e+02   2.0238919073e+01    0.3209519    0.1755381 -88.37  0.002192115    1.668    0.401
        63 -13.3142    170.5432    242.9529   1.0385158657e+02   1.5906361293e+00    0.5498132    0.3564668  28.46  0.003357916    1.478    0.323
        64 -14.3811     17.7407    110.6611   1.1948499683e+02   5.0400011116e+01    0.9133359    0.7054064 -35.60  0.006049842    1.551    0.355
        65 -15.2853     18.9734     97.5933   1.1720417527e+02   5.3331320714e+01     1.982108     1.281933 -21.91   0.01150692    2.104    0.525
        66 -13.2958      2.2108     97.2007   1.2211319724e+02   5.4485350302e+01    0.7497928    0.2193771 -71.02  0.003305804    2.500    0.600
        67 -11.6633     45.1234    110.6566   1.1168660027e+02   4.7946460680e+01    0.4717344    0.3209713 -48.34  0.002661806    1.407    0.289
        68 -12.7948     33.1670    111.1203   1.1520272324e+02   4.9016092287e+01    0.4039319    0.2181506 -82.97  0.001983061    1.970    0.492
        69 -11.6379    121.1669    111.8944   9.0419635648e+01   3.5890070298e+01    0.3231339    0.2155291  57.90  0.001415494    1.741    0.425
        70 -11.6280    176.5045    110.5096   7.6708269704e+01   2.3875981478e+01    0.3495544    0.2900105   8.95  0.001673047    1.393    0.282
        71 -11.3534     61.8057    110.6037   1.0682703493e+02   4.6016685954e+01    0.3014417    0.2133862  77.51   0.00155145    1.753    0.430
        72 -11.2442    222.8147    109.6115   6.7514453703e+01   1.3319723889e+01     0.201217    0.1463913  65.85 0.0009506671    1.676    0.403
        73 -11.8789     43.1898     91.1728   1.0845645160e+02   5.2710352794e+01     0.922283    0.3623643 -72.90  0.003106248    3.986    0.749
        74 -12.4162     62.5344     99.4630   1.0422286968e+02   4.8545719507e+01    0.7299235    0.4708783  71.49  0.003297337    2.324    0.570
        75 -11.1745     56.5031     93.4545   1.0472674020e+02   5.0696366752e+01    0.2146691    0.1770961  25.74 0.0005327049    1.426    0.299
        76 -12.6583     51.2468     99.0356   1.0759802262e+02   5.0012084030e+01    0.7325948    0.4596295 -14.40  0.002694912    2.590    0.614
        77 -12.2211     49.2844     94.4713   1.0723288050e+02   5.1296320415e+01    0.3779655    0.2945012  83.36  0.001361652    1.519    0.342
        78 -12.7667    137.3421     95.5138   8.1730164899e+01   3.5996294833e+01    0.4405493      0.38085  81.76  0.001066772    1.364    0.267
        79 -12.3306    125.5657     92.7019   8.3991442685e+01   3.9164576457e+01    0.4252109    0.3066809 -70.96  0.001844601    1.876    0.467
        80 -12.0820     89.8234     88.1318   9.2929623198e+01   4.7060298688e+01    0.4819951     0.368873  49.53  0.002063194    1.475    0.322
        81 -12.3462    127.1167     85.7406   8.1510432464e+01   4.0278267350e+01    0.5390612    0.4447416 -34.98  0.002680997    1.181    0.153
        82 -12.7242    132.0459     86.0054   8.0290197021e+01   3.9135645051e+01    0.3995351    0.3435589 -24.88  0.001560459    1.180    0.153
        83 -12.9186    135.5021     80.0963   7.7584340241e+01   3.9532211384e+01     0.780253    0.4790132  48.36  0.002594425    1.665    0.399
        84 -13.0837    149.7097     85.1859   7.5628093705e+01   3.5219161508e+01    0.8173609    0.4594109  30.51  0.002974757    2.454    0.593
        85 -14.1940    163.9803     71.5011   6.8208611103e+01   3.4261223919e+01     1.656914    0.5950871  45.05  0.005233252    2.997    0.666
        86 -12.8015    160.0340     68.0307   6.7980331039e+01   3.5853277248e+01    0.8408573    0.3976418 -48.80  0.002636724    2.485    0.598
        87 -13.8312    160.9152     80.6776   7.1678798108e+01   3.3365249322e+01    0.9059402    0.6428882  22.45  0.002939788    1.798    0.444
        88 -14.9300    169.2850     77.4083   6.8877073026e+01   3.1887983884e+01     1.782785    0.6820377  52.41  0.005993892    2.590    0.614
        89 -13.5169    188.4650     84.3834   6.7042620296e+01   2.5865271779e+01    0.8420526     0.381669  44.93   0.00238823    2.366    0.577
        90 -12.9374    237.1982     80.3677   5.7839251074e+01   1.4868529744e+01    0.5060287     0.356098  86.60  0.002425199    1.879    0.468
        91 -13.7079     66.0274     48.8646   8.8227642673e+01   5.8927532565e+01     1.403383    0.5945343 -32.63  0.005593611    2.566    0.610
        92 -13.6578     74.3850     74.1247   9.3749485986e+01   5.2597900914e+01     1.466039    0.8009771  13.06  0.005471334    3.466    0.711
        93 -13.0926     87.5035     65.2303   8.6599916225e+01   5.2292155418e+01     0.507431    0.4039034 -20.70   0.00118774    1.256    0.204
        94 -13.1443     90.9340     57.2582   8.2736772416e+01   5.3213957228e+01     0.794076    0.4826705 -50.11  0.003584998    1.814    0.449
        95 -12.9444     55.0269     81.6137   1.0232197810e+02   5.3578584878e+01    0.6180403    0.3707224 -41.57  0.002112745    1.543    0.352
        96 -14.2816     61.0234     75.3117   9.8595001769e+01   5.4226231807e+01     1.475469       1.0384 -86.77   0.00693327    2.243    0.554
        97 -12.3238    216.7246     81.0230   6.1119967805e+01   1.9528221079e+01     0.554966    0.3593365 -44.92  0.001442768    1.499    0.333
        98 -12.7932    210.2691     77.5265   6.1232268503e+01   2.1659041419e+01    0.7355489    0.4419063 -69.65  0.002783836    2.643    0.622
        99 -12.2321    114.0889     80.1763   8.3384698312e+01   4.4186077231e+01    0.4340505    0.3623759 -54.15  0.001411424    1.255    0.203
       100 -10.8374     90.1388     81.2792   9.0843793280e+01   4.8502844144e+01    0.2853373    0.2044615 -63.13  0.001373005    1.616    0.381
       101 -11.5408     94.3933     79.2202   8.8908455508e+01   4.8191982493e+01    0.5130283    0.1913961  45.27  0.001812156    2.994    0.666
       102 -10.7262     32.8345     81.0805   1.0966970619e+02   5.6007477856e+01      0.18955    0.1513033 -73.46 0.0008248573    1.231    0.187
       103 -11.4024     42.4940     77.2969   1.0548877031e+02   5.5940196635e+01    0.2875566    0.2402419 -45.30  0.001819731    1.059    0.055
       104 -14.4013    198.3176     69.7524   6.1084299560e+01   2.5886050959e+01     1.179715    0.8137267  32.92   0.00408787    1.748    0.428
       105 -13.6152    133.4504     66.3081   7.3679731782e+01   4.2606988717e+01     1.066874    0.7868724  -3.13  0.003709497    1.695    0.410
       106 -11.6152    240.7709     70.8880   5.4959356109e+01   1.5513183462e+01     0.281311    0.1809027 -76.16  0.001255443    2.158    0.537
       107 -10.8752    100.9757     70.0074   8.3971750233e+01   4.8859675167e+01     0.227171    0.2131909 -37.89  0.000901101    1.079    0.073
       108 -12.3325     38.8955     68.2355   1.0443457624e+02   5.8300442802e+01    0.6977433    0.3439894  26.88  0.003481001    2.410    0.585
       109 -11.5281    100.2745     64.7079   8.2410718679e+01   5.0033816973e+01    0.4251717     0.321508 -31.69  0.001747462    1.255    0.203
       110 -13.3222    216.4962     73.6351   5.9177451935e+01   2.0775847439e+01    0.8624887    0.6365299 -69.28   0.00376619    1.610    0.379
       111 -13.9579    101.1336     49.3886   7.6682126304e+01   5.2648428239e+01    0.8631071    0.7388461  74.83  0.003703577    1.560    0.359
       112 -13.8565     91.2868    232.5690   1.1700836773e+02   1.5588125157e+01    0.6099887     0.320777  89.11   0.00313455    2.628    0.620
       113 -11.7416    147.3117    239.0313   1.0753934452e+02   5.8986903152e+00    0.1625284    0.1423914  52.17 0.0009254859    1.113    0.101
       114 -12.8455    135.4192     50.7015   6.7876555112e+01   4.4796212163e+01    0.6438895    0.4019884  29.61  0.002374393    1.917    0.478
       115 -11.5463     24.3715    216.8766   1.2760512734e+02   2.6848397940e+01    0.5727583    0.3609999  63.36  0.004111041    1.218    0.179
       116 -13.5911     25.7326    227.4119   1.2798555781e+02   2.4758877796e+01    0.6020659    0.3186278 -65.01  0.003950741    2.091    0.522
       117 -13.1223     20.7209    225.2269   1.2869065444e+02   2.5681756129e+01    0.6135619    0.3139789  48.69  0.004143668    1.619    0.382
       118 -12.4779     57.3035    203.6176   1.2063327724e+02   2.5635973548e+01    0.5452337    0.2672987 -89.46  0.002787275    2.242    0.554
       119 -12.4589     79.7188     60.9790   8.7727197828e+01   5.4457941041e+01    0.4717272    0.4062196   8.56  0.001917409    1.204    0.169
       120 -13.2152     81.9228     54.6816   8.4773181429e+01   5.5296834310e+01    0.7539327    0.5289348  18.22  0.003288205    1.638    0.389
       121 -10.8342     39.0311     60.6081   1.0226219656e+02   5.9922321498e+01    0.2726282    0.1926714 -84.57  0.001448759    2.152    0.535
       122 -11.9121     24.3219     59.5338   1.0756352053e+02   6.1455848972e+01    0.3910315    0.2006423 -54.92  0.002119494    1.506    0.336
       123 -11.7947    247.8739     54.7574   5.0079834675e+01   1.6258715981e+01    0.4484034    0.2975753 -52.51  0.002116926    1.431    0.301
       124 -12.2687    248.6138     49.2855   4.8663364535e+01   1.6851143294e+01    0.4499545    0.3493674  39.15  0.002496358    1.594    0.373
       125 -11.1059     23.5148     49.8477   1.0519374194e+02   6.3543928911e+01    0.3369903    0.1780339 -15.40  0.001353417    2.571    0.611
       126 -10.9370     26.8292     46.3702   1.0277457443e+02   6.3978232485e+01    0.2646893    0.2522987  52.66  0.001916301    1.426    0.299
       127 -13.7582     62.9456    214.6002   1.2054450210e+02   2.2767018103e+01    0.7322234    0.4106834  63.89  0.004337972    1.576    0.365
       128 -10.9528     85.4913    215.9788   1.1643650407e+02   1.9419535750e+01    0.2493954    0.1347632  55.32  0.001381419    1.604    0.377
       129 -14.0379     96.6254    238.8306   1.1665187792e+02   1.3750116886e+01    0.6956602    0.4412053  46.45   0.00293196    1.302    0.232
       130 -13.1442      8.8829    210.8072   1.2990399856e+02   2.9534928207e+01    0.6370115     0.430241  42.57  0.004792916    1.616    0.381
       131 -12.2941    169.9773     44.4007   5.8484206870e+01   3.7044816944e+01    0.4337083    0.2791284 -62.42  0.001843652    1.987    0.497
       132 -14.2292    177.9607     57.6981   6.1164491757e+01   3.2995641698e+01     1.022027    0.7584519 -40.71   0.00271803    1.337    0.252
       133 -11.4074     55.6266     41.0995   8.9226016052e+01   6.1828267327e+01    0.2037535    0.1688552  -1.23 0.0003329867    1.173    0.147
       134 -10.7696    157.3160    213.6546   1.0217705576e+02   8.2196673725e+00    0.1290034   0.09507015  70.64 0.0007048151    1.719    0.418
       135 -11.6897    105.6342     31.7315   6.8519022486e+01   5.4437406024e+01    0.3592105    0.3276261 -73.60  0.002062477    1.423    0.297
       136 -12.4798     75.9895     37.4767   8.0219408433e+01   5.9332048865e+01    0.3221195    0.2494109  32.00 0.0009708344    1.328    0.247
       137 -11.8409     69.5602     36.5922   8.2158346448e+01   6.0544256123e+01    0.4274997    0.2208456  32.16  0.001262734    2.097    0.523
       138 -12.8205    241.7088     35.8651   4.6124015014e+01   2.0210147904e+01    0.6708146    0.3614723  73.01  0.002359925    1.974    0.493
       139 -11.5488    245.0655     29.6745   4.4285122362e+01   2.0221926422e+01    0.4078233    0.1483626 -36.91  0.001687216    2.296    0.565
       140 -11.6206     58.4247     35.4801   8.5901730123e+01   6.2424828511e+01     0.518983      0.27026  27.21  0.002513867    2.178    0.541
       141 -10.5638    136.5268    211.0753   1.0588460002e+02   1.2247009054e+01    0.1744132    0.1281689 -57.31 0.0009439832    1.562    0.360
       142 -11.7538     45.4347    209.1682   1.2333364881e+02   2.5986708895e+01    0.3068796    0.1542243  86.35  0.001704736    1.970    0.493
       143 -10.5112     80.5063    208.4937   1.1661945196e+02   2.1562485834e+01    0.1246437   0.09785105  69.18 -2.844751e-05    1.048    0.045
       144 -10.8186    150.5336    206.7875   1.0247280894e+02   1.0569914197e+01    0.2603448    0.1456282  34.02  0.001265645    1.791    0.442
       145 -12.5995     94.6460    218.8360   1.1499704739e+02   1.7549537068e+01    0.3405968     0.220649  58.30  0.001767521    1.320    0.243
       146 -12.2068     46.1148     33.9707   9.0239059038e+01   6.4324252792e+01    0.4881735    0.2732237 -29.99  0.002585334    1.620    0.383
       147 -10.9922     90.9312     33.7961   7.3732072208e+01   5.7167229889e+01    0.2895541    0.1908484  14.92  0.001402774    1.764    0.433
       148 -12.9773     40.6101    195.4411   1.2314230888e+02   2.9289480729e+01    0.4512799    0.1851882  89.04   0.00204153    2.883    0.653
       149 -10.2186     89.4502     30.4352   7.2807267926e+01   5.7947700915e+01     0.137722    0.1208589   2.91 -3.010738e-06    1.004    0.004
       150 -13.3473     24.3679    150.8304   1.2250248623e+02   4.0615369878e+01     1.514563    0.8585312 -51.24  0.008564497    1.980    0.495
       151 -12.8180     56.5361     27.4985   8.3269603765e+01   6.4006716933e+01    0.5518903    0.3002695  42.22  0.001831334    2.145    0.534
       152 -12.9977     67.8517     24.5813   7.7644391306e+01   6.2690578592e+01     0.726622    0.3533084  38.08  0.003484359    2.090    0.522
       153 -12.5705     16.7348    195.6819   1.2765441160e+02   3.1740310195e+01    0.9163556    0.3390326 -73.53  0.004933705    2.245    0.554
       154 -10.8415     97.9428     27.1436   6.8847204990e+01   5.6691563472e+01    0.1967327    0.1948486  86.18  0.001087057    1.267    0.211
       155 -13.7858     29.8743    169.4967   1.2306942990e+02   3.5937454072e+01     1.112304    0.6696602  58.15  0.003795944    1.542    0.351
       156 -13.4021     22.3811    181.2098   1.2557422075e+02   3.4168005569e+01    0.5512646    0.4405507 -71.98  0.002614473    1.338    0.253
       157 -14.8438      8.2213    183.4776   1.2846812507e+02   3.5003348056e+01     1.059885     0.807452  88.66  0.008069179    1.112    0.100
       158 -13.2144    157.7438     43.6586   6.0572017953e+01   4.0301132715e+01    0.9030955    0.5949784  30.24  0.003982656    1.796    0.443
       159 -14.9197     15.8481    175.6494   1.2645532083e+02   3.5957234459e+01     2.126269    0.8450951  66.54   0.01038329    2.621    0.618
       160 -13.1851     66.4221    223.5428   1.2067832601e+02   2.0634012085e+01    0.6753165    0.5078607  45.67  0.004720184    1.352    0.261
       161 -12.0796    201.1160    191.7481   8.9920719683e+01   3.8706405625e+00    0.3284117    0.2740988   7.22  0.001856755    1.159    0.137
       162 -11.6535     49.1329    181.5056   1.2017140639e+02   3.1219732375e+01     0.366086    0.2120866 -58.94  0.002081795    1.796    0.443
       163 -11.8596    198.5008    181.8284   8.8525214878e+01   5.9535628100e+00    0.2823296    0.2305868  38.85   0.00148801    1.167    0.143
       164 -11.7675    124.6011    167.7937   1.0157143918e+02   2.2805177827e+01     0.393817    0.2509688 -55.30  0.001914216    1.623    0.384
       165 -11.9880     77.0790    156.9069   1.1088268486e+02   3.3040800092e+01    0.4499566    0.2841204  35.79  0.001698331    1.749    0.428
       166 -12.8407     74.0036    153.3304   1.1108056471e+02   3.4299799198e+01    0.6251866    0.4282478  34.01  0.002867241    1.669    0.401
       167 -10.7703     55.8713    156.1580   1.1580196383e+02   3.6034635746e+01    0.1732551    0.1419142 -55.62 0.0009785489    1.346    0.257
       168 -11.2904     85.8941    152.9029   1.0813072798e+02   3.2652813223e+01    0.3532772    0.1710543 -50.98   0.00154312    2.098    0.523
       169 -11.4610    103.1367    150.2019   1.0345392641e+02   3.0484293923e+01    0.3842202    0.2593033 -35.97  0.001813564    1.905    0.475
       170 -10.6352     60.0096    149.4673   1.1390731095e+02   3.7062270875e+01    0.1788711     0.126041  41.14 0.0005416893    1.530    0.347
       171 -11.6490      6.5581    147.6041   1.2622343114e+02   4.2821777831e+01    0.3355951     0.206392  75.17  0.002139112    1.442    0.306
       172 -10.4757     63.2895    147.3681   1.1280124127e+02   3.7130845770e+01    0.1325679   0.09415086 -42.60 0.0007023994    1.710    0.415
