#   1 NUMBER                 Running object number                                     
#   2 MAG_AUTO               Kron-like elliptical aperture magnitude                    [mag]
#   3 X_IMAGE                Object position along x                                    [pixel]
#   4 Y_IMAGE                Object position along y                                    [pixel]
#   5 X_WORLD                Barycenter position along world x axis                     [deg]
#   6 Y_WORLD                Barycenter position along world y axis                     [deg]
#   7 A_WORLD                Profile RMS along major axis (world units)                 [deg]
#   8 B_WORLD                Profile RMS along minor axis (world units)                 [deg]
#   9 THETA_WORLD            Position angle (CCW/world-x)                               [deg]
#  10 FWHM_WORLD             FWHM assuming a gaussian core                              [deg]
#  11 ELONGATION             A_IMAGE/B_IMAGE                                           
#  12 ELLIPTICITY            1 - B_IMAGE/A_IMAGE                                       
         1  -8.5416    140.9970     41.9383   7.6580196312e+01   4.4493817788e+01    0.3070873    0.1819778  86.87   0.00121995    2.833    0.647
         2  -9.0070     63.6069     20.9210   9.0375047221e+01   6.2825306154e+01    0.3035099    0.1820761 -39.29  0.001348923    2.065    0.516
         3  -8.0323      7.7970     15.8290   1.1188271114e+02   7.0184568250e+01    0.1299596    0.1116616 -13.05 0.0004698443    1.383    0.277
         4  -8.6124     55.6487     10.1463   8.8787767717e+01   6.5244633696e+01    0.1781234     0.144247  33.69 0.0007068461    1.298    0.230
         5  -7.8286     47.5501     10.0534   9.1783893947e+01   6.6470200383e+01    0.1349288   0.09402791 -46.32 0.0008069444    2.420    0.587
         6  -8.2117     90.9976      9.0514   7.7365774317e+01   5.9029493963e+01    0.1722345    0.1475068 -79.35 0.0006231085    1.708    0.415
         7  -7.6895    101.4516      8.4594   7.4536551483e+01   5.6945562051e+01    0.1229712    0.1037651  44.98  9.79555e-05    1.064    0.060
         8  -8.5442     33.9568      5.9627   9.5514644962e+01   6.8742291080e+01    0.2100128    0.1426688 -45.80  0.001299027    2.592    0.614
         9  -7.5399     44.7060      3.3344   8.9941187108e+01   6.7553169942e+01    0.0925609   0.08793844 -15.26 0.0006188727    1.641    0.391
        10  -8.3666     62.4938      1.6139   8.2810043601e+01   6.4916688096e+01     0.164078    0.1308469  58.47 0.0006665919    1.676    0.403
        11  -8.3931     79.0254      3.6278   7.8572428600e+01   6.1799959039e+01    0.1993485    0.1545471 -36.95 0.0009825955    1.693    0.409
        12  -8.1225     40.4054    248.2066   1.4308486271e+02   1.8020048199e+01    0.1649055   0.09020916  87.77 0.0009480718    1.696    0.411
        13  -9.1210    211.4009    247.1946   1.0922035488e+02  -8.9763221473e+00     0.370311    0.2517619 -65.81  0.001801379    3.137    0.681
        14  -8.6242     94.0812    249.6508   1.3312143142e+02   1.0128647483e+01    0.2957907    0.1388661  65.73  0.001245387    2.815    0.645
        15 -10.0690    224.1212    244.0891   1.0625447497e+02  -1.0484542219e+01    0.4465343    0.2605643 -45.01  0.002406429    2.133    0.531
        16  -9.2914    146.9111    245.9299   1.2198993205e+02   2.0328923942e+00    0.3688799    0.2400008  66.54  0.001755176    1.997    0.499
        17  -8.6881    146.8764    240.3723   1.2119602582e+02   3.0406513634e+00    0.3877819    0.2590456  86.69  0.001625043    2.465    0.594
        18  -9.0206    120.1613    245.5461   1.2741534573e+02   6.6718803376e+00    0.3752717    0.2136057  66.84  0.001508082    2.246    0.555
        19  -7.7073     75.5033    247.5114   1.3651060094e+02   1.3367781883e+01    0.1252001    0.1012144  65.76 0.0008102329    1.041    0.039
        20  -8.2138     67.8001    245.6409   1.3780736905e+02   1.4853987014e+01    0.2184214    0.1285497 -87.49 0.0007590203    1.753    0.430
        21  -9.1581      9.7956    244.6455   1.4814371026e+02   2.2255108277e+01    0.3283843    0.1101018  89.20  0.001465069    3.246    0.692
        22  -8.5387    139.5085    244.9771   1.2337639525e+02   3.4811335484e+00    0.1734975    0.1131736  89.12 0.0008089204    2.476    0.596
        23  -8.3429     58.7968    245.1903   1.3947123978e+02   1.6203568820e+01    0.2243438   0.09414604  66.81 0.0009552466    2.865    0.651
        24  -9.3669    246.5324    229.3316   9.9482723338e+01  -1.1677093019e+01    0.3882741    0.1992213 -40.16  0.001887894    2.052    0.513
        25 -10.2532    247.6563    241.3040   1.0140242386e+02  -1.3510805087e+01    0.3483402     0.311716 -57.90  0.001976606    1.877    0.467
        26  -9.1549    247.7810    235.0267   1.0027517755e+02  -1.2663486706e+01    0.2169744     0.203897 -10.34 0.0007677846    1.401    0.286
        27  -8.8199    169.2168    243.4164   1.1704051667e+02  -1.3877198090e+00     0.228961    0.2079846  71.75 0.0006689157    1.314    0.239
        28  -9.5754    160.3949    240.6634   1.1843345090e+02   6.2183289946e-01    0.3999744    0.2664557 -81.44  0.001606657    2.693    0.629
        29  -8.3732     77.6444    243.2761   1.3567467040e+02   1.3890698942e+01    0.2098592    0.1186842  69.17  0.001080761    1.813    0.449
        30  -7.7818     34.3279    243.6728   1.4383808777e+02   1.9668529046e+01    0.1278434   0.06554305  67.57 0.0003608317    1.703    0.413
        31  -9.2634    183.0273    240.1438   1.1370176098e+02  -3.2128035617e+00    0.3976488    0.2721271  68.50  0.001480975    2.448    0.591
        32  -8.1182    178.3568    242.2729   1.1499475283e+02  -2.7672164945e+00    0.1346405    0.0944071  13.66 0.0007001646    1.646    0.393
        33  -8.1838    153.3156    242.0067   1.2010069749e+02   1.6202752761e+00    0.1776987    0.1664598  60.39 0.0005117801    1.141    0.124
        34  -8.3085     88.2734    242.0442   1.3344388053e+02   1.2522029776e+01    0.1803548    0.1438958  86.03 0.0005851574    1.199    0.166
        35  -8.9430    201.9683    243.5130   1.1045540570e+02  -6.9162930497e+00    0.2168401    0.1814813 -59.53  0.000832646    1.691    0.409
        36  -8.3319    214.4946    241.1103   1.0759670020e+02  -8.5587049210e+00    0.1792559    0.1213683 -34.06  0.001028188    1.576    0.365
        37  -9.3346    194.1446    239.3376   1.1132034689e+02  -4.9654102360e+00    0.2572205    0.1831508 -29.77  0.001020391    1.547    0.353
        38  -9.1003    217.0021    235.5341   1.0614833730e+02  -8.1107274753e+00    0.3140003    0.2691557 -82.52   0.00186225    1.992    0.498
        39  -9.2813    213.8028    231.7496   1.0610967811e+02  -7.0087734521e+00    0.4224817    0.3068285 -69.63  0.002106217    2.688    0.628
        40  -8.2365    209.1262    238.5070   1.0820104988e+02  -7.3043844529e+00    0.1973663    0.1545656 -68.48 0.0006931312    2.156    0.536
        41  -9.1015    135.7522    238.8965   1.2330319777e+02   5.2575725982e+00    0.2319711    0.1767344  82.79  0.000948399    1.597    0.374
        42  -8.6872    129.3102    238.9834   1.2465996477e+02   6.3584950176e+00    0.2835994    0.1377822  59.12  0.001147032    2.632    0.620
        43  -9.2876    230.8458    236.9745   1.0375036010e+02  -1.0470793120e+01    0.2924892    0.2325801 -62.73   0.00116689    2.175    0.540
        44  -7.8521    189.5182    237.4823   1.1194551955e+02  -3.8807693217e+00    0.1333001    0.1150694  26.72 0.0001343982    1.025    0.024
        45  -8.4019     25.4089    237.1879   1.4497318812e+02   2.2024923566e+01    0.1705999   0.08620489  87.27 0.0009504561    1.786    0.440
        46  -9.0189    203.1836    234.4860   1.0868786026e+02  -5.6959857252e+00    0.3614676    0.2212047 -56.34  0.001322023    2.484    0.597
        47  -9.6850    175.8125    233.4827   1.1409582869e+02  -8.2509338593e-01     0.475359    0.2763088 -60.78  0.002159485    2.584    0.613
        48  -8.6010    170.3585    236.1453   1.1566034078e+02  -3.3137483239e-01    0.1746915    0.1288992 -61.97 0.0006869547    1.765    0.433
        49  -8.2651    152.9865    235.2699   1.1915417755e+02   2.8998323188e+00    0.2539943    0.1709001 -88.50  0.001144997    2.540    0.606
        50  -9.4253    109.3472    234.7500   1.2826772347e+02   1.0587492855e+01    0.5561949    0.2237213  53.75  0.001578524    2.627    0.619
        51  -7.9293     58.4650    237.0000   1.3879916407e+02   1.7909177911e+01    0.2569566   0.06247788  37.60 0.0009265864    3.869    0.742
        52  -8.3267    123.1369    234.4561   1.2533263558e+02   8.3024174244e+00    0.2856349    0.1808396  72.06 0.0009751743    2.023    0.506
        53  -8.4078     99.5294    234.5117   1.3028238678e+02   1.2253826169e+01    0.2963659    0.1634579  70.03 0.0008570728    2.298    0.565
        54  -9.0072     78.9602    234.5976   1.3450624323e+02   1.5458309659e+01    0.2885611    0.1683987  70.86  0.001037369    1.797    0.444
        55  -8.6166     92.3681    232.3293   1.3150467723e+02   1.3852474402e+01    0.3432528    0.1967282 -77.86  0.001576641    2.014    0.504
        56  -9.4216     68.5203    232.5307   1.3638897768e+02   1.7425085535e+01    0.4760828    0.2145247  70.68  0.001911573    3.124    0.680
        57  -8.1969    145.0030    233.4920   1.2056877699e+02   4.6504925867e+00     0.240875    0.1441557  72.22 0.0009797625    2.896    0.655
        58  -8.8668    140.0383    230.1716   1.2112538518e+02   6.1714859676e+00    0.3733787    0.2721183  64.05  0.001356452    1.490    0.329
        59  -8.2641    132.7122    233.1730   1.2312702882e+02   6.8856485450e+00    0.2109011    0.1636966  79.38 0.0008105283    1.483    0.326
        60  -9.2962    186.5288    230.8534   1.1144088126e+02  -2.2499866492e+00    0.3241195    0.2537387 -86.86  0.001369633    2.089    0.521
        61  -8.1402    157.8127    231.9878   1.1762612595e+02   2.6451197018e+00    0.2080113    0.1556389  85.90 0.0008982249    1.929    0.482
        62  -8.9323      1.8860    231.2260   1.4871843851e+02   2.5724389304e+01    0.2464667    0.1124152  81.80 0.0009254155    1.878    0.467
        63  -9.0723    236.1248    230.6235   1.0163302885e+02  -1.0333129622e+01    0.2322659    0.1963293 -31.46 0.0008277063    1.341    0.254
        64  -9.0134    151.4987    229.0095   1.1849770441e+02   4.3379702750e+00    0.3004585     0.221809 -88.15   0.00152549    1.914    0.478
        65  -9.5043    148.8284    224.7199   1.1839188736e+02   5.6474775457e+00    0.3635597    0.2632533  89.04  0.001254098    1.971    0.493
        66  -8.0222    229.7535    229.0057   1.0254174283e+02  -9.1187227071e+00    0.1555987    0.1018527 -32.88 0.0004545278    1.531    0.347
        67  -8.7859    162.2404    228.0294   1.1605240184e+02   2.5824383439e+00    0.2846565    0.2209711  71.22  0.001203383    1.629    0.386
        68  -8.9755    128.1987    227.5442   1.2327652445e+02   8.7941511040e+00    0.2957186    0.1977583  67.68  0.001109617    1.739    0.425
        69  -8.3166    119.8962    227.6661   1.2507966490e+02   1.0223777293e+01    0.2617284    0.1750686 -85.55  0.001152097    1.923    0.480
        70  -8.1584    223.5458    226.6958   1.0331274068e+02  -7.7866196335e+00    0.2399095      0.11815 -32.87  0.001061907    2.111    0.526
        71  -9.3395    225.9501    221.3572   1.0187737589e+02  -7.3307972982e+00    0.4060755    0.2614852 -20.20  0.001661896    1.639    0.390
        72  -8.2865     49.3916    226.6763   1.3962213392e+02   2.1284695191e+01    0.2602544    0.1411044  81.35  0.001338973    1.890    0.471
        73  -8.6698    206.0705    225.3960   1.0651502088e+02  -4.6977826996e+00    0.2972142    0.1866368 -42.52  0.001013368    1.745    0.427
        74  -8.0257    199.9990    226.2639   1.0789260355e+02  -3.8058179137e+00    0.1740486    0.1536009 -79.69 0.0005998029    1.625    0.385
        75  -8.7729     94.2641    224.4666   1.3014569474e+02   1.5198023983e+01      0.45607    0.2267085  70.33  0.001655372    3.115    0.679
        76  -8.8924    216.7366    223.7204   1.0409797928e+02  -6.2083639935e+00    0.3133371    0.1943269 -46.77  0.001036621    1.908    0.476
        77  -8.7008    180.5793    224.0755   1.1151300813e+02  -4.5208773267e-03    0.2798303    0.2095505 -60.51 0.0008949637    1.723    0.420
        78  -8.8098    104.8353    223.7864   1.2779019879e+02   1.3602241347e+01    0.3640596    0.2226081 -89.26  0.001677322    2.165    0.538
        79  -8.2344     38.7328    225.1552   1.4156865430e+02   2.2952632560e+01    0.2220685   0.09175339  67.30 0.0009539842    2.795    0.642
        80  -8.6871    173.0379    223.2987   1.1296919090e+02   1.5005435721e+00    0.2667823    0.1983652 -61.34 0.0007507232    1.701    0.412
        81  -8.1256    113.7418    224.1875   1.2592024755e+02   1.2004769385e+01    0.2158268    0.1612457  82.62 0.0005857951    1.472    0.321
        82  -8.6333    194.7396    232.5277   1.1004976984e+02  -3.9516351261e+00    0.2841676    0.1810483 -46.14  0.001190526    1.817    0.450
        83  -7.7812    233.4627    223.5372   1.0084839015e+02  -8.8583818889e+00    0.1286715    0.1090975   3.31 0.0004328201    1.018    0.018
        84  -9.3612    192.5186    221.4808   1.0857190473e+02  -1.6765811815e+00    0.3454646    0.2722381 -86.29  0.000918848    2.075    0.518
        85 -10.5253    158.0822    218.0567   1.1528999103e+02   5.2479864645e+00    0.6960089    0.4462094  80.82  0.002755552    3.079    0.675
        86  -8.2066    140.0365    222.7985   1.1999523796e+02   7.6258127524e+00    0.2305776    0.1412455  60.60 0.0006895376    1.900    0.474
        87  -9.0893    239.0898    221.5867   9.9438273859e+01  -9.4252843299e+00    0.2296171    0.1975203 -58.22 0.0009247831    1.734    0.423
        88  -8.4085     73.2724    221.1943   1.3420006814e+02   1.9151004192e+01    0.2929078    0.1477033  70.43   0.00125948    2.487    0.598
        89  -9.8603      6.6663    221.2046   1.4727429546e+02   2.7312983947e+01    0.3688051    0.1458137  71.72  0.001783308    2.567    0.610
        90  -8.4270     82.5997    220.5773   1.3215454004e+02   1.7877103603e+01    0.2750736    0.1568961  71.76  0.001115949    2.028    0.507
        91  -8.2350     27.5739    220.7897   1.4335848995e+02   2.5196021481e+01    0.2260816   0.09352633 -69.69  0.001140172    2.120    0.528
        92  -8.5333    202.9549    219.5322   1.0608482870e+02  -3.1729158328e+00    0.3408521    0.1827238 -37.53  0.001551087    1.970    0.492
        93  -9.1463    120.1687    218.8795   1.2375421617e+02   1.1997099251e+01    0.4648381    0.2807011  72.97  0.002004917    2.329    0.571
        94  -8.7647    249.0278    218.3849   9.7028222828e+01  -1.0430812106e+01    0.3283097    0.2171105  62.02  0.001512779    3.423    0.708
        95  -8.5911    210.1157    218.6555   1.0448316466e+02  -4.2596248329e+00    0.3377582    0.1665693 -37.88  0.001161959    2.108    0.526
        96  -9.3386    132.9359    216.0417   1.2049463101e+02   1.0299189413e+01     0.549171    0.3265813  80.93  0.002066143    3.210    0.688
        97  -9.2126     94.2468    215.1738   1.2894741442e+02   1.7211039536e+01    0.5462382    0.2942078  66.48  0.002340113    2.304    0.566
        98  -8.8861     51.4830    217.4741   1.3832751076e+02   2.3001641483e+01    0.2824804    0.1763203  88.00   0.00101739    1.502    0.334
        99  -8.8443    169.3471    216.3413   1.1255369846e+02   3.4867298096e+00    0.2953267    0.2387038 -83.59 0.0008201408    1.673    0.402
       100  -8.6436    143.0004    216.4525   1.1833139723e+02   8.3656919017e+00    0.3130537    0.2220769 -87.96  0.001322389    1.981    0.495
       101  -8.0091    111.7889    217.0309   1.2533443036e+02   1.3855911248e+01    0.2329123    0.1489134  79.47  0.001061348    2.041    0.510
       102  -7.9501     61.9888    217.0990   1.3611457180e+02   2.1666033095e+01    0.2155576    0.1265936  71.28 0.0007948396    1.723    0.420
       103  -8.6886    232.3387    214.9129   9.9462305137e+01  -7.3283634585e+00    0.2464778    0.2105428 -66.64  0.000929858    1.796    0.443
       104  -7.9044     18.5407    216.0121   1.4471526767e+02   2.7205409831e+01    0.1817254   0.09490832 -79.12  0.001033697    1.603    0.376
       105  -8.5531    185.6393    214.1365   1.0868323714e+02   8.8852772082e-01    0.2746824    0.1764457 -57.36  0.001074297    2.024    0.506
       106  -7.7990     41.3456    215.6504   1.4021370708e+02   2.4687256526e+01    0.1390548   0.07484492  69.14 0.0006352355    1.811    0.448
       107  -9.4526    213.9206    212.2237   1.0252804146e+02  -3.8205998129e+00    0.3745452    0.2904875  66.73  0.001321703    1.969    0.492
       108  -8.7832    214.8950    206.8615   1.0131577547e+02  -3.0644380426e+00     0.245371    0.1876143 -16.49 0.0007294421    1.331    0.249
       109  -9.2552     72.9359    211.8388   1.3318574396e+02   2.1266495305e+01    0.5738018    0.2497691  63.68  0.002150471    3.174    0.685
       110  -8.2022    224.8977    212.7452   1.0047613973e+02  -5.7643089155e+00    0.2102425    0.1690602 -48.99  0.001093358    1.525    0.344
       111  -8.4740    161.5631    212.3272   1.1354247847e+02   5.7267569058e+00    0.2345572    0.1993203  87.68 0.0006800938    1.443    0.307
       112  -7.9220    106.4702    212.9379   1.2592783543e+02   1.5659280119e+01    0.1985973    0.1357557 -65.95 0.0005725712    1.534    0.348
       113  -8.8882    204.3105    210.9298   1.0421719785e+02  -1.9116566780e+00    0.2650681    0.2315052 -63.85 0.0007272802    1.492    0.330
       114  -9.3875    175.6924    210.2859   1.1010329076e+02   3.4641405403e+00    0.4248762    0.3013147  78.68  0.001273829    2.356    0.575
       115  -9.2241      5.9730    208.2983   1.4654541856e+02   3.0114601744e+01    0.3048434    0.1228161  85.78  0.001447489    2.477    0.596
       116  -8.3202    192.4872    210.5725   1.0658903736e+02   2.8889769244e-01    0.2290004    0.1357309 -55.26 0.0007463031    2.196    0.545
       117  -8.8243    148.0999    210.6695   1.1623376660e+02   8.6004344280e+00    0.2922018    0.2169646  82.50  0.001276846    1.802    0.445
       118  -8.8475    116.1510    210.2702   1.2335772042e+02   1.4556151130e+01    0.3318039    0.2257213  86.30 0.0007750761    1.863    0.463
       119  -8.7061     85.5522    210.0055   1.3018637959e+02   1.9753477154e+01    0.2976356    0.1962828  79.92  0.001349741    1.653    0.395
       120  -9.0554    236.6759    208.5605   9.7445371429e+01  -7.0005558654e+00    0.2970131    0.2565283 -79.01  0.001257887    1.886    0.470
       121  -7.7451     32.3247    210.6591   1.4158200222e+02   2.6856572032e+01    0.1345107   0.07376598  70.10   0.00070511    1.729    0.422
       122  -8.1941    126.3322    208.4707   1.2077053440e+02   1.3114295194e+01    0.2340134    0.1695574 -89.14  0.001133107    1.708    0.415
       123  -7.6520     46.2986    209.6288   1.3862023219e+02   2.5406316762e+01    0.1388782   0.07932509  72.55 0.0007029783    1.740    0.425
       124  -9.2998    246.2455    207.4938   9.5482884397e+01  -8.3347245005e+00    0.2690991    0.2014121 -31.37 0.0006237857    1.262    0.208
       125  -9.4020    250.0192    202.2340   9.3797503694e+01  -8.0825779539e+00    0.4023536    0.1940087 -34.80  0.001235465    1.914    0.478
       126  -8.1954    156.4192    208.2354   1.1395802223e+02   7.5243907913e+00    0.1883035    0.1415605 -65.35 0.0006086785    1.585    0.369
       127  -8.3963    139.1868    208.0894   1.1779682957e+02   1.0814879913e+01    0.2723366    0.1745042  64.99 0.0007149437    1.948    0.487
       128  -9.3843     99.4330    205.9983   1.2651360568e+02   1.8396278594e+01    0.5138072    0.2898496 -82.63  0.001554808    2.426    0.588
       129  -8.4701     56.3210    205.6150   1.3606872855e+02   2.5011939397e+01    0.2680199    0.1561352  71.77 0.0008590011    1.780    0.438
       130  -8.5125     11.4967    206.5066   1.4536009796e+02   2.9974318047e+01    0.1203637   0.08872758  82.40 0.0008104368    1.032    0.031
       131  -8.8088    131.3334    203.9117   1.1888141780e+02   1.3181538279e+01    0.3350512     0.225995  81.74  0.001012249    2.089    0.521
       132  -8.1438    109.0329    204.8854   1.2415557990e+02   1.7001240879e+01    0.2531165    0.1739649 -80.11 0.0006911909    1.662    0.398
       133  -8.2950     25.1689    205.0376   1.4253720948e+02   2.8897046111e+01    0.2129698    0.1066652  78.13 0.0007507731    2.019    0.505
       134  -7.7879    205.3228    204.2886   1.0274726687e+02  -9.0519466554e-01    0.1426007    0.1036156   4.43 0.0001720065    1.605    0.377
       135  -9.1692    194.8171    203.7647   1.0481597711e+02   1.1199169508e+00    0.2965975     0.252299  72.34  0.000971496    1.543    0.352
       136  -9.5031    192.6158    197.4993   1.0406603630e+02   2.7210369568e+00    0.5334527    0.3997711 -88.12  0.001905664    2.246    0.555
       137  -9.6560    163.8727    203.0646   1.1136865222e+02   7.1501840670e+00     0.462764     0.272595  58.54 0.0009558517    2.149    0.535
       138  -8.7053    211.0423    201.7032   1.0108925210e+02  -1.4708797737e+00     0.343261    0.1856574 -51.90  0.001311321    2.337    0.572
       139  -8.1447     48.8504    202.8578   1.3738080793e+02   2.6613784046e+01    0.2729765    0.1409171  75.91  0.001165863    2.253    0.556
       140  -9.1942    243.0960    200.9559   9.4798118522e+01  -6.7912334108e+00    0.3033654    0.1908942 -43.79  0.001028485    1.678    0.404
       141  -8.0631    222.2832    201.4887   9.8824090267e+01  -3.4157763964e+00    0.2159636     0.162572 -57.24 0.0007366184    1.768    0.434
       142  -8.8974    140.4873    201.1530   1.1630913912e+02   1.2053488254e+01    0.3804818    0.2527355  83.01  0.001098988    2.348    0.574
       143  -8.5820     80.2399    201.5989   1.3026795561e+02   2.2494145772e+01    0.3387951    0.1829329  67.75  0.001442694    2.292    0.564
       144  -8.9721    184.0657    204.1440   1.0716331997e+02   3.0668396139e+00    0.3206998    0.2461597  76.62  0.000917861    1.911    0.477
       145  -9.4904    149.6165    198.7050   1.1378243285e+02   1.0822899099e+01    0.4606106    0.3134407 -88.59   0.00141282    2.334    0.572
       146  -8.8235    124.0995    199.3467   1.1978626038e+02   1.5532529542e+01    0.3293938    0.2278269  83.99  0.000984408    1.899    0.473
       147  -9.3386    112.8772    198.4605   1.2225814766e+02   1.7773106375e+01     0.477257     0.278644  72.35  0.001532361    2.541    0.607
       148  -9.1567     88.8537    198.6622   1.2788538421e+02   2.1816453928e+01    0.3895211    0.2365877  82.46  0.001520628    2.106    0.525
       149  -9.0309    236.9681    198.2970   9.5407271256e+01  -5.3565565082e+00    0.3032165    0.1761486 -47.76  0.001207192    1.970    0.492
       150  -8.6470    177.0438    198.9200   1.0768732492e+02   5.4368818147e+00    0.2441841     0.209618 -51.96 0.0005667943    1.272    0.214
       151  -8.3180    230.9718    198.3013   9.6532361736e+01  -4.3547455026e+00    0.1871097    0.1586476  15.75 0.0004012866    1.122    0.109
       152  -8.4109    202.1749    197.6724   1.0210541309e+02   8.8834972480e-01     0.237374    0.1910167 -50.39 0.0006137395    1.398    0.285
       153  -8.9527     61.5009    197.2931   1.3395926821e+02   2.6224139251e+01    0.3970895    0.2081665  68.73  0.001535159    2.282    0.562
       154  -8.0700     29.5058    197.9739   1.4101039438e+02   3.0012259620e+01      0.18051   0.08512131  80.62 0.0008079779    2.416    0.586
       155  -9.0798     12.8464    197.1838   1.4437478613e+02   3.1895788699e+01    0.3373721    0.1451999  78.72  0.001550961    2.575    0.612
       156  -8.4297    133.0245    196.2776   1.1717938741e+02   1.4543533473e+01     0.266112     0.200873  88.53 0.0007131145    1.629    0.386
       157  -8.7160    215.9612    195.6065   9.8909250002e+01  -1.2590322371e+00    0.2482417    0.1910697 -54.61 0.0007183211    1.581    0.368
       158  -8.8706    185.3047    194.9943   1.0513437827e+02   4.6140750994e+00    0.2779801    0.2215006 -71.06 0.0006831331    1.651    0.394
       159  -7.7360     53.3819    196.6654   1.3570239928e+02   2.7456236203e+01    0.1476197   0.08377173  68.75 0.0007010491    1.877    0.467
       160  -8.8528    224.4459    194.2991   9.6989516327e+01  -2.5349558473e+00    0.3293995    0.2229302 -58.05  0.001446328    2.065    0.516
       161  -7.7449    209.2923    195.6427   1.0025165088e+02  -5.2336507933e-02    0.1352538    0.1148087 -83.15 0.0006631338    1.690    0.408
       162  -9.0235    160.9355    194.3535   1.1039764608e+02   9.5304413325e+00    0.3588984    0.2607691  77.10  0.001009192    1.944    0.486
       163  -8.9499     43.7677    193.5618   1.3748706651e+02   2.9383519541e+01    0.3865843    0.1980994  74.59  0.001758905    2.300    0.565
       164  -9.1354    245.4831    193.5784   9.2925317536e+01  -5.9601954142e+00    0.2343562    0.2073412 -47.29 0.0006456984    1.359    0.264
       165  -8.3098    230.8829    194.2222   9.5744540956e+01  -3.6383509586e+00    0.1956812    0.1876388 -47.25  0.001109948    1.274    0.215
       166  -8.6929     76.9574    193.8949   1.2997742174e+02   2.4788321515e+01     0.237595    0.1819424 -78.24 0.0005103641    1.228    0.185
       167  -8.2662    198.9103    192.1125   1.0167956875e+02   2.5551256548e+00    0.2131316    0.1992514 -88.95 0.0005566762    1.309    0.236
       168  -8.0560    179.1976    191.9702   1.0586532347e+02   6.4139448373e+00    0.2259363    0.1709835 -78.02 0.0006617458    1.899    0.474
       169  -8.3613    172.4268    191.9558   1.0735618292e+02   7.7558389833e+00    0.2605516    0.2145474 -69.61 0.0008876147    1.461    0.315
       170  -9.1867    139.5023    190.6403   1.1464700689e+02   1.4551959402e+01    0.3779801    0.2744834 -86.46 0.0009087947    1.826    0.452
       171  -7.7156    205.2704    191.6363   1.0027074796e+02   1.4409166488e+00    0.1372116    0.1152264 -78.72  0.000378756    1.656    0.396
       172 -10.3956     92.2366    188.5909   1.2558524675e+02   2.3624601051e+01     1.005998    0.4021233  52.33  0.003608971    2.845    0.648
       173  -8.8964    129.2972    188.6993   1.1670674755e+02   1.6959945808e+01     0.346861    0.2408907  82.80    0.0011624    1.956    0.489
       174  -8.5236    237.1846    188.4927   9.3426426735e+01  -3.7235958911e+00    0.2504758    0.1729133 -34.88 0.0006345382    1.348    0.258
       175  -9.3604    155.8931    187.5226   1.1023604607e+02   1.1995563221e+01     0.388808    0.2668734 -68.68  0.001105301    1.870    0.465
       176  -8.2648    148.3051    189.0891   1.1229688156e+02   1.3165358663e+01    0.2091659    0.1900522 -70.92  0.000612008    1.166    0.143
       177  -9.8390    120.9359    186.8671   1.1838096928e+02   1.8962428265e+01    0.5886325    0.3247964 -75.34   0.00215648    2.814    0.645
       178  -8.6051     34.2718    188.1205   1.3900605871e+02   3.1749397542e+01    0.2796473    0.1542075  80.69 0.0008879165    1.899    0.473
       179  -8.7407    216.5364    188.0053   9.7271477466e+01   2.0962888675e-02    0.2413182    0.1991235  58.63 0.0006731909    1.495    0.331
       180  -8.6694    191.5285    187.5271   1.0231175578e+02   4.8773750798e+00    0.3089297    0.2260315  89.05  0.001341865    2.337    0.572
       181  -9.1230     54.9079    187.1841   1.3422110426e+02   2.9480824510e+01    0.4144562     0.209135  66.93  0.001618225    2.463    0.594
       182  -8.5660    249.2952    186.0716   9.0762730012e+01  -5.3248978581e+00    0.2320605    0.1908648 -61.01 0.0007599089    1.646    0.392
       183  -7.9564    230.2870    187.4501   9.4503081293e+01  -2.3501261793e+00    0.1706615    0.1322523  49.58 0.0006951845    1.509    0.337
       184  -8.8392    164.8168    186.5213   1.0799552190e+02   1.0417417422e+01    0.3209677    0.2217263 -59.40 0.0009839695    1.667    0.400
       185  -9.3537    109.5153    186.0380   1.2099645741e+02   2.1249624899e+01    0.4338855    0.2906399  86.04  0.001144855    1.950    0.487
       186  -9.0121    182.9102    185.0718   1.0367156734e+02   7.0799140306e+00    0.3511232    0.2209927 -49.07 0.0009168332    1.683    0.406
       187  -8.7134    210.2570    184.3899   9.7787754195e+01   1.8679782886e+00     0.253696    0.2240929 -57.15 0.0006227613    1.309    0.236
       188  -8.5137    202.8273    184.7312   9.9372602343e+01   3.2241110795e+00    0.2598761    0.1904842 -69.75 0.0007633222    2.007    0.502
       189  -9.1266     66.8301    184.5847   1.3107970879e+02   2.8480193002e+01    0.3994547    0.2291223  59.43  0.001084445    1.855    0.461
       190  -8.5007    224.0826    183.7045   9.4924833586e+01  -5.7097476831e-01    0.2328815    0.1803958 -45.24 0.0005073418    1.344    0.256
       191  -8.0990    197.1478    183.6629   1.0033500562e+02   4.5381286585e+00    0.2523456    0.1950882 -52.02 0.0006287324    1.416    0.294
       192  -9.0524    174.3519    183.2861   1.0519750819e+02   9.1738766713e+00    0.4321201    0.2591861 -49.86  0.001037519    1.765    0.434
       193  -9.1146    241.5306    182.2538   9.1379816130e+01  -3.3830010697e+00    0.3617326    0.2544819 -71.78  0.001658083    2.693    0.629
       194  -9.0651     44.3808    182.4385   1.3608244186e+02   3.1918780073e+01    0.3525845    0.1990124  76.90  0.001244738    1.997    0.499
       195  -7.9532      1.7751    183.6080   1.4555803119e+02   3.5910830270e+01    0.1544252   0.09063332  50.94 0.0009427479    1.697    0.411
       196  -9.1863    147.6433    180.8797   1.1086189450e+02   1.5120973425e+01    0.3714468    0.2744756  85.74   0.00124666    1.838    0.456
       197  -9.6073     25.4823    178.5904   1.3997694266e+02   3.4900151163e+01    0.7024546    0.2745543  84.44  0.002335701    4.579    0.782
       198  -8.4843    137.5777    179.3663   1.1296896195e+02   1.7479877803e+01     0.331057    0.2317902  82.85  0.001095095    2.017    0.504
       199  -9.4509    191.5060    178.3808   1.0043510342e+02   6.7145955703e+00    0.3424569    0.2948361  77.29 0.0005297661    1.437    0.304
       200  -8.2958    169.1766    178.6491   1.0541371304e+02   1.1214087832e+01    0.2539295    0.2054524 -61.69  0.000588059    1.376    0.273
       201  -8.9985     35.9071    176.6881   1.3737783699e+02   3.4251861983e+01    0.5446126    0.2273827  85.23  0.001811022    4.355    0.770
       202  -9.5251    248.2353    176.4650   8.9020793277e+01  -3.5159375729e+00    0.4227291    0.2774022 -57.36  0.002078344    2.066    0.516
       203  -8.5321    250.5212    172.5287   8.7827641325e+01  -3.2213061189e+00    0.2530083    0.1188971 -40.04 8.284094e-05    1.910    0.477
       204  -8.4827    231.2175    177.2782   9.2254954912e+01  -6.9547302160e-01    0.2650943    0.1770457 -48.79 0.0006105179    1.601    0.375
       205  -8.7004    205.1004    177.6840   9.7446097910e+01   4.1505658199e+00    0.2566501    0.1923886 -49.74 0.0006157344    1.418    0.295
       206  -8.5125    129.1744    177.5621   1.1466007184e+02   1.9551281938e+01    0.3203439    0.2275611  89.95  0.001010808    1.882    0.469
       207  -8.0493     97.8336    177.7005   1.2244013678e+02   2.5285269358e+01    0.2157103    0.1872263  19.60  0.001142812    1.399    0.285
       208  -8.4298    217.5487    177.1539   9.4842070961e+01   1.8534286445e+00    0.2171873    0.2001615 -81.72 0.0007414338    1.348    0.258
       209  -9.4335    104.5567    175.0282   1.2029278347e+02   2.4755072551e+01    0.6166795    0.3260582  65.83   0.00215669    3.023    0.669
       210  -8.7344     88.9198    176.7517   1.2450162987e+02   2.7005055201e+01    0.2794662    0.1995846 -82.54 0.0008552364    1.490    0.329
       211  -9.9715     57.3324    173.2673   1.3180801997e+02   3.2498925548e+01    0.9189679    0.4287866  83.63  0.002899848    4.523    0.779
       212  -8.8184     60.6734    160.3117   1.2904592012e+02   3.5215956382e+01    0.3621581    0.2145821  76.62  0.001583762    2.246    0.555
       213  -8.7114     13.0270    176.8322   1.4257889217e+02   3.6486343063e+01    0.2686526    0.1308566  68.38  0.001245434    2.246    0.555
       214  -9.3285    183.1079    176.1283   1.0178022989e+02   8.8837679610e+00    0.3207796    0.2419692 -58.73 0.0005221948    1.511    0.338
       215  -9.3395    158.9437    175.2506   1.0706766542e+02   1.4065240481e+01    0.4330328    0.2959678  78.18  0.001211671    2.281    0.562
       216 -10.7038     75.8675    170.3706   1.2674425046e+02   3.0602803023e+01     1.213662    0.4689892 -74.59  0.003452344    4.758    0.790
       217  -8.4025    224.4273    174.2787   9.2912851980e+01   1.0989265960e+00    0.1939611    0.1295657 -48.46 0.0009372439    1.571    0.363
       218  -9.5822    175.9008    172.2477   1.0255772215e+02   1.1191577477e+01    0.3831998    0.2913904 -49.16  0.000842105    1.354    0.262
       219  -8.3336    142.9929    173.0204   1.1039986291e+02   1.7845117915e+01    0.2499295    0.1887675  82.17 0.0007576752    1.701    0.412
       220  -8.2078    194.2326    172.5805   9.8631806013e+01   7.3388186841e+00    0.2114381    0.1402377  31.82 0.0006625345    1.622    0.383
       221  -8.5256    134.8221    172.0567   1.1219545597e+02   1.9717383757e+01    0.2419364    0.2047871  83.98 0.0007836895    1.302    0.232
       222  -9.5817    121.3372    170.4735   1.1522822848e+02   2.2738316876e+01    0.4045328    0.2868846 -82.31  0.001007213    1.771    0.435
       223  -9.2833     44.9930    171.0808   1.3452924656e+02   3.4558250362e+01    0.3986049    0.2197094  82.84  0.001306786    2.204    0.546
       224  -8.7658    230.5310    170.3175   9.0937752628e+01   6.9904287608e-01    0.2468995    0.1911282 -52.36 0.0007955111    1.418    0.295
       225  -8.1520    205.7380    170.3448   9.5764934122e+01   5.4650576950e+00    0.2575212    0.1734432 -53.13 0.0007095311    1.647    0.393
       226  -8.2958    198.3636    170.5329   9.7325810240e+01   6.9129988427e+00    0.2520089    0.2123585  67.51 0.0007290667    1.415    0.293
       227  -8.1702    237.1732    169.8538   8.9626495400e+01  -4.2601398688e-01    0.2035892     0.181385 -56.68 0.0006852347    1.288    0.224
       228  -9.3104    167.3360    168.9706   1.0380336596e+02   1.3694688724e+01     0.411922    0.3015934  76.80  0.000994192    1.895    0.472
       229  -8.6795    149.8484    169.6063   1.0804595121e+02   1.7214995040e+01    0.2973656     0.226481 -64.41  0.000752522    1.455    0.313
       230  -8.2942    244.4709    169.0343   8.8161003501e+01  -1.5732200594e+00    0.2086338    0.1225404 -38.69 0.0004596496    1.540    0.351
       231  -8.2333    218.9413    168.4781   9.2745503241e+01   3.2318962632e+00    0.2189767    0.1834809 -38.06   0.00050367    1.145    0.127
       232  -8.7836    111.8313    167.8084   1.1711435565e+02   2.5172447504e+01    0.4328633    0.2580426  77.68  0.001358838    2.951    0.661
       233  -8.0007     88.8041    168.7848   1.2318337549e+02   2.8961456586e+01    0.2092011    0.1607887  73.78 0.0008344372    1.385    0.278
       234  -7.8845    211.4167    168.2593   9.4176062081e+01   4.7452948339e+00    0.2015022    0.1351317 -51.34 0.0005592787    1.605    0.377
       235  -8.9253    185.1568    166.8199   9.9345379761e+01   1.0404394103e+01    0.3119411    0.2035137 -55.47 0.0007455842    1.724    0.420
       236  -9.1148    191.9574    166.3867   9.7784509469e+01   9.0746508715e+00    0.3742566    0.2074265 -46.39 0.0007077539    1.820    0.451
       237 -10.0001     95.0966    163.1640   1.2055000929e+02   2.9284487904e+01    0.8416089     0.459023  78.67  0.002590006    4.175    0.760
       238  -9.0684     20.6416    166.1181   1.3976720170e+02   3.8288402517e+01    0.3575353    0.1701259  63.06  0.001341144    2.510    0.602
       239  -9.9563    136.6821    164.2441   1.1013498540e+02   2.1163852174e+01    0.6564013    0.4182011  66.54  0.002180327    2.113    0.527
       240  -8.3277    233.8610    164.8692   8.9184236620e+01   1.0853884086e+00    0.2551753    0.1708115 -43.61 0.0007690275    1.422    0.297
       241  -8.7181    159.4767    164.4277   1.0465550511e+02   1.6361689202e+01    0.3079085    0.2632682  84.23  0.000690229    1.351    0.260
       242  -9.3982     33.6156    163.5997   1.3635527511e+02   3.7614288307e+01    0.5263997    0.2198779  56.38  0.002153001    3.054    0.673
       243  -8.2930    240.0679    164.1732   8.7927130874e+01   7.7929567068e-02    0.2051166    0.1748701 -14.42 0.0005203862    1.154    0.134
       244  -8.6192    212.9841    163.5323   9.2849821978e+01   5.3562129794e+00    0.2728053    0.1966044 -55.68 0.0006579186    1.561    0.360
       245  -8.7995    246.0163    163.0062   8.6648181034e+01  -7.7527707554e-01    0.2065068    0.1836412 -34.71 0.0004795128    1.065    0.061
       246  -8.4365    204.8175    163.0683   9.4383914320e+01   7.0968287032e+00    0.2233531    0.2000594 -67.86 0.0005327392    1.264    0.209
       247  -9.3600      3.5248    162.5128   1.4336736854e+02   4.0557900855e+01    0.3747786     0.177209  57.92  0.001934782    2.333    0.571
       248  -8.9072    151.5893    161.0535   1.0580349453e+02   1.8796390701e+01    0.3806293    0.2572441 -67.68  0.001231391    1.855    0.461
       249 -10.0470    250.1692    158.2532   8.4960287820e+01  -6.6355544998e-01    0.4778776    0.1731838 -39.84  0.001553204    2.452    0.592
       250  -9.0381    177.4332    160.5692   9.9682609482e+01   1.3371580946e+01    0.3145998    0.2544298 -77.48  0.000769541    1.529    0.346
       251  -7.6815    242.2782    160.2979   8.6730166441e+01   3.7808173928e-01    0.1958665    0.1047937 -39.96 0.0004181134    1.690    0.408
       252  -8.4025    245.2746    158.6695   8.5873774380e+01   1.3124272329e-01    0.2178218    0.1822455 -58.28 0.0005981039    1.348    0.258
       253  -8.6100    227.4038    159.2030   8.9164075847e+01   3.3583815645e+00    0.2693673    0.2017536 -63.02  0.000812567    1.658    0.397
       254  -9.7371    105.8539    158.0495   1.1675094760e+02   2.8635535276e+01    0.5342155    0.3720495 -83.36  0.001579199    1.800    0.444
       255  -8.3010    236.9883    158.9745   8.7380269971e+01   1.5883380338e+00    0.2137774     0.169496 -70.88 0.0006332147    1.668    0.400
       256  -8.5514    196.7538    158.2345   9.4983900144e+01   9.7487543011e+00    0.2736792    0.2292317 -89.68  0.000864118    1.505    0.335
       257  -8.4331    127.9904    158.9828   1.1121224568e+02   2.4163481135e+01     0.251021    0.1890091  81.47 0.0005974532    1.669    0.401
       258  -8.4275    188.1445    157.6838   9.6688173690e+01   1.1690208694e+01    0.2751858    0.2024158 -54.95 0.0006723154    1.456    0.313
       259  -9.0988    167.7723    157.3246   1.0115730729e+02   1.6161533420e+01    0.3710537    0.2764033  86.91 0.0009863666    1.895    0.472
       260  -8.4938     78.8346    158.5747   1.2399020417e+02   3.3046633957e+01    0.2644268    0.1460585  30.97   0.00113834    2.080    0.519
       261  -8.3963    218.0362    156.4639   9.0334237610e+01   5.7223184074e+00    0.2844729    0.1896489 -54.68 0.0007867723    1.671    0.401
       262  -9.3656    157.6288    156.0500   1.0325215566e+02   1.8639543636e+01    0.3475156    0.2625507 -69.69 0.0008022298    1.577    0.366
       263  -9.4659    119.5758    155.3491   1.1260890965e+02   2.6697465201e+01    0.5002728    0.3163728 -77.44  0.001464699    2.268    0.559
       264  -8.6389    144.7520    155.1753   1.0618154960e+02   2.1594867398e+01    0.3534249    0.2381274  65.87 0.0009251625    1.877    0.467
       265  -9.3520     81.6250    154.9695   1.2259802116e+02   3.3501609598e+01    0.4729284    0.2876829  67.84  0.001367829    2.222    0.550
       266  -9.0941     49.5779    155.1401   1.3114240531e+02   3.7878319179e+01    0.3702046    0.2148436  75.71  0.001655325    2.280    0.561
       267  -8.4373    242.6401    155.1775   8.5593350005e+01   1.2385458366e+00    0.2012953    0.1590405 -35.07 0.0004468666    1.140    0.123
       268  -7.8729    239.7111    153.3161   8.5705176222e+01   2.1191448931e+00    0.1914332    0.1817698  74.52 0.0002879787    1.228    0.186
       269  -7.9395    204.7700    155.3715   9.2702804029e+01   8.6509817141e+00    0.2024207    0.1794851 -48.15   0.00056417    1.125    0.111
       270  -9.6280    132.8105    153.0003   1.0869601925e+02   2.4599317297e+01    0.4855497    0.3564878 -88.69  0.001302954    1.824    0.452
       271  -8.9323    133.5041    148.4953   1.0751762156e+02   2.5516458538e+01    0.3643457    0.2421121 -49.88  0.001035966    1.506    0.336
       272  -9.4779     68.0094    153.7499   1.2603144243e+02   3.5824542538e+01    0.4612179     0.277611  69.94  0.001452618    2.244    0.554
       273  -8.2081    232.9344    153.9481   8.7032497677e+01   3.2823116640e+00    0.2201727    0.1682003 -68.05 0.0005922347    1.686    0.407
       274  -8.7786    151.9690    152.9998   1.0392887582e+02   2.0552211347e+01    0.2580641    0.1972156  88.92 0.0007919866    1.722    0.419
       275  -8.1757    182.4635    151.4558   9.6521192738e+01   1.4236576790e+01     0.270723    0.1446856 -54.89 0.0006940363    2.180    0.541
       276  -8.8145     98.2448    150.8964   1.1733831610e+02   3.1741774197e+01    0.3376729    0.2464011 -88.73  0.001307891    1.678    0.404
       277  -9.3987     29.3519    150.6941   1.3576416375e+02   4.1129155242e+01     0.438945    0.2225355  72.61  0.001882161    2.819    0.645
       278  -8.5748     20.2958    152.6063   1.3830330545e+02   4.1504815985e+01    0.2002792    0.1124661  36.23  0.000970591    2.001    0.500
       279  -8.6501      2.9059    150.9453   1.4237916054e+02   4.3262050685e+01    0.2731547    0.1320044 -89.90  0.001369788    2.064    0.516
       280  -9.7112    248.7977    149.5896   8.3384617966e+01   1.1239801230e+00    0.3529943    0.1965798 -41.79 0.0008852789    1.595    0.373
       281  -9.0886    242.5174    150.0386   8.4529425457e+01   2.1953498424e+00    0.3451086    0.2405509  62.57  0.001738221    1.863    0.463
       282  -8.9647    189.2844    150.1657   9.4750276192e+01   1.3022861134e+01    0.3606827    0.2489094 -61.61 0.0007744238    1.734    0.423
       283  -8.6707    162.8027    150.7632   1.0083274799e+02   1.8700255769e+01    0.3008051     0.207855 -74.08  0.001215939    2.032    0.508
       284  -7.9810    237.1518    150.2367   8.5494008912e+01   3.1674791745e+00    0.1859714    0.1586041 -61.35 0.0004578773    1.293    0.227
       285  -8.0979    219.0657    150.4909   8.8830212869e+01   6.6742964963e+00    0.2098289    0.1458707  45.49 0.0005013903    1.522    0.343
       286  -8.3033    213.0950    149.8799   8.9836877862e+01   8.0167093100e+00     0.215777    0.1953875 -67.64 0.0003164122    1.203    0.169
       287  -9.8873     40.0390    148.0059   1.3258986643e+02   4.0690292786e+01    0.5691881    0.2878367  67.43  0.002139241    3.027    0.670
       288  -8.3565    198.8719    149.1321   9.2506620784e+01   1.1165741730e+01    0.2281839    0.2011899 -74.91 0.0004642762    1.278    0.217
       289 -10.1775     89.1450    146.2122   1.1887005837e+02   3.4441163884e+01    0.7142711    0.4197456  89.07  0.002529773    3.154    0.683
       290  -9.1024    233.3345    147.3813   8.5548637583e+01   4.4320870176e+00    0.3242989    0.1794557 -37.00  0.001120213    1.701    0.412
       291 -10.9131     54.9241    143.4785   1.2782922232e+02   4.0072406826e+01     1.038471    0.5712408 -77.64  0.003457971    2.082    0.520
       292  -8.1630    223.2834    146.9871   8.7272744209e+01   6.4980477685e+00    0.2087905    0.1735037 -42.76 0.0004857438    1.130    0.115
       293 -10.3722    149.0161    145.1171   1.0284833956e+02   2.2992769941e+01    0.7659997    0.4881913 -68.36  0.001842574    2.133    0.531
       294  -8.7553    151.7494    135.6390   9.9934092845e+01   2.4540948029e+01    0.4138204    0.2146605  32.34  0.001320711    2.533    0.605
       295  -9.9249    139.1741    144.9868   1.0527561294e+02   2.5143408809e+01    0.5813821    0.3505723 -68.23  0.001302467    2.329    0.571
       296 -10.2588    106.5949    144.2538   1.1368472953e+02   3.1849742103e+01    0.7709191    0.4982272 -88.59  0.002683518    2.477    0.596
       297  -9.4529     13.3954    146.3280   1.3928627948e+02   4.3553636348e+01    0.3549085     0.198994  71.81  0.001276331    2.098    0.523
       298  -8.2584    240.2038    145.2503   8.3903337448e+01   3.5066432902e+00    0.2669813     0.160363 -44.76 0.0005936623    1.530    0.346
       299  -9.4897    243.1173    142.2929   8.2783003054e+01   3.4956959315e+00    0.4553782     0.180936 -33.99  0.001678347    2.703    0.630
       300  -8.0734    206.7495    146.3728   9.0294275934e+01   1.0044360546e+01    0.2010078    0.1835103 -57.01  0.000600509    1.115    0.103
       301  -8.2833    175.6642    146.1619   9.6814891900e+01   1.6872247003e+01    0.2493719    0.1951734 -63.56 0.0006730509    1.426    0.299
       302  -9.0671    165.8089    144.2283   9.8618302039e+01   1.9487499999e+01    0.3755612    0.2767865  81.72 0.0009578486    1.867    0.464
       303  -9.8281    124.9865    142.8213   1.0844275435e+02   2.8608997840e+01    0.5731032    0.3630618 -79.09  0.001503985    2.541    0.606
       304  -9.1089    247.1434    143.7530   8.2429245669e+01   2.4767185176e+00    0.2691694    0.1779552 -34.94 0.0006175478    1.392    0.282
       305 -11.0608     69.5405    141.4426   1.2338857412e+02   3.8628011374e+01     1.026586    0.5479277 -79.24  0.003922213    2.733    0.634
       306  -9.3606      2.7216    142.0556   1.4148279178e+02   4.5320941020e+01     0.348733    0.1813853  73.30  0.001368052    2.308    0.567
       307  -8.8166     78.3389    147.2495   1.2204699334e+02   3.5908016425e+01    0.3557165    0.2171494  81.26 0.0009787135    2.574    0.611
       308  -8.4547    181.8710    141.5969   9.4375272142e+01   1.6470214539e+01    0.3074709    0.1995132 -59.83 0.0005887555    1.820    0.451
       309  -8.5089    250.5250    140.9483   8.1292266268e+01   2.3567704676e+00    0.2110151    0.1211189 -40.68 0.0005492274    1.532    0.347
       310  -9.8771     23.6545    138.3839   1.3558594335e+02   4.4578656502e+01    0.4925388    0.2619048  67.61  0.002154845    2.598    0.615
       311  -8.5913    172.0580    138.2561   9.5772378568e+01   1.9394004210e+01    0.2838162    0.2169416 -72.73 0.0005733607    1.604    0.376
       312  -7.6485    218.5024    138.5271   8.6276016383e+01   9.1173771126e+00    0.1473632    0.1384071 -47.49 3.919609e-05    1.020    0.020
       313  -8.4252    207.5448    137.9920   8.8234052852e+01   1.1553508317e+01     0.268781     0.200797 -76.11 0.0009003751    1.762    0.433
       314  -8.6591    197.5136    137.5840   9.0136060692e+01   1.3828184288e+01    0.2957072     0.234332 -61.71 0.0007828785    1.368    0.269
       315  -8.1978    162.7020    136.4028   9.7490247705e+01   2.1912769670e+01    0.2850612    0.1926444 -57.11 0.0008034553    1.613    0.380
       316  -8.7980    140.7807    137.1569   1.0303258570e+02   2.6608212451e+01    0.2215378    0.1941664  -2.94 0.0008795424    1.355    0.262
       317  -9.5959     38.9588    135.9062   1.3100855209e+02   4.3718321962e+01    0.3778683     0.201317 -79.95 0.0009386918    2.134    0.531
       318  -9.0068    250.6360    129.9299   7.8953891408e+01   4.3086048945e+00    0.4462955    0.1185425 -40.61  0.001466105    3.298    0.697
       319  -9.0240    248.3800    135.4003   8.0463727873e+01   3.7522013326e+00    0.3516448    0.2115948 -43.87 0.0006978775    1.474    0.322
       320  -8.5136    246.9785    130.3339   7.9609270744e+01   4.9318846603e+00     0.241343    0.1655671 -48.71 0.0005962953    1.337    0.252
       321  -8.6441    179.5237    134.0613   9.3105839992e+01   1.8602581761e+01    0.3126371    0.2405601 -68.10 0.0007679978    1.514    0.340
       322  -9.2040    113.0535    133.3761   1.0946723947e+02   3.3226552885e+01    0.4286508    0.3035952  84.46  0.001126099    2.054    0.513
       323 -10.4277     83.3840    132.7932   1.1770000358e+02   3.8644743972e+01    0.6028758    0.3563812 -70.11  0.001313398    2.022    0.505
       324 -10.0236    237.0356    132.5630   8.1699035517e+01   6.4654669058e+00    0.4748164    0.2531122 -56.86  0.001952239    2.297    0.565
       325  -7.6921    231.3949    134.1693   8.3005406577e+01   7.2967161334e+00    0.2039995    0.1239027 -50.11 0.0005645917    1.612    0.380
       326  -9.9559    133.7194    109.7143   9.7936728216e+01   3.4292158329e+01    0.7072926    0.3549168 -49.83  0.002108431    2.089    0.521
       327 -10.6310    132.4328    130.2817   1.0352326306e+02   2.9984682294e+01    0.9028988    0.5080225 -46.52  0.002317504    1.773    0.436
       328 -10.2395    130.9399    118.7265   1.0102305658e+02   3.2923640405e+01    0.7003057    0.4593584  87.87  0.002123634    2.866    0.651
       329 -10.4596     98.2068    130.2003   1.1287948412e+02   3.6757340955e+01    0.7853835    0.3580152 -52.07  0.001709694    2.103    0.524
       330  -8.7308     98.8342    120.7978   1.1047521968e+02   3.8860082249e+01    0.6637203    0.3487638  13.99   0.00172426    5.898    0.830
       331  -9.1460    142.9583    131.6989   1.0116337334e+02   2.7378438555e+01    0.3261423    0.2634131 -80.92 0.0007878303    1.481    0.325
       332  -9.6801    152.9584    128.0814   9.7791528119e+01   2.5956131215e+01    0.7575393    0.3151225 -47.31  0.001757774    2.433    0.589
       333 -10.0351     12.9040    129.1800   1.3723566264e+02   4.7589519583e+01    0.5184901     0.271345  88.36  0.002504389    2.324    0.570
       334  -7.8423    204.4432    130.2571   8.7051620890e+01   1.3778330509e+01    0.2129327      0.13835 -52.88 0.0005703467    1.585    0.369
       335  -8.2115    192.7352    130.2338   8.9386899352e+01   1.6403598295e+01    0.2478128    0.1879597 -65.64 0.0006880001    1.506    0.336
       336  -9.2404    168.3412    129.4067   9.4484544090e+01   2.2155511252e+01    0.3476895    0.2563432 -65.59 0.0008805956    1.584    0.369
       337 -10.0809     72.9019    128.6412   1.1986104273e+02   4.1249172579e+01    0.5344201    0.2691201 -65.32  0.001500775    2.182    0.542
       338  -7.8381      1.7606    130.5245   1.4040751888e+02   4.8027738849e+01    0.1463239    0.1045114  47.82 0.0008083239    1.649    0.393
       339  -7.6547    220.5086    129.5629   8.3890553518e+01   1.0429463564e+01    0.1463247    0.1371565 -52.84  7.42824e-05    1.016    0.015
       340  -8.0945    211.5272    129.0453   8.5418942602e+01   1.2462313865e+01    0.2248253    0.1406339 -44.60 0.0008726766    1.518    0.341
       341  -7.6738    186.2918    129.6420   9.0589042416e+01   1.7989690816e+01    0.1620002    0.1220526 -76.88 0.0007028903    1.691    0.409
       342 -10.7051     60.0123    125.1427   1.2294847059e+02   4.3860892755e+01     0.743166    0.4494587  84.48  0.002390191    2.847    0.649
       343  -8.8232     58.9119    115.4661   1.2125315402e+02   4.6285584611e+01    0.3810574     0.230415 -20.26  0.001654355    2.472    0.595
       344 -10.7324     44.8340    123.4835   1.2714786513e+02   4.6058691643e+01     1.077437    0.5855665  81.87  0.003955213    3.818    0.738
       345 -10.1736    118.0732    124.7029   1.0600186544e+02   3.4258702955e+01    0.7026149    0.4836203 -55.50  0.002085571    1.490    0.329
       346 -10.1993     28.6384    122.8512   1.3181891011e+02   4.7802576080e+01    0.6867309    0.3658092  81.67  0.002839788    3.213    0.689
       347  -9.0892     26.4413    114.5700   1.3106018615e+02   4.9914757154e+01    0.3841667    0.1872264 -28.13  0.001601813    2.981    0.665
       348  -7.9265    228.4523    125.5210   8.1593554717e+01   9.5274825525e+00    0.1458219     0.131655 -55.20 0.0008079371    1.046    0.044
       349  -8.7493    179.1970    124.8028   9.0936382640e+01   2.0629931365e+01     0.307312    0.2456257  71.05 0.0006716214    1.397    0.284
       350  -7.6454    187.7238    135.3703   9.1649941662e+01   1.6470758651e+01    0.1608673    0.1213434 -74.97 0.0007006722    1.684    0.406
       351  -7.8897    212.0000    123.8685   8.4135461673e+01   1.3371338233e+01     0.244731    0.0817738 -41.10 0.0005488913    2.847    0.649
       352  -7.9602    188.5159    123.9760   8.8758382499e+01   1.8649785247e+01    0.2210731    0.1298053 -63.97 0.0006499934    2.403    0.584
       353  -8.9562     84.7770    122.9007   1.1509212283e+02   4.0784029134e+01    0.3967092    0.2645788 -14.56   0.00126978    2.323    0.570
       354  -9.3422    158.5464    121.5247   9.4808335435e+01   2.6111658562e+01    0.4437542    0.2896388 -69.79  0.001120492    2.172    0.540
       355  -9.6410     71.4857    120.1955   1.1845137095e+02   4.3465537660e+01    0.5506384    0.3614264  77.31  0.002142068    2.472    0.596
       356  -7.6935    203.0000    122.0253   8.5398865727e+01   1.5739219333e+01    0.2462298   0.08402528 -41.31 0.0003618127    2.828    0.646
       357  -8.0020    194.9559    122.0026   8.6971013851e+01   1.7572288171e+01    0.2451396    0.1827969 -74.76 0.0005613304    1.662    0.398
       358  -8.8965    171.9922    121.4024   9.1682610609e+01   2.3016739675e+01    0.3312325    0.2119761 -53.06 0.0007673489    1.645    0.392
       359 -10.0587    141.5316    117.9519   9.8076149260e+01   3.0764265874e+01    0.7024482    0.3474707 -53.39  0.001419479    2.271    0.560
       360  -9.7053      2.9033    117.0361   1.3836751853e+02   5.1024006103e+01    0.5247295    0.2563982  84.56  0.002402769    2.908    0.656
       361  -7.3554    231.3349    117.6743   7.9363517168e+01   1.0388167366e+01    0.1499204    0.1069166 -72.53 0.0007051404    1.716    0.417
       362 -10.0860    109.3375    114.3341   1.0583341260e+02   3.8364395177e+01    0.5358091    0.3691626 -79.05  0.001234209    2.200    0.545
       363  -8.4677    193.0116    115.4596   8.5777718674e+01   1.9330950589e+01    0.3011996    0.1982285 -56.36 0.0006539063    1.630    0.387
       364  -8.0338    185.7822    115.9738   8.7370492683e+01   2.0913089360e+01    0.2522156    0.1671483 -65.40 0.0005303305    1.890    0.471
       365  -7.7805    153.2895    115.6361   9.4564639435e+01   2.8589215143e+01    0.1646368    0.1252105 -80.43 0.0005525768    1.699    0.412
       366 -10.2457     92.6812    112.3787   1.1020131552e+02   4.1893629524e+01    0.5877576    0.3508458 -64.61    0.0014195    2.092    0.522
       367  -8.9834     94.5703    104.3208   1.0755064507e+02   4.3363523124e+01    0.5128378     0.255759  21.22  0.001668306    3.663    0.727
       368 -10.0485     78.9260    112.6092   1.1442431855e+02   4.4115362973e+01    0.6218129    0.4028199 -82.82  0.002563833    2.551    0.608
       369  -8.8451     78.4879    105.2496   1.1273884059e+02   4.5853845428e+01    0.4098236    0.2634581   6.90  0.001285648    2.306    0.566
       370 -10.1587    121.8130    112.2798   1.0180796335e+02   3.6296487491e+01    0.5543538    0.3795317 -75.48  0.001280472    2.170    0.539
       371  -8.4436    174.8570    112.2480   8.8753588047e+01   2.4240704224e+01    0.2729827    0.2052897 -57.81 0.0006014844    1.404    0.288
       372  -8.6551    159.2929    111.9792   9.2192296652e+01   2.7965180149e+01    0.2716998    0.2170685  85.16 0.0006850002    1.506    0.336
       373 -10.2422     66.2747    109.9349   1.1771214313e+02   4.6588352034e+01    0.5532148    0.3340364 -62.09  0.002114368    1.709    0.415
       374  -9.5856     14.2192    111.4512   1.3422656178e+02   5.1565001321e+01    0.3129832    0.1953373  62.74  0.001004824    2.168    0.539
       375 -10.0791    248.6257    107.6823   7.4534110842e+01   8.6471890104e+00    0.3980508    0.2615366 -46.12  0.002076996    1.334    0.251
       376 -10.1449    249.0648    101.9887   7.3262747045e+01   9.5509315319e+00    0.3663811    0.3221991 -31.49  0.002200885    1.254    0.203
       377  -8.4227    167.4698    114.9163   9.1066127583e+01   2.5433064476e+01    0.2414517    0.1542792 -45.48  0.001018283    1.566    0.361
       378  -9.1090     43.4139    109.5690   1.2484345410e+02   4.9456123809e+01    0.3014949    0.1377154  18.28   0.00127098    2.959    0.662
       379  -7.9456    189.3678    108.1806   8.4716304185e+01   2.1622850967e+01    0.2183848    0.1368265 -52.09 0.0004723599    1.641    0.391
       380  -8.9000    109.5218    107.3525   1.0395335561e+02   3.9882288016e+01     0.388045    0.2577526  10.59 0.0009974675    2.358    0.576
       381  -9.4734    139.8208    104.3379   9.4920937134e+01   3.4064303899e+01    0.5134262    0.3099249 -56.50  0.001365267    1.939    0.484
       382 -10.4325     45.8714    102.7017   1.2257924388e+02   5.0751409908e+01    0.7134246    0.4341282  72.39  0.002986017    3.262    0.693
       383  -9.4679     46.2531     93.1118   1.2022711155e+02   5.2827602901e+01    0.5038245    0.2742375   0.65  0.002152164    2.969    0.663
       384 -10.6294     22.9329    102.7906   1.3000903872e+02   5.2873861146e+01    0.6732616    0.4000905  75.58    0.0028038    2.862    0.651
       385  -8.6177    166.5362    104.0762   8.8482774523e+01   2.7869967432e+01    0.3119611    0.2338165 -65.96 0.0008845047    1.537    0.349
       386  -9.4699    150.6484    103.1997   9.1933459798e+01   3.1803804938e+01    0.5019265    0.3207793 -67.19  0.001522174    2.220    0.550
       387 -10.0502    128.3549    102.1123   9.7304919459e+01   3.7084668449e+01    0.3958865    0.3195197 -61.05 0.0008654571    1.368    0.269
       388  -8.6967    129.6673     97.6608   9.5726981745e+01   3.7717640398e+01    0.2471342    0.1883217   3.35  0.001016556    1.769    0.435
       389 -10.7147    108.8927     98.9157   1.0184186081e+02   4.1823883849e+01    0.9246178    0.5384425  67.64  0.001243493    3.356    0.702
       390  -9.1651    107.6635     92.8407   1.0049168373e+02   4.3331080672e+01    0.5872274    0.3084531  22.64  0.001969522    3.349    0.701
       391  -8.9955      6.6969    102.9844   1.3514921868e+02   5.3943315785e+01    0.2404978    0.1752717  59.15  0.001239015    1.756    0.431
       392  -8.0479    175.4435    102.2320   8.6071905308e+01   2.6105366194e+01      0.21663    0.1438433 -53.61 0.0004725151    1.586    0.370
       393  -8.0895    159.8770    101.1141   8.9207438424e+01   3.0048620181e+01    0.2405713    0.2070385 -76.29 0.0005333601    1.271    0.213
       394  -9.2041     81.9563     99.9104   1.1026774138e+02   4.6482288833e+01    0.3710621    0.2610509 -72.99 0.0007308903    1.962    0.490
       395  -9.4991     94.9649     96.8037   1.0539527150e+02   4.4917524487e+01    0.4144791    0.2640876 -57.05 0.0008128211    1.771    0.435
       396 -10.1337     64.0028     96.1102   1.1505252577e+02   4.9990364579e+01     0.531519    0.3771704 -89.20  0.001826716    2.329    0.571
       397  -8.8268     64.4589     88.0521   1.1277125789e+02   5.1647927577e+01    0.3564027    0.2064037  -3.88  0.001421009    3.016    0.668
       398  -8.6494    151.2972     95.6408   8.9735523539e+01   3.3167221886e+01    0.3098482    0.2251871  11.55  0.001001183    2.039    0.509
       399  -7.6227    188.5233     94.0298   8.1344926305e+01   2.4530804824e+01    0.2152638    0.1213409 -61.85 0.0007186427    2.342    0.573
       400  -8.2685    164.8024     94.0842   8.6231129347e+01   3.0245983603e+01    0.2371596    0.2031429 -71.92 0.0005355608    1.251    0.200
       401  -9.6061    139.0390     91.9899   9.1720633639e+01   3.6740633585e+01    0.4930319    0.3028329 -50.50 0.0009916861    1.762    0.432
       402 -10.5904    124.0596     91.5272   9.5502334200e+01   4.0182909318e+01    0.6466317    0.5314971  32.35  0.001407537    1.244    0.196
       403  -8.1043    176.4303     93.2394   8.3540418596e+01   2.7596889147e+01    0.2144033    0.1395997 -53.82  0.000734721    1.632    0.387
       404  -9.5576      5.1992     92.2893   1.3381311882e+02   5.6363516578e+01    0.3150179    0.2043772  55.74  0.001357683    2.166    0.538
       405  -7.8795    157.7946     91.8302   8.7189776478e+01   3.2361192524e+01    0.2134613    0.1795463 -82.38 0.0003394879    1.342    0.255
       406  -9.6261     34.7598     90.0208   1.2340896982e+02   5.4666109332e+01    0.4305888    0.2566575 -77.54  0.001633562    2.450    0.592
       407  -8.3036    150.8333     89.1069   8.8050209922e+01   3.4540185130e+01    0.2356744    0.2057435 -82.18 0.0004118852    1.267    0.211
       408 -10.2324     86.7467     85.7399   1.0481427812e+02   4.8659096452e+01    0.7569634    0.4851182 -41.96  0.001642806    1.506    0.336
       409  -7.8476    164.1252     87.1375   8.4515691211e+01   3.1718480395e+01    0.2098284    0.1779863 -78.95 0.0004225228    1.287    0.223
       410  -9.9950     48.4803     84.1519   1.1720358455e+02   5.4482038066e+01    0.4731512    0.3375608  89.53  0.001575488    2.454    0.593
       411  -9.0118    178.0799     85.7477   8.1257073399e+01   2.8579087439e+01    0.2735855    0.2392313  52.54  0.000478813    1.150    0.130
       412  -9.7604    104.8804     83.3781   9.8555734553e+01   4.5767982861e+01    0.4725065     0.304634 -60.29 0.0009880456    2.089    0.521
       413  -8.2825    105.3213     77.3253   9.6605527792e+01   4.6828782501e+01    0.2701404     0.201695  20.90 0.0007682818    1.475    0.322
       414  -8.3401    157.9824     84.0302   8.5015855426e+01   3.3774937376e+01    0.2271425    0.2176255 -84.87 0.0003712873    1.046    0.044
       415  -9.1739    140.7734     82.8304   8.8695851228e+01   3.8082721567e+01    0.4251994    0.2604752 -53.16  0.001274563    1.886    0.470
       416  -7.5245    170.3570     83.6687   8.2269083748e+01   3.0836823615e+01    0.1626293    0.1166728 -80.36 0.0007043484    1.791    0.442
       417  -9.0601     22.6531     90.2067   1.2758559986e+02   5.5658869597e+01    0.2642257    0.1796393 -26.10 0.0009014811    1.509    0.337
       418  -9.3851     10.0580     81.3154   1.3006928852e+02   5.8408707360e+01    0.3069453    0.1945533  60.18  0.001489718    2.563    0.610
       419  -9.6954     24.5581     80.0828   1.2465940660e+02   5.7648850242e+01    0.4833332    0.2546931 -70.16  0.001510159    2.401    0.583
       420  -8.5989    150.2199     80.6244   8.5824762480e+01   3.6256462111e+01    0.2910425    0.2316127 -74.79 0.0007479538    1.504    0.335
       421  -8.8564    119.4047     80.2921   9.3498081609e+01   4.3353751093e+01     0.319237    0.2464568 -69.07  0.000828526    1.706    0.414
       422  -8.9195     74.5444     80.4669   1.0724095295e+02   5.1712750727e+01    0.3013507    0.2129474 -61.40 0.0009138668    1.787    0.441
       423  -8.2955    166.7303     79.9203   8.2013384778e+01   3.2390333820e+01    0.2053199    0.1918063 -53.77 0.0005464987    1.100    0.091
       424  -9.0149     65.0000     77.9835   1.0974562108e+02   5.3621211960e+01    0.3558293    0.1690893 -46.03 0.0008568336    1.951    0.487
       425  -9.9334     63.4752     73.5362   1.0895691675e+02   5.4703129116e+01    0.4968911    0.2600604 -55.82  0.001803791    2.323    0.569
       426  -9.0819    233.5938     76.2742   6.9839719315e+01   1.7166745155e+01    0.2267008     0.212425 -71.98 0.0004928734    1.137    0.121
       427  -9.8517    128.0036     75.0090   8.9628430988e+01   4.2422473314e+01     0.501274    0.2888448 -47.42  0.001675293    1.911    0.477
       428  -8.6582    140.4957     75.1937   8.6561518470e+01   3.9522254578e+01    0.2931182    0.2031086 -53.64 0.0007637218    1.641    0.391
       429  -9.7953     82.2823     72.6313   1.0231184230e+02   5.1960131220e+01    0.4180501    0.3012989 -62.41  0.001074373    1.924    0.480
       430  -8.3587    151.4181     73.7561   8.3611377367e+01   3.7178475596e+01    0.1954617    0.1479847 -23.99 0.0006298496    1.537    0.349
       431  -8.6107    115.6436     72.6873   9.2238860881e+01   4.5538762422e+01    0.2678046    0.1787402 -41.66 0.0007557007    1.562    0.360
       432  -8.1645     42.5173     73.0002   1.1631134166e+02   5.7404857883e+01    0.1900233    0.1126556 -50.90 0.0004558449    1.553    0.356
       433  -8.0183    157.3543     76.7493   8.3140248671e+01   3.5227756821e+01    0.1958462    0.1449973 -29.51 0.0009269034    1.514    0.339
       434  -9.1557    105.8990     71.8943   9.4765725230e+01   4.7700433781e+01    0.5451962    0.2714729 -55.54  0.001977094    3.173    0.685
       435  -9.4765     95.1123     71.1031   9.7756055219e+01   4.9945316784e+01    0.3644879    0.2401365 -57.03 0.0008650365    2.016    0.504
       436  -9.5798     51.4295     69.8412   1.1214593942e+02   5.6994140570e+01    0.4441083    0.2825438 -67.38  0.001613066    2.516    0.603
       437  -9.6617     97.6175     60.5392   9.3605494748e+01   5.1281793120e+01    0.3413312    0.2875352 -32.08  0.001105162    1.226    0.184
       438  -8.6204     28.0786     71.0056   1.2111125945e+02   5.9197180152e+01    0.2379733    0.1312927 -19.85  0.001015492    2.096    0.523
       439  -8.2207     32.0513     68.2273   1.1887244612e+02   5.9387438067e+01    0.2127606    0.1526403  -6.65 0.0007485603    1.429    0.300
       440  -9.1242     16.5647     69.9842   1.2515977307e+02   6.0296554686e+01    0.3229613    0.1838463 -66.96  0.001769652    1.978    0.494
       441  -8.9088    147.0280     68.0772   8.2973173472e+01   3.9187408234e+01     0.316417    0.2066771 -46.95 0.0005483437    1.653    0.395
       442  -8.8226    138.5268     66.1597   8.4379614436e+01   4.1514558869e+01    0.2896747    0.1955996 -51.66 0.0007762478    1.696    0.410
       443  -8.9982    121.6468     65.9843   8.8552107656e+01   4.5387052637e+01    0.3119252    0.2299885 -54.19 0.0009245184    1.614    0.380
       444  -8.3976    163.3133     73.6181   8.1006828946e+01   3.4317626954e+01    0.2714078    0.1714537 -49.45 0.0009597457    1.689    0.408
       445  -8.6485     64.8273     63.5602   1.0538175414e+02   5.6362401196e+01     0.438497    0.2391036   2.49  0.001679899    3.462    0.711
       446  -8.7429     37.2068     64.1687   1.1576246040e+02   5.9664067893e+01    0.2644262    0.2052203 -77.56 0.0008997917    2.026    0.506
       447  -9.0718    110.1585     63.7689   9.0990200125e+01   4.8221117517e+01    0.2625865    0.2408786 -77.51 0.0006908143    1.340    0.254
       448  -8.0122    158.1241     62.0980   7.8878025906e+01   3.7467459292e+01    0.1982543    0.1665547 -85.94 0.0003442645    1.291    0.225
       449  -9.5694     73.2514     59.4785   1.0111121325e+02   5.5786779643e+01    0.3769505    0.2234149 -49.60  0.001059019    2.001    0.500
       450  -7.5256    164.4622     60.4190   7.7144804576e+01   3.6177492049e+01    0.1462266    0.1325879  75.51 7.465138e-05    1.037    0.036
       451  -8.1985     89.0065     59.5054   9.5925741227e+01   5.3076803366e+01    0.2081084    0.1740584 -24.60 0.0005374775    1.180    0.152
       452  -8.6544    146.6255     59.2526   8.0498692550e+01   4.0690446891e+01    0.1899706    0.1417675 -21.31 0.0004875617    1.583    0.368
       453  -9.8307     23.4882     56.5875   1.1888946828e+02   6.2338393277e+01    0.4037798    0.2791947 -81.56  0.002150119    2.858    0.650
       454  -8.7910    130.6934     57.8541   8.3754880372e+01   4.4647703838e+01    0.2541004    0.1875001 -53.21 0.0007818461    1.592    0.372
       455  -9.5008      7.4503     57.1299   1.2544708969e+02   6.3370291025e+01    0.2731643    0.2069039 -76.63  0.001186357    1.793    0.442
       456  -8.4936    139.9226     56.4704   8.1170130814e+01   4.2707789975e+01    0.2071453    0.1926823 -35.99 0.0004012428    1.163    0.140
       457  -9.5752    119.1246     55.3624   8.5885794641e+01   4.7628455234e+01    0.4120409    0.2308365 -46.30  0.001497127    2.094    0.523
       458  -9.5118     54.3607     55.7225   1.0662215733e+02   5.9187375793e+01    0.3233261     0.212582 -53.12  0.001211816    1.884    0.469
       459  -8.8508     43.9933     55.5048   1.1048283759e+02   6.0506454287e+01    0.2658195    0.1613449 -46.57   0.00114912    1.613    0.380
       460  -8.6675    105.7784     52.9948   8.8740190604e+01   5.0831223136e+01     0.231712    0.1896132 -52.99 0.0007518409    1.500    0.333
       461  -9.6102     92.3250     50.4742   9.1855656089e+01   5.3878970673e+01    0.4588576    0.2233828 -43.34  0.001210218    2.350    0.574
       462  -8.3460     92.8069     42.7850   8.9056864646e+01   5.4893944032e+01    0.2350083    0.1307949  14.77 0.0009562421    2.836    0.647
       463  -8.2906     74.9743     51.5910   9.7850756814e+01   5.6798607188e+01    0.2816363    0.1546426  22.61  0.001296375    2.145    0.534
       464  -8.8605    129.7998     49.1648   8.1286028491e+01   4.6131092918e+01    0.2655176    0.2147027  11.01 0.0004700399    1.423    0.297
       465  -8.7519    149.6161     49.2886   7.6962147085e+01   4.1435780758e+01     0.236895    0.1852695 -14.83 0.0008245497    1.557    0.358
       466  -7.8247    144.5542     49.0249   7.7939679726e+01   4.2688232891e+01    0.1992837    0.1397511 -37.01 0.0005562778    1.553    0.356
       467  -8.8567    120.9249     47.4892   8.2914137156e+01   4.8374465959e+01    0.2316609    0.1887639 -49.52 0.0005132117    1.432    0.302
       468  -8.3264    112.1500     46.8123   8.4955669573e+01   5.0387269421e+01    0.2258724    0.1814372 -44.95 0.0007630474    1.441    0.306
       469  -8.9988     82.0453     46.3675   9.3677418230e+01   5.6380416737e+01     0.267551    0.1827615 -34.20 0.0007908003    1.510    0.338
       470  -8.9035    132.7606     43.6700   7.8899842395e+01   4.6199635184e+01    0.2917596    0.2287102 -57.34 0.0009765413    1.530    0.346
       471  -8.6530     44.9900     44.6793   1.0643748463e+02   6.2205242603e+01    0.2179224    0.1603416 -40.04 0.0005927687    1.403    0.287
       472  -8.7903     16.6491     44.8349   1.1814314056e+02   6.4974124993e+01    0.1819187    0.1626487 -62.74 0.0007107384    1.579    0.367
       473  -9.0286     58.1585     42.6454   1.0066294914e+02   6.0776274837e+01    0.2793508    0.1939059 -54.22  0.001125805    2.168    0.539
       474  -9.2657     69.7822     41.9348   9.6219138497e+01   5.9107508357e+01    0.2791569    0.2440255 -65.89 0.0009501697    1.785    0.440
       475  -9.3106      5.2168     42.1214   1.2220496938e+02   6.6219081449e+01     0.267427    0.1825102 -67.39  0.001175408    2.019    0.505
       476  -8.5258    249.2582    248.8105   1.0240883124e+02  -1.4727092506e+01    0.2290549    0.1312495 -28.48  0.001351911    1.688    0.408
       477  -8.4526     36.6453     40.8593   1.0843924723e+02   6.3778443968e+01    0.1923013    0.1735076 -50.27 0.0006558213    1.578    0.366
       478  -8.7864     95.3829     38.1760   8.6682732357e+01   5.5008434127e+01    0.2608748    0.1873568 -41.69 0.0008378266    1.646    0.393
       479  -8.1011     80.5525     36.9567   9.0791954384e+01   5.7962852065e+01    0.1810189    0.1204996 -30.81 0.0004609122    1.559    0.359
       480  -9.4154     26.1910     35.6618   1.1097389253e+02   6.5669125944e+01    0.2413154    0.1976286 -47.08 0.0007943196    1.564    0.361
       481  -7.7299    133.1661     36.2042   7.6502561148e+01   4.7059269829e+01     0.179788    0.1569588 -80.53 0.0006016921    1.329    0.247
       482  -8.1859    125.9795     35.5758   7.7900519022e+01   4.8790691582e+01    0.1888962     0.176754  -7.52 0.0001308285    1.175    0.149
       483  -8.7102    111.8672     34.5000   8.0939361815e+01   5.2055398055e+01    0.2644871    0.1880012 -32.76 0.0008471463    1.561    0.359
       484  -8.5753    119.0408     33.4895   7.8844243054e+01   5.0604088345e+01    0.2386891     0.180118 -48.90 0.0006157396    1.616    0.381
       485  -7.9822     88.5229     34.0952   8.7265149926e+01   5.6860435997e+01    0.1831061    0.1234997 -27.48  0.001020011    1.560    0.359
       486  -8.9453     48.5116     33.4691   1.0093877962e+02   6.3449453988e+01    0.2114053    0.1954986 -10.36 0.0007336443    1.357    0.263
       487  -8.5597     60.6719     32.3742   9.5909026099e+01   6.1867226880e+01    0.1890726    0.1713091 -15.47 0.0005951729    1.293    0.227
       488  -8.5205     72.1825     31.2704   9.1442777296e+01   6.0158766329e+01    0.2020659    0.1572453 -53.37 0.0006978101    1.960    0.490
       489  -7.5603    139.3036     31.6691   7.3839219043e+01   4.6162891007e+01     0.134466    0.1016659 -75.86 0.0005756925    1.654    0.395
       490  -9.0573     12.9180     30.3589   1.1494824897e+02   6.7639584646e+01    0.2506322    0.1417068 -49.73  0.001026452    1.852    0.460
       491  -8.5021    101.6423     29.5406   8.1906747250e+01   5.4802702981e+01    0.1981188    0.1538348 -50.55 0.0007030891    1.691    0.409
       492  -9.3962      3.7664     27.8140   1.1826734974e+02   6.8679871547e+01    0.2603593    0.1406881 -57.03  0.001338022    2.306    0.566
       493  -8.4013    227.4721     28.0196   6.0193410552e+01   2.5572241605e+01    0.1830335    0.1174479 -41.60  0.001033417    1.597    0.374
       494  -8.9121     81.4649     27.2423   8.6913204253e+01   5.9010560480e+01     0.254721    0.1942705 -53.44 0.0009002551    1.976    0.494
       495  -8.7731     91.8155     26.1176   8.3408204389e+01   5.7172320970e+01     0.291716     0.166484 -41.20  0.001101485    2.184    0.542
       496  -8.6523    106.0040     41.4926   8.4834639133e+01   5.2413163527e+01    0.2338258    0.1855015 -50.31 0.0006443286    1.572    0.364
       497  -8.0632     34.6559     23.3503   1.0263865669e+02   6.6564818294e+01    0.1439371     0.137159  33.02  0.001074161    1.715    0.417
       498  -7.9561    104.4392     22.5586   7.8744267211e+01   5.4987353935e+01     0.129015    0.1094004  37.89 0.0001230056    1.009    0.009
       499  -8.3697    218.6851    248.3152   1.0800416478e+02  -1.0264281295e+01    0.1936842    0.1487175 -42.59 0.0008315074    1.627    0.385
       500  -8.7806     48.3440     21.7301   9.6374255361e+01   6.5026659242e+01    0.1824768    0.1573917  -7.17 0.0006344363    1.247    0.198
       501  -8.2230     19.8100     21.7558   1.0856796298e+02   6.8335028470e+01    0.1354806    0.1180718  -7.92 0.0004643394    1.358    0.264
       502  -7.8802    120.4894     20.5076   7.4280333404e+01   5.1706702826e+01     0.129573    0.1136901  56.61 -0.0002855041    1.088    0.081
       503  -9.0117     74.2835     19.5787   8.6259338753e+01   6.1164164371e+01    0.2123703    0.1950939 -33.32 0.0006645671    1.441    0.306
       504  -8.1978     87.7874     17.7700   8.1485704445e+01   5.8845750993e+01    0.1479118    0.1453157 -31.06 0.0004835737    1.335    0.251
       505  -7.9647     38.8725     18.6124   9.8918143184e+01   6.6664983978e+01    0.1416722   0.09697726  35.06 0.0005540343    1.603    0.376
       506  -8.2084     29.9900     16.0521   1.0164704355e+02   6.8045664935e+01    0.1426178    0.1369292  -5.29 0.0005872883    1.708    0.415
       507  -8.1028    191.2804    249.4347   1.1353469555e+02  -6.0844054085e+00    0.1828775    0.1064478  45.35 0.0009431017    1.665    0.399
       508  -7.4875    172.2702     12.6887   6.3097614091e+01   4.0293328353e+01    0.1275637   0.08786798 -72.73 0.0006956525    1.548    0.354
       509  -8.1231     17.0258     14.4907   1.0690412744e+02   6.9583260454e+01    0.1494574    0.0904686  18.22 0.0006112203    1.529    0.346
       510  -9.0874    175.5856    247.4828   1.1637329269e+02  -3.1548383106e+00    0.3034234    0.2489757  88.17  0.001151814    1.784    0.439
       511  -8.6562    156.3723    248.5129   1.2042735077e+02  -4.6873932034e-02    0.2696229    0.1827836  65.48 0.0007415774    1.911    0.477
       512  -8.1928     28.2098     10.4281   1.0001365697e+02   6.8932091495e+01    0.1338973   0.09257125  31.67 0.0004481568    1.601    0.375
       513  -8.8320    132.4895    248.0993   1.2523619546e+02   4.1149348188e+00    0.3206536    0.1947833  67.61  0.000966787    2.151    0.535
       514  -8.3468    113.2487    248.5928   1.2919224394e+02   7.2480408406e+00    0.2212161    0.1482489 -79.44 0.0008323852    1.794    0.442
       515  -9.3228    103.9685    247.0763   1.3087335580e+02   9.0502007820e+00    0.4869803    0.2343552 -79.65  0.001964367    3.499    0.714
       516  -9.0860    242.8266    246.7603   1.0322372152e+02  -1.3575322708e+01    0.3347883     0.149002 -32.49  0.001622801    2.262    0.558
       517  -8.9835    232.9400    246.9658   1.0508343395e+02  -1.2196717172e+01    0.3111816    0.1623937 -34.92   0.00123458    1.989    0.497
