#   1 NUMBER                 Running object number                                     
#   2 MAG_AUTO               Kron-like elliptical aperture magnitude                    [mag]
#   3 X_IMAGE                Object position along x                                    [pixel]
#   4 Y_IMAGE                Object position along y                                    [pixel]
#   5 X_WORLD                Barycenter position along world x axis                     [deg]
#   6 Y_WORLD                Barycenter position along world y axis                     [deg]
#   7 A_WORLD                Profile RMS along major axis (world units)                 [deg]
#   8 B_WORLD                Profile RMS along minor axis (world units)                 [deg]
#   9 THETA_WORLD            Position angle (CCW/world-x)                               [deg]
#  10 FWHM_WORLD             FWHM assuming a gaussian core                              [deg]
#  11 ELONGATION             A_IMAGE/B_IMAGE                                           
#  12 ELLIPTICITY            1 - B_IMAGE/A_IMAGE                                       
         1 -11.2152     40.4013     66.2501   9.6287124520e+01   5.9170666789e+01     1.767854    0.5455935 -42.63  0.006624996    2.910    0.656
         2 -11.7601     58.0978     48.5683   8.3342628727e+01   6.0441058161e+01     1.240304    0.9361833  78.20   0.00602627    2.787    0.641
         3 -12.1807    129.4238     20.1363   5.1140456779e+01   5.0086033729e+01     1.949636    0.8802696  53.22  0.008523125    1.931    0.482
         4 -11.6912     99.2901      4.9570   5.1866468893e+01   5.8475582421e+01    0.7694411    0.4547811  67.20  0.003952686    1.818    0.450
         5 -12.9710     85.0744     55.5840   7.6229142580e+01   5.4728828389e+01     1.590034    0.9698269 -21.67    0.0016636    1.876    0.467
         6 -11.0693     65.8581     20.2009   6.8502492679e+01   6.3576240385e+01    0.5559842    0.4086247 -57.67  0.002841247    2.330    0.571
         7 -12.4218    105.8873      8.2347   5.1670147796e+01   5.6723921181e+01     2.138414    0.6850313  54.19  0.008622085    2.492    0.599
         8 -12.4195     91.0278     21.8238   6.1045258452e+01   5.8556480050e+01     1.980598    0.5797943 -23.59  0.006540982    4.221    0.763
         9 -11.8672     51.2877     24.9196   7.6310397071e+01   6.5299594799e+01     1.066017    0.5013552  32.14  0.005211197    2.160    0.537
        10 -11.7686     59.6607     27.8819   7.4277605144e+01   6.3577726697e+01     1.162177    0.4611109  26.57  0.004138217    3.978    0.749
        11 -13.1872     71.2618     30.5364   7.1115017054e+01   6.1241031376e+01     1.466571    0.6926243  41.66  0.006416504    2.072    0.517
        12 -11.4811    110.8308     15.8567   5.3528911855e+01   5.4881683718e+01     0.554225    0.2542366 -19.86  0.002134886    2.434    0.589
        13 -12.1754    116.3576     14.9250   5.1944804644e+01   5.3703604681e+01     1.000083    0.4840719  34.66  0.004306531    2.323    0.569
        14 -11.9613    106.4315     33.0979   6.1275061142e+01   5.3868720535e+01    0.6344693    0.4198204 -11.21 0.0004875046    1.709    0.415
        15 -10.7443     22.8919     29.2858   9.1067479961e+01   6.8074861985e+01    0.6340575    0.3135325 -42.38  0.003485367    1.667    0.400
        16 -12.2322     31.2602     25.3305   8.5378505827e+01   6.7863178447e+01    0.8846927    0.6444351 -25.15  0.004715877    1.118    0.106
        17 -11.6651     16.6900     38.3146   9.7455487627e+01   6.6976879735e+01    0.7329992    0.3789973 -46.10  0.004142774    1.519    0.342
        18 -12.5163     18.3971     14.6564   8.6890629955e+01   7.0887003369e+01     1.461151    0.4072354 -46.51  0.005894159    3.758    0.734
        19 -11.9538      4.3766     26.6331   9.9336227481e+01   7.0004957548e+01    0.8606945    0.3020241 -37.26  0.004248418    2.283    0.562
        20 -12.4648     25.4696      8.2721   8.0049803081e+01   7.1043223801e+01     0.674357    0.2445129 -38.22 0.0008796743    2.550    0.608
        21 -13.3966      5.2472      9.8042   9.1791958046e+01   7.2783737189e+01    0.6998196    0.4364459 -40.87  0.001652769    1.397    0.284
        22 -11.1469     12.2636      7.9544   8.6918705804e+01   7.2470075005e+01    0.2738984    0.1797961 -27.45 0.0006254185    1.193    0.161
        23 -11.9774     10.2546      3.3871   8.5687531039e+01   7.3309294990e+01    0.3399655    0.2181534  13.48 0.0004217605    1.477    0.323
        24 -12.3771      2.9550      2.8341   8.9680281600e+01   7.4015082619e+01    0.3829019    0.2388699  13.57  0.002668662    1.581    0.367
        25 -11.7794     11.7063     25.6596   9.5183787022e+01   6.9665759709e+01    0.3977333    0.2014176 -27.17  0.000829086    1.795    0.443
        26 -11.7231     59.9062      3.4250   6.2636835505e+01   6.6489714019e+01    0.9844873    0.3434859  42.92  0.001265917    2.470    0.595
        27 -10.6574    157.5661      5.0123   4.1536584307e+01   4.4663803304e+01     1.092344    0.2495262 -22.76   0.00354109    4.793    0.791
        28 -10.6291    177.2247     20.8622   4.3601184312e+01   3.8228010268e+01    0.6982638    0.4664197  30.33  0.003469793    1.970    0.492
        29  -9.5315    185.3340     13.9750   4.0679069580e+01   3.6973149506e+01    0.3734429    0.2296875  72.96   0.00132443    1.495    0.331
        30 -10.6478    161.5246     18.3954   4.5063077941e+01   4.2390887100e+01    0.4753712    0.4306184  78.63  0.002464349    1.022    0.021
        31 -11.4404    168.7487     14.3107   4.2830080544e+01   4.1021694665e+01     0.950912     0.495502  63.37  0.004530925    1.707    0.414
        32 -11.0801    149.5581     15.9075   4.6118403962e+01   4.5612009974e+01     0.739249    0.3974427 -30.29  0.003527774    1.958    0.489
        33 -10.8915    154.2162     17.5619   4.5910714068e+01   4.4291242469e+01    0.5065003    0.2727109  48.78  0.001693235    1.795    0.443
        34 -10.2588    154.2269     13.1966   4.4537410310e+01   4.4727857119e+01     0.282151    0.2477267  80.48 0.0003164025    1.077    0.071
        35 -10.6274    214.4247     22.6594   3.9781143524e+01   2.9045984709e+01    0.4617688    0.3314635 -64.99  0.002645299    1.293    0.227
        36 -10.0974     80.3844     19.4781   6.3258618536e+01   6.0972016943e+01    0.4670248    0.3093774 -46.80  0.002381956    2.035    0.509
        37  -9.3831     84.0000     20.0474   6.2381905913e+01   6.0192125842e+01    0.3583534    0.1526957 -34.40  0.001579414    2.434    0.589
        38  -9.4406    229.8613     20.1447   3.7731562674e+01   2.5823371174e+01    0.3505485    0.2071251  80.94  0.001890743    1.660    0.397
        39 -11.8135     54.6063     17.7971   7.1664708116e+01   6.5762078983e+01    0.9898672    0.5795111 -48.74  0.004824228    2.736    0.635
        40 -10.2015    208.4524      3.9977   3.5802385769e+01   3.2463629363e+01    0.4577506    0.2467799 -85.66  0.002139551    1.875    0.467
        41 -10.1016    214.4844     12.6435   3.7348834399e+01   3.0164379741e+01    0.4053186     0.254245 -80.28  0.001528454    1.560    0.359
        42  -9.3516    209.5781     11.0558   3.7415099094e+01   3.1475417100e+01     0.365692    0.2451175  28.22  0.001889943    2.308    0.567
        43  -9.0503     37.4685     12.5672   7.6451355284e+01   6.8962282696e+01    0.2017595    0.1345606 -33.23 0.0006510242    1.498    0.332
        44  -9.4475     38.5838      9.4599   7.4366479002e+01   6.9208260712e+01    0.2560108    0.1452691  22.26  0.001152372    1.717    0.418
        45 -10.0238     31.5754     11.9451   7.8911007977e+01   6.9809777491e+01    0.2574781    0.1713775 -22.48 0.0008385403    1.265    0.209
        46  -8.9912     86.3775     11.0443   5.7781772814e+01   6.0675222162e+01    0.3012148    0.1161829  40.06  0.001263366    2.438    0.590
        47 -10.8887    163.8109      6.0058   4.1023760575e+01   4.3038482011e+01    0.5033848    0.4696357 -27.64  0.002719105    1.210    0.174
        48  -9.8887    225.5885      8.5312   3.5439689273e+01   2.8079538250e+01    0.2553495     0.208424 -21.95 0.0008982165    1.502    0.334
        49 -10.5070    200.3176      6.2338   3.7087099965e+01   3.4152040742e+01    0.5003375    0.2345355 -40.51 0.0007864052    2.001    0.500
        50 -10.1427     77.7177      8.9427   5.9389734760e+01   6.2625041233e+01    0.2284775    0.1915814  28.95 0.0003498836    1.058    0.055
        51  -9.1826     77.4946      4.5212   5.7435601834e+01   6.3083901799e+01    0.2399916    0.1528235  17.75  0.001094115    1.562    0.360
        52  -9.1278    250.6982      7.4987   3.3381241334e+01   2.2780615365e+01    0.1943846   0.09471665 -34.80 0.0006606848    1.905    0.475
        53 -10.7695    138.6322      3.5026   4.3776870936e+01   4.9423248252e+01    0.5105106    0.3132022   6.19  0.002116897    2.134    0.531
        54 -10.3364    132.8183      4.8650   4.5176401554e+01   5.0715122939e+01    0.4194017    0.3717541 -17.27  0.002481472    1.257    0.205
        55  -8.6367     82.5435      8.5302   5.7771055505e+01   6.1701414691e+01    0.1280697    0.1085661  24.52  6.65258e-05    1.011    0.010
        56  -8.4412    190.4869      7.4873   3.8379725247e+01   3.6379568283e+01    0.1289952    0.1146898  82.74 -7.703732e-05    1.067    0.062
        57 -10.3576    182.3444      4.7235   3.8498234922e+01   3.8617161009e+01     0.440072    0.3011001 -60.65  0.002013312    1.465    0.317
        58 -10.0046     67.6035      6.2927   6.1381612033e+01   6.4817239244e+01    0.2827622     0.202841 -12.87 0.0008359952    1.347    0.257
        59 -10.1270     71.5380      4.0856   5.9053256093e+01   6.4284550878e+01    0.3894996    0.2632785 -40.90  0.002238442    1.926    0.481
        60 -10.3978    216.5894      3.1808   3.4930628205e+01   3.0670069958e+01    0.3923769    0.1883942 -56.60  0.001920354    1.984    0.496
        61  -9.3111     36.4375      6.0075   7.3549186555e+01   6.9928312484e+01    0.2373655    0.1408928  32.49  0.001137431    1.610    0.379
        62 -10.1522     41.8058      3.4771   6.9805393735e+01   6.9445005026e+01    0.3076338    0.1820718 -12.48  0.001235155    1.582    0.368
        63  -9.3660    243.9303      3.7786   3.3059391964e+01   2.4596509497e+01    0.2909817    0.1035118 -42.72  0.001394046    2.230    0.552
        64  -8.3575     29.6611      5.7463   7.6629735146e+01   7.0859969372e+01    0.1178357   0.07247645   3.94 0.0006947144    1.573    0.364
        65  -9.2400     84.2916      2.9028   5.4775670620e+01   6.1848761649e+01    0.2685967    0.1998553 -16.85   0.00151167    1.404    0.288
        66  -8.7540    248.6865      1.5962   3.2298994876e+01   2.3832979799e+01    0.1559683    0.1312315  48.75  0.000583984    1.630    0.386
        67  -9.3429     93.9715    123.0000   9.3259245905e+01   3.8523912722e+01    0.4229867    0.1976006  42.56  0.001642292    2.261    0.558
        68  -9.1169    211.5047    250.4978   9.0587849266e+01  -6.9456625931e+00    0.1186223   0.09214628  16.99  0.000810675    1.002    0.002
        69  -9.2025    162.1716    250.6070   9.9722404969e+01   3.6718700820e-01    0.1793554   0.09645592  30.36 0.0009510078    1.706    0.414
        70  -8.8290    124.4920    250.4792   1.0685077125e+02   6.1343133308e+00    0.1204536   0.09903584  43.38 0.0008098581    1.045    0.043
        71 -11.4528     75.5545    119.9971   9.7976793915e+01   4.2206792731e+01    0.2587906    0.2417246  26.43  0.001477523    1.194    0.163
        72 -10.1727     20.2403    117.8743   1.1422301018e+02   4.8970369060e+01    0.3300051    0.2438741  86.47  0.001717167    1.349    0.259
        73 -10.6891     15.7589    100.9142   1.1299680100e+02   5.3376655414e+01    0.4715993    0.2241113 -67.03  0.001620987    1.673    0.402
        74  -9.3406     17.3994    105.8239   1.1326552573e+02   5.2088608844e+01    0.1927799    0.1373484 -70.78  0.000378199    1.157    0.136
        75 -10.6856      3.0791    113.4128   1.1866602578e+02   5.1211911081e+01    0.5537617    0.2593441  29.88  0.002864193    2.522    0.603
        76 -12.1320     12.5692    107.6598   1.1504853857e+02   5.1986825143e+01    0.8496898    0.6028591 -50.23  0.002200587    1.292    0.226
        77 -10.2304    116.4413    116.3691   8.5302872039e+01   3.5933790641e+01      0.31265    0.2745018  24.45 0.0008971883    1.238    0.193
        78  -8.9775    104.3001    116.3824   8.8706059754e+01   3.8261215714e+01     0.329396    0.1707021 -39.76  0.001267357    2.061    0.515
        79  -9.4394     50.9456    117.0276   1.0481193445e+02   4.6202176212e+01    0.2240301    0.1891571 -60.35  0.001306181    1.031    0.030
        80  -9.2896     97.8075    115.5542   9.0368282485e+01   3.9637534666e+01    0.2712213    0.1525821  35.44  0.001124508    1.942    0.485
        81  -9.2380     82.9517    115.0340   9.4633430751e+01   4.2272526441e+01    0.2276525    0.2071415 -55.36   0.00068094    1.012    0.012
        82  -8.7665    108.4805    114.5171   8.7047219924e+01   3.7912305694e+01    0.1539489    0.1467066 -52.28 0.0001001911    1.013    0.013
        83  -9.0437     60.1797    112.6345   1.0106716959e+02   4.6145216614e+01    0.2975754    0.1748263 -27.67  0.001002922    2.426    0.588
        84 -10.0302     62.4993    109.4990   9.9655821488e+01   4.6604216159e+01    0.3927824    0.1938582  20.01  0.001543351    2.938    0.660
        85  -9.4364     96.1941    109.3914   8.9286788628e+01   4.1380059857e+01    0.4150527    0.2406015 -34.15  0.001682939    2.024    0.506
        86  -9.5991     23.1602    108.5462   1.1189951968e+02   5.0995281992e+01    0.4065026    0.1661034  39.27  0.001834541    2.821    0.645
        87  -9.3547    113.1280    107.6657   8.3936299023e+01   3.8586466969e+01    0.3541197    0.2190265 -53.73 0.0006123036    1.644    0.392
        88  -8.7126    110.4999    104.4942   8.3820179983e+01   3.9824935875e+01    0.2720266    0.1497292  29.85  0.001032047    2.296    0.565
        89  -9.8708    106.0378    102.7260   8.4620419398e+01   4.1093754798e+01    0.4554125    0.3223387 -85.10  0.001515776    2.233    0.552
        90  -9.5120    133.5260    102.0644   7.6864370518e+01   3.5555112581e+01    0.3548514    0.2414864 -53.68 0.0009869909    1.553    0.356
        91  -9.3816    132.4977     98.0025   7.5979152022e+01   3.6646206994e+01     0.408932    0.1974826 -40.72    0.0013562    2.033    0.508
        92 -11.5159    141.6095    102.2126   7.4848940502e+01   3.3730033821e+01      1.06554    0.5899317  21.39  0.003236893    3.852    0.740
        93 -10.5273    146.9326     99.5036   7.2777571474e+01   3.3089518059e+01    0.2228744    0.2102842  76.34 0.0002908169    1.132    0.117
        94  -9.6523    196.8493    104.9986   6.3597101996e+01   2.0466819443e+01    0.2422596     0.220025  49.08 0.0004424886    1.170    0.145
        95  -9.6775     45.6642     98.0434   1.0256549287e+02   5.1399104098e+01    0.3223991    0.2393928 -71.13  0.001776391    1.340    0.254
        96 -10.7133     39.5428     80.4053   1.0050859338e+02   5.6149514815e+01    0.9288557    0.5220465 -71.34   0.00428294    2.190    0.543
        97 -10.8511     51.0794    102.4629   1.0175549648e+02   4.9728550223e+01    0.7053195    0.4435686   3.77   0.00330808    2.319    0.569
        98  -9.9578     54.8396     96.5896   9.9156214388e+01   5.0675786409e+01     0.603811    0.3259575   7.28  0.001831746    3.235    0.691
        99  -9.9398     39.2380     96.8078   1.0445351104e+02   5.2368218640e+01    0.3782009    0.2527449  -4.22  0.001792963    2.011    0.503
       100  -9.9003     39.5176     92.0292   1.0330606186e+02   5.3469137433e+01    0.3378896    0.2304389 -51.59  0.001093911    1.224    0.183
       101 -10.7044     34.0067     91.6995   1.0513731084e+02   5.4081964449e+01    0.6479648    0.3333985  10.40  0.002955872    2.763    0.638
       102  -9.5518     82.6962     85.6418   8.6933050418e+01   4.9129818371e+01    0.3698653     0.190307 -33.01  0.001445962    2.288    0.563
       103  -9.3999     81.4887     89.7545   8.8520392227e+01   4.8418529009e+01    0.4411948    0.2491398  38.75  0.001352341    1.908    0.476
       104 -10.4038     76.1030    102.1354   9.3590235339e+01   4.6423741836e+01    0.5566193    0.3218616  23.79    0.0024032    2.185    0.542
       105 -11.7148     77.0291     96.4538   9.1813728279e+01   4.7607620541e+01    0.7137165    0.6560187 -82.67  0.003586352    1.219    0.180
       106  -9.9065     63.8320    101.4938   9.7371510769e+01   4.8348755556e+01    0.4966003    0.4327483  50.05  0.002840883    1.307    0.235
       107 -12.1685     32.5882     58.8461   9.7183391524e+01   6.1521434422e+01     0.558247    0.4080508  18.01  0.003396707    1.531    0.347
       108 -11.5502     30.4578     72.9970   1.0200894561e+02   5.8682630654e+01    0.8305224    0.3382918 -48.62  0.003804832    1.935    0.483
       109  -9.6221    235.7178    249.4205   8.6157028055e+01  -1.0133739768e+01    0.2085001   0.09286837  37.79  0.001085143    2.078    0.519
       110 -10.6257     19.8770     73.2488   1.0611751461e+02   5.9490610839e+01    0.6783043    0.2696239 -33.79  0.002841247    2.954    0.662
       111 -10.3921     25.1207     66.1490   1.0229737367e+02   6.0643200823e+01    0.5589071    0.1716538 -58.64  0.001984364    2.742    0.635
       112 -11.9333     20.1261     60.7341   1.0286140450e+02   6.2201380899e+01     1.148949     0.587884  -6.60  0.005512981    2.733    0.634
       113 -11.4747     68.3120     68.7335   8.6593189113e+01   5.5025589581e+01    0.9750575    0.5588816  23.55  0.003778029    2.091    0.522
       114 -10.8783     50.3897     53.8658   8.8311419970e+01   6.0507846819e+01     0.670563    0.4272086  43.91  0.003512636    2.000    0.500
       115 -11.9154     23.2612     96.2201   1.0970886884e+02   5.3935892599e+01    0.9573364     0.581386  46.62  0.004469943    2.048    0.512
       116 -12.0413     18.2909     84.6691   1.0918333603e+02   5.7010475957e+01      1.14877    0.4258862 -50.06  0.003367601    2.083    0.520
       117 -11.7937     41.7360     53.9005   9.1822994632e+01   6.1555595156e+01    0.3435842    0.2498677 -29.21 0.0004044778    1.200    0.167
       118 -10.2876     37.0699     51.9237   9.3087367775e+01   6.2462098760e+01    0.2796412    0.2097201 -31.76 0.0006779399    1.112    0.101
       119 -11.5758     55.3113     70.0208   9.1742606101e+01   5.6596294775e+01    0.7497797    0.3826883  12.66  0.002960001    3.192    0.687
       120 -11.7328     55.7090     64.1154   8.9720035222e+01   5.7772541149e+01    0.7871641    0.4742125 -45.28  0.003002468    1.468    0.319
       121  -9.0778     38.7597    102.5685   1.0581125806e+02   5.1038608635e+01    0.2249347    0.1372252  17.07  0.001136388    2.069    0.517
       122 -10.3090      4.2865    100.3921   1.1657804614e+02   5.4220636055e+01     0.450215    0.1948851 -64.70  0.002286684    1.695    0.410
       123 -11.6308      4.3439     88.2682   1.1470311959e+02   5.7046119633e+01    0.9728588    0.2677117 -61.11  0.003033803    2.378    0.580
       124  -9.4058     10.2944     99.0471   1.1445954350e+02   5.4180682004e+01    0.2347742     0.155013 -57.73   0.00141202    1.205    0.170
       125  -9.2632     11.3770     94.2046   1.1332056959e+02   5.5252527683e+01    0.2466544    0.1850219 -26.17 0.0008080584    1.511    0.338
       126  -9.4810    156.1856     96.5900   6.9769455708e+01   3.1543156461e+01    0.2938472    0.2095862 -38.98 0.0005028365    1.368    0.269
       127 -10.2791    116.3564     94.5083   7.9336602397e+01   4.0847793224e+01    0.3596607    0.2697574  19.27  0.001647999    1.623    0.384
       128  -9.0451    189.1730     94.1116   6.2189905595e+01   2.4253423703e+01    0.2387607    0.2040397   3.26  0.001197647    1.381    0.276
       129 -10.1656     51.5547     92.2281   9.9211146849e+01   5.2098246628e+01    0.3981275    0.2526526 -41.10  0.001524822    1.471    0.320
       130  -8.6026    126.5170     93.4753   7.6246207982e+01   3.8909370077e+01    0.1568488    0.1483848 -12.64 6.647992e-05    1.068    0.063
       131  -9.0105    103.2158     92.6423   8.2594933032e+01   4.3884979433e+01    0.2631246    0.1859836  20.16 0.0006892224    1.756    0.430
       132 -10.2177     89.3630     87.7335   8.5409117553e+01   4.7522851959e+01     0.572517    0.4824628 -10.72  0.003018754    1.286    0.222
       133  -9.1976    193.8553     89.7530   6.0162935293e+01   2.3946916422e+01    0.2149496     0.203826   4.81 0.0005120229    1.150    0.130
       134  -8.0841    187.3295     89.6572   6.1341908336e+01   2.5500535817e+01    0.1617939    0.1161728 -69.54 0.0007051099    1.747    0.428
       135 -10.5422    119.3441     86.9729   7.6260685863e+01   4.1808794756e+01    0.3893602    0.3540874  32.63  0.001210265    1.127    0.113
       136  -9.2448    112.1551     88.8804   7.8864693135e+01   4.2914722738e+01    0.3126165    0.2016396 -33.22  0.001361433    1.612    0.380
       137  -9.1536     67.5879     87.5397   9.2508067885e+01   5.1066868119e+01    0.2727428    0.1988553 -13.76 0.0006904131    1.664    0.399
       138  -9.4579    146.3639     86.3064   6.9095730269e+01   3.5869200822e+01    0.4100654    0.2650225  32.82  0.001542812    1.840    0.457
       139  -9.9567    146.6254     83.1367   6.8089460252e+01   3.6419067264e+01    0.4127945    0.2603059 -14.94 0.0008660544    2.337    0.572
       140 -10.6388    135.7455     81.6485   7.0294607144e+01   3.9235230476e+01    0.7010084    0.5738903  -4.70  0.003399274    1.428    0.300
       141  -9.4081     56.7982     86.0559   9.5816372858e+01   5.2875021157e+01    0.3072442    0.1903369   0.89  0.001370293    2.408    0.585
       142  -9.3587     51.9761     85.6956   9.7411107039e+01   5.3557578314e+01    0.2496806    0.1756585 -18.28 0.0008691706    1.676    0.403
       143  -9.1414     53.1891     82.1719   9.6040907022e+01   5.4208598768e+01    0.2665406    0.1913169 -49.92 0.0009461964    1.213    0.175
       144  -8.6416    156.4357     85.4302   6.6507652749e+01   3.3659165023e+01    0.1526425    0.1498897 -40.11 7.027615e-05    1.002    0.002
       145  -9.4224    109.1061     83.5300   7.8116805862e+01   4.4656529450e+01    0.2387426    0.1996074 -13.78 0.0005020539    1.289    0.224
       146  -9.1973     75.1033     83.9852   8.8956298506e+01   5.0727735070e+01    0.3627926    0.1676638  35.51  0.001278865    2.356    0.576
       147 -11.0487    161.2236     81.9108   6.4427009917e+01   3.3171277696e+01    0.3912482    0.2910506  62.39  0.001829899    1.439    0.305
       148 -10.8164    116.3773     64.7679   6.9974315036e+01   4.6743979985e+01     1.604423    0.5701668  37.99   0.00486324    3.740    0.733
       149 -10.2944    127.2558     70.3696   6.8915791203e+01   4.3300252540e+01    0.5254809        0.362  79.66  0.001831076    2.260    0.558
       150 -11.4177    105.9191     77.5208   7.7165522702e+01   4.6528012100e+01       1.1659    0.7064797 -43.29   0.00516965    1.602    0.376
       151  -9.7083    102.2573     81.6300   7.9558793989e+01   4.6419756335e+01    0.5447367    0.2795354  33.12  0.002121767    2.297    0.565
       152 -10.3895     98.4977     76.9207   7.9216730711e+01   4.8118136330e+01    0.5485627    0.2937675 -43.82    0.0022271    1.793    0.442
       153 -10.8205     99.8292     72.2281   7.7283637588e+01   4.8795136607e+01    0.7018585    0.3708627 -22.74  0.001635766    2.883    0.653
       154 -10.9296    115.1671     71.8634   7.2665108482e+01   4.5699284723e+01    0.5111011    0.4295735 -33.96  0.001515657    1.161    0.139
       155 -11.3064    119.6719     69.7110   7.0715848160e+01   4.5120152707e+01    0.5577711    0.3707125  13.23  0.002015968    2.212    0.548
       156 -10.2490    123.4268     79.7306   7.2910884171e+01   4.2381900403e+01    0.3628453    0.2716839  26.33 0.0009021423    1.515    0.340
       157  -9.2990    169.5996     78.7700   6.1765856404e+01   3.1716758691e+01    0.2206908    0.1372817 -46.52 0.0004600068    1.614    0.380
       158 -10.3366    144.3145     77.6954   6.6990278048e+01   3.7989525391e+01     0.384367    0.2299839 -53.57  0.001279367    1.955    0.488
       159 -10.4019    146.7440     74.8871   6.5560874669e+01   3.7929333473e+01    0.3248667    0.2103843  46.14  0.001432096    1.561    0.359
       160  -8.8326      9.6653     77.1557   1.1080142273e+02   5.9289666899e+01    0.1842987   0.07908662 -55.54 0.0004521055    1.699    0.411
       161 -10.4949      5.2072     77.2333   1.1245492156e+02   5.9523217027e+01    0.2286993    0.1922176  88.03 0.0005769919    1.357    0.263
       162 -10.2499      3.7720     72.7874   1.1213153039e+02   6.0596859084e+01    0.3102802    0.1406396 -53.93 0.0008625547    1.603    0.376
       163  -9.5358    189.6308     77.3075   5.7564690788e+01   2.7127894444e+01    0.3427843    0.1934409  44.08  0.001286037    1.991    0.498
       164  -9.0997     92.0668     76.9063   8.1224531866e+01   4.9336619324e+01    0.2385939     0.175377  -6.98  0.000817896    1.688    0.408
       165  -9.5471     70.1241     76.3707   8.8371183101e+01   5.3150446908e+01    0.2771204    0.2400454 -18.02  0.001048636    1.124    0.110
       166 -10.1196    244.7691     75.8069   4.9018375257e+01   1.4936391857e+01    0.2164155    0.1443818  14.82 0.0009545127    2.796    0.642
       167  -8.6315     82.0102     75.0039   8.3890891801e+01   5.1517954250e+01    0.1705605    0.1577855 -17.83 0.0009663494    1.028    0.028
       168 -10.7267     26.8989     85.1723   1.0621631502e+02   5.6230067224e+01    0.6780255    0.4170081  13.96  0.003699363    2.008    0.502
       169  -9.8761    166.1387     73.3045   6.0877894596e+01   3.3521267161e+01    0.2773085    0.2494822  70.06  0.001454955    1.143    0.125
       170 -10.6811    138.0507     69.4927   6.5932089474e+01   4.0959479389e+01    0.5210066     0.435651 -29.46  0.001559615    1.205    0.170
       171  -9.6506    142.9872     69.7150   6.4829954820e+01   3.9751155669e+01    0.4118326    0.2364593 -52.60  0.001560448    2.068    0.516
       172  -9.4630    177.1400     68.9754   5.7491497693e+01   3.1564761964e+01    0.3035496    0.2542126 -83.20  0.001276333    1.311    0.237
       173 -11.3538    149.2303     66.4212   6.2379146637e+01   3.8823474916e+01     1.044737    0.5013626 -32.73   0.00401788    2.157    0.536
       174 -10.6661    136.3363     41.9243   5.7251924600e+01   4.5749860139e+01    0.4829101    0.3665841 -56.30  0.002450418    1.529    0.346
       175 -10.0171    140.1641     52.1823   5.9834425806e+01   4.3325814032e+01    0.4700274     0.262412  43.13  0.001792802    1.841    0.457
       176 -11.1898    142.0722     44.6265   5.6927170707e+01   4.3979043285e+01    0.7215829    0.3713931  37.48 0.0006940151    2.328    0.570
       177 -10.2211    143.8354     58.1358   6.0954171447e+01   4.1502805633e+01    0.3085347    0.2597326  45.51 0.0003898544    1.174    0.148
       178 -12.5981    147.2619     53.8366   5.8826910340e+01   4.1347339627e+01    0.4481165    0.3499335  46.16 0.0003709267    1.266    0.210
       179 -11.3919    145.7949     48.4006   5.7381761509e+01   4.2524590799e+01    0.3349129      0.27419  52.64 0.0002572687    1.181    0.153
       180  -9.2167    164.8180     68.8348   5.9824921808e+01   3.4610813984e+01    0.2283087    0.2125041  14.95  0.001042818    1.167    0.143
       181  -8.6952    131.7241     67.3652   6.6804201618e+01   4.2815381659e+01    0.2065741    0.1376429  42.32  0.000926265    1.522    0.343
       182  -9.9568    147.9994    247.3024   1.0198256377e+02   3.0511087976e+00    0.1737904     0.134104  37.95 0.0003912596    1.067    0.063
       183 -10.8778     66.2219     44.5533   7.8701004105e+01   5.9902325649e+01     0.673839    0.4098509 -18.16  0.002850257    1.857    0.461
       184  -9.4531      4.0077    246.0292   1.2802520715e+02   2.2235120450e+01    0.1999468     0.108602 -59.82  0.001292982    2.449    0.592
       185 -10.1667    142.0224    244.1302   1.0272436656e+02   4.4831045652e+00    0.2794252    0.2030414  18.33   0.00136012    1.582    0.368
       186 -11.1765     75.8625     43.8298   7.4929898243e+01   5.8396974919e+01    0.7445567    0.5126504  -8.21  0.003836507    1.613    0.380
       187  -9.4443    188.7655    243.8582   9.3756249627e+01  -2.7193210692e+00    0.1575157     0.127696  41.46 0.0007859389    1.294    0.227
       188 -11.9023    102.3022     54.0057   7.0243686583e+01   5.1620206857e+01       1.3124    0.8012326  19.72  0.005530388    2.262    0.558
       189  -9.1378     55.7754    237.9557   1.1858775311e+02   1.8005101429e+01    0.1456109   0.08577475 -75.53 0.0008841702    1.695    0.410
       190  -9.0159     21.0646    232.3745   1.2448069464e+02   2.3072066426e+01    0.1561124    0.1092461  61.88 0.0009971936    1.126    0.112
       191 -11.0017     29.7316     48.2232   9.4965946188e+01   6.3934480705e+01    0.3981315    0.2310659 -36.61  0.002212485    1.446    0.309
       192 -11.9844     31.7608     41.8751   9.1827312591e+01   6.4941779579e+01     1.069501    0.3524546  25.07  0.003701082    3.549    0.718
       193  -9.1065     12.5809    231.8786   1.2593363899e+02   2.4034481755e+01    0.2260185   0.09278995  53.50  0.001241869    1.894    0.472
       194  -8.5776    227.0188    231.7418   8.4795675175e+01  -6.7400062432e+00    0.1499661   0.08942329  31.93 0.0004124817    1.485    0.327
       195  -8.6599    202.0681    228.9741   8.8914188611e+01  -2.6295450799e+00     0.151829    0.1209743  21.87 0.0004731002    1.059    0.056
       196  -9.3038    137.0000    224.9913   1.0115764111e+02   8.5524374741e+00     0.188865   0.07489266 -52.66 0.0005301735    2.888    0.654
       197 -11.7053     79.9806     33.4199   6.9320906286e+01   5.9240771371e+01    0.5687645     0.421219  68.85 0.0003391649    2.100    0.524
       198  -9.0327    240.6951    224.3466   8.1114769260e+01  -7.7088723396e+00    0.1004079   0.09848877 -44.12 0.0007041597    1.694    0.410
       199  -9.2307     41.0013    221.6927   1.2011438793e+02   2.2981326285e+01    0.1627201    0.1285665  65.71 0.0005412807    1.078    0.072
       200 -12.3157     56.4436     37.9057   7.9806835497e+01   6.2526221375e+01    0.5320553    0.3385276  -4.53  0.001758501    1.856    0.461
       201 -12.1289     49.2976     39.5022   8.3356361201e+01   6.3273245474e+01    0.4716196    0.3287992  22.42 0.0001760939    1.462    0.316
       202 -10.2181    116.4599     49.7759   6.4763809852e+01   4.9239793071e+01    0.4119565    0.3209868 -29.51   0.00141783    1.291    0.226
       203  -9.3142    132.0486     62.8273   6.5243494580e+01   4.3529529093e+01     0.212845    0.1965168 -78.67 -0.0006383859    1.216    0.178
       204  -9.9769    127.4132     59.1759   6.5185393730e+01   4.5223363869e+01    0.5306827    0.3680876 -81.45  0.002213318    2.402    0.584
       205 -10.4901    121.5238     53.9670   6.4910922260e+01   4.7429694683e+01    0.5080096    0.4526932  -1.41   0.00278797    1.142    0.125
       206 -10.7011    107.6267     59.8003   7.0739879708e+01   4.9509499788e+01    0.5035163    0.3889664  10.89   0.00171124    1.473    0.321
       207  -9.4060    207.2230     61.3667   5.0484198797e+01   2.5507779392e+01    0.5234605    0.2564933  60.06  0.002232913    2.085    0.520
       208  -8.7225    209.3115     57.3101   4.9137458574e+01   2.5627672050e+01    0.2618691    0.1614345  11.82 0.0009530567    3.606    0.723
       209 -10.7797    166.2574     53.5301   5.4967696205e+01   3.6704398817e+01     1.126775    0.3657385 -42.61  0.003720268    3.112    0.679
       210 -10.8492    161.2425     51.5859   5.5313448445e+01   3.8240993837e+01     0.552382    0.4596962 -75.54  0.002892606    1.323    0.244
       211 -10.7512    158.1549     42.5717   5.3100314414e+01   4.0298981453e+01    0.7015182    0.3591734 -30.21  0.002288975    2.031    0.508
       212  -9.1607    200.0896     59.3680   5.1004815479e+01   2.7510591969e+01     0.323232    0.1612723  49.79  0.001344001    2.164    0.538
       213  -8.5696    137.9772     59.1926   6.2631590582e+01   4.2738288913e+01    0.2020899    0.1148458  54.37 0.0004852726    1.748    0.428
       214 -10.7156      3.2470     56.2293   1.0873961079e+02   6.4228476459e+01    0.4180802     0.263192  39.29  0.002534347    2.158    0.537
       215 -10.1545      4.0527     51.5324   1.0722047562e+02   6.5170896163e+01    0.2499286    0.1557653 -44.60 0.0008076672    1.220    0.180
       216 -10.8209    193.9889     54.1375   5.0511420029e+01   2.9769894023e+01    0.6698239     0.439657  33.02   0.00304022    2.069    0.517
       217 -10.0612    179.8450     44.1849   4.9904708725e+01   3.4674516624e+01    0.5803916    0.3529693 -17.08  0.002325527    2.106    0.525
       218 -11.1026    184.6936     55.9014   5.2460053891e+01   3.1781146828e+01    0.4570682    0.3521475 -89.62 0.0003238246    1.426    0.299
       219 -10.7057    183.0406     51.5111   5.1487072189e+01   3.2840997965e+01    0.5004303    0.3503459  87.84  0.002272897    1.648    0.393
       220 -10.4525     70.5516     53.1818   8.0387342625e+01   5.7684506938e+01    0.5476062    0.3336592 -48.19   0.00267363    1.761    0.432
       221  -9.1595     11.9131     56.2678   1.0508918189e+02   6.3721144777e+01    0.1771032    0.1610554  30.24  0.001062888    1.420    0.296
       222  -9.6513    244.4649     54.9673   4.4270828692e+01   1.8095713685e+01    0.1912185    0.1681542 -86.71 0.0004402236    1.165    0.141
       223  -9.7242    237.7987     52.0680   4.4328814177e+01   1.9933444715e+01    0.2118503    0.1789788  85.77   0.00065786    1.212    0.175
       224  -8.1186      9.6999     52.2553   1.0495687272e+02   6.4697206826e+01    0.1001121   0.09010345  82.32 0.0002196461    1.503    0.335
       225 -10.6777    133.1059     54.9676   6.2382905541e+01   4.4577936149e+01    0.6157265    0.3602098  -6.57  0.002272598    2.910    0.656
       226  -9.7848    228.5129     49.7628   4.4829315857e+01   2.2304788612e+01    0.2252374    0.1966787  67.99 0.0004325448    1.240    0.193
       227  -9.7939    172.5579     46.9964   5.1908262971e+01   3.6092483843e+01    0.3408576    0.2505441 -49.41  0.001652337    1.380    0.275
       228 -10.0170    174.2283     56.6800   5.4462334132e+01   3.4247824588e+01     1.198726    0.6288313  -2.15  0.002762509    8.096    0.876
       229 -10.0519    207.6795     46.0521   4.6447958236e+01   2.7635884824e+01    0.4310592    0.1817187  61.54  0.001775364    2.327    0.570
       230 -10.1283    105.6212     42.8475   6.5187473127e+01   5.2682157486e+01    0.5341816    0.4014061 -30.25  0.002831132    1.338    0.253
       231 -11.2277     99.2970     40.1806   6.5985281323e+01   5.4420551043e+01    0.8292008     0.516813   4.29   0.00364109    2.255    0.557
       232  -9.1727    124.0122    206.0017   1.0114790385e+02   1.4318011701e+01    0.1939286    0.1760266  52.72  0.001181574    1.003    0.003
       233  -8.8278     23.8221     46.3242   9.6926298361e+01   6.4847342627e+01    0.1614077    0.1047978   2.35 0.0009394861    1.702    0.413
       234  -9.4574    233.6239    199.8002   7.7886894237e+01  -3.2432956368e+00      0.17284    0.1115338 -39.24 0.0009476671    1.649    0.393
       235  -9.4061     27.9931    193.0078   1.2045700819e+02   3.0503000455e+01    0.1806933    0.1377365 -48.41  0.001149473    1.727    0.421
       236 -10.8121     10.1293     41.7804   1.0168426252e+02   6.6781752635e+01    0.3981476     0.245714  17.28   0.00221302    1.853    0.460
       237  -9.3516     11.3174    192.5907   1.2384952656e+02   3.2218031262e+01    0.2179108   0.08964784  39.21   0.00115754    2.302    0.566
       238 -11.1553     14.8206     31.6999   9.5957069665e+01   6.8348170610e+01      0.46242     0.255528 -23.33  0.001294264    1.728    0.421
       239  -8.4922    230.2798    188.3010   7.6260392743e+01  -9.5675237066e-01    0.1329606   0.09126171  -1.54 0.0002618241    1.545    0.353
       240  -9.4648     11.4154    184.7608   1.2328489057e+02   3.3930394636e+01    0.1825673    0.1323832 -66.86 0.0006291595    1.392    0.281
       241  -9.3336     26.8107    179.0576   1.1951552314e+02   3.3763227326e+01       0.2062    0.1151818 -52.59  0.001096928    2.037    0.509
       242  -9.3207      2.0000    178.9575   1.2484703342e+02   3.6016901521e+01    0.1922207   0.05274382 -77.47 0.0005574821    2.911    0.657
       243  -8.9646     80.0024    176.9818   1.0692478954e+02   2.7688405770e+01    0.2459549    0.1237412 -44.20  0.001015873    2.558    0.609
       244  -8.6585     70.4956    174.5077   1.0885900594e+02   2.9626779708e+01    0.1355001    0.1212763 -89.50 0.0008103157    1.039    0.038
       245 -10.0627    246.5858    171.8074   7.0092305735e+01  -1.0247490380e+00    0.1856141    0.1106619 -41.96 0.0009443476    1.711    0.416
       246  -9.2361    193.3181     44.3010   4.7928653859e+01   3.1339350996e+01    0.2335878    0.1855256  74.04 0.0006218885    1.237    0.192
       247 -10.0408    118.4613     42.0756   6.1492759878e+01   4.9937424970e+01     0.415221    0.3065458 -27.10  0.002144826    1.386    0.279
       248  -9.3034    166.6790     42.4342   5.1546970526e+01   3.8193510127e+01    0.2973094    0.2158815  23.02  0.001431351    1.778    0.438
       249  -9.1425    197.2214     41.9039   4.6740324664e+01   3.0716489351e+01    0.2014473     0.168811 -65.96 0.0003234021    1.139    0.122
       250  -9.6965     22.9947     41.0768   9.5497597221e+01   6.5929583164e+01    0.2813368    0.1372005 -43.43 0.0007510722    1.626    0.385
       251  -9.5571    173.1269     39.8768   4.9716854539e+01   3.6930375457e+01    0.4017234     0.230203  34.98  0.001681545    2.352    0.575
       252  -9.3902    219.5868     42.8770   4.4187137052e+01   2.5285409711e+01    0.2017087    0.1785423  69.27 0.0005077332    1.202    0.168
       253  -8.6422     62.3960     40.2511   7.8437318230e+01   6.1230296911e+01    0.1367747   0.09186012   5.17 0.0006950623    1.688    0.408
       254  -9.3099    181.7962     38.1485   4.7884257793e+01   3.5003595553e+01    0.3107625    0.2513203  30.07  0.001669842    1.487    0.328
       255  -9.6809    183.2806     33.7119   4.6415289421e+01   3.5206904929e+01    0.4004372    0.1705389  57.32  0.001646249    2.193    0.544
       256 -10.3353    179.0375     30.1898   4.6015639148e+01   3.6694586940e+01    0.3118936    0.2515197 -68.84  0.001083208    1.250    0.200
       257 -10.6587    152.6754     44.8069   5.4838706638e+01   4.1347848087e+01    0.5780759     0.353362 -20.81   0.00240953    1.902    0.474
       258 -10.5627    222.3287     35.1286   4.1991285917e+01   2.5681711537e+01    0.4711979    0.3148939  23.41  0.002235342    2.583    0.613
       259  -8.5190    219.3029     33.0648   4.1814185455e+01   2.6641077896e+01    0.2558255    0.1674816  -4.24  0.001198959    2.500    0.600
       260  -8.8803    202.4891     37.5767   4.4907152027e+01   3.0020398894e+01    0.1362298    0.1244535 -79.16 1.205368e-05    1.023    0.023
       261 -10.7308    192.7954     32.7948   4.4874190682e+01   3.2983128613e+01    0.4277062    0.3127167 -30.18  0.001159853    1.443    0.307
       262  -9.5599    155.6780     33.0865   5.0568007931e+01   4.2157916332e+01    0.7259538    0.3004687  38.55  0.002447346    3.507    0.715
       263 -10.4102    147.5550     34.8198   5.2604768650e+01   4.3953296892e+01    0.5513339    0.2459641  60.54  0.001923241    2.109    0.526
       264  -9.5416    142.9925     35.0000   5.3546687579e+01   4.5052836006e+01    0.2791023    0.1904999  62.06  0.001037952    1.411    0.291
       265 -10.0660    136.2065     33.2420   5.4323756747e+01   4.6930391999e+01    0.6102758    0.3272704  18.06  0.002168506    3.485    0.713
       266  -9.7380    122.3329     35.8751   5.8314645902e+01   4.9895218478e+01    0.5943503    0.1891845  58.11  0.002001795    3.165    0.684
       267 -10.7904     32.2308    166.7449   1.1707500291e+02   3.6080355100e+01    0.3636342    0.2123278 -67.56  0.001996629    1.477    0.323
       268 -10.6751    245.8296     33.4007   3.9293584339e+01   2.0723308603e+01    0.4292998    0.2458398  62.79  0.001241484    1.873    0.466
       269 -10.4369    235.7604     32.6417   4.0052336031e+01   2.2990693997e+01    0.3880935    0.2952221 -12.30  0.001708027    1.773    0.436
       270  -9.8401    237.9431     26.0639   3.8361542850e+01   2.3334802416e+01    0.2414976    0.1960799 -81.92 0.0004669639    1.128    0.114
       271  -9.5921    242.0041     24.2097   3.7599085991e+01   2.2683340386e+01    0.2856966    0.1606825 -42.22 0.0009299795    1.535    0.349
       272  -8.8451    207.1636     33.6339   4.3318795729e+01   2.9412209295e+01    0.1869906    0.1144743  58.23 0.0009299424    1.660    0.398
       273  -8.6363    202.4789     33.4348   4.3827262274e+01   3.0556702715e+01    0.1354961    0.1226372 -78.63 3.984008e-05    1.016    0.016
       274  -9.6811    113.6846     31.5520   5.8822379227e+01   5.2446025998e+01     0.305052     0.207171  -9.92  0.001519235    1.673    0.402
       275 -10.2357    212.8225     30.3597   4.1850026374e+01   2.8488419750e+01    0.3024448    0.2592453 -20.21  0.001816878    1.380    0.275
       276 -10.3004    227.1693     27.3873   3.9657765738e+01   2.5557786324e+01    0.4292023    0.2525835  59.66  0.001120042    1.792    0.442
       277  -9.3950    221.7634     24.9462   3.9604937251e+01   2.7080995487e+01    0.2169713    0.1681613  87.02 0.0009331505    1.214    0.177
       278  -9.3379    172.8482     30.6520   4.7049038590e+01   3.8176925482e+01     0.301796    0.2129479  25.26  0.001483454    1.864    0.464
       279 -11.2258    167.4391     28.7937   4.7317016081e+01   3.9749255906e+01    0.3729337    0.2646482 -24.58 0.0007359011    1.546    0.353
       280  -9.8638    149.0193     29.0458   5.0455850865e+01   4.4302288464e+01    0.5948644    0.2278208  61.52  0.002285435    2.396    0.583
       281  -9.5600    153.4810     24.5081   4.8226912911e+01   4.3722353491e+01    0.3492643    0.2516817 -20.64  0.001425187    1.546    0.353
       282  -8.3561    117.6715     29.2714   5.7007240229e+01   5.1816289361e+01    0.1326909     0.108419 -77.41 0.0002347151    1.583    0.368
       283  -9.8540      1.4495    157.5259   1.2342054363e+02   4.0920556619e+01    0.2350017   0.09080133 -73.97 0.0006132829    1.979    0.495
       284  -9.9742    204.5648     23.8297   4.1110189525e+01   3.1231038144e+01    0.4715151     0.154412 -33.38  0.001850021    2.803    0.643
       285 -10.3292     22.9810    158.9884   1.1847997731e+02   3.8814248739e+01    0.1937013    0.1855741  25.23  0.001211229    1.373    0.272
       286  -9.2947    160.5412     25.0656   4.7257410226e+01   4.1903514095e+01    0.4563739    0.2393796 -45.09  0.002048237    2.029    0.507
       287 -10.2952    179.9517     24.9987   4.4413077266e+01   3.7084827364e+01    0.2323216    0.2096864 -70.32 0.0003184967    1.069    0.064
       288 -10.4163     18.8553    158.7303   1.1944397132e+02   3.9245906622e+01    0.2413862    0.1714806 -32.80  0.001418111    1.997    0.499
       289 -11.7027     14.2197    151.8574   1.1989368524e+02   4.1265258996e+01    0.5284153    0.3735571 -81.51 0.0004374124    1.124    0.111
       290 -10.4592    177.1252     15.1708   4.1997679014e+01   3.8863570130e+01    0.4358925    0.2193958  85.71  0.001870286    2.296    0.564
       291 -10.8025     17.8827    147.6911   1.1856130357e+02   4.1954676260e+01    0.5172571    0.2212304  85.22  0.002128105    2.911    0.657
       292 -12.5802     21.6857    144.8784   1.1728512375e+02   4.2306001292e+01     1.471593     0.634504  78.27  0.005657168    3.453    0.710
       293 -10.5868     13.3072    132.9736   1.1812571510e+02   4.5851133022e+01    0.2957595    0.2729673  -6.47 0.0009060407    1.427    0.299
       294 -13.3056     11.7983    126.1707   1.1773680638e+02   4.7597458650e+01    0.5130695    0.4525267  69.08  0.000542768    1.243    0.195
       295 -10.2316     30.7510    151.4100   1.1572684939e+02   3.9894655384e+01    0.2707003    0.1660387 -64.84 0.0008638872    1.393    0.282
       296  -9.5877      8.0434    151.5494   1.2136340701e+02   4.1824461250e+01    0.2197117    0.1382977 -72.34 0.0003580484    1.273    0.214
       297  -9.5575    147.8460     23.9766   4.9015580536e+01   4.5177376523e+01    0.2633861    0.1792049  61.24 0.0006779509    1.350    0.259
       298  -8.4088    185.4016     23.5374   4.3293263073e+01   3.5909236653e+01    0.1319175    0.1236377  80.97 0.0001316821    1.072    0.067
       299  -9.7014     45.4424    150.7139   1.1186144287e+02   3.8522718817e+01    0.2531649    0.2000243 -41.85 0.0008045407    1.481    0.325
       300 -10.2633      5.3816    147.3305   1.2162643182e+02   4.3014072403e+01    0.1905583    0.1656363 -81.17 0.0006278533    1.158    0.136
       301 -10.5309     40.5516    146.4841   1.1256625973e+02   4.0093531820e+01    0.2726915    0.2432925 -28.67 0.0009628971    1.407    0.289
       302  -9.9318    247.8511     18.9936   3.5996972642e+01   2.2065687650e+01    0.3048796    0.1802632  86.64 0.0009641881    1.683    0.406
       303  -9.0358    101.6051     18.7813   5.6918853944e+01   5.6640413706e+01    0.1971635    0.1511894  12.88 0.0003936913    1.323    0.244
       304  -9.0379     75.0329     18.8467   6.4710388311e+01   6.2073158346e+01    0.1783012    0.1671676  31.24  0.000794641    1.246    0.197
       305 -10.7024     37.9277    143.1417   1.1280756489e+02   4.1187510150e+01    0.3551051      0.27911 -33.32  0.001486979    1.589    0.371
       306  -8.9566    217.5000     21.4665   3.9186815943e+01   2.8473006432e+01    0.2093797    0.1784559 -72.09 0.0006101858    1.011    0.011
       307 -11.4042     29.5328    142.9861   1.1501482582e+02   4.2054557715e+01     0.482153    0.2365444 -66.89  0.002383246    1.664    0.399
       308 -10.3477      6.4552    142.5362   1.2091218958e+02   4.4068859510e+01    0.2344041    0.1764621 -85.10  0.001539135    1.052    0.050
       309 -10.1043    246.4727    139.9657   6.3347386658e+01   4.1309989841e+00    0.1982201    0.1024786 -52.37 0.0008099842    2.588    0.614
       310  -9.3376    198.2168     16.5632   3.9932507063e+01   3.3574454013e+01    0.1896052    0.1711945  48.65 0.0004791736    1.278    0.218
       311  -9.7175     70.4024     16.9411   6.5412394762e+01   6.3157943702e+01    0.2648607     0.155885  33.88 0.0003328614    1.575    0.365
       312  -9.2278    204.9099     15.6161   3.8995446761e+01   3.2081758619e+01    0.2724047    0.1729127 -43.61  0.001478518    1.493    0.330
       313  -8.9773    193.7362     14.7294   3.9938436214e+01   3.4851821983e+01    0.1878597    0.1341811 -69.66  0.001038303    1.368    0.269
       314  -9.3302    222.1699     12.6557   3.6672221247e+01   2.8402774180e+01    0.2777984    0.1278583  65.54 0.0009339211    2.071    0.517
       315  -8.8836     98.6297    139.7866   9.5648327436e+01   3.3655171019e+01    0.2128638    0.1373191 -65.97 0.0005487928    1.636    0.389
       316  -9.3651     47.6311    139.4417   1.0964135340e+02   4.1045970726e+01    0.2716051    0.1476248 -63.74 0.0008550682    1.572    0.364
       317  -9.7194     58.6676    138.0354   1.0635857181e+02   4.0069171264e+01     0.202516    0.1610525 -64.70 0.0006036961    1.114    0.102
       318  -9.0593     66.3072     12.5853   6.4814679562e+01   6.4397851647e+01     0.225408      0.11572  50.19  0.001126458    2.022    0.505
       319  -9.8922     55.5218    134.0394   1.0656089346e+02   4.1451110721e+01     0.470538    0.2286341 -64.71  0.002072996    1.832    0.454
       320  -9.6068    188.7276     19.5993   4.1807883023e+01   3.5538750825e+01    0.2386659    0.1817155  47.30 0.0004788283    1.448    0.309
       321 -10.9842     22.7534    135.9037   1.1593500448e+02   4.4385926360e+01    0.4260774    0.1623031 -58.99  0.001213553    2.111    0.526
       322 -10.1190      3.4489    136.4641   1.2108649450e+02   4.5714445528e+01    0.2840388    0.1754998   3.72  0.001627314    2.441    0.590
       323 -11.1730     66.4261    134.4232   1.0353923300e+02   3.9946859512e+01    0.3642457    0.2705522  82.65  0.001868348    1.522    0.343
       324 -11.8363     67.8431    119.7710   1.0023790163e+02   4.3371352004e+01     1.448022    0.3735421 -52.90   0.00465746    3.199    0.687
       325 -11.1013     61.3547    120.6658   1.0237262354e+02   4.4023468755e+01    0.6725979    0.2686834 -58.23   0.00263047    2.163    0.538
       326 -10.2536     34.6078    130.1079   1.1186300885e+02   4.4720970704e+01    0.3596459    0.1983614 -72.83  0.001786131    1.594    0.373
       327 -10.8036     28.9462    129.8106   1.1341873209e+02   4.5326251068e+01    0.4111977    0.1841234 -57.71  0.001937242    1.842    0.457
       328  -9.3794     73.4018    129.6897   1.0063673223e+02   4.0139278139e+01    0.2658951    0.2058548  81.01 0.0008948101    1.480    0.324
       329  -9.4837     54.6471    113.1379   1.0289476717e+02   4.6715394779e+01    0.2433147    0.1874296  60.27 0.0006546175    1.518    0.341
       330 -10.2661     37.3582    109.4992   1.0760499676e+02   4.9501195219e+01    0.6370417    0.1737896 -48.59  0.002128885    3.283    0.695
       331 -12.3020     41.0924    123.5040   1.0894220262e+02   4.5693559197e+01    0.9843268    0.6519227 -56.33  0.005336297    1.310    0.236
       332 -11.6651     47.7657    123.4670   1.0696255925e+02   4.4979767028e+01    0.6463919    0.6117122   5.97  0.004070994    1.263    0.208
       333 -10.3982     39.7465    115.4707   1.0795276187e+02   4.7805541202e+01    0.3351268    0.3095115  43.47  0.002135436    1.257    0.205
       334 -10.4310     47.6280    112.4434   1.0494375233e+02   4.7704469548e+01    0.6047322    0.3424475  -5.19  0.002426516    3.354    0.702
       335  -9.6191     29.4180    114.7674   1.1098999718e+02   4.8959915332e+01    0.3561708     0.230084 -31.19  0.001281823    1.883    0.469
       336 -10.0962     33.0527    109.4202   1.0894724142e+02   4.9930951470e+01    0.4084159    0.2545687 -43.11  0.002167415    1.581    0.368
       337 -11.2178     33.7101    119.6600   1.1049619736e+02   4.7371645241e+01    0.6583018    0.3031852 -51.21  0.002648989    1.923    0.480
       338 -10.8350     27.8695    119.4228   1.1219640114e+02   4.7961427200e+01    0.3546063    0.2643856  87.23  0.002081254    1.357    0.263
       339 -10.1686     55.7907    125.9881   1.0505119042e+02   4.3412418545e+01    0.3279757    0.1993811 -64.91 0.0008798636    1.466    0.318
