#   1 NUMBER                 Running object number                                     
#   2 MAG_AUTO               Kron-like elliptical aperture magnitude                    [mag]
#   3 X_IMAGE                Object position along x                                    [pixel]
#   4 Y_IMAGE                Object position along y                                    [pixel]
#   5 X_WORLD                Barycenter position along world x axis                     [deg]
#   6 Y_WORLD                Barycenter position along world y axis                     [deg]
#   7 A_WORLD                Profile RMS along major axis (world units)                 [deg]
#   8 B_WORLD                Profile RMS along minor axis (world units)                 [deg]
#   9 THETA_WORLD            Position angle (CCW/world-x)                               [deg]
#  10 FWHM_WORLD             FWHM assuming a gaussian core                              [deg]
#  11 ELONGATION             A_IMAGE/B_IMAGE                                           
#  12 ELLIPTICITY            1 - B_IMAGE/A_IMAGE                                       
         1 -12.8433     46.1311     25.4093   3.5520328735e+01   6.9671258592e+01     0.598699    0.3393989 -39.28  0.002814646    1.826    0.452
         2 -13.0715     75.9024     26.3655   2.1922111799e+01   6.3174791658e+01    0.3502957    0.3035879 -83.85 0.0007577026    1.381    0.276
         3 -12.4019     89.7481     21.8746   1.5079322164e+01   6.0350475412e+01    0.3176761    0.2436035  28.40 0.0003490973    1.444    0.307
         4 -10.5342    140.2691     11.9809   8.9367334575e-01   4.7877292951e+01    0.1869878    0.1700759 -67.80  0.000277028    1.095    0.087
         5 -11.7516     92.1193      8.9779   8.2047910518e+00   6.1183391283e+01    0.3515043    0.2075548  45.91  0.001410838    1.623    0.384
         6 -11.7673     49.4316      8.4227   2.3214687138e+01   7.1604853688e+01    0.2382414    0.2069802  30.52  0.001430945    1.010    0.010
         7 -10.2665    123.2602      7.3310   1.5381709435e+00   5.2932711120e+01     0.139964    0.1003755  39.90 0.0002902778    1.568    0.362
         8 -11.4231     68.0468      5.6890   1.3463474855e+01   6.7647859286e+01    0.2293452    0.1937015  12.39 0.0003042965    1.260    0.206
         9 -10.6597    106.4200      4.7980   3.2546233807e+00   5.7738042593e+01    0.1785048    0.1363953  10.30 0.0005984281    1.613    0.380
        10 -10.1461     25.4911      1.4756   3.3736878801e+01   7.7078095504e+01    0.1288621    0.1096585  11.32 0.0002386834    1.009    0.009
        11 -10.4422    163.2329    246.4004   5.1555291763e+01   3.5601058865e+00    0.1667867   0.08403241  35.08 0.0009464857    1.665    0.399
        12 -11.9432    178.5639    247.2093   4.8706374138e+01   1.5980888020e+00    0.2766344    0.2341835 -17.86  0.002129165    1.414    0.293
        13 -11.9170    181.5694    244.5456   4.7792061223e+01   1.5741860848e+00    0.2417294    0.1626046   4.10 0.0005326736    1.285    0.222
        14 -11.2765    124.8298    249.7292   5.9751128585e+01   7.8975013263e+00    0.1779683    0.1464822  -9.85 0.0008032057    1.391    0.281
        15 -11.3053    103.0078    249.7314   6.4378696674e+01   1.0627830001e+01    0.1760022    0.1171008  32.49 0.0005241833    1.109    0.098
        16 -12.1758     64.1787    245.4808   7.2492869137e+01   1.6003070947e+01    0.2159175    0.1543998  48.86 0.0002587959    1.177    0.151
        17 -12.3257     65.3766    249.6019   7.2502735768e+01   1.5158183089e+01    0.5675485    0.1385404  33.80   0.00243138    2.572    0.611
        18 -12.1544     69.0718    247.5677   7.1562906044e+01   1.5078789135e+01    0.4821296    0.1640205  52.03  0.002090839    3.046    0.672
        19 -13.0913     51.1682    245.1952   7.5325884516e+01   1.7512856428e+01    0.5195095    0.4397355 -16.89   0.00294697    1.663    0.399
        20 -11.3556     53.9472    248.5038   7.4909584173e+01   1.6629171399e+01    0.1762029    0.1511635  22.51  0.001290498    1.298    0.229
        21 -15.0568     15.6502    164.8466   7.9735976555e+01   3.8209673846e+01     2.159178    0.6880113  67.00  0.007482097    3.625    0.724
        22 -14.3517      4.7594    163.9494   8.2877797842e+01   3.9265336591e+01     1.042876    0.4606832  83.64  0.004791802    2.145    0.534
        23 -14.4585     22.3235    192.2830   7.9344056194e+01   3.1163978496e+01     1.501553      0.51384  69.32  0.005726772    3.372    0.703
        24 -15.5379      7.8538    185.1160   8.2833653171e+01   3.4044423091e+01     2.768704    0.8191022  35.52  0.009772419    2.402    0.584
        25 -14.9314     34.5581    231.6030   7.8311297286e+01   2.1776278898e+01     1.600265    0.7088587  88.01  0.008139786    2.688    0.628
        26 -15.2516     18.7079    210.1809   8.1066593168e+01   2.7615891043e+01     1.820651    0.7598621  67.44   0.00878704    2.307    0.567
        27 -13.8270      9.8940    208.7092   8.3130170417e+01   2.8709398915e+01    0.4223242     0.283664 -83.76  0.001639884    1.570    0.363
        28 -13.7088     35.7437    247.3634   7.8769780562e+01   1.8761217053e+01    0.5334536    0.2869491  41.81  0.001835497    1.307    0.235
        29 -14.8434      3.4633    223.6867   8.5021949707e+01   2.6215772314e+01    0.8832563    0.4185614 -78.71  0.005005537    2.295    0.564
        30 -14.2732      4.2042    210.5765   8.4531766930e+01   2.8798051087e+01    0.7176785    0.3333229  71.29  0.003873765    1.931    0.482
        31 -14.1103      3.3560    201.5709   8.4494293845e+01   3.0763523258e+01    0.6121563    0.4529912   4.69  0.003293969    1.730    0.422
        32 -16.2785     15.2474    227.1948   8.2487862027e+01   2.4500215621e+01     1.765226     0.780443  67.61  0.009481094    2.091    0.522
        33 -13.9225      1.7688    249.7841   8.5908743302e+01   2.1513934492e+01     0.276566    0.1547194  75.83  0.001638282    1.699    0.411
        34 -15.1709      6.3743    247.7105   8.4933931353e+01   2.1482391807e+01    0.8042461     0.232647  50.76  0.004179692    2.217    0.549
        35 -15.0051     10.4531    239.4846   8.3890285945e+01   2.2607611362e+01    0.5180503    0.4422571 -55.43  0.002948379    1.665    0.399
        36 -15.0090      5.2002    235.5792   8.4913467712e+01   2.3791072522e+01    0.5342095     0.372409  25.38  0.002969358    1.424    0.298
        37 -11.0071    205.6439    244.3091   4.3387216243e+01  -1.1781920431e+00   0.09737065   0.07723161  33.81 0.0007042728    1.728    0.421
        38 -11.3106    142.9236    243.3859   5.5278630825e+01   6.5314315014e+00    0.2089717    0.1676721 -20.79  0.001462577    1.426    0.299
        39 -10.9031    131.1290    244.0470   5.7813395429e+01   7.9451873348e+00    0.1625425    0.1194224  40.70   0.00106561    1.329    0.247
        40 -10.6867     82.1300    242.3355   6.8294567135e+01   1.4419084095e+01    0.1575402    0.1330167  71.44 0.0001496072    1.382    0.277
        41 -11.4457    126.1213    241.4336   5.8583953251e+01   8.9880325837e+00    0.1886163    0.1722804  46.39 0.0006377819    1.337    0.252
        42 -11.0944    117.5989    241.1755   6.0388261352e+01   1.0131419127e+01    0.1462825    0.1102832 -31.23 0.0009445272    1.658    0.397
        43 -12.1360     65.9018    239.7316   7.1718216457e+01   1.6815093076e+01    0.2624082    0.1786879  62.82  0.001661975    1.505    0.336
        44 -10.2460     61.6490    241.7028   7.2801916642e+01   1.6956781076e+01    0.1119338   0.08622712   0.70 0.0003249751    1.687    0.407
        45 -11.8832    139.4223    248.5775   5.6599800103e+01   6.2290753498e+00    0.3162871    0.1934797 -40.73  0.001978665    2.033    0.508
        46 -11.9320     71.7627    236.9834   7.0196466990e+01   1.6612210865e+01     0.232922    0.1952655 -41.57  0.001055157    1.590    0.371
        47 -13.2700     72.7163    231.3132   6.9534691858e+01   1.7526395729e+01    0.6563279    0.2926707 -51.47  0.003197742    2.940    0.660
        48 -10.6322    149.4936    239.4752   5.3452214690e+01   6.2530536615e+00     0.122556   0.09211377  20.11 0.0008100959    1.014    0.014
        49 -11.7696    102.6732    237.9506   6.3332015633e+01   1.2584313647e+01    0.2714935    0.1979047 -35.00  0.001337673    1.784    0.439
        50 -11.5847     79.8182    237.4955   6.8415886030e+01   1.5543211952e+01    0.2740008    0.1935345  22.54  0.001708458    1.310    0.237
        51 -12.6449     47.2636    234.9973   7.5614400225e+01   1.9789490866e+01    0.4137888    0.2282548  71.74  0.002338655    1.994    0.498
        52 -11.1184    210.9916    236.4895   4.1357914478e+01  -8.7107064977e-01    0.1934244    0.1368467 -47.06  0.001271252    2.439    0.590
        53 -10.6688    138.1285    236.1913   5.5420828147e+01   8.2226070027e+00    0.1634941    0.1180367  38.85 0.0003741838    1.319    0.242
        54 -12.0644    120.9942    234.8243   5.8955081589e+01   1.0703922837e+01    0.2345682     0.184154  43.44  0.001343822    1.278    0.218
        55 -11.2243    122.8791    231.2097   5.8127524060e+01   1.1041055502e+01    0.1907185    0.1381745  38.60 0.0004802716    1.222    0.182
        56 -12.2919    222.6510    232.7126   3.8827756187e+01  -1.7322711120e+00    0.2474344     0.152801 -15.68  0.001001805    1.409    0.290
        57 -11.0164    165.1744    234.4166   4.9621953808e+01   4.9506275395e+00    0.2902285   0.07989185  38.05  0.001156037    3.239    0.691
        58 -11.4993    112.5359    234.3596   6.0770156249e+01   1.1898192902e+01    0.2245361   0.09424278  30.93  0.001068317    1.842    0.457
        59 -12.1561     58.9145    234.2236   7.2919104496e+01   1.8625990415e+01    0.4075304     0.126019  44.82  0.001359418    2.423    0.587
        60 -11.6709     56.3829    229.9956   7.3216368546e+01   1.9707410333e+01    0.2939565    0.1862966   7.02  0.001349262    2.118    0.528
        61 -12.3178    194.9389    229.5268   4.3221346352e+01   1.8641578989e+00    0.2458612    0.1956584 -34.73  0.001334925    1.625    0.385
        62 -12.1761    142.9999    231.6069   5.3821112948e+01   8.2766014952e+00    0.1879102    0.1696015  -2.43 0.0002870709    1.238    0.192
        63 -12.2398    182.1510    231.6733   4.5926561717e+01   3.1669072960e+00    0.4220241    0.2590137  45.57  0.002414322    2.259    0.557
        64 -11.4068     85.1222    228.8802   6.6453538801e+01   1.6423731655e+01    0.3570076    0.2279687 -21.10   0.00182429    2.556    0.609
        65 -12.2619     80.7144    226.2795   6.7245478037e+01   1.7463008313e+01    0.3572145     0.191627  27.83  0.001179154    1.569    0.363
        66 -10.3606     65.6167    229.2204   7.1017494384e+01   1.8772471526e+01    0.1336678   0.06676047  45.61 0.0005600831    1.610    0.379
        67 -11.7046    230.1873    228.1703   3.6914887525e+01  -2.0394473459e+00     0.136031    0.1110787   4.12 0.0005531929    1.344    0.256
        68 -12.4845    117.0649    225.7514   5.8790707108e+01   1.2742264711e+01    0.4045325    0.2338379  60.43  0.001585525    2.684    0.627
        69 -10.9454    138.0234    227.0216   5.4304273592e+01   9.6655570162e+00    0.1872348     0.150059  27.41 0.0003820545    1.077    0.072
        70 -12.4280    106.6774    226.3699   6.1225578827e+01   1.4043357813e+01    0.3312643    0.1856298  38.38  0.001653322    1.431    0.301
        71 -11.5299     48.5577    226.5215   7.4811494835e+01   2.1256354181e+01    0.2964365    0.1172673  54.56  0.001370443    2.360    0.576
        72 -11.6275     42.1024    227.3444   7.6362230266e+01   2.1802250594e+01    0.2681482    0.1386115  16.92  0.001336918    2.227    0.551
        73 -10.3404    216.9758    226.0260   3.8794626344e+01  -3.1683180353e-01     0.132098   0.09671877   0.17            0    1.045    0.043
        74 -10.3460    182.4788    225.4897   4.4979712070e+01   3.9583111377e+00    0.1211757   0.09196664  11.34 0.0005376523    1.009    0.009
        75 -12.4702     93.2820    223.6460   6.4044853422e+01   1.6321395664e+01     0.388599    0.2703756  12.41  0.002215934    1.570    0.363
        76 -12.7853    159.6236    222.1635   4.9069770347e+01   7.4669333219e+00    0.4476241     0.247611  31.80  0.002482327    1.484    0.326
        77 -11.0132    166.0024    219.0249   4.7307886033e+01   7.0673791824e+00    0.1965324    0.1253856   4.94 0.0003039359    1.642    0.391
        78 -12.4485     57.3369    221.2472   7.2380400167e+01   2.1285474797e+01     0.356049    0.2029855 -45.90 0.0009755666    2.467    0.595
        79 -12.1170     50.2146    222.5742   7.4169656672e+01   2.1841810704e+01    0.2668465    0.1589548  46.63 0.0007741543    1.327    0.246
        80 -13.5003     47.2079    216.5668   7.4497251424e+01   2.3380060017e+01    0.4549161    0.4148405   3.97  0.002408314    1.366    0.268
        81 -12.5726    188.9753    220.7775   4.3044299664e+01   3.7647073939e+00    0.3306124    0.1807998  15.05  0.001248746    1.768    0.434
        82 -12.9215    173.7226    219.9127   4.5879472234e+01   5.8912968222e+00    0.3054165    0.2316629 -40.45  0.001007937    1.626    0.385
        83 -11.9191    124.6367    221.9006   5.6617149492e+01   1.2356111699e+01     0.275236    0.1527523  34.76  0.001461142    1.443    0.307
        84 -13.7570     41.0573    213.1560   7.5779326151e+01   2.4754326353e+01    0.6070895    0.4026521  25.67   0.00215049    1.419    0.295
        85 -10.9620    213.0401    221.2497   3.8749464899e+01   7.2275059060e-01    0.1673384    0.1179723  12.08  0.001163768    1.110    0.099
        86 -11.1547    237.2027    220.1845   3.4579233380e+01  -1.8979845339e+00    0.1323359     0.108606  -0.66 0.0003510788    1.341    0.254
        87 -12.0080     78.2269    219.8043   6.7247585684e+01   1.9005786402e+01    0.3252729    0.1845757  19.46  0.001400317    1.841    0.457
        88 -12.5581    145.3799    216.4549   5.1295203788e+01   1.0345433374e+01    0.3251406     0.288177  59.46  0.001260919    1.515    0.340
        89 -12.3691    141.6425    212.3061   5.1534503348e+01   1.1567558534e+01    0.3142299    0.2702116  73.92   0.00195494    1.690    0.408
        90 -12.3868    121.4940    216.8120   5.6694923181e+01   1.3678565235e+01    0.2606899     0.222658  62.22 0.0004387354    1.436    0.303
        91 -11.8914     63.9899    216.8493   7.0436015647e+01   2.1363787689e+01    0.3110594    0.1935462  48.53  0.001421532    1.358    0.263
        92 -10.8832    204.8510    217.1911   3.9570781304e+01   2.2313423889e+00    0.1604653    0.1081031  -2.54 0.0003718939    1.298    0.230
        93 -12.2082    129.5180    216.9509   5.4883530760e+01   1.2516241416e+01    0.2513053    0.1574994  17.32 0.0008249419    1.568    0.362
        94 -11.0077     94.7165    217.4397   6.3058203227e+01   1.7284502573e+01    0.2308438    0.1011357  34.42 0.0002256852    1.775    0.437
        95 -11.5213    225.0511    215.5991   3.5835897147e+01   1.3604835826e-03    0.1728362    0.1368236 -16.03  0.001288485    1.298    0.230
        96 -12.5805    107.5897    214.2451   5.9628533952e+01   1.6105726968e+01    0.3186259    0.2411575  64.38  0.001557911    1.607    0.378
        97 -11.0337     77.3250    213.8861   6.6912920540e+01   2.0278917176e+01    0.2250466    0.1422311  40.25 0.0002626312    1.269    0.212
        98 -11.3912    155.8156    213.1325   4.8572436358e+01   9.3980282864e+00    0.2606321    0.1615348  25.84  0.001455912    1.350    0.259
        99 -12.1591    127.1528    212.9484   5.4893853657e+01   1.3550493802e+01    0.3451693    0.1415247  39.29  0.001112843    2.071    0.517
       100 -10.0170     68.7177    213.2989   6.8977135713e+01   2.1492411876e+01    0.1334664   0.08034509  53.45 0.0001701853    1.546    0.353
       101 -10.6093     72.5185    212.4724   6.7964371217e+01   2.1178814109e+01    0.1327758    0.1074205  40.00 1.677489e-05    1.009    0.009
       102 -12.4792    229.0772    208.0901   3.3981505835e+01   4.4182148025e-01    0.3411622    0.1884428 -18.31  0.001573944    1.651    0.394
       103 -12.5371    225.0424    204.3097   3.4031923713e+01   1.3922025705e+00    0.2936632    0.2122578 -31.83  0.001169516    1.515    0.340
       104 -10.8767    209.4328    211.2333   3.7821281730e+01   2.4334397422e+00      0.14106     0.103679 -34.43 0.0007302435    1.581    0.368
       105 -11.3501     59.5928    210.9419   7.1040451261e+01   2.3093448684e+01    0.2198058     0.164612  15.26 0.0004597061    1.467    0.318
       106 -10.9506    187.3807    210.1565   4.1717724023e+01   5.4539627057e+00    0.1529038    0.1126103 -44.68 0.0009453934    1.784    0.439
       107 -11.9305    181.2988    208.4222   4.2628048435e+01   6.5364667105e+00    0.4389107    0.2153558  12.58  0.001902451    2.837    0.648
       108 -11.1758     96.7857    208.9857   6.1617413147e+01   1.8621463884e+01    0.2912457    0.1729087 -76.23  0.001153504    2.386    0.581
       109 -12.4404     53.0319    209.6050   7.2573419024e+01   2.4147467605e+01    0.2950648     0.219654  28.46 0.0008879187    1.244    0.196
       110 -12.0911     85.4453    214.7046   6.5008977118e+01   1.9052585221e+01    0.4682373    0.2512905  40.74  0.002399568    1.505    0.336
       111 -12.3119    160.9631    207.1624   4.6585122959e+01   9.6126443657e+00     0.209504    0.1884549  19.24 0.0002901434    1.193    0.162
       112 -13.3927     36.5745    204.4860   7.6363232730e+01   2.7059174838e+01    0.5337754    0.4026994  -3.75   0.00312131    1.798    0.444
       113 -11.6222    169.4998    208.4976   4.5012086571e+01   8.1786165390e+00     0.252591    0.1879003  62.49  0.000852858    2.424    0.588
       114 -12.9152    144.9547    200.2303   4.9016764810e+01   1.3149199826e+01    0.4651795    0.3738715  66.47  0.001904352    1.801    0.445
       115 -11.5788     93.0064    194.4571   6.0824458223e+01   2.2097225232e+01    0.4905495    0.3546728  85.97  0.002308792    1.788    0.441
       116 -12.1833     89.2786    201.3328   6.2606169031e+01   2.1203266615e+01    0.2878603    0.2354829 -60.66  0.001058365    1.442    0.306
       117 -11.9129     91.6526    198.6951   6.1691183331e+01   2.1410794387e+01    0.2607355    0.2299386  26.29 0.0008825848    1.104    0.094
       118 -11.7526    212.5989    200.3634   3.5498602469e+01   3.4653182053e+00     0.278752    0.2220249 -47.76  0.001825274    1.924    0.480
       119 -12.7451    137.4535    197.4489   5.0305201290e+01   1.4790693811e+01    0.4261828    0.3064152   8.11 0.0005640805    1.480    0.325
       120 -12.1579    116.6006    196.4952   5.5143283647e+01   1.8168134695e+01    0.3751449    0.1711429  49.83   0.00104401    2.615    0.618
       121 -11.9978    124.5893    199.5252   5.3640271639e+01   1.6373434642e+01    0.2042021     0.185353  24.67 5.342456e-06    1.086    0.079
       122 -12.3286    121.8509    196.0531   5.3798674443e+01   1.7451570941e+01    0.3289364    0.2539449  43.92  0.001214452    1.247    0.198
       123 -13.7192    174.0232    196.1003   4.2096884372e+01   9.4630200636e+00    0.5346957    0.3371516  49.56  0.002106587    2.137    0.532
       124 -12.2609    150.8371    198.2833   4.7399270840e+01   1.2593265551e+01    0.3541321     0.204725  36.65 0.0009803951    1.533    0.348
       125 -11.1427     84.4801    198.1709   6.3471597510e+01   2.2528515322e+01     0.323738    0.1858478  83.37  0.001410769    2.722    0.633
       126 -10.7815     44.3390    197.8084   7.3920481539e+01   2.7668972414e+01    0.1917536    0.1356027  44.38  0.001103605    1.152    0.132
       127 -11.3603    101.3570    196.1844   5.8906535397e+01   2.0518385634e+01    0.2743628    0.2378476  30.09  0.001642172    1.045    0.043
       128 -12.6668    191.2218    195.1679   3.8535086477e+01   7.1054023435e+00    0.4451889    0.2894104  35.40   0.00260204    1.514    0.340
       129 -10.9660    185.1858    193.1492   3.9362196543e+01   8.2804107381e+00    0.1560912    0.1441947  24.44 -0.0006383859    1.332    0.249
       130 -11.5331    202.2290    195.0256   3.6453816441e+01   5.5857903928e+00    0.2011609    0.1508887  18.73 0.0004420847    1.170    0.145
       131 -11.8496    211.8578    193.7832   3.4520756154e+01   4.4544530445e+00    0.2740432    0.1678028  29.43  0.001647417    1.530    0.346
       132 -12.1175    160.7598    193.0667   4.4383789815e+01   1.1965116165e+01    0.2913021    0.2399659   8.55 0.0009823036    1.080    0.074
       133 -11.9476    134.1395    190.8764   5.0065435063e+01   1.6523075994e+01    0.3316359    0.2056336  20.87 0.0009953291    1.624    0.384
       134 -12.4417     51.2521    189.9103   7.1453048604e+01   2.8638746232e+01    0.2743506    0.2169059  43.36 0.0007782839    1.066    0.062
       135 -10.5038     42.3349    191.2558   7.3966596480e+01   2.9353822007e+01    0.1204303    0.1004649 -12.24   0.00024219    1.569    0.363
       136 -11.0070    147.7397    190.3530   4.6821971319e+01   1.4469572988e+01    0.1895481    0.1129374  25.76 0.0005513962    1.559    0.359
       137 -11.5448    174.8449    188.8163   4.0696699634e+01   1.0509036772e+01    0.2079117    0.1553121   3.37 0.0008659624    1.284    0.221
       138 -12.0766    168.6041    189.0522   4.2035085055e+01   1.1428950311e+01    0.2255561    0.1617334  35.42 0.0006178474    1.329    0.248
       139 -11.8814    208.7117    186.3542   3.3789126693e+01   5.9217134952e+00    0.2988348    0.1786842   0.17 0.0001065194    1.917    0.478
       140 -12.0922    110.6660    187.5893   5.5349908491e+01   2.0866308599e+01    0.2930604    0.2215734  26.62  0.001586306    1.197    0.165
       141 -12.7834    126.6126    186.0862   5.1127257015e+01   1.8644108343e+01    0.4554799    0.2060349  37.50  0.001938408    1.914    0.478
       142 -11.6704     76.5044    185.3736   6.4105253749e+01   2.6413723434e+01    0.3860618    0.2199159 -60.40  0.001388877    1.951    0.488
       143 -11.6975     42.6742    185.4391   7.3426681813e+01   3.0645923156e+01    0.3399576    0.2364938 -84.01  0.001884479    1.507    0.336
       144 -11.6228    248.6268    185.7292   2.7230365824e+01   8.6456372344e-01    0.1951578    0.1142265  18.02 0.0008796306    1.692    0.409
       145 -12.0390    157.0475    185.6936   4.3954425740e+01   1.3820475695e+01    0.2475152    0.1897059 -19.86  0.001019507    1.365    0.267
       146 -10.3375     70.5097    186.5644   6.5877956623e+01   2.6964617498e+01    0.1433543    0.1167084  47.66  0.000163516    1.069    0.065
       147 -11.4107    163.0119    184.6332   4.2467035042e+01   1.3054824456e+01    0.1996472    0.1898015 -22.24  0.000889932    1.241    0.194
       148 -10.7351     65.5083    184.5085   6.7028722035e+01   2.8093085069e+01    0.1402933    0.1208237  45.51 -5.168519e-05    1.011    0.011
       149  -9.7655     54.4731    184.4996   7.0083415339e+01   2.9488906231e+01    0.1352774    0.1211391  44.17 0.0008088923    1.077    0.072
       150 -11.6312     94.4065    182.0244   5.8818579001e+01   2.4552319045e+01    0.2824579    0.2544607 -69.67  0.001080835    1.260    0.206
       151 -11.5175    141.8297    181.5467   4.6720153076e+01   1.7046742070e+01     0.206349    0.1710089 -50.81 0.0006184437    1.413    0.292
       152 -11.8488    134.1345    181.9941   4.8631673173e+01   1.8224397185e+01    0.2279043    0.1798003  28.95            0    1.116    0.104
       153 -10.5184     48.6285    181.4515   7.1434918266e+01   3.0894365727e+01    0.2558813    0.1115288  84.17 0.0009442365    3.272    0.694
       154 -12.9816    117.6380    179.4872   5.2329659605e+01   2.1428498106e+01    0.5388376    0.3616909  57.29   0.00170135    1.784    0.439
       155 -11.8461     40.7819    180.5874   7.3566854477e+01   3.1986281514e+01    0.2855769    0.2496043  -1.62  0.001573316    1.405    0.288
       156 -10.8603    222.4910    180.5253   3.0395534846e+01   4.8422204263e+00    0.1210785   0.09562388  -5.07 0.0008100801    1.004    0.004
       157 -10.6629    201.9325    182.5073   3.4327102774e+01   7.4441001224e+00     0.174903      0.11137  30.66 0.0004304511    1.489    0.329
       158 -10.2855     58.8668    180.3634   6.8448364191e+01   2.9903628035e+01    0.1721888    0.1237591  19.43 0.0001400354    1.470    0.320
       159 -13.0858    126.9354    176.3710   4.9462337305e+01   2.0533687770e+01    0.4529113    0.3438125 -42.26  0.001950913    1.452    0.311
       160 -12.0659    191.0483    177.5751   3.5474127068e+01   9.8217748561e+00    0.2183472    0.1759708 -44.59 0.0005662261    1.518    0.341
       161 -10.9955    166.7702    178.1799   4.0515015592e+01   1.3567743881e+01    0.1882574    0.1430624  -0.67 0.0003885246    1.344    0.256
       162 -11.8138    154.9019    177.1760   4.2942904106e+01   1.5698044400e+01    0.3060389    0.1991163 -56.19  0.001046464    2.016    0.504
       163 -12.6035    137.3236    176.6906   4.6961087648e+01   1.8729742453e+01    0.3523478      0.27639 -68.18 0.0006074521    1.700    0.412
       164 -11.9035     31.7491    176.2442   7.5794323968e+01   3.3967639057e+01    0.2606946    0.1975653  29.72 0.0006699719    1.275    0.215
       165 -11.6034     76.5046    176.0441   6.2963376697e+01   2.8538922890e+01    0.2032711    0.1426143 -69.24   0.00102994    1.581    0.368
       166 -11.5273    106.7549    175.1634   5.4492758573e+01   2.4113582560e+01    0.2555234    0.1773916  43.38 0.0007010567    1.320    0.242
       167 -12.0259    144.9936    173.0008   4.4477661555e+01   1.8147904946e+01    0.2239712    0.1739074  64.93  0.001144045    1.766    0.434
       168 -11.0620     79.3222    173.2995   6.1806539633e+01   2.8770321993e+01    0.2335369    0.1396049  58.58 0.0009151181    1.849    0.459
       169 -12.5042    197.8294    170.8844   3.2953441172e+01   9.8223817921e+00    0.3011644    0.2432204   5.30  0.001424766    1.098    0.089
       170 -11.7746     91.2008    171.1230   5.8139390889e+01   2.7484488995e+01    0.3531881    0.2957448 -22.17  0.001892482    1.438    0.305
       171 -12.7677    153.0966    170.4227   4.2123232196e+01   1.7252324225e+01     0.274744    0.2531149  41.01 0.0003537853    1.197    0.165
       172 -12.7909    152.8484    165.1440   4.1187382776e+01   1.8292288476e+01    0.3724245    0.2734208  22.90  0.001940633    1.324    0.244
       173 -11.3756     36.1911    170.8018   7.4095354286e+01   3.4821261748e+01    0.1729781    0.1613363 -24.58  0.000592684    1.318    0.241
       174 -12.4040    120.5211    168.5024   4.9754249648e+01   2.3253076214e+01    0.6201915    0.3047332  20.77  0.002219673    2.865    0.651
       175 -11.6847    101.9884    170.2104   5.5002871928e+01   2.5976656771e+01    0.2164847    0.1893552   9.43 0.0004253584    1.221    0.181
       176 -10.6805     62.2050    170.6221   6.6424260909e+01   3.1780456273e+01    0.1955099     0.130386  19.27 0.0005317039    1.614    0.380
       177 -12.0410     85.0805    168.1521   5.9442719956e+01   2.9113277173e+01    0.3713786    0.1848548  56.15  0.001411148    2.473    0.596
       178 -10.2072    221.5782    170.4708   2.8722789672e+01   6.3643431860e+00    0.1229891   0.09779911  -8.20 2.348171e-05    1.026    0.025
       179 -11.5627    159.9298    168.4567   4.0213535676e+01   1.6445175366e+01     0.214542     0.127055  36.62  0.001023149    1.576    0.365
       180 -11.4832     52.7397    167.9091   6.8922825909e+01   3.3641718820e+01    0.2609152    0.1473056  43.49  0.000682294    1.548    0.354
       181 -12.1160    203.1954    167.1703   3.1270689751e+01   9.5671228399e+00    0.1954672    0.1526534  -0.94 0.0004787594    1.166    0.143
       182 -10.2741     31.2908    167.6865   7.5294819235e+01   3.6084742783e+01     0.146366   0.08445313  57.19 0.0007002465    1.590    0.371
       183 -11.7903    127.7450    165.7905   4.7408182843e+01   2.2575171015e+01    0.2666373    0.2105237 -10.27 0.0006212643    1.483    0.326
       184 -11.1316    111.0214    165.2792   5.1722659349e+01   2.5571677466e+01    0.2223835    0.1715954  35.79 0.0006584769    1.170    0.145
       185 -10.8278    102.1227    165.1476   5.4146957438e+01   2.7093664356e+01    0.2152722    0.1884685  10.13 0.0002571659    1.219    0.180
       186 -10.7809     64.2829    164.9759   6.5128481975e+01   3.2870659444e+01    0.1952007    0.1781451  71.84 0.0004011408    1.084    0.078
       187 -11.3026     30.5246    164.0007   7.5238745387e+01   3.7069660622e+01    0.1891578   0.09338048 -50.53 0.0005587319    2.432    0.589
       188 -12.1462    198.9322    165.1691   3.1664691357e+01   1.0542209208e+01     0.247338    0.2081711  89.61  0.001402088    2.139    0.533
       189 -11.8140    141.8129    162.9461   4.3375959895e+01   2.0672252791e+01    0.2310882    0.1915349  28.46 0.0003460693    1.108    0.097
       190 -11.9730     25.0725    160.8693   7.6656742155e+01   3.8369422268e+01    0.3410501    0.1940905 -51.10  0.001226207    2.059    0.514
       191 -10.8604     40.4907    161.5318   7.1988709740e+01   3.6644932944e+01    0.1409223    0.1237849  57.42 7.791381e-05    1.003    0.003
       192 -12.4346    169.2859    158.9042   3.6317868920e+01   1.6556286173e+01    0.3668871    0.2854298  86.07  0.001790759    2.278    0.561
       193 -11.8493    105.3346    158.8138   5.2169271657e+01   2.7993722837e+01    0.3653649    0.2883966  68.49  0.001123787    1.475    0.322
       194 -11.4217     69.4801    158.2568   6.2665241060e+01   3.3799354228e+01    0.2661053    0.2231917 -17.70  0.000721062    1.472    0.321
       195 -13.0663     84.0254    149.9548   5.6913177657e+01   3.3643889035e+01    0.4889018    0.3195625 -23.35  0.001963273    2.319    0.569
       196 -11.5434    132.6189    156.7757   4.4471913774e+01   2.3592119640e+01      0.19872    0.1439757 -60.59 0.0006614875    1.661    0.398
       197 -11.7729     28.8265    156.1920   7.5136755028e+01   3.9191082665e+01    0.2177041    0.1690703  58.08 0.0008583809    1.146    0.128
       198 -10.9049    190.5370    155.4976   3.1338881035e+01   1.3472705864e+01    0.1337406    0.1183721  -4.53 0.0001978902    1.017    0.016
       199 -10.5591    141.4727    155.5049   4.2010646138e+01   2.2233045239e+01    0.1466918    0.1355692  21.64 3.543482e-05    1.009    0.009
       200 -12.1967     14.5055    153.2282   7.9409475250e+01   4.1191286518e+01    0.5857041    0.2190556  63.93  0.002259272    2.776    0.640
       201 -14.1193      3.3498    151.7155   8.2791027365e+01   4.2373653459e+01     2.037385    0.4828701 -61.62  0.006907356    4.133    0.758
       202 -14.3829     16.6872    132.6846   7.7255879571e+01   4.6323987799e+01    0.7465639    0.4587382  86.92  0.003400687    1.554    0.356
       203 -12.9537      9.9672    145.6671   8.0403487366e+01   4.3449896652e+01    0.3978045     0.256128  52.20 0.0007277827    1.389    0.280
       204 -13.7476     10.8655    142.1029   7.9899195221e+01   4.4299479616e+01    0.5184011    0.3666834  67.35 0.0003492991    1.274    0.215
       205 -11.0973     67.3886    153.8374   6.2691592189e+01   3.5195004249e+01    0.2044571    0.1301116 -52.79  0.000501852    1.706    0.414
       206 -10.6194     20.9349    154.5384   7.7484024379e+01   4.0329750856e+01    0.1903271    0.1239585  29.23 0.0005263055    1.478    0.323
       207 -11.2155     88.8076    152.8328   5.5943655588e+01   3.2169725146e+01    0.2119178    0.1685571  64.11 0.0004286672    1.334    0.250
       208 -12.9640     51.7951    152.6068   6.7474882399e+01   3.7579266811e+01    0.3796216    0.2985233  15.52  0.001646324    1.406    0.289
       209 -12.4949    171.1987    145.4907   3.3151539223e+01   1.8645907255e+01    0.2954044    0.2390638 -35.21 0.0007570285    1.229    0.186
       210 -10.9118    226.3331    151.6508   2.4390215963e+01   8.3494280355e+00      0.11535   0.09477261 -57.90 0.0007048034    1.774    0.436
       211 -11.9854    108.8908    149.0682   4.9371685845e+01   2.9606093243e+01    0.3189126    0.2862596 -54.21 0.0006534609    1.198    0.165
       212 -12.6263     96.4778    149.0268   5.2979626667e+01   3.1799742446e+01    0.2796183    0.2610804  68.58  0.000360264    1.098    0.089
       213 -11.9766     19.0964    149.3548   7.7701460472e+01   4.1803701871e+01    0.3164933    0.2283903  -0.40  0.001022499    1.722    0.419
       214 -11.4744    146.9555    148.7461   3.9303927253e+01   2.2577668808e+01    0.2358528    0.2074284 -34.09 0.0003790947    1.173    0.147
       215 -12.5204     27.6362    149.6673   7.4971333393e+01   4.0967832016e+01    0.4353323    0.2376561  18.76  0.001997366    1.962    0.490
       216 -11.2731     37.4524    149.4702   7.1762182549e+01   4.0036366494e+01    0.1406432    0.1282424  64.64  0.000115943    1.025    0.024
       217 -12.8426    101.7659    142.4642   5.0163052736e+01   3.2434878166e+01     0.657977    0.3811858  60.71  0.002301031    2.352    0.575
       218 -12.4145     24.6104    144.3855   7.5514731120e+01   4.2608506762e+01    0.4074313    0.2179619  12.08   0.00180729    2.210    0.547
       219 -11.5128    187.0271    143.9485   2.9633965324e+01   1.6028010216e+01    0.2064957    0.1860364 -11.40  0.000411831    1.021    0.021
       220 -11.3172     85.7116    143.8021   5.5321938908e+01   3.4885214542e+01    0.2447089    0.1980428  25.77 0.0004106118    1.252    0.201
       221 -11.8812    209.2321    141.9498   2.5214860096e+01   1.2504808734e+01    0.3572941    0.2501282  77.75  0.001648393    3.143    0.682
       222 -11.3690    179.0479    142.6849   3.0935895765e+01   1.7698453216e+01    0.2011044    0.1722945  32.42  0.001146038    1.169    0.145
       223 -11.1203    143.7994    143.2110   3.8899086173e+01   2.4306069822e+01    0.2059232    0.1704293   2.12 0.0003981235    1.334    0.250
       224 -13.0515     50.1491    142.3400   6.6716983373e+01   4.0429770628e+01    0.6200585    0.2189463  32.98  0.002231216    2.458    0.593
       225 -12.6142     93.8335    140.2461   5.2134651855e+01   3.4376810931e+01    0.3992192    0.3566817 -20.44  0.001885203    1.274    0.215
       226 -11.6766     76.7814    141.8179   5.7814446033e+01   3.6820187616e+01    0.2202211    0.1670704  58.07 0.0006125568    1.339    0.253
       227 -10.9312    165.5447    140.0125   3.3181632641e+01   2.0728961367e+01    0.2128956    0.1384795 -40.75 0.0003471295    1.542    0.351
       228 -11.7777     59.9659    139.3923   6.2984507856e+01   3.9918708897e+01    0.2564633    0.2083482 -61.97 0.0006249842    1.274    0.215
       229 -13.4643     39.9886    137.9051   6.9630347746e+01   4.2778363559e+01    0.4795462    0.3570363 -89.35 0.0008950795    1.334    0.250
       230 -12.3430     37.2849    134.3558   7.0151302891e+01   4.4008322524e+01    0.3467821    0.1889541 -59.12 0.0009914958    1.823    0.451
       231 -12.6505     68.2674    137.0676   5.9813659450e+01   3.9334523661e+01    0.3864943    0.2265939  52.54 0.0008375693    1.774    0.436
       232 -12.6261    129.4702    137.3626   4.1281143378e+01   2.8347698013e+01    0.4189176    0.3134581  33.08  0.002013161    1.304    0.233
       233 -11.7216     87.8792    137.9214   5.3550750656e+01   3.5977728516e+01    0.2403532    0.2109283  -9.34  0.001218595    1.330    0.248
       234 -13.8715     20.3524    130.9571   7.5812762295e+01   4.6492290106e+01    0.7199347    0.3972574  -9.90  0.003049343    2.634    0.620
       235 -12.8945    123.0957    134.6913   4.2413613002e+01   3.0195222739e+01    0.5085013    0.3881593  11.79 0.0003743186    1.589    0.371
       236 -10.3062      1.6324    137.2834   8.2692036689e+01   4.6132428403e+01    0.1461406   0.07787762  52.41 0.0007017283    1.694    0.410
       237 -12.2045     53.5251    136.1312   6.4701515542e+01   4.1628518640e+01     0.335548    0.1578937  44.81  0.001328203    2.025    0.506
       238 -12.1675    174.6038    133.9658   2.9934451744e+01   2.0101651016e+01    0.2881332    0.2362721 -18.58 0.0006507747    1.226    0.184
       239 -12.6586     59.6112    133.9481   6.2258296448e+01   4.1387842339e+01     0.464455    0.2681661  41.65  0.002026561    1.620    0.383
       240 -10.5636    210.2112    134.3895   2.3475392121e+01   1.3518368454e+01    0.1646145    0.1259451  55.97 0.0004760479    1.656    0.396
       241 -12.2440    200.5265    133.0187   2.4823482213e+01   1.5432406220e+01    0.2231207    0.2062226  26.56 0.0003423055    1.160    0.138
       242 -12.9822     50.2301    130.4688   6.5024385364e+01   4.3542888895e+01     0.345631    0.2522919   8.09  0.001642161    1.634    0.388
       243 -11.2107    160.0056    156.9961   3.7965742432e+01   1.8560958945e+01    0.2010228    0.1753144  79.97   -0.0213525    1.575    0.365
       244 -12.0040    103.0745    133.4174   4.7922401504e+01   3.4353100492e+01    0.3218856     0.177012  47.97  0.001274501    1.839    0.456
       245 -11.5929     77.7304    132.6568   5.5855318085e+01   3.8994505784e+01    0.2802189    0.1775333 -49.95 0.0007943522    1.674    0.403
       246 -11.5203     31.2786    131.2746   7.1933777322e+01   4.5436483839e+01    0.2473509    0.2062513  82.23 0.0003682862    1.133    0.117
       247 -11.3612    111.7974    130.6178   4.4714920541e+01   3.3345549912e+01    0.2302299    0.1375463  47.92 0.0003322075    1.673    0.402
       248 -12.0288    130.2101    128.3989   3.9061265459e+01   3.0155065249e+01    0.2603641    0.2558393 -27.18 0.0003484123    1.053    0.050
       249 -12.2738    122.3485    128.2769   4.1172297025e+01   3.1782403892e+01    0.3523011    0.3354146 -52.43  0.001874416    1.101    0.092
       250 -11.1097    125.7165    124.0177   3.9244398772e+01   3.2043908888e+01    0.2118246    0.2028414 -37.21 0.0002280091    1.082    0.076
       251 -12.5325     83.2499    127.8366   5.3068598800e+01   3.9297096698e+01    0.3687623    0.2804771 -24.32  0.001294468    1.673    0.402
       252 -13.4973     56.2582    128.1412   6.2501271923e+01   4.3374461210e+01    0.5959097    0.2236838  38.87  0.002137422    2.404    0.584
       253 -12.0397     26.4478    125.1940   7.3026147548e+01   4.7508926994e+01    0.2645525    0.2272952  47.27 0.0008517869    1.128    0.114
       254 -12.5368      9.5804    125.7141   7.9262458862e+01   4.8658910810e+01    0.2580018    0.1168677 -75.72   0.00112059    1.998    0.500
       255 -14.2568     78.1571    119.6022   5.3092612994e+01   4.2263011193e+01    0.6693889    0.5867647  36.23 0.0006154852    1.115    0.103
       256 -13.0464     82.4750    115.5609   5.0694267381e+01   4.2541091767e+01    0.4428573     0.250968 -57.55  0.001311543    1.820    0.450
       257 -11.6783     42.2380    124.5273   6.7068667090e+01   4.6085119584e+01    0.2733325    0.2359098  77.54  0.001479425    1.122    0.109
       258 -12.6630      6.2195    112.4262   7.9557793271e+01   5.2376894308e+01    0.4047379     0.234762  46.10  0.001244525    1.685    0.407
       259 -13.1027      3.0938    107.4420   8.0431275750e+01   5.3859740890e+01    0.5349978    0.2901959  32.75   0.00228351    1.846    0.458
       260 -14.1753     13.8584    119.8129   7.7217359116e+01   4.9940080081e+01    0.7542232    0.4436192  71.25  0.002993592    1.696    0.411
       261 -13.0010      7.9658    118.2811   7.9321724070e+01   5.0723714123e+01    0.4699398    0.2577661  17.25  0.001748637    1.956    0.489
       262 -11.2582    169.9587    122.6801   2.8307577062e+01   2.3096333463e+01    0.1954018     0.187263  11.38 0.0004721659    1.033    0.032
       263 -11.7995     64.5111    127.0071   5.9363766167e+01   4.2507474341e+01    0.2324011    0.2012954  38.57 0.0003745858    1.118    0.105
       264 -12.1719    104.9560    121.1505   4.4607010760e+01   3.6921186627e+01    0.4418859    0.2299973  51.53  0.001104464    2.122    0.529
       265 -12.3314     63.7584    121.5377   5.8627697111e+01   4.4054769657e+01    0.3479856    0.1731852 -60.34 0.0009642306    1.994    0.498
       266 -11.8444     21.0249    121.7557   7.4693122521e+01   4.8888199792e+01    0.2651035    0.1531211 -61.12  0.001245873    1.664    0.399
       267 -10.6934    212.2966    121.3660   2.0348463761e+01   1.5182440676e+01    0.1357049   0.09573219  -2.84 0.0007031198    1.722    0.419
       268 -11.9911    193.1479    121.3461   2.3539892454e+01   1.8731160820e+01    0.2101513    0.1656821  23.09 0.0002871058    1.388    0.280
       269 -10.7078    109.4925    127.4921   4.4694269455e+01   3.4527627416e+01    0.1566983    0.1498466  30.10 0.0008102752    1.040    0.038
       270 -11.8389    200.7205    120.4202   2.2020507333e+01   1.7448328704e+01    0.2402264    0.1343995  53.47  0.001129325    2.084    0.520
       271 -12.1280     93.8244    117.1491   4.7214418271e+01   4.0051991088e+01    0.3289342    0.2411479  76.61  0.001421526    1.766    0.434
       272 -10.4750    249.7433    117.3378   1.4333697863e+01   9.5919205610e+00    0.1158682   0.07777143 -47.98 0.0002235191    1.576    0.365
       273 -11.5197     29.8591    116.7650   7.0729984345e+01   4.9462390767e+01    0.2202765    0.1875881 -79.63 0.0003457907    1.117    0.105
       274 -11.9443    120.6349    114.1381   3.8237495013e+01   3.5316651594e+01     0.401697    0.3025648 -36.40  0.001629407    1.437    0.304
       275 -11.9460    115.2467    113.5242   3.9640257537e+01   3.6598247922e+01    0.3451501    0.1937773 -35.47  0.001305685    2.174    0.540
       276 -13.4367     63.2108    111.9579   5.6935714883e+01   4.6657860509e+01    0.5133497    0.3794067 -64.50  0.001135361    1.366    0.268
       277 -11.2102    198.8610    111.4836   2.0297847180e+01   1.9259431791e+01    0.2056949    0.1698326 -32.95 0.0006642055    1.106    0.096
       278 -12.0078    166.5087    112.5121   2.6575341574e+01   2.5707787253e+01    0.3129631    0.1444562  47.85  0.001221756    2.206    0.547
       279 -11.4578    105.1332    111.1680   4.2113538599e+01   3.9253175148e+01    0.2224544    0.1863547  71.24 0.0003688662    1.332    0.249
       280 -10.9261    209.9938    108.9756   1.7954782306e+01   1.7530325690e+01    0.1606691    0.1445373 -27.97 0.0004901895    1.015    0.015
       281 -11.2129    160.5613    109.2780   2.7030142282e+01   2.7600875905e+01    0.2133379    0.1424336 -28.56 0.0009543152    1.643    0.391
       282 -11.8839     77.0323    107.7301   5.0820790807e+01   4.5492547427e+01    0.2217216    0.2023523  38.11 0.0004216632    1.077    0.071
       283 -11.0644     70.3468    108.3041   5.3438826060e+01   4.6482553639e+01    0.1599279    0.1218217 -18.11 0.0006486161    1.693    0.409
       284 -10.3274    139.6737    107.3102   3.1380613956e+01   3.2617787179e+01    0.1573541    0.1241241 -89.70 0.0007039677    1.659    0.397
       285 -10.9167    121.8763    107.0990   3.6060733481e+01   3.6615287542e+01    0.2281121    0.2089031  82.99 0.0002618421    1.175    0.149
       286 -11.9969    109.5705    104.2233   3.8919504205e+01   3.9937974266e+01    0.4714574     0.272693 -43.90  0.001807457    1.812    0.448
       287 -11.1531    105.4857    102.5127   3.9730046267e+01   4.1205568291e+01    0.2984749    0.2075162  43.87  0.001049566    1.391    0.281
       288 -12.8673     11.4822    105.0029   7.6800671229e+01   5.4055632867e+01    0.3658699    0.2603877 -44.64 0.0008674722    1.473    0.321
       289 -12.3830     78.8120    102.0974   4.8781664573e+01   4.6601330623e+01    0.3166802    0.2590266  53.98  0.001380514    1.239    0.193
       290 -11.6618    185.3014    101.2635   2.0179506918e+01   2.3711481459e+01    0.2296473    0.2229102  59.02 0.0003345685    1.101    0.092
       291 -12.0314     55.9556    101.4359   5.7552319741e+01   5.0502936279e+01    0.2815237    0.2298015 -52.62 0.0004202303    1.231    0.188
       292 -11.8269     57.8436     97.6590   5.5922440455e+01   5.1219435973e+01    0.3502533    0.2897704  42.11   0.00103606    1.197    0.165
       293 -11.8382     58.9443    114.0031   5.8973674551e+01   4.6747938701e+01    0.2743802    0.1994764  41.58 0.0006171934    1.334    0.250
       294 -11.1062    154.2948    101.0206   2.6266385266e+01   3.0573685160e+01     0.276595    0.2165434  85.58  0.001301849    1.635    0.388
       295 -12.7836      5.7385     99.4426   7.8703952539e+01   5.5858165869e+01     0.469296    0.2652503  53.39  0.002254998    1.809    0.447
       296 -12.1295      8.9923     97.4802   7.7116199910e+01   5.6213151560e+01    0.2859987    0.1941465  49.30 0.0006706137    1.502    0.334
       297 -13.2137     93.8025     98.6750   4.2526134799e+01   4.4546692206e+01    0.6840222    0.3144361  47.77  0.001915991    2.231    0.552
       298 -11.6149     85.8021    100.1922   4.5740100462e+01   4.5766536189e+01    0.2422663    0.2200457  70.48  0.001217568    1.142    0.124
       299 -10.7938    208.7715     99.5862   1.5989296374e+01   1.9219557916e+01    0.1674844    0.1307769  74.46 0.0004909419    1.602    0.376
       300 -11.3538    162.5025     99.4907   2.4097857098e+01   2.9007688978e+01    0.1483634     0.143135 -63.01 0.0001671927    1.048    0.046
       301 -12.1095    178.4300     96.6496   2.0257295337e+01   2.5977446728e+01    0.3318742    0.2272194 -55.35  0.001079302    1.606    0.377
       302 -10.4446    113.2155     97.1640   3.5861088096e+01   4.0737181346e+01    0.2020579    0.1771267  73.30 0.0003261525    1.227    0.185
       303 -10.8938    155.6419     96.6826   2.4811467524e+01   3.1092048502e+01    0.1574923    0.1197238  13.51 0.0007044339    1.756    0.430
       304 -11.1600    168.7476     94.0027   2.1397697164e+01   2.8594745067e+01    0.1898835    0.1228061 -38.20 0.0002686416    1.499    0.333
       305 -13.3826     78.8310     92.8381   4.6318348636e+01   4.8904001984e+01    0.4299622    0.3247309  50.56  0.001806497    1.343    0.256
       306 -13.9933     74.7783     90.1910   4.7145908532e+01   5.0309384968e+01    0.5632318     0.362498  37.44  0.002410932    1.522    0.343
       307 -11.4963     41.0955     91.7038   6.1833649366e+01   5.5029863006e+01    0.2310237    0.2174939  65.46  0.000384661    1.075    0.070
       308 -11.6948     88.4428     89.7398   4.1871791452e+01   4.7767274091e+01    0.2180897    0.1514315 -39.17 0.0009394448    1.572    0.364
       309 -11.0297     28.3510     90.2917   6.7387099484e+01   5.6742072177e+01    0.2464238    0.1766317  -2.23 0.0009183701    1.619    0.382
       310 -12.3206      3.5128     88.9461   7.8738233934e+01   5.8749920545e+01    0.3557447    0.2098853 -70.33  0.001360409    1.495    0.331
       311 -11.4700      2.2227     84.9918   7.8965954194e+01   5.9847635771e+01    0.2345794    0.1775815 -78.87 0.0002807251    1.186    0.157
       312 -12.3978     64.0163     88.7925   5.1126033497e+01   5.2536489432e+01     0.282375    0.2229223   5.18 0.0008612499    1.511    0.338
       313 -12.5956     54.9787     85.7066   5.4198690897e+01   5.4745116030e+01    0.5491895    0.4789018 -27.81  0.002076759    1.227    0.185
       314 -11.3249     56.2744     77.9987   5.1488666625e+01   5.6498389729e+01    0.2509083    0.2139671  24.91 0.0004978609    1.191    0.161
       315 -10.5022     36.5214     86.4738   6.2831159480e+01   5.6937683277e+01    0.1446857    0.1387376 -56.56 6.642254e-05    1.019    0.019
       316 -10.6397     11.7802     86.6146   7.4616995414e+01   5.8959286341e+01    0.1821735    0.1209683  32.15 0.0004086228    1.571    0.364
       317 -12.3331    134.5736     83.9881   2.6119123568e+01   3.8511742975e+01    0.2825474    0.2698036  18.82 0.0003932696    1.130    0.115
       318 -10.5648    236.8761     83.8485   8.8400348784e+00   1.6258181956e+01    0.1631381    0.1235512 -51.95 -0.000430966    1.262    0.208
       319 -11.4115    208.1611     84.1115   1.2432000443e+01   2.1696851217e+01    0.1853952    0.1418629 -55.23 0.0003267841    1.302    0.232
       320 -11.9408    164.8425     83.0947   1.9213191726e+01   3.1416922586e+01    0.2369366    0.1964612 -68.94 0.0007127172    1.299    0.230
       321 -12.5688     88.7406     79.5381   3.8631341497e+01   5.0072780821e+01    0.4276478    0.2943786 -36.82   0.00140163    1.606    0.377
       322 -11.2292     52.6261     80.0190   5.3732913563e+01   5.6544757519e+01    0.2583919    0.2141134  41.07 0.0004692577    1.218    0.179
       323 -11.1783      4.6718     80.0378   7.7269985612e+01   6.1055698218e+01    0.2573108    0.1568396 -58.58 0.0006767578    1.468    0.319
       324 -10.9433     10.4983     82.0340   7.4641810735e+01   6.0248114154e+01    0.1943827    0.1618243 -76.11  0.001114585    1.105    0.095
       325 -11.5400      8.9603     77.8164   7.4847726243e+01   6.1443289270e+01    0.3277529    0.2260828 -79.51  0.001088579    1.353    0.261
       326 -11.8103    151.8562     81.1859   2.1304617634e+01   3.4855248827e+01    0.2054041    0.1803117  22.71 0.0003478574    1.312    0.238
       327 -11.4615    155.8806     77.8148   1.9493713198e+01   3.4482134204e+01    0.2050203    0.1701854 -67.04 0.0003977223    1.274    0.215
       328 -11.9206    112.8758     78.7316   3.0404165098e+01   4.4785147765e+01    0.4050749    0.2819228  77.44  0.001656581    1.961    0.490
       329 -12.0370     75.0071     76.4882   4.2931488350e+01   5.3572166772e+01     0.296062    0.2339295 -52.83 0.0005426169    1.299    0.230
       330 -12.1240     70.9265     76.5716   4.4639485217e+01   5.4328485045e+01    0.3008099    0.2144795 -35.48 0.0008910242    1.557    0.358
       331 -11.8249    184.0122     75.3559   1.3774598569e+01   2.8252968880e+01    0.2500713    0.1948005 -38.32 0.0002216358    1.211    0.174
       332 -10.4390    129.7335     73.9644   2.4250752260e+01   4.1626708006e+01     0.180688    0.1378963 -39.00 0.0002625006    1.354    0.261
       333 -11.4117    105.0482     73.3382   3.1037844067e+01   4.7752844066e+01    0.2813822    0.2391887  81.52 0.0005672579    1.319    0.242
       334 -10.6986    124.1839     72.1329   2.5097064417e+01   4.3350753030e+01    0.2148502    0.1823699 -83.95 0.0003826974    1.305    0.234
       335 -12.4886     70.2518     70.5425   4.2946182538e+01   5.5869723724e+01    0.5213239    0.3418408  -0.34  0.001059432    2.644    0.622
       336 -11.5743      2.7585     70.8924   7.7181160207e+01   6.3524969909e+01    0.4447639    0.2264934  82.54  0.001992318    2.127    0.530
       337 -11.3029    116.0876     75.0680   2.8282890167e+01   4.4760956050e+01    0.3083467    0.2100412  56.06  0.001344186    1.457    0.314
       338 -12.8750     54.6074     68.9434   4.9498881529e+01   5.8986227564e+01    0.3672374    0.2505118  13.91  0.000851582    1.750    0.429
       339 -11.5749    162.9263     68.8865   1.5554457538e+01   3.4280778054e+01    0.2212865    0.1966927  29.48            0    1.300    0.231
       340 -11.8334    154.2813     68.3461   1.7029428009e+01   3.6503544081e+01    0.2619536    0.2349316 -69.06 0.0002511949    1.102    0.093
       341 -11.7895     47.1681     67.4072   5.2669842975e+01   6.0485192970e+01    0.3519302    0.1771575  40.13 0.0009844158    2.020    0.505
       342 -11.3745      8.4760     67.1241   7.3542973888e+01   6.4262357877e+01    0.2426639    0.1924608  25.51 0.0006027069    1.365    0.267
       343 -10.7122    101.7755     62.9791   2.8475499921e+01   5.0616601909e+01     0.207653    0.1313492 -40.61 0.0006873329    1.655    0.396
       344 -11.9239     12.2231     60.2658   7.0167484791e+01   6.5826499224e+01    0.4114718    0.2014485 -46.35  0.001867036    1.864    0.464
       345 -11.3395     46.8240     62.6301   5.1311539041e+01   6.1693620846e+01    0.2030982    0.1303123  40.53 0.0004199893    1.597    0.374
       346 -11.0815    123.0933     61.5478   2.1849583501e+01   4.5582465789e+01    0.2448326    0.1486301  55.96  0.001025158    1.581    0.367
       347 -11.3015    109.9176     60.5139   2.5095841322e+01   4.9092046805e+01    0.2395188    0.1496693  53.31 0.0003700127    1.528    0.345
       348 -11.9763     41.9069     57.7882   5.2300691401e+01   6.3545934622e+01    0.3670035    0.2939751 -29.34  0.001171906    1.277    0.217
       349 -12.4584     36.9732     55.2315   5.4193773054e+01   6.4804802792e+01    0.5088896    0.3341378 -38.92  0.001738315    1.532    0.347
       350 -11.1187    160.3256     57.6497   1.2702768307e+01   3.6714937142e+01    0.1612041     0.106333 -66.90 0.0007048603    1.757    0.431
       351 -11.2266    153.8537     56.9223   1.3635078775e+01   3.8465532508e+01    0.2705088    0.1955839 -45.07 0.0008237739    1.357    0.263
       352 -12.1880    111.3799     56.6649   2.3281459658e+01   4.9427606074e+01    0.3351033    0.2772094  79.52 0.0008715159    1.299    0.230
       353 -13.1917    115.6304     53.8764   2.1093601508e+01   4.8835421190e+01    0.4165109    0.3166373 -84.15 0.0003446731    1.593    0.372
       354 -10.4883     93.0414     57.2070   2.9232982737e+01   5.3820261183e+01    0.2097361    0.1200562  48.69  0.000404553    1.663    0.399
       355 -12.5032     23.0260     55.4793   6.2525848535e+01   6.6242917947e+01    0.3484725    0.2682281 -27.14  0.001530313    1.298    0.230
       356 -10.3676    187.6553     56.7008   8.2681321071e+00   3.0216654425e+01    0.1364048     0.107192  28.24 0.0005093446    1.676    0.403
       357 -11.4056    179.5491     56.0137   9.2014999768e+00   3.2232029350e+01    0.2028313    0.1821321  89.21  0.000135454    1.094    0.086
       358 -10.9988    133.6173     55.7757   1.7362946417e+01   4.3864585971e+01    0.2088783    0.1379666 -47.84 0.0002903914    1.558    0.358
       359 -10.8693    197.3945     54.3128   6.4027547520e+00   2.8316507340e+01    0.2271403    0.1492265 -79.07 0.0006400856    1.747    0.428
       360 -12.4083    109.1876     51.9699   2.2163472963e+01   5.0809532045e+01    0.3731185    0.2545315  65.67 0.0003411659    1.514    0.339
       361 -11.9819     99.6767     49.3374   2.3983473497e+01   5.3659965690e+01    0.2395637    0.1837373 -82.01 0.0008711431    1.657    0.396
       362 -11.7613    174.5083     51.4862   8.6498085481e+00   3.4105092965e+01    0.2205075     0.119829 -44.40 0.0008742482    1.721    0.419
       363 -12.9237     30.4804     50.0777   5.6289997572e+01   6.6805125883e+01    0.3910125    0.2642115  42.85    0.0017207    1.641    0.391
       364 -12.1155    102.0183     51.7581   2.4203277443e+01   5.2650815732e+01    0.2790456    0.1960681  64.96 0.0003171911    1.486    0.327
       365 -11.1514    211.0163     48.0392   3.3173145770e+00   2.6148271114e+01     0.193249     0.165553 -52.42 0.0003258906    1.020    0.019
       366 -11.6233     19.2498     47.7164   6.2678927498e+01   6.8463445822e+01    0.2405399    0.1803608 -54.69  0.001326774    1.231    0.188
       367 -11.1670     41.6309     46.9283   4.8437740819e+01   6.6088070910e+01    0.2962865    0.1734266  45.96 0.0008717476    1.940    0.485
       368 -11.3133    142.6312     42.9534   1.1204485456e+01   4.3476552194e+01    0.2661443   0.08049686 -49.64 0.0007035839    4.592    0.782
       369 -11.9864     23.9943     42.2696   5.7726477523e+01   6.9324636420e+01    0.1930694    0.1756262 -10.84 0.0008447159    1.052    0.049
       370 -10.5960    155.1720     41.1895   8.4806537374e+00   4.0438030538e+01    0.2010144    0.1558093 -66.06 0.0003250788    1.279    0.218
       371 -13.0351     34.5428     39.7529   4.9786364546e+01   6.8661062119e+01    0.4238587     0.348175 -75.18  0.002321711    1.525    0.344
       372 -12.2113     31.6532     32.3598   4.8378568827e+01   7.0625859283e+01    0.4331217    0.2680971  52.37  0.001996398    2.250    0.556
       373 -10.8336    113.7670     38.9627   1.5940548869e+01   5.1715404345e+01    0.2017627    0.1939882 -70.85 0.0003311595    1.079    0.073
       374 -10.6650    118.6488     38.2880   1.4504925022e+01   5.0522173617e+01     0.158187    0.1130179 -76.93 0.0004687994    1.666    0.400
       375 -10.8473     80.4893     36.4991   2.5070537398e+01   6.0507872715e+01    0.2633758    0.1341728 -47.42  0.001032928    2.294    0.564
       376 -10.8454     10.1308     36.8264   6.5788904285e+01   7.1714092242e+01     0.187642    0.1320718 -33.35 0.0003626342    1.306    0.234
       377 -10.9568      5.0460     34.3557   6.8948261187e+01   7.2567266913e+01    0.1747238    0.1516276 -17.58 0.0004024961    1.118    0.105
       378 -11.3879     14.9195     33.0802   6.0895784888e+01   7.2249302812e+01      0.19667    0.1745793 -24.36 0.0003647311    1.021    0.021
       379 -10.6848    127.9778     32.0055   1.0139493128e+01   4.8894564489e+01    0.1811383    0.1632039  78.59  0.000365795    1.015    0.015
       380 -10.9051    106.5007     32.0422   1.4987960119e+01   5.4628962504e+01     0.213414    0.1507691 -32.07  0.000517857    1.531    0.347
       381 -12.0668    248.4594    248.2942   3.6949440469e+01  -5.9813001424e+00    0.2143905    0.1308934   4.96  0.001122847    1.153    0.133
       382 -11.7356    120.9671    248.4613   6.0431238379e+01   8.5740228375e+00    0.2144549     0.147527  16.46 0.0008110527    1.315    0.240
       383 -11.4964    114.6071    248.0057   6.1733878064e+01   9.4458734691e+00    0.2834024    0.1092184 -52.49    0.0013981    3.282    0.695
       384 -10.8408     19.3201     27.8280   5.5327716291e+01   7.3024361431e+01    0.1895286    0.1626916 -76.06 0.0007329779    1.434    0.303
       385 -10.9383    116.5133     18.8025   7.2739050507e+00   5.3604955758e+01    0.1946662    0.1475816 -26.56 0.0005105457    1.471    0.320
       386 -10.1976     66.3014     23.2684   2.4168262948e+01   6.5862721004e+01     0.143855    0.1033673  25.13 0.0001723815    1.526    0.345
       387 -11.6565     85.6393     24.6600   1.7683250498e+01   6.1028804536e+01    0.2838848    0.1987796 -72.12 0.0008743233    1.964    0.491
       388 -11.3599     75.9566     14.9835   1.5975173472e+01   6.4676814949e+01    0.2218357    0.1695156 -70.52 0.0009946519    1.679    0.404
       389 -14.5930     20.4826    247.6810   8.2012702424e+01   2.0205109744e+01    0.9523408     0.337617  25.59  0.004292665    2.424    0.587
       390 -11.8638    214.8293    247.3637   4.2222753759e+01  -2.5230422003e+00    0.1818773    0.1398296   2.18 0.0003540324    1.207    0.172
       391 -10.6786    237.8165    247.5573   3.8490586053e+01  -4.8930561940e+00    0.1273668    0.0776323  26.71 0.0004667982    1.588    0.370
       392 -11.3992    106.1593    246.8707   6.3433797861e+01   1.0686772903e+01    0.1624346    0.1196426  14.87 0.0004361099    1.318    0.242
       393 -11.8466     99.3901    246.8894   6.4899191033e+01   1.1530601392e+01    0.2658478    0.1391558  22.83  0.001211565    1.709    0.415
       394 -10.3342    226.4280    246.4480   4.0163268378e+01  -3.6383276467e+00     0.105599   0.07304619   4.87  5.95876e-05    1.024    0.024
