#   1 NUMBER                 Running object number                                     
#   2 MAG_AUTO               Kron-like elliptical aperture magnitude                    [mag]
#   3 X_IMAGE                Object position along x                                    [pixel]
#   4 Y_IMAGE                Object position along y                                    [pixel]
#   5 X_WORLD                Barycenter position along world x axis                     [deg]
#   6 Y_WORLD                Barycenter position along world y axis                     [deg]
#   7 A_WORLD                Profile RMS along major axis (world units)                 [deg]
#   8 B_WORLD                Profile RMS along minor axis (world units)                 [deg]
#   9 THETA_WORLD            Position angle (CCW/world-x)                               [deg]
#  10 FWHM_WORLD             FWHM assuming a gaussian core                              [deg]
#  11 ELONGATION             A_IMAGE/B_IMAGE                                           
#  12 ELLIPTICITY            1 - B_IMAGE/A_IMAGE                                       
         1 -13.4979     57.8213     55.7624   7.9992184227e+01   5.9278279250e+01     1.711801     0.601769 -35.02  0.006026376    3.488    0.713
         2 -13.2841     84.9757     62.7758   7.2454145645e+01   5.3437565764e+01     1.847929    0.8231974 -30.57  0.006870777    2.899    0.655
         3 -13.2752     70.3816     37.7318   6.8547415535e+01   6.0229644842e+01     1.384083    0.7460182 -13.86  0.005832208    2.847    0.649
         4 -11.9973     35.7320      4.8650   6.8354152884e+01   7.0074694225e+01     0.601631    0.3655958   5.26  0.003591707    1.699    0.411
         5 -15.1020     24.0864     56.8200   9.4716427115e+01   6.3061233176e+01     1.382915     1.053077  14.94  0.008762385    1.380    0.275
         6 -14.7670     41.2181     44.5170   8.2955327013e+01   6.3572311429e+01     1.876081     1.166507   7.21  0.007334972    1.801    0.445
         7 -14.9967     11.1748     20.4947   8.8506164154e+01   7.0754685454e+01     2.277967     1.150383 -18.61   0.01240681    2.080    0.519
         8 -11.4238    156.5990      9.9191   3.8726309505e+01   4.4422425811e+01    0.2662383    0.2055118  62.50 0.0005889463    1.177    0.150
         9 -11.8260    155.5684     14.5293   4.0156115091e+01   4.4212038732e+01    0.4220846    0.2030186  60.50  0.002040992    1.776    0.437
        10 -11.6128    150.6096      9.0111   3.9292850571e+01   4.5929390796e+01    0.3981412    0.2759688 -64.50   0.00162061    1.562    0.360
        11 -10.8527    145.3045      8.1167   3.9794593355e+01   4.7270086834e+01    0.3389674     0.157398  66.24  0.001145579    1.808    0.447
        12 -12.2747    123.7936     10.9346   4.4218684606e+01   5.2071925743e+01    0.4438439    0.2985546  76.74   0.00142926    1.486    0.327
        13 -12.4773    115.6041     11.4951   4.5995377695e+01   5.3910692769e+01    0.6354045     0.459125 -35.85  0.002838214    1.580    0.367
        14 -11.4382     73.6023      1.5233   5.2451957270e+01   6.3823623089e+01    0.4031225    0.1619602  59.78 0.0006650096    2.540    0.606
        15 -13.4461    107.2238      4.0453   4.5102187704e+01   5.6467727203e+01     1.499092    0.5417415  60.70   0.00657087    2.250    0.556
        16 -13.2930     75.7210     13.5840   5.6935171346e+01   6.2272890634e+01    0.6489112    0.4754138  57.88 0.0008068046    1.458    0.314
        17 -14.5497     85.2770     10.9733   5.3029764361e+01   6.0606635800e+01     1.912313     1.024933  46.00   0.01011818    1.566    0.361
        18 -11.3618    175.4512     14.2260   3.7494334637e+01   3.9537588166e+01    0.2718202    0.2507981  -8.44  0.001147162    1.400    0.286
        19 -12.2870    185.7817     11.2535   3.5596360953e+01   3.7443833378e+01    0.3730185    0.2451272  66.43  0.002152809    1.386    0.279
        20  -9.8635    242.3477     10.1823   3.0553364294e+01   2.5351996730e+01    0.1626366   0.08014359 -48.18 0.0004516955    1.667    0.400
        21 -11.6906    178.8919      8.3654   3.5624605585e+01   3.9331532318e+01    0.2199436    0.1825167 -26.07 0.0003707644    1.481    0.325
        22 -12.1002    138.9079      4.6512   3.9712656095e+01   4.9090911949e+01    0.6686717    0.2494977  58.77  0.002619512    2.131    0.531
        23 -11.7353    188.4216      5.2860   3.3897727268e+01   3.7441262636e+01    0.2421967     0.225051 -89.97 0.0005279094    1.198    0.165
        24 -12.4409    162.9398      3.6743   3.6226738102e+01   4.3508531691e+01    0.6010641     0.369425 -89.41    0.0033044    1.578    0.366
        25 -11.0487      5.1958      4.1200   8.4617352200e+01   7.3727338828e+01    0.4395017    0.2021402 -12.46   0.00221015    2.765    0.638
        26 -10.1630    128.9341      5.3333   4.1502607209e+01   5.1373543143e+01    0.1862155    0.1370074  62.11 0.0005920302    1.144    0.126
        27  -9.9576    211.9793      1.4613   3.0999165465e+01   3.2583571510e+01    0.1728169   0.09859264  78.85 0.0004704754    1.523    0.343
        28 -12.9171     34.5385     88.4157   9.8604680397e+01   5.5259657495e+01    0.6113397    0.3837447  11.35  0.003165599    1.848    0.459
        29 -13.0871     41.0587     81.7868   9.4490494938e+01   5.6090009764e+01    0.4874158    0.3337493  16.61   0.00263704    1.594    0.373
        30 -10.6830    174.1797     89.1357   5.7292083264e+01   2.8998926220e+01    0.2053826    0.1688641 -74.44  0.000400788    1.313    0.238
        31 -13.2237      5.2007     84.6410   1.0906218743e+02   5.8322718210e+01    0.5458093     0.293376 -52.94  0.003003961    1.465    0.317
        32  -9.5096    249.4868     86.4855   4.5145893653e+01   1.3578061764e+01    0.1290757    0.1057145 -54.27 2.861586e-06    1.019    0.018
        33 -11.2029    169.9173     81.4913   5.6134484209e+01   3.1360189335e+01    0.3273353    0.2630206 -25.03  0.001672062    1.423    0.297
        34 -11.4912    122.2899     81.4882   6.7115795039e+01   4.2295235786e+01    0.2923312    0.2548148  75.53 0.0009173805    1.289    0.224
        35 -13.8451     20.2890     78.2316   1.0185785277e+02   5.8805214118e+01    0.6806114    0.3148905  27.16  0.003316589    2.364    0.577
        36 -12.4274    150.6786     74.1986   5.8109015688e+01   3.7150037465e+01     0.647341    0.4281923  -9.34  0.002344032    2.498    0.600
        37 -12.7470    135.1756     77.2892   6.2573548624e+01   4.0194408433e+01     0.682618    0.4122288 -28.81  0.001642449    1.964    0.491
        38 -14.6296     97.6145     72.7009   7.1585375153e+01   4.9155803421e+01     1.501278    0.9559779  35.60  0.003514263    1.596    0.373
        39 -11.4069    156.3258     76.4309   5.7524247677e+01   3.5433256773e+01    0.2952459    0.1354279  49.97  0.001144377    2.141    0.533
        40 -12.2842    118.9069     65.3069   6.3102866033e+01   4.6000602811e+01    0.3696166    0.2511551 -39.85  0.001070197    1.526    0.345
        41 -12.6599    118.6783     73.4765   6.5690233498e+01   4.4595767765e+01    0.4664134    0.2501569  36.99  0.001890172    2.071    0.517
        42 -12.2892    123.1520     69.8831   6.3401204624e+01   4.4253096374e+01    0.4237643    0.2661328 -40.81  0.001944817    1.641    0.391
        43 -10.8129    169.5896     71.2129   5.3472064418e+01   3.3206014933e+01    0.2701441     0.239319  54.36  0.001169889    1.153    0.133
        44 -14.2440      9.4203     64.3669   1.0320976207e+02   6.2575970201e+01     1.074081    0.6576021 -71.99   0.00600758    1.791    0.442
        45 -12.0630    203.2673    171.8187   7.0493491170e+01   6.9881985694e+00    0.3204494    0.2451517 -57.79  0.001683321    1.584    0.369
        46 -12.4413    240.9454    156.0066   6.0566841777e+01   3.4604751981e+00    0.5618628    0.2684872  38.45  0.002624295    2.435    0.589
        47 -13.2549    247.8327    143.0015   5.6889404543e+01   4.5508081297e+00     1.273068    0.5552494 -40.98  0.005845973    1.937    0.484
        48 -13.3365      3.1213     46.6033   1.0160293526e+02   6.6590067121e+01    0.6380816     0.580131 -85.89  0.002961851    1.470    0.320
        49 -11.6784    248.7392    130.3927   5.4215061808e+01   6.5223364586e+00    0.5965883    0.3376211 -47.24  0.003077466    1.598    0.374
        50 -10.9178    214.2925     61.6996   4.4135670211e+01   2.4512883118e+01     0.325339      0.21786 -37.76   0.00175075    1.479    0.324
        51 -10.9029    170.1513     62.7975   5.1118342764e+01   3.4440165620e+01     0.273876    0.2170836  84.81 0.0003527305    1.307    0.235
        52 -10.5215    165.9308     62.8613   5.1901819105e+01   3.5431119509e+01    0.2495683    0.1966289  59.47 0.0004742346    1.229    0.186
        53 -12.1055     93.0583     58.3709   6.8338405455e+01   5.2656723170e+01    0.6274297    0.2819439 -41.41  0.002575258    2.303    0.566
        54 -10.9909    117.3347     60.4064   6.1971095102e+01   4.7179408736e+01    0.2719815    0.1800288 -40.83 0.0005991094    1.581    0.368
        55 -12.7603    143.8275     75.6044   6.0037258409e+01   3.8502640649e+01    0.5540521    0.4098487 -38.98  0.002176747    1.389    0.280
        56 -11.3461    125.3480     57.2643   5.8927528107e+01   4.5880855435e+01    0.3121457    0.2339177  42.15 0.0005276181    1.306    0.234
        57 -10.3890    202.1962     61.0618   4.5608570056e+01   2.7281525812e+01    0.1877948    0.1832432 -55.13 0.0003824033    1.190    0.160
        58 -11.6379    174.4618     56.4502   4.8683460462e+01   3.4397193781e+01    0.2582051    0.2304153 -89.27 0.0002014151    1.048    0.046
        59  -9.7233    208.8600     55.3601   4.3374310703e+01   2.6643344914e+01    0.1811883    0.1134877  55.24 0.0003997646    1.711    0.416
        60 -11.0515    132.7568     53.7545   5.6074748591e+01   4.4714311177e+01    0.3446246    0.2334466  58.38 0.0009003973    1.414    0.293
        61 -10.3690    154.9999     52.0131   5.0922897820e+01   3.9699391190e+01    0.2222257     0.162329 -74.32  0.000462575    1.600    0.375
        62 -11.1013    145.5629     50.4489   5.2316306796e+01   4.2183343513e+01    0.2766304    0.2494637 -86.44 0.0006833521    1.126    0.112
        63 -11.3796    183.1781     48.4633   4.5234343691e+01   3.3505555638e+01    0.3098832     0.220768  59.09  0.001668397    1.379    0.275
        64 -11.0991    137.4122     48.4103   5.3400682189e+01   4.4414515500e+01    0.2955435    0.2228753 -78.52  0.001047429    1.629    0.386
        65 -10.5579    204.0926     43.6276   4.1234021370e+01   2.9362486502e+01    0.1850559    0.1520977  76.83  0.001121654    1.169    0.144
        66 -11.0729    157.0344     43.6649   4.8174351123e+01   4.0397072287e+01    0.3032427    0.2165659  69.99 0.0007006123    1.334    0.251
        67 -10.6081    140.7873     43.9560   5.1339958231e+01   4.4243838980e+01    0.2366746    0.1891448  59.23 0.0003656041    1.154    0.133
        68 -11.0710    122.3655     43.5412   5.5255107644e+01   4.8619364507e+01    0.2411758    0.2142688  22.01 0.0007847904    1.192    0.161
        69 -10.0017    180.5791     42.8235   4.4169016195e+01   3.4897246448e+01    0.1909194    0.1128749 -50.14 0.0004784584    1.688    0.408
        70 -12.2187    217.6734     38.3962   3.8497314736e+01   2.7063059318e+01    0.3107498    0.2442032  58.24 0.0001267986    1.450    0.310
        71 -10.8081    197.3142     40.5757   4.1348802356e+01   3.1310420844e+01    0.2206804    0.2055302 -86.60 0.0005172906    1.129    0.114
        72  -9.6464    226.0246     39.5199   3.7878695379e+01   2.5129788450e+01    0.1730518    0.1133688  77.27  0.000378846    1.486    0.327
        73 -10.4027    159.9029     36.3153   4.5612459786e+01   4.0680606297e+01    0.1882709    0.1516843  67.22 0.0002751927    1.132    0.117
        74 -11.1236    139.7693     34.8012   4.8753933298e+01   4.5694162944e+01    0.3881391    0.2005262  66.56  0.001287585    1.909    0.476
        75  -9.5602    240.5068     34.4905   3.5474660472e+01   2.2804353603e+01     0.123259   0.09621202 -67.30 0.0002574174    1.024    0.023
        76 -10.2646    175.9936     33.4798   4.2401885007e+01   3.7199061198e+01    0.2020263    0.1203459  68.07 0.0006312209    1.541    0.351
        77 -11.5503     26.9952     28.0023   8.3258510093e+01   6.8016974425e+01    0.3166501    0.2120922  28.44  0.001980087    1.547    0.353
        78 -11.4054     33.9356     30.1282   8.0744986941e+01   6.6877232572e+01    0.3466465    0.3116168   6.97  0.002161927    1.247    0.198
        79  -9.6637    104.1887     29.3777   5.4922092515e+01   5.4564364672e+01    0.1847291    0.1201682  64.69 0.0009326451    1.641    0.391
        80  -9.8574    216.2331     28.5603   3.6479453818e+01   2.8628567309e+01     0.166516    0.1044002  61.25 0.0009349046    1.656    0.396
        81  -9.4463    108.6354     27.7550   5.3224040227e+01   5.3773691585e+01    0.1396913   0.08861016  35.80 0.0006591432    1.610    0.379
        82 -11.7191    241.8002     22.6548   3.3013251292e+01   2.4015618282e+01    0.3231065    0.1917294 -65.04  0.001113936    1.448    0.309
        83 -11.9452     83.8916     22.6572   5.8091506921e+01   5.9648447735e+01    0.3900051     0.280824  32.20 0.0009149403    1.270    0.213
        84 -11.0511    148.9779     22.1514   4.3338075594e+01   4.4981332770e+01    0.2972544    0.2408813  87.05  0.001771607    1.188    0.158
        85 -10.0603    234.9494     21.4898   3.3323790245e+01   2.5538448576e+01    0.1741371    0.1037675  77.79 0.0007019413    1.584    0.369
        86  -9.4708    181.2950     20.3083   3.8337933366e+01   3.7510756855e+01    0.1222795   0.09357765  43.11 0.0003529121    1.588    0.370
        87 -11.4869    162.4957     12.9909   3.8786555515e+01   4.2721520038e+01    0.3351849    0.1411862  58.61  0.001468848    2.052    0.513
        88 -11.2183    153.1080     18.5736   4.1661029398e+01   4.4379914988e+01    0.3111133    0.1937847 -51.08  0.001415918    1.738    0.425
        89 -10.7774     58.9658    144.4971   1.0138321725e+02   3.8737116665e+01    0.2126702    0.1422678  30.87  0.001039634    1.610    0.379
        90 -11.6354     51.6102    141.9284   1.0314382491e+02   4.0302826597e+01    0.5848901    0.2106647 -63.53  0.002183444    2.491    0.599
        91 -12.3566     47.0362    142.4825   1.0459235875e+02   4.0698290610e+01    0.4760128    0.2702328  24.68  0.002223863    2.017    0.504
        92 -11.6106    191.0154    137.5166   6.5612708319e+01   1.5965174692e+01    0.3902492     0.146654  46.44  0.001384095    2.814    0.645
        93 -10.5187    208.7346     18.9779   3.5088883633e+01   3.1411452818e+01    0.2155888    0.1610085  86.83  0.001358403    1.170    0.145
        94 -10.3208     33.5032    135.5190   1.0760296434e+02   4.3885410869e+01    0.1361378    0.1194587 -79.53 0.0002587584    1.043    0.041
        95 -13.3933    203.3376    125.3654   6.0516205425e+01   1.5842401471e+01      1.04104    0.5470136 -30.62  0.004255056    2.188    0.543
        96 -12.6860    218.7899    121.9949   5.7076091411e+01   1.3409680440e+01    0.8565206    0.4926676 -43.70  0.004078766    1.563    0.360
        97 -11.5493    198.8535    108.4397   5.7429304863e+01   1.9956137822e+01    0.2969225    0.1919463 -23.74  0.001259555    1.960    0.490
        98 -10.6100    140.0141    102.9901   6.8542843951e+01   3.4055482999e+01    0.2329287    0.1885184   3.48 0.0003154323    1.585    0.369
        99 -10.7998      2.0033     95.7623   1.1203946839e+02   5.5912512589e+01     0.246995    0.1167988 -56.61  0.001272869    1.631    0.387
       100 -10.1540    201.9714     17.4793   3.5407223390e+01   3.3086522244e+01    0.1822758    0.1081492  74.78 0.0004470887    1.516    0.340
       101 -13.6201     70.2540     90.2492   8.5942065754e+01   5.0353266934e+01     1.330179    0.7813337 -41.67  0.006105286    1.650    0.394
       102  -9.2416    124.0184    205.9889   9.4248707986e+01   1.3968817984e+01    0.1605267    0.1481404  42.50            0    1.002    0.002
       103 -10.6575     73.7772     47.8660   7.1134014742e+01   5.8047796575e+01     0.226015    0.1841328   2.09  0.000565617    1.214    0.176
       104 -14.2099     58.5407     77.9493   8.6736145156e+01   5.4755479140e+01     1.316655    0.8158364 -43.02  0.006551084    1.499    0.333
       105 -10.5571    246.6795    183.1310   6.4889293306e+01  -1.8983884257e+00     0.185381    0.1352818 -28.89 0.0009598273    1.158    0.136
       106 -14.3561     72.3318     66.3926   7.8061069829e+01   5.4994792199e+01     1.235693    0.9104882 -10.21  0.006413731    1.542    0.351
       107 -13.6915     70.3756     55.2314   7.5006016526e+01   5.7383947644e+01    0.8895808    0.6946313  49.29  0.002143712    1.485    0.327
       108 -10.9145     34.5169    177.1187   1.1245571724e+02   3.3424072792e+01    0.2455051    0.1822121  -5.66  0.001337357    1.982    0.495
       109 -12.1574     79.0247     30.9988   6.2920224246e+01   5.9571928212e+01    0.6062936     0.513954 -69.61  0.002513471    1.717    0.418
