#   1 NUMBER                 Running object number                                     
#   2 MAG_AUTO               Kron-like elliptical aperture magnitude                    [mag]
#   3 X_IMAGE                Object position along x                                    [pixel]
#   4 Y_IMAGE                Object position along y                                    [pixel]
#   5 X_WORLD                Barycenter position along world x axis                     [deg]
#   6 Y_WORLD                Barycenter position along world y axis                     [deg]
#   7 A_WORLD                Profile RMS along major axis (world units)                 [deg]
#   8 B_WORLD                Profile RMS along minor axis (world units)                 [deg]
#   9 THETA_WORLD            Position angle (CCW/world-x)                               [deg]
#  10 FWHM_WORLD             FWHM assuming a gaussian core                              [deg]
#  11 ELONGATION             A_IMAGE/B_IMAGE                                           
#  12 ELLIPTICITY            1 - B_IMAGE/A_IMAGE                                       
         1 -12.5634      1.9067     85.0415   2.9227542610e+02   6.6856680715e+00   0.09190801   0.00931262 -62.60  0.003975796    9.245    0.892
         2 -14.3598      4.3867     18.7880   2.9186116049e+02   7.4179293152e+00    0.2328997   0.04141711 -58.14   0.01457954    4.328    0.769
         3 -14.0373    188.6270     22.6537   2.8975498647e+02   6.3814471321e+00   0.09884956   0.05180068 -52.40   0.00739447    1.822    0.451
         4 -13.5906    195.4549     17.7005   2.8964724822e+02   6.4001003603e+00   0.04812958   0.03879954  84.80  0.004106351    1.479    0.324
         5 -14.1353    201.5964      9.6175   2.8952910270e+02   6.4576006561e+00   0.08063976   0.05149765   1.53  0.001404667    1.889    0.471
         6 -13.4317      2.1706    126.6614   2.9251410146e+02   6.2155227108e+00   0.06975827   0.02096976 -58.27  0.005252483    2.988    0.665
         7  -9.2948    158.1435    241.8536   2.9138440089e+02   4.0796236248e+00  0.009157664   0.00725127 -28.55  0.000394411    1.310    0.237
         8 -10.5933    205.1032    249.6533   2.9088933661e+02   3.7386474709e+00   0.01060957  0.009030199 -80.28 0.0006139546    1.296    0.228
         9  -9.5946    183.8513    249.8645   2.9113506055e+02   3.8508760816e+00  0.009189101  0.007793467  66.26  0.001082273    1.347    0.258
        10 -11.1216    143.3933    249.4777   2.9159847131e+02   4.0732220140e+00   0.01738131   0.01253093  74.87  0.001527105    1.807    0.447
        11 -11.7854    146.0218    240.9828   2.9151889733e+02   4.1547284554e+00    0.0181324   0.01691862 -72.08 0.0006918018    1.128    0.113
        12  -9.5169    150.7631    239.3791   2.9145499646e+02   4.1472489253e+00  0.009786654  0.009086297  60.42 0.0007286574    1.167    0.143
        13 -11.5867    150.1655    247.9468   2.9151162228e+02   4.0539902634e+00   0.02416133   0.01532935  29.72  0.002537264    1.546    0.353
        14 -10.3498    152.7703    243.7323   2.9145716632e+02   4.0874170432e+00   0.01546769   0.01098472 -83.03  0.001071348    1.707    0.414
        15 -11.0613    134.0085    249.5945   2.9170719641e+02   4.1224329491e+00   0.02129053   0.01138608  40.81  0.002025875    1.940    0.484
        16 -11.3806    121.6646    244.9765   2.9182254174e+02   4.2408784665e+00   0.03642213   0.02160919  73.19  0.003121385    2.771    0.639
        17 -12.5186    126.3244    240.9696   2.9174563170e+02   4.2609306759e+00    0.0440353    0.0214016 -60.26  0.004062992    2.011    0.503
        18 -12.6025    110.8812    248.3429   2.9196624707e+02   4.2609752844e+00   0.07354403   0.02086927  26.91  0.005288656    3.313    0.698
        19 -10.8058     98.1383    246.4570   2.9210207430e+02   4.3507421038e+00   0.01814974   0.01451503  66.43  0.002082468    1.475    0.322
        20  -9.5326    100.6911    250.3048   2.9209497571e+02   4.2936731873e+00   0.01132429  0.008017243  27.91 0.0007607372    1.394    0.283
        21 -11.2237     87.9531    248.9090   2.9223359616e+02   4.3778655206e+00   0.02425353   0.02192765  20.92  0.001831783    1.100    0.091
        22 -11.1579     81.5477    247.0591   2.9229666039e+02   4.4331221865e+00   0.03691224   0.01565498 -70.73  0.002900279    2.982    0.665
        23 -10.4760     83.8105    242.1784   2.9224231754e+02   4.4759505398e+00   0.02132669   0.01226636 -15.12  0.001886226    2.475    0.596
        24 -11.4313     90.0475    236.2144   2.9213590198e+02   4.5096203776e+00   0.01689728   0.01479931  69.29  0.001755157    1.289    0.224
        25 -10.3140     83.4975    238.4359   2.9222423720e+02   4.5197952375e+00   0.01395263  0.009803666  41.32 0.0009356958    1.476    0.322
        26  -9.6726     86.3255    237.2766   2.9218493691e+02   4.5176587523e+00   0.01146229   0.01085601  -8.54 0.0002098957    1.032    0.031
        27  -9.6847     74.6782    250.5318   2.9239590242e+02   4.4308990187e+00   0.01373569  0.006369755  23.56  0.001210827    2.177    0.541
        28 -13.9031     46.0037    246.1809   2.9270104772e+02   4.6338322879e+00     0.058582   0.04038891  10.30  0.002909978    1.562    0.360
        29 -13.4633     48.4810    228.5465   2.9257043565e+02   4.8192462141e+00   0.05842755   0.03239731  -0.17  0.001648543    2.528    0.604
        30 -15.5416     57.4320    216.6245   2.9239821141e+02   4.9055422802e+00    0.2122982     0.175254  58.42   0.02509303    1.363    0.266
        31 -15.7014      7.2463    246.8774   2.9315161720e+02   4.8336863943e+00    0.1562826   0.06701069 -54.41   0.01362649    2.173    0.540
        32 -14.1624     12.8603    239.0042   2.9304143589e+02   4.8923502000e+00   0.07174055   0.02280554  20.45  0.003710795    3.724    0.731
        33 -11.5458    133.7963    231.1262   2.9160244781e+02   4.3315698206e+00   0.01901712   0.01029306  37.47  0.001835882    1.848    0.459
        34 -10.4541    136.1792    227.8243   2.9155583240e+02   4.3559258293e+00   0.01314388   0.01070565 -71.84 0.0008273103    1.311    0.237
        35 -10.4662    132.6557    224.6909   2.9157821822e+02   4.4101894593e+00   0.01176483   0.01114987 -30.35 0.0008851342    1.026    0.026
        36 -11.2882    135.4834    241.4801   2.9164312458e+02   4.2058770078e+00   0.01477933   0.01013169  36.05  0.001600488    1.463    0.316
        37 -12.1693    135.0605    236.7668   2.9162063634e+02   4.2612358245e+00   0.02145031   0.01677457 -75.58  0.001659233    1.409    0.290
        38 -10.5770    173.3784    240.1821   2.9119932555e+02   4.0163382177e+00   0.01525652   0.01122166  86.35  0.001009652    1.720    0.419
        39 -10.3510    116.0093    240.4222   2.9186125072e+02   4.3226053527e+00   0.01133769  0.008435383 -46.06 0.0007392952    1.318    0.242
        40 -11.1250     72.7495    237.8305   2.9234455687e+02   4.5843575494e+00   0.02769154   0.01645431 -85.23  0.002203537    2.398    0.583
        41 -11.6510     96.4918    239.1708   2.9207880265e+02   4.4416725997e+00   0.02208624   0.02021405 -77.92  0.001934203    1.170    0.145
        42 -10.6697    117.4367    224.5052   2.9175244871e+02   4.4942098739e+00   0.01288054   0.01172136 -56.56 0.0005774735    1.104    0.094
        43 -11.4508     98.8885    231.2657   2.9200535417e+02   4.5178384099e+00   0.02216034   0.01889509 -76.22  0.002668976    1.269    0.212
        44 -12.4439    110.3730    230.2280   2.9186703122e+02   4.4677564366e+00   0.03804027   0.02424078  17.82  0.002396858    1.627    0.386
        45 -11.2996    121.3972    232.6835   2.9175429444e+02   4.3807772059e+00   0.01549256   0.01252224 -19.42 0.0009730044    1.305    0.233
        46 -11.3882    142.2248    229.4579   2.9149569513e+02   4.3049679634e+00   0.02341412   0.01242361 -61.18  0.001793416    1.869    0.465
        47  -9.5146     92.4861    231.6853   2.9208154864e+02   4.5475346264e+00   0.01403111  0.006261316 -61.49  0.001223388    2.213    0.548
        48 -12.8673     42.5563    237.2323   2.9268898961e+02   4.7531558747e+00   0.02980615   0.01858999  18.20 0.0009777088    1.663    0.399
        49 -10.7920     79.3949    229.0869   2.9221732073e+02   4.6471672790e+00  0.009717259  0.008472471 -38.64  0.000889854    1.127    0.113
        50  -9.6029    211.6910    239.6838   2.9075558560e+02   3.8153076089e+00  0.006888103  0.004705254 -27.87 0.0005509118    1.633    0.388
        51 -14.7980     10.8543    206.6864   2.9287765079e+02   5.2673017244e+00     0.127399   0.09187319 -47.72   0.01427315    1.355    0.262
        52 -11.3222    241.0136    229.1078   2.9035681248e+02   3.7760132283e+00   0.01758346   0.00985775  75.35  0.001379493    3.385    0.705
        53 -10.5125    180.7983    229.4194   2.9105136872e+02   4.0975015208e+00   0.01270117  0.008482418  17.81  0.001189332    1.541    0.351
        54 -10.4619    190.8376    228.1210   2.9092827274e+02   4.0579691526e+00   0.01005753  0.009952887  17.21 0.0002900535    1.050    0.048
        55 -11.0263    165.0241    227.0570   2.9121922216e+02   4.2091502952e+00   0.01931427   0.01163761 -85.51  0.001481663    2.350    0.574
        56 -10.0394    164.1643    220.7996   2.9119275077e+02   4.2842426907e+00   0.01587903  0.007219199 -49.00  0.001162799    2.122    0.529
        57 -11.4007    221.4839    246.2114   2.9068091858e+02   3.6890017126e+00   0.02933577   0.01415145 -16.24  0.001951813    4.475    0.777
        58  -9.7292    184.6167    228.6988   2.9100322947e+02   4.0850205743e+00  0.009657155  0.005876297 -44.95 0.0008831287    1.636    0.389
        59 -10.1586     92.4504    226.5517   2.9205219126e+02   4.6055597806e+00   0.02025951  0.009827138  52.77  0.001648179    2.885    0.653
        60 -11.3704     98.5088    223.1593   2.9196270810e+02   4.6112000492e+00   0.01922063   0.01620185  10.05  0.000292516    1.199    0.166
        61  -9.8537     93.8188    217.1705   2.9198200699e+02   4.7038872296e+00   0.01583273   0.01017633 -80.49  0.001573639    1.944    0.486
        62 -10.2835    110.4993    222.5674   2.9182112393e+02   4.5533696960e+00   0.01481308   0.01228295 -33.36  0.001105275    1.212    0.175
        63 -10.4070    105.1114    222.8428   2.9188479748e+02   4.5792531064e+00   0.01525119     0.010059  -8.15 0.0008610536    1.859    0.462
        64 -11.5372    105.0330    218.9764   2.9186326403e+02   4.6232296935e+00   0.01166704   0.01106077 -56.35            0    1.072    0.067
        65 -10.4596    156.6129    231.6744   2.9134289310e+02   4.2024915785e+00   0.01129738   0.01094563  46.14 0.0005579297    1.086    0.079
        66  -8.9952    220.0328    223.5044   2.9056549029e+02   3.9523650361e+00  0.009132453  0.006290874  25.05 0.0009797108    1.439    0.305
        67  -8.7730    155.6945    223.3638   2.9130518024e+02   4.3010216915e+00  0.006827622  0.004897853  63.96 0.0007037689    1.739    0.425
        68 -10.6212    149.9922    222.4333   2.9136543841e+02   4.3422288694e+00   0.01175101  0.009636157 -50.42 0.0001492927    1.194    0.163
        69  -9.3600    149.5724    218.5570   2.9134774874e+02   4.3881430815e+00   0.01094729  0.009655839  63.43 0.0001141629    1.262    0.208
        70 -12.5726    142.0211    220.1066   2.9144372222e+02   4.4113774110e+00   0.02705076   0.01932961 -82.61  0.002901262    1.685    0.407
        71 -10.3073    141.8980    213.1248   2.9140457383e+02   4.4906694495e+00   0.01745759   0.01204162  43.05  0.001637337    1.525    0.344
        72 -10.5905    246.0015    218.9659   2.9024040186e+02   3.8631715954e+00    0.0111946  0.007400581 -27.24  0.001140837    1.728    0.421
        73 -10.4470    176.9308    218.2727   2.9103107459e+02   4.2438534080e+00   0.01839268   0.01265729  78.00  0.001170568    1.986    0.497
        74 -10.2443     89.3798    218.7790   2.9204249185e+02   4.7096340928e+00   0.01161363    0.0108552 -65.21 0.0005103025    1.106    0.096
        75 -10.9259    234.1843    217.8621   2.9036986761e+02   3.9394323119e+00   0.02535652   0.01166203  53.80  0.001740794    3.366    0.703
        76  -9.0454    133.7860    217.6296   2.9152418801e+02   4.4836314300e+00  0.009132286  0.005691656  35.15 0.0004343201    1.593    0.372
        77 -10.2719    183.3042    214.2253   2.9093416137e+02   4.2550404293e+00   0.01362935  0.009489639  51.87 0.0009043141    1.639    0.390
        78 -10.9145    101.8699    212.3275   2.9186112336e+02   4.7151449777e+00   0.02019891   0.01381357  33.41   0.00219568    1.451    0.311
        79 -10.5814     88.2863    213.1349   2.9202235324e+02   4.7790982104e+00   0.01523965   0.01243103 -33.88  0.000390841    1.235    0.190
        80 -11.2820    131.5813    211.8871   2.9151622700e+02   4.5601820109e+00   0.01239138   0.01162242 -78.89 0.0003296639    1.138    0.121
        81 -10.1309    134.4763    208.4821   2.9146309074e+02   4.5829379119e+00   0.01403316   0.01091913 -10.94  0.001083871    1.399    0.285
        82  -9.4652    152.1470    211.9044   2.9127943250e+02   4.4491838828e+00  0.009856322  0.008718254  64.32 0.0005803672    1.260    0.206
        83 -14.8191     26.0646    248.4504   2.9294389350e+02   4.7151620977e+00   0.08091021   0.04426672  11.82  0.007492808    2.142    0.533
        84 -10.1468     97.2877    207.6628   2.9188685603e+02   4.7923415961e+00   0.01174152   0.01054678  52.43 0.0005682496    1.196    0.164
        85 -11.5934     91.9987    204.9457   2.9193204526e+02   4.8513956685e+00   0.02885969   0.01589478  21.57  0.001339385    1.854    0.461
        86  -9.1988    197.7960    208.1830   2.9073218894e+02   4.2448561059e+00  0.008739333  0.007119282 -26.28 0.0003088518    1.268    0.211
        87 -10.8302    174.7087    206.0934   2.9098581834e+02   4.3929612632e+00   0.01854508  0.009813608 -46.01  0.001172165    1.878    0.468
        88 -10.9094    166.2617    204.9289   2.9107631516e+02   4.4516333599e+00   0.02340132   0.01435171 -51.39  0.001631981    1.574    0.365
        89  -9.8505    169.8633    200.6404   2.9100989197e+02   4.4804940062e+00   0.01047307  0.008403592 -46.28 0.0004866811    1.220    0.180
        90 -11.8273    246.3548    206.0855   2.9016130365e+02   4.0061716877e+00   0.02252049    0.0162299  -5.45  0.002438947    1.581    0.368
        91  -9.6327    149.2055    204.8975   2.9127257946e+02   4.5439432846e+00   0.01625892  0.008165198 -34.71  0.001395913    2.439    0.590
        92 -10.4423    126.0764    205.6069   2.9154316476e+02   4.6605607829e+00   0.01201392  0.009912964  59.32 0.0006535975    1.370    0.270
        93  -9.9199    103.5927    203.2767   2.9178872641e+02   4.8078331583e+00   0.01279383  0.009827182 -14.97 0.0009517085    1.425    0.298
        94  -9.6156     75.3668    203.8408   2.9211735088e+02   4.9532501104e+00   0.02017266  0.009316091  16.42  0.001698048    2.512    0.602
        95  -9.6336    224.8597    202.5414   2.9038790144e+02   4.1622007029e+00  0.009133679  0.008549666 -55.53 0.0004383321    1.079    0.073
        96 -10.2413    133.0586    202.9626   2.9144735058e+02   4.6527381542e+00   0.01028953  0.009160301 -58.62 0.0003038773    1.132    0.116
        97 -11.0888    134.1917    197.8200   2.9140440495e+02   4.7045519908e+00   0.01695267   0.01205023 -63.38 0.0002474318    1.431    0.301
        98 -10.9564    197.2740    200.7617   2.9069499819e+02   4.3312098163e+00   0.01936874    0.0112636  34.62  0.001411894    1.695    0.410
        99 -10.9492    108.6255    203.5404   2.9173225522e+02   4.7777817210e+00   0.02112499  0.009314393 -54.43 0.0008368551    2.122    0.529
       100  -8.7805    115.2834    200.6727   2.9163887029e+02   4.7742485040e+00  0.006557404  0.004943495  64.04 0.0004738702    1.604    0.376
       101  -8.8114    158.5258    199.5179   2.9113393928e+02   4.5542757644e+00  0.006396414  0.006262685  -9.64 9.315229e-06    1.024    0.024
       102  -9.7352    141.6731    198.3317   2.9132118095e+02   4.6584782885e+00   0.01289399  0.007728139 -27.76     0.001178    2.025    0.506
       103 -10.4238    100.6129    198.2596   2.9179393866e+02   4.8803820850e+00   0.01184116   0.01000284 -31.22 0.0002714161    1.189    0.159
       104  -9.6719     86.1653    199.0693   2.9196517988e+02   4.9489644892e+00   0.01092946  0.008163773 -50.41  0.000293487    1.305    0.234
       105 -10.3863     83.9114    193.8680   2.9196097408e+02   5.0196796273e+00   0.02101763   0.01590635   6.22  0.001201294    1.403    0.287
       106 -10.9472     57.1838    195.9689   2.9228133257e+02   5.1396149433e+00   0.02983858   0.01362643 -71.97  0.002437315    2.779    0.640
       107 -10.1388     52.6787    197.8357   2.9234410577e+02   5.1427671791e+00   0.01273792   0.01104587  44.60 0.0008438682    1.211    0.174
       108  -9.4747    192.0331    198.0304   2.9073943033e+02   4.3902465703e+00  0.009296142  0.009231558 -30.03            0    1.047    0.045
       109 -11.9617     76.9258    187.8468   2.9200656478e+02   5.1250672683e+00   0.01777008   0.01216862 -34.26 0.0008744042    1.550    0.355
       110 -11.9882     72.3439    194.7509   2.9209946553e+02   5.0719066046e+00   0.02631195   0.01665232 -30.14  0.001373799    1.802    0.445
       111  -9.2743     95.5068    196.9960   2.9184545902e+02   4.9220847539e+00  0.009755402  0.006269171 -59.48 0.0003802947    1.536    0.349
       112 -10.2507    113.5316    196.1116   2.9163256202e+02   4.8350555259e+00   0.01403149    0.0071701  39.85  0.001300361    2.006    0.502
       113 -10.7017     70.7834    190.2066   2.9209108912e+02   5.1314907225e+00   0.01143694   0.00928742 -35.37 0.0002547554    1.236    0.191
       114 -10.4666     38.5600    193.1758   2.9247990554e+02   5.2710407312e+00   0.01939585   0.01119492 -51.40  0.001944394    1.666    0.400
       115  -9.7958    177.2503    194.3559   2.9088825411e+02   4.5113956298e+00   0.01344412   0.00896312 -23.49  0.001374635    1.752    0.429
       116 -10.5819    159.4570    194.1632   2.9109206526e+02   4.6095493697e+00   0.01712298    0.0106815  37.79 0.0008980507    1.617    0.382
       117 -10.3368    120.6289    194.5433   2.9154165221e+02   4.8145083807e+00   0.02099548  0.008827972  36.66  0.001801945    2.321    0.569
       118 -10.2800    173.0171    192.8129   2.9092802463e+02   4.5516084815e+00   0.01640693  0.009150696 -47.28  0.001050922    1.759    0.432
       119  -9.4439     47.2396    192.9813   2.9237868205e+02   5.2266603054e+00   0.01021018  0.007819678 -34.43 0.0005555095    1.336    0.252
       120 -10.5712    191.4810    191.4443   2.9070744228e+02   4.4673652686e+00   0.01267336   0.01170799 -26.37 0.0005905332    1.061    0.057
       121  -9.1056    101.8343    192.1558   2.9174441135e+02   4.9425692619e+00  0.009025276  0.007144465 -30.57 0.0004025708    1.301    0.231
       122  -9.7361    135.3036    190.4760   2.9134889726e+02   4.7812715913e+00   0.01105509  0.008518661 -62.13  0.000731817    1.312    0.238
       123  -9.6174    113.0002    192.0354   2.9161500425e+02   4.8838298928e+00  0.009764569  0.009022349 -27.40 0.0003019135    1.060    0.056
       124 -11.6425    250.1755    187.7231   2.9001034032e+02   4.1920916310e+00   0.01995461   0.01381269 -51.67  0.002184227    1.403    0.287
       125  -9.4329     54.6914    188.8756   2.9226893609e+02   5.2329212625e+00   0.01105668  0.008292705   9.74 0.0003682346    1.398    0.285
       126 -10.2283     43.8574    188.7025   2.9239287908e+02   5.2930251166e+00   0.01882746    0.0111015   5.43  0.001780099    2.080    0.519
       127 -10.0500    175.7767    186.9977   2.9086239494e+02   4.6021876818e+00   0.01033642   0.00923546  21.46 0.0003844794    1.112    0.101
       128  -9.5130    124.1699    186.1799   2.9145223134e+02   4.8896356855e+00   0.01356602  0.008137084  60.10  0.001137816    2.293    0.564
       129  -9.2362     67.6154    186.7822   2.9210774797e+02   5.1870939492e+00  0.008584253  0.007669139  -1.34 0.0004004674    1.123    0.110
       130 -11.3841    249.3905    179.6921   2.8997253953e+02   4.2866810451e+00   0.02896068   0.01327737 -76.44  0.002203419    3.325    0.699
       131 -11.1040    141.1166    183.9126   2.9124374222e+02   4.8238595852e+00   0.02433964   0.01008428  44.42  0.001677072    2.782    0.641
       132  -9.3100     38.3621    184.1781   2.9243002917e+02   5.3734908409e+00   0.01031162  0.007447333 -43.18 0.0007845138    1.374    0.272
       133  -9.5569    217.3200    183.1251   2.9036153979e+02   4.4214359135e+00   0.00887379  0.008122491 -64.91 0.0004299564    1.127    0.113
       134 -10.7608     17.5864    180.8369   2.9265031995e+02   5.5225367285e+00   0.01974804  0.009066087 -43.28  0.001713397    2.288    0.563
       135 -10.0543    115.8719    181.5009   2.9152067872e+02   4.9870246961e+00   0.01287188  0.008717116  86.88  0.001285199    2.000    0.500
       136 -11.3013    104.3451    180.9423   2.9165031790e+02   5.0553705987e+00   0.01096485   0.01022512   3.78 0.0002499953    1.057    0.054
       137  -9.7964    144.3320    180.7228   2.9118813357e+02   4.8424477741e+00   0.01257084  0.007426589  38.29  0.001045982    1.711    0.416
       138 -10.0995    242.6081    179.7783   2.9005105736e+02   4.3223919131e+00  0.008894241  0.006321005 -75.67 0.0009270138    1.597    0.374
       139 -10.1889     87.0982    183.6121   2.9186468237e+02   5.1180836290e+00   0.02148133   0.01079724  26.06  0.002004894    1.956    0.489
       140 -10.2073    128.9781    179.5135   2.9135805065e+02   4.9388142021e+00   0.01181778  0.009315011 -57.75 0.0003534643    1.259    0.206
       141  -9.8022     48.2773    179.8469   2.9229054200e+02   5.3690845318e+00   0.01020814  0.008232463  33.69 0.0003888916    1.246    0.198
       142  -9.6621     37.1235    180.0908   2.9242061629e+02   5.4261900157e+00   0.00948792  0.009292332  11.34 0.0004713123    1.040    0.038
       143 -10.0899     12.2466    179.0578   2.9270161478e+02   5.5711956729e+00   0.01323702  0.008794555  15.33 0.0008419295    1.578    0.366
       144 -10.5181    181.3576    176.5978   2.9073756353e+02   4.6891444076e+00   0.02170108   0.01343389  52.39   0.00214682    1.934    0.483
       145 -11.1287     80.1587    163.7427   2.9182929296e+02   5.3792322762e+00   0.02026387   0.01439771 -11.29  0.002101223    1.629    0.386
       146 -11.4578     96.3717    159.0029   2.9161473421e+02   5.3454049598e+00   0.02210418   0.01085377 -59.67  0.002045579    1.980    0.495
       147 -10.7513     85.0407    165.9350   2.9178572023e+02   5.3282824311e+00   0.02006076   0.01025947 -62.95  0.001062975    1.978    0.494
       148 -12.0289     85.8334    175.9825   2.9183495291e+02   5.2108348355e+00   0.02299925   0.01830197  28.65  0.001276881    1.248    0.199
       149 -12.7960     90.9814    167.2206   2.9172467329e+02   5.2818450015e+00   0.03644791   0.02691987 -54.14  0.002461842    1.323    0.244
       150  -9.8766    109.1121    175.9580   2.9156638801e+02   5.0858530639e+00  0.009547755  0.008677182  67.60 0.0003363987    1.217    0.178
       151  -9.2406     67.5983    174.8130   2.9203846947e+02   5.3220357951e+00  0.009625192  0.006390836 -61.70 0.0004176866    1.511    0.338
       152 -10.6647     77.1416    175.6326   2.9193316023e+02   5.2615115505e+00   0.01111584   0.01026911 -58.91 0.0004178526    1.098    0.089
       153 -12.0284     71.9472    174.5379   2.9198671231e+02   5.3017643148e+00   0.01993574   0.01363102 -32.24 0.0006940624    1.578    0.366
       154 -11.3049     18.9474    172.9960   2.9258917574e+02   5.6035975094e+00   0.01797923   0.01295937  65.22  0.001552816    1.737    0.424
       155 -12.0519    249.0264    171.8120   2.8993076894e+02   4.3772932926e+00   0.02374183   0.01942801  24.78  0.002783433    1.213    0.176
       156 -10.2903    154.6040    172.9807   2.9102471231e+02   4.8742349839e+00   0.01600214   0.01073798 -19.84  0.000876052    1.768    0.434
       157 -10.9620     16.2727    167.5467   2.9258845098e+02   5.6793346641e+00   0.01819372   0.01087323 -84.70  0.001672462    2.348    0.574
       158  -9.8426    100.5759    170.6606   2.9163402086e+02   5.1914702487e+00   0.01190674  0.008069635  29.35  0.000799685    1.453    0.312
       159 -10.7948     68.9747    168.1183   2.9198371952e+02   5.3900618104e+00   0.01932812    0.0103657 -53.08 0.0007328878    1.779    0.438
       160 -11.0124     43.9857    169.3758   2.9227929992e+02   5.5100988983e+00   0.01667192   0.01268887 -20.71 0.0009148578    1.428    0.300
       161  -9.4727     48.4709    169.5069   2.9222831534e+02   5.4845469725e+00   0.01051331  0.007505619 -28.72  0.001115315    1.519    0.342
       162  -9.0617     36.4507    170.5210   2.9237287699e+02   5.5376282435e+00  0.006465003  0.006164521 -22.90 0.0002037953    1.016    0.016
       163 -10.2428    107.9601    168.3002   2.9153515056e+02   5.1783075607e+00   0.01912991  0.008089966  25.63  0.001549279    2.327    0.570
       164  -9.4762     58.7239    167.6567   2.9209929133e+02   5.4503355224e+00  0.008642417  0.007707039 -44.81 0.0003704026    1.098    0.089
       165 -12.3353    244.9997    162.4511   2.8992248378e+02   4.5043776914e+00    0.0220766   0.01969032 -62.63  0.002734496    1.145    0.127
       166 -12.3022    246.4017    157.2365   2.8987592889e+02   4.5554493688e+00   0.06014005   0.02364361  46.21  0.004564287    3.197    0.687
       167  -9.8513    175.9696    166.2965   2.9073962562e+02   4.8341957812e+00  0.008939872   0.00818026  25.94 0.0002800428    1.095    0.087
       168 -10.3138     47.1584    163.4544   2.9220833043e+02   5.5597845330e+00   0.01131247  0.009101289 -63.85 0.0006503885    1.269    0.212
       169  -9.6616     37.0307    162.7553   2.9232113247e+02   5.6220143123e+00  0.009914178  0.008376614  49.32 0.0007187692    1.271    0.213
       170 -10.5216     12.2283    161.3371   2.9259912401e+02   5.7709749003e+00   0.01106691  0.009600053 -62.78  0.001341824    1.174    0.148
       171 -11.2443     23.5567    149.4899   2.9239965948e+02   5.8437396494e+00   0.01732595   0.01060413 -50.83  0.001784134    1.578    0.366
       172 -13.2798     31.9097    154.7395   2.9233371447e+02   5.7397986325e+00   0.03657384    0.0333044 -34.72  0.002333033    1.074    0.069
       173 -12.8655     23.4075    154.8458   2.9243245696e+02   5.7841974689e+00   0.03392696   0.02394136  40.35 0.0009824934    1.460    0.315
       174  -9.6566     59.1161    159.7929   2.9204910425e+02   5.5368224372e+00  0.009471285  0.008478117  51.73 0.0003594385    1.199    0.166
       175  -9.5680    119.8900    159.1562   2.9134440459e+02   5.2170414605e+00  0.009232474   0.00845336  53.69 0.0002661955    1.173    0.147
       176  -9.5964     52.4291    158.2133   2.9211708886e+02   5.5905330584e+00   0.01054805   0.00855202   3.97  0.000598554    1.282    0.220
       177 -10.0849     46.6814    157.8250   2.9218115624e+02   5.6257673916e+00   0.01372849  0.007008136 -46.70  0.001276087    1.935    0.483
       178  -8.9689    115.6392    157.7467   2.9138522052e+02   5.2558138054e+00  0.006730012  0.004762048 -19.25 0.0006959927    1.617    0.381
       179  -9.6728     88.9989    156.9874   2.9168805890e+02   5.4077779562e+00  0.009722297   0.00926818 -11.03 0.0003279291    1.021    0.020
       180 -10.9567     73.0269    156.7119   2.9187071278e+02   5.4967771399e+00   0.02415914   0.01263435  19.16  0.002247664    2.027    0.507
       181 -10.0154    134.5770    155.8134   2.9115561156e+02   5.1755343325e+00   0.01194479   0.01052666  30.74  0.000366215    1.141    0.124
       182  -8.8425    228.2373    155.6078   2.9007544897e+02   4.6720406722e+00  0.006515877  0.004933511  74.30 0.0004558259    1.654    0.395
       183  -9.4114      8.6628    155.3034   2.9260529135e+02   5.8580619406e+00  0.006764621  0.004835112  57.84 0.0007038451    1.668    0.401
       184  -9.4535     62.4157    153.7383   2.9197586575e+02   5.5873022192e+00   0.01532617  0.006483833 -65.13  0.001271434    2.508    0.601
       185  -9.9858     13.7487    154.5967   2.9254249177e+02   5.8387748836e+00  0.008977455  0.005806544  35.38 0.0002792939    1.541    0.351
       186 -11.9570    249.0859    149.6137   2.8980056035e+02   4.6266626807e+00   0.06528003   0.03326616  88.06  0.004403735    4.640    0.784
       187 -10.1685    236.5532    146.1543   2.8992458092e+02   4.7334008433e+00   0.01822925   0.00888868   8.23  0.001467136    2.872    0.652
       188 -10.7518    242.1240    130.5637   2.8976945590e+02   4.8786054534e+00   0.03493015   0.01708249   0.24  0.002574249    3.601    0.722
       189 -11.6763    248.2746    141.3728   2.8976178985e+02   4.7237405025e+00   0.04309783   0.01907395  12.76  0.003361557    3.036    0.671
       190 -11.1585    248.2440    136.0159   2.8973086679e+02   4.7841527972e+00   0.02415722   0.01371181  28.95  0.002403885    1.719    0.418
       191 -11.1230    248.8698    131.8856   2.8969954705e+02   4.8272147467e+00   0.01778553   0.01572545 -52.93  0.001680496    1.120    0.107
       192 -10.3217    113.4699    152.4667   2.9137951791e+02   5.3269619408e+00   0.01463812   0.01222499  49.17 0.0009501533    1.288    0.223
       193 -11.0145    102.9578    151.3288   2.9149413892e+02   5.3963855329e+00   0.01587688   0.01354834 -40.19 0.0008755966    1.152    0.132
       194 -10.1081    105.6139    146.1959   2.9143363984e+02   5.4398920572e+00   0.01595821     0.011079 -20.78  0.001165037    1.659    0.397
       195 -10.4532     95.4098    153.0348   2.9159112598e+02   5.4178018382e+00   0.01232802  0.008804041  -2.13 0.0006792472    1.588    0.370
       196 -11.2917     56.2623    150.1052   2.9202576690e+02   5.6612878333e+00   0.01865635   0.01527241 -30.24   0.00102246    1.243    0.196
       197 -10.0132     46.4002    150.8947   2.9214416325e+02   5.7053532645e+00   0.01277399  0.009565406   9.87 0.0006386816    1.400    0.286
       198 -12.2092     66.1809    128.1488   2.9178367652e+02   5.8553043674e+00   0.02603004   0.02322165 -65.14  0.003225964    1.155    0.134
       199 -11.7256     59.0598    133.4792   2.9189686676e+02   5.8335387296e+00    0.0178266   0.01442857 -20.04   0.00121971    1.299    0.230
       200 -11.4348     27.1501    141.0303   2.9230908146e+02   5.9197763250e+00   0.01830727   0.01332188  80.94  0.001383045    1.776    0.437
       201 -11.8096     34.1822    148.3205   2.9227022999e+02   5.7999252956e+00   0.02365832   0.01461929  57.80  0.002146367    2.097    0.523
       202 -12.4300     33.7612    140.9292   2.9223217676e+02   5.8854526401e+00   0.02588268   0.01798472   5.61  0.002295192    1.593    0.372
       203 -11.6358    133.5604    142.9450   2.9109240822e+02   5.3259108590e+00   0.04027191   0.01521815 -67.68  0.003050538    3.131    0.681
       204 -12.7513    248.7446    240.1550   2.9033224205e+02   3.6099747161e+00   0.03564091   0.02581586 -72.00   0.00393395    1.508    0.337
       205 -10.7881    101.4943    241.5122   2.9203475429e+02   4.3884003431e+00    0.0213305   0.00928609 -69.16  0.001512985    2.718    0.632
       206  -9.7546    164.1457    139.6927   2.9072085521e+02   5.1975041164e+00   0.00994669  0.008809346 -79.12 0.0004015882    1.225    0.183
       207  -9.5156     53.6117    140.2165   2.9199890647e+02   5.7869187688e+00   0.00930471  0.008246083 -51.38 0.0003755297    1.114    0.102
       208 -11.7887     48.5963    138.3338   2.9204585683e+02   5.8350613149e+00   0.02687615   0.01296285  12.19  0.002252819    2.611    0.617
       209  -9.2312     18.7071    140.6848   2.9240454444e+02   5.9689389552e+00  0.006811152  0.004689599 -29.12 0.0001985203    1.598    0.374
       210 -10.1389    119.5050    137.9962   2.9122568685e+02   5.4573975330e+00   0.01845739   0.01140657 -22.01  0.001601362    2.028    0.507
       211 -11.2425    113.0807    136.3724   2.9129033578e+02   5.5102968266e+00   0.01780534   0.01414286  18.70  0.001350723    1.260    0.207
       212 -13.2939     67.3736    144.2154   2.9186331992e+02   5.6679301914e+00   0.04103917   0.02837958  59.31  0.004308625    1.778    0.438
       213 -12.9323      2.0020    109.5342   2.9241662308e+02   6.4093432597e+00   0.06444138    0.0148054 -61.87  0.004153443    4.146    0.759
       214 -10.5615     87.7492    133.3162   2.9156481018e+02   5.6811070340e+00   0.01348581  0.009299014 -45.22 0.0002162611    1.430    0.301
       215  -8.6088    156.2188    137.9962   2.9080233980e+02   5.2593913994e+00  0.008008442  0.005241455 -61.30            0    1.529    0.346
       216 -12.7223     45.2146    130.6511   2.9204025378e+02   5.9397576460e+00   0.02900678   0.02061735 -70.40  0.001962356    1.516    0.341
       217 -10.1889    118.1425    128.8074   2.9118789571e+02   5.5682027775e+00  0.009481196  0.007238248 -32.05 0.0007023786    1.357    0.263
       218 -11.3061     66.1861    135.2549   2.9182493629e+02   5.7752414982e+00   0.02341473   0.01417002  54.51  0.002260311    2.065    0.516
       219 -11.6938     32.7511    127.0643   2.9216331214e+02   6.0470552601e+00   0.01661706   0.01228652  60.15 0.0009738009    1.615    0.381
       220  -9.8842     86.2628    126.6102   2.9154294246e+02   5.7646253625e+00   0.01583995  0.009571691 -12.88  0.001049604    2.225    0.550
       221  -9.3706     83.0000    142.9794   2.9167581873e+02   5.5978274109e+00    0.0105985  0.003657861 -62.52 0.0007961548    2.899    0.655
       222 -12.1641    248.2136    101.6315   2.8953034927e+02   5.1709508821e+00   0.04336305   0.02163745 -61.78  0.004030765    2.001    0.500
       223 -11.1707    249.1092    123.8996   2.8965015122e+02   4.9157240876e+00   0.03420845   0.02051258  52.85  0.003312341    2.040    0.510
       224  -9.7951    243.2299    120.0215   2.8969515969e+02   4.9911739315e+00   0.01164638   0.00896057 -83.48 0.0009785658    1.519    0.342
       225 -10.2342    249.5273    117.8932   2.8961025401e+02   4.9809978168e+00   0.01365134   0.01103244 -47.81 0.0007572824    1.210    0.174
       226 -11.4327    248.3232    112.8875   2.8959486458e+02   5.0438049331e+00    0.0253667   0.01912342  -5.03  0.002837111    1.468    0.319
       227 -10.3852    209.7956    125.8199   2.9011396196e+02   5.1069191907e+00   0.01148773   0.01051711 -39.18 0.0004981402    1.068    0.064
       228  -9.5951    159.7027    126.3549   2.9069431691e+02   5.3716207637e+00  0.006745206  0.004920605  64.33 0.0004491331    1.696    0.410
       229  -8.7845     93.2796    127.6917   2.9146826149e+02   5.7146811866e+00  0.006456136  0.004939528  62.94 0.0003005762    1.559    0.358
       230  -9.3456    124.5818    125.5531   2.9109465885e+02   5.5701324106e+00  0.006375763  0.006174173 -22.97 2.959644e-05    1.011    0.010
       231 -12.4756     74.3411    138.8124   2.9175150503e+02   5.6913302617e+00   0.03276188   0.02486608  80.62  0.003614418    1.647    0.393
       232 -12.0952     17.6348    124.4908   2.9232291549e+02   6.1571134378e+00   0.02783595   0.01022467  43.17  0.001909508    3.101    0.678
       233  -9.5083    107.0060    130.1138   2.9132397940e+02   5.6134951539e+00   0.01648989  0.006180214  44.67  0.001227818    3.205    0.688
       234  -9.5323    238.7747    122.0316   2.8975817906e+02   4.9926958463e+00   0.01145092  0.006409027 -37.21  0.001073016    1.977    0.494
       235  -9.3057    143.4086    121.2511   2.9085244331e+02   5.5170169139e+00  0.009086782  0.006344872 -78.66 0.0009493616    1.684    0.406
       236 -10.6709     20.3792    120.9132   2.9227044492e+02   6.1826971189e+00   0.01235658  0.009411015   8.55 0.0007165506    1.376    0.273
       237  -8.8483    130.6917    119.3085   2.9098779548e+02   5.6074871411e+00  0.006628482   0.00490123  60.18 0.0002195836    1.615    0.381
       238 -12.0826     30.4797    117.5189   2.9213407970e+02   6.1667554751e+00   0.02063496   0.01571616  -8.52  0.002320822    1.446    0.308
       239 -11.0831     28.0143    114.7089   2.9214622309e+02   6.2116301911e+00    0.0171202   0.00919002  21.04 0.0003008554    1.918    0.479
       240  -9.8716     15.6622    116.7096   2.9230050700e+02   6.2553322523e+00  0.006860797  0.004735978 -24.44 0.0005310071    1.641    0.391
       241 -10.8438    168.2354    113.4468   2.9052066474e+02   5.4708077863e+00    0.0172208   0.01239859  61.77  0.001226138    1.703    0.413
       242 -10.2628     72.9671    115.0426   2.9162909442e+02   5.9664125998e+00  0.009545853  0.009057226 -15.95  0.001208517    1.025    0.024
       243  -8.8522     82.2658    114.3236   2.9151756653e+02   5.9244869285e+00  0.006736727  0.004646437 -31.78 0.0002316096    1.564    0.360
       244 -11.6868     57.2248    111.1055   2.9178794445e+02   6.0953771331e+00   0.02650254   0.01457575  22.38  0.001517937    1.842    0.457
       245 -11.0831     48.3603    143.2913   2.9207738138e+02   5.7804833535e+00   0.01691986  0.007664712  22.14  0.001467869    2.282    0.562
       246 -10.5397     61.0498    137.3284   2.9189627190e+02   5.7794897395e+00   0.01284763   0.01128183  19.75 0.0004468291    1.131    0.116
       247 -10.2088     62.2596    107.4283   2.9170841207e+02   6.1097238156e+00  0.009238449  0.005773059  36.39 0.0009435117    1.601    0.375
       248 -10.2451    134.5219    105.2611   2.9086172373e+02   5.7449457154e+00   0.01614454  0.005892091 -59.22  0.001297465    2.580    0.612
       249 -10.4798     70.0537    111.0954   2.9163975963e+02   6.0265281310e+00  0.009627934  0.009257061 -10.57 0.0003139155    1.010    0.010
       250  -9.1652    112.4755    104.4949   2.9111163800e+02   5.8724547853e+00  0.006404193  0.006256608 -12.15 0.0008100746    1.021    0.020
       251  -9.7549     63.3965     98.7276   2.9164464514e+02   6.2015796437e+00  0.009482096  0.005687189 -51.08 0.0005870649    1.608    0.378
       252  -8.8993    136.7101     94.2998   2.9077254941e+02   5.8564979786e+00  0.006483078  0.004921556  61.04 0.0002756482    1.561    0.359
       253  -9.3892     45.0040     90.2338   2.9180764791e+02   6.3960420265e+00  0.008386569  0.005353455  23.47 0.0003833746    1.563    0.360
       254  -8.9083    122.4447    144.4134   2.9122914339e+02   5.3692960000e+00  0.006345037  0.006190639   3.44 8.877343e-05    1.029    0.029
       255  -9.5413    101.9832     87.9796   2.9113648328e+02   6.1148892892e+00  0.009167466  0.009012602 -15.33 -0.003769674    1.030    0.029
       256 -11.0695    107.9210    240.4336   2.9195447584e+02   4.3659877575e+00   0.01711156   0.01096581 -65.38  0.001780159    1.617    0.382
       257 -10.6272    104.0728    238.2383   2.9198606953e+02   4.4114134694e+00   0.01318035    0.0100067 -11.17 0.0008772709    1.456    0.313
       258  -9.5671    166.0378    241.7827   2.9129311626e+02   4.0378833863e+00   0.01148816  0.007166319 -16.18  0.001092752    2.063    0.515
       259 -13.0000      3.0125    140.5052   2.9258469860e+02   6.0550542700e+00   0.04135767    0.0271924 -62.32  0.004089504    1.532    0.347
