#   1 NUMBER                 Running object number                                     
#   2 MAG_AUTO               Kron-like elliptical aperture magnitude                    [mag]
#   3 X_IMAGE                Object position along x                                    [pixel]
#   4 Y_IMAGE                Object position along y                                    [pixel]
#   5 X_WORLD                Barycenter position along world x axis                     [deg]
#   6 Y_WORLD                Barycenter position along world y axis                     [deg]
#   7 A_WORLD                Profile RMS along major axis (world units)                 [deg]
#   8 B_WORLD                Profile RMS along minor axis (world units)                 [deg]
#   9 THETA_WORLD            Position angle (CCW/world-x)                               [deg]
#  10 FWHM_WORLD             FWHM assuming a gaussian core                              [deg]
#  11 ELONGATION             A_IMAGE/B_IMAGE                                           
#  12 ELLIPTICITY            1 - B_IMAGE/A_IMAGE                                       
         1 -15.2163    187.5480     36.6205   2.9320313921e+01   3.3269816798e+01    0.9317895    0.8297369 -64.78  0.003733432    1.058    0.055
         2 -12.2346    133.5434    201.9591   7.7885144013e+01   1.5981949134e+01    0.2967771    0.2369227  34.72 0.0008703443    1.114    0.103
         3 -15.2115    181.6706    216.4778   7.0376752216e+01   7.2808589422e+00    0.8414734    0.6864895 -67.13  0.005545408    2.384    0.581
         4 -15.1386    177.0729    232.1084   7.3348754340e+01   5.8843761118e+00    0.8463396    0.4157252 -38.54  0.005100425    2.352    0.575
         5 -15.1688    174.6842    221.0221   7.2297113981e+01   7.5835337354e+00    0.8084252    0.4274141  37.81  0.004760531    1.751    0.429
         6 -14.0582    167.5382    221.9220   7.3753236746e+01   8.3789410494e+00     0.337772      0.29054   3.07   0.00176245    1.178    0.151
         7 -15.1834    180.6218    247.8648   7.4703227187e+01   3.6168368838e+00      2.70244    0.9663463  24.20   0.00163989    2.609    0.617
         8 -19.1896     73.6856    196.1212   9.1059711263e+01   2.5282780957e+01     7.026469     6.361177 -50.99   0.03801483    1.344    0.256
         9 -11.4848    180.8507    193.1005   6.6969476634e+01   1.0569303688e+01    0.3364241    0.1490838 -48.13  0.001549923    3.119    0.679
        10 -13.9551    188.7270    217.9271   6.9315637080e+01   6.2026527454e+00    0.4317313    0.1748721 -40.91  0.001626135    2.848    0.649
        11  99.0000     18.7603    189.3166   1.0430679690e+02   3.2719616126e+01    0.3257581    0.1786383 -30.41  0.001475894    3.548    0.718
        12 -14.8127    183.0603    233.5563   7.2469381130e+01   4.9892258179e+00    0.6049793    0.3955526 -24.19  0.002929141    1.616    0.381
        13 -10.7135    150.3149    235.7133   7.8775201976e+01   8.7110526698e+00    0.1286284   0.09620883 -24.57 0.0006223955    1.533    0.348
        14 -11.1530     12.0587    165.4861   1.0503047031e+02   3.8621091120e+01    0.1610284    0.1019101 -19.70 0.0008078877    2.475    0.596
        15 -10.8299     11.6211    161.5409   1.0497550413e+02   3.9580287901e+01    0.1272135    0.1034091  65.69 0.0004355064    1.027    0.027
        16 -11.7908    148.3281    229.4855   7.8410897399e+01   9.8072709272e+00    0.2601427     0.170977 -19.93 0.0006215835    1.836    0.455
        17 -11.8693     27.0148    145.9841   9.9407746645e+01   4.2022349343e+01    0.2195214    0.1734319  76.39 0.0007784656    1.135    0.119
        18 -18.9770     55.4342     78.4628   7.7726484772e+01   5.6270954081e+01     19.87299    0.9033387 -58.84   0.02437742   20.868    0.952
        19 -12.5347    159.8042    128.9487   5.8905996380e+01   2.4645361131e+01    0.4146869    0.2711759 -28.13  0.001983436    1.647    0.393
        20  -9.9875    218.2901    124.6422   4.7445865202e+01   1.4634818166e+01     0.123648   0.09228972 -52.54 0.0007027046    1.686    0.407
        21 -10.3895    222.0667    116.9690   4.5236839442e+01   1.5072606628e+01    0.1515571    0.1259752 -21.30 0.0003091299    1.014    0.014
        22 -10.5459    148.9887    212.0495   7.6036788928e+01   1.2234462448e+01    0.1429275    0.1124585  22.97   0.00031662    1.024    0.024
        23 -11.0251     32.8274    114.1287   9.4123262998e+01   4.9686892832e+01    0.2073224    0.1701445  61.43 0.0004587474    1.150    0.131
        24 -11.0615    167.2011    112.2096   5.3410729673e+01   2.6195954213e+01    0.1949494    0.1695919 -69.18 0.0005196538    1.367    0.268
        25 -10.6288     25.8059    108.4363   9.6103144541e+01   5.1876919000e+01    0.1906528    0.1403316  22.50 0.0003976716    1.476    0.322
        26 -11.9506     24.2331    104.7937   9.6277602156e+01   5.2991309260e+01     0.263985    0.2167565 -61.30 0.0009704334    1.215    0.177
        27 -11.3213     31.9651    101.5344   9.2688284977e+01   5.3138519128e+01    0.2779265    0.1481301  13.00  0.001163217    2.342    0.573
        28  99.0000    133.0452    209.8154   7.9039616088e+01   1.4770330031e+01    0.8208575    0.3385845 -34.57  0.003382505    3.869    0.742
        29 -12.6186    133.4973    197.3893   7.7259693199e+01   1.6754010292e+01    0.2579072    0.2324811 -48.91  0.000993296    1.340    0.254
        30 -11.9800    128.3779     95.3182   5.7780288918e+01   3.7834222921e+01     0.333907    0.2413112  35.42  0.001531977    1.510    0.338
        31 -11.2170     98.9183     91.2403   6.5081611740e+01   4.5127064233e+01    0.2422657    0.2064889  69.54  0.001192033    1.252    0.202
        32 -10.7855     80.6259     91.2771   7.1302353595e+01   4.8746994642e+01    0.1623852     0.117368  70.24 0.0007006782    1.695    0.410
        33 -11.6489     76.0257     86.8058   7.1740182159e+01   5.0693008790e+01    0.2589554    0.2244507 -86.87 0.0005445005    1.223    0.182
        34 -12.3400      1.6732     86.8323   1.0404065165e+02   5.9302256855e+01    0.3226418     0.119908 -66.85  0.001326002    2.269    0.559
        35 -11.1649    146.0515    208.1272   7.6099456474e+01   1.3234865436e+01    0.1807013    0.1630813 -11.62 0.0005250902    1.215    0.177
        36 -12.2553     89.8525     85.2784   6.6324597170e+01   4.8375140435e+01    0.2974899    0.2215702 -43.47 0.0006422202    1.378    0.275
        37 -10.8613    124.9575     82.7164   5.4957685642e+01   4.1181410605e+01    0.2125938    0.1978131  63.77 0.0003692376    1.081    0.075
        38 -11.7035    135.9812    227.8204   8.0656031647e+01   1.1623449702e+01    0.1870724    0.1527823 -25.44 0.0004112253    1.431    0.301
        39 -12.0317    162.1959    200.0746   7.1669693363e+01   1.2194013142e+01     0.338525     0.171282 -35.33  0.001765821    2.208    0.547
        40 -11.7565    210.8408    198.7015   6.2569056763e+01   5.7846090911e+00     0.193776    0.1522046  -3.31 0.0005130368    1.081    0.075
        41 -13.1497      6.9761     75.5063   1.0039335148e+02   6.2066247160e+01     0.274596    0.1872218 -80.19 0.0005001861    1.301    0.231
        42 -13.7945    157.0158     72.7793   4.4686516526e+01   3.5386539193e+01    0.4544191    0.4281753  85.27 0.0008775581    1.091    0.083
        43 -11.0526    102.4589     72.9480   5.8231194544e+01   4.8398216595e+01    0.3234625    0.1987752 -60.83  0.001284544    1.990    0.498
        44 -10.8009    138.4061     73.3226   4.8742488331e+01   3.9782647182e+01    0.2498595    0.1845642  83.93 0.0005304849    1.684    0.406
        45 -15.1441    169.6032     61.3867   3.9051919441e+01   3.4187380756e+01     1.123606    0.9540685 -17.20   0.00378976    1.271    0.213
        46 -13.8511    176.1139     53.1123   3.5600760109e+01   3.3833769327e+01    0.5135441    0.4775917 -21.70 0.0007960851    1.141    0.123
        47 -13.5449     12.9695     59.7390   9.4712424510e+01   6.5894410104e+01     0.390352    0.2514021  48.59  0.001356104    1.698    0.411
        48 -12.6001     17.0407     54.4867   9.1148915071e+01   6.6971121981e+01    0.2821819    0.1834275 -81.93  0.001258521    1.563    0.360
        49 -13.0310      5.1144     59.7886   9.9288031608e+01   6.6318443503e+01        0.391    0.2330884  -3.17  0.001351253    1.975    0.494
        50 -11.7568    126.0244     53.3689   4.4847639930e+01   4.6389855877e+01    0.3787467    0.2525378  82.28  0.001602332    1.882    0.469
        51 -12.7350    192.6586    194.5792   6.5043014748e+01   8.7204205989e+00    0.6893455    0.3790264 -58.32  0.002491398    6.528    0.847
        52 -10.9144    126.2490    244.9864   8.4454706634e+01   1.0395684309e+01   0.09905255   0.09116562  13.96 0.0003141276    1.259    0.206
        53 -12.0535    189.4947     14.9952   2.2856484556e+01   3.5231101003e+01    0.2049449    0.1216471 -27.85 0.0006910133    1.582    0.368
