#   1 NUMBER                 Running object number                                     
#   2 MAG_AUTO               Kron-like elliptical aperture magnitude                    [mag]
#   3 X_IMAGE                Object position along x                                    [pixel]
#   4 Y_IMAGE                Object position along y                                    [pixel]
#   5 X_WORLD                Barycenter position along world x axis                     [deg]
#   6 Y_WORLD                Barycenter position along world y axis                     [deg]
#   7 A_WORLD                Profile RMS along major axis (world units)                 [deg]
#   8 B_WORLD                Profile RMS along minor axis (world units)                 [deg]
#   9 THETA_WORLD            Position angle (CCW/world-x)                               [deg]
#  10 FWHM_WORLD             FWHM assuming a gaussian core                              [deg]
#  11 ELONGATION             A_IMAGE/B_IMAGE                                           
#  12 ELLIPTICITY            1 - B_IMAGE/A_IMAGE                                       
         1 -11.3697     29.1937     20.2483   9.7362754935e+01   6.7217175799e+01    0.8347083    0.3074853 -35.11  0.004262895    2.604    0.616
         2 -11.4997     19.6706     25.9199   1.0377504076e+02   6.7520766468e+01    0.4998744    0.4201245  -3.02  0.002989004    1.237    0.192
         3 -12.3720     10.0422     50.0509   1.1629996603e+02   6.4560449761e+01     1.035435    0.4398132 -43.89  0.005640421    1.843    0.458
         4 -10.0964     11.0123      5.9275   9.9492981687e+01   7.0903271343e+01    0.3976524    0.1906636 -11.97   0.00151483    2.343    0.573
         5 -12.5551     37.3708      5.1221   8.7630074453e+01   6.7808665905e+01    0.9929653     0.766331  12.38  0.006391392    1.054    0.051
         6  -9.9534     31.3911      5.6326   9.0253771249e+01   6.8571086052e+01    0.2010249    0.1412292   9.17 0.0004690933    1.114    0.103
         7 -10.5711     10.7672     10.3196   1.0153081763e+02   7.0412232914e+01    0.2867514    0.1700543 -10.69  0.000405934    1.449    0.310
         8 -12.1303     16.0155     11.4436   9.9539571345e+01   6.9751739578e+01    0.9230272     0.284644 -33.57  0.002185066    3.024    0.669
         9 -10.7217      5.3896     16.4044   1.0666503748e+02   7.0122165474e+01     0.480229    0.2107491  12.54  0.001325749    2.412    0.585
        10 -11.2541     23.1316     14.2144   9.7494367170e+01   6.8650126990e+01    0.6757835    0.2763028 -27.65  0.003646292    2.391    0.582
        11 -11.6236      2.9362      7.3795   1.0410418759e+02   7.1482153439e+01    0.3798011    0.1855842 -21.80  0.001286972    1.807    0.447
        12 -11.1844     11.8952     18.5396   1.0441852282e+02   6.9266681684e+01    0.5413434    0.2211363  27.24  0.003075453    2.353    0.575
        13 -10.1221     64.3322      5.0059   7.8248393385e+01   6.3574974288e+01     0.183071    0.1734578  61.64 0.0008089557    1.461    0.316
        14  -9.6393     50.3925     13.5833   8.6300033353e+01   6.5069029629e+01    0.2242183    0.1546436  12.16 0.0005768216    1.282    0.220
        15  -9.6627     59.2113      3.1908   7.9115057103e+01   6.4599376600e+01    0.1982383    0.1523748  14.55 0.0005488017    1.142    0.124
        16 -10.0383     62.9161      1.4260   7.7267449449e+01   6.4108226729e+01     0.264524     0.093452  52.10  0.001001487    2.483    0.597
        17 -11.2952     53.6390      5.2285   8.1760765253e+01   6.5345315716e+01    0.4941961    0.3170614  23.22  0.002068986    1.329    0.247
        18 -10.4390     73.3858     13.4701   7.8788504480e+01   6.1229707120e+01    0.2728177    0.1412324  28.52  0.001064386    1.969    0.492
        19 -10.3632     92.6426     17.1852   7.4901682243e+01   5.7226603359e+01    0.2556205     0.194713 -41.39  0.001402146    1.638    0.389
        20  -9.8286     67.9601      8.9535   7.8684489759e+01   6.2604672361e+01    0.1439033    0.1124265  30.10 0.0006164101    1.016    0.016
        21  -8.7770     49.6820      3.7131   8.2487656852e+01   6.6105914930e+01    0.1686184   0.09961319  19.20 0.0002936423    1.570    0.363
        22  -9.6178     61.4458      8.7906   8.0635535188e+01   6.3743053437e+01    0.1513375   0.09727402  -0.55 0.0006135913    1.632    0.387
        23 -11.1291     74.7566      5.2774   7.5337048513e+01   6.1689262977e+01    0.3210171    0.2688066  71.20  0.002248815    1.558    0.358
        24 -10.3516     70.4920      5.4834   7.6613468546e+01   6.2448085477e+01    0.1891537    0.1847254 -17.54  0.001043586    1.380    0.276
        25 -10.8890     95.0070      5.3923   7.0313905760e+01   5.7772422377e+01    0.2920201    0.1968806  68.53  0.001786846    1.572    0.364
        26  -8.3083    108.6848      1.6870   6.6237627198e+01   5.5240372949e+01    0.1242598   0.07206915  38.60 0.0004495786    1.640    0.390
        27  -8.1733    247.6794      3.6776   5.0724663549e+01   2.5170476744e+01   0.09587205   0.07949566  62.41 0.0007045189    1.674    0.402
        28  -8.7547    232.5190      6.0409   5.2214532392e+01   2.7907199545e+01    0.1559467   0.09641419 -48.28 0.0007420584    1.538    0.350
        29  -9.3027     35.1742    240.4834   1.3921011372e+02   1.9066863800e+01    0.2098843    0.1721432 -61.21 0.0007401822    1.494    0.331
        30 -11.6534    184.0910    236.5312   1.0746542191e+02  -3.1848766225e+00     1.763489    0.8064932 -32.45  0.007233725    2.803    0.643
        31 -13.7431    123.9204    203.7102   1.1515246884e+02   1.4011077432e+01     2.996525     2.747329 -28.94  0.008557994    1.230    0.187
        32 -12.7063    164.1273    201.5388   1.0550823023e+02   7.1363406560e+00      3.36278     1.715072 -23.80  0.009998664    4.628    0.784
        33 -14.0964    172.8186    179.8790   9.9302754632e+01   1.0176756723e+01     6.619566     4.034382  12.81   0.02409596    2.978    0.664
        34 -12.0586    229.6440    231.0903   9.7544664188e+01  -9.1966732332e+00    0.8749153    0.3257424 -44.89  0.002168736    2.850    0.649
        35 -11.9572    216.4047    230.5481   9.9962604984e+01  -7.1852921905e+00    0.3578757    0.3132677 -15.73 0.0005485839    1.093    0.085
        36 -11.4598    249.4469    231.9807   9.4111003883e+01  -1.2008384244e+01    0.3331175     0.323117  13.64  0.002254399    1.477    0.323
        37 -12.2634    239.6317    154.9406   8.1104475420e+01   2.7939006224e+00      1.82073     1.105277   0.86  0.006506089    4.299    0.767
        38 -12.1904    202.1730    213.8843   9.9744918898e+01  -2.0129223270e+00      1.06585    0.4793036 -41.60  0.003807396    2.176    0.540
        39 -12.8026    191.9252    214.3714   1.0192908216e+02  -3.9004705127e-01     1.615025     1.129254 -82.32  0.006943678    2.934    0.659
        40 -12.8364    206.1832    177.2563   9.1762306654e+01   4.4083814138e+00     2.551467      1.49733  -1.51  0.008171298    4.428    0.774
        41 -11.2939    246.4987    143.7365   7.7743862530e+01   3.6950673164e+00     1.227688    0.7550949  -1.89  0.004359839    4.605    0.783
        42 -11.3231    235.3849    144.1223   7.9590259821e+01   5.5857817068e+00     1.129483     0.749231 -12.04  0.005082204    2.456    0.593
        43 -12.0436    210.6800    213.7311   9.8020718913e+01  -3.3700343966e+00     1.407477    0.3055435 -46.58  0.004038549    5.118    0.805
        44 -13.8484    197.2116    195.8254   9.7305016525e+01   2.3059394346e+00     2.623864     1.821854 -27.04   0.01302332    1.524    0.344
        45 -11.5491    233.7769    210.5523   9.3032916851e+01  -6.3810590307e+00    0.4007532    0.2777304 -14.90 0.0004770027    1.478    0.323
        46 -12.5853    208.3174    200.1352   9.5904859733e+01  -4.5452766211e-01     1.655768    0.5333849 -35.95  0.004414535    3.758    0.734
        47 -13.1578    224.8353    198.9467   9.2487771947e+01  -2.9512481673e+00     2.925779     1.577994   6.33  0.009652087    4.702    0.787
        48 -12.3614    248.6350    202.3628   8.8852565461e+01  -7.1476207196e+00    0.9771835    0.3852154 -27.65  0.003549115    3.615    0.723
        49 -11.8951    248.0578    175.0841   8.3719921792e+01  -2.2963013460e+00    0.6523358    0.4443416  -9.06  0.002358173    1.908    0.476
        50 -12.5964    245.7079    165.0434   8.2130555572e+01  -9.8476315951e-02     1.822193    0.6092387 -33.56   0.00587584    3.957    0.747
        51 -11.5221    248.2031    156.0013   7.9930865138e+01   1.1499841814e+00     0.830512    0.4468447  52.53  0.003991537    2.353    0.575
        52 -12.5328    219.9587    221.7608   9.7697257383e+01  -6.2320671382e+00    0.8286396    0.8132012  50.41  0.003447983    1.354    0.261
        53 -12.2481    227.7865    218.1216   9.5546845209e+01  -6.7844318618e+00     0.652208    0.3909458 -44.70  0.002670334    1.710    0.415
        54 -14.0085    222.2085    186.1836   9.0482131947e+01  -1.4806203437e-01     1.837972      1.56093 -30.59   0.01077603    1.056    0.053
        55 -12.2334    233.5644    178.8591   8.6953147297e+01  -6.6302423520e-01     0.955239    0.4320239  43.77  0.003052506    2.511    0.602
        56 -12.1249    234.9210    170.1272   8.4969655786e+01   7.4330237705e-01     1.220671    0.6462817 -19.59  0.004464896    3.482    0.713
        57 -11.7784    225.6657    171.0388   8.6798042943e+01   2.1531893357e+00    0.7022194    0.4224534 -25.91 0.0004279205    1.925    0.481
        58 -11.9342    247.6966    184.2602   8.5563959756e+01  -3.8777531788e+00    0.7693887    0.4546832  10.35  0.003418403    2.858    0.650
        59 -13.3866    239.9548    200.7982   9.0078968779e+01  -5.6156507867e+00     1.458042    0.6456423 -41.04  0.006673928    2.014    0.504
        60 -11.6404    246.3894    191.2144   8.7125028942e+01  -4.9045725162e+00    0.3870861    0.2902288  -6.47 0.0004421804    1.431    0.301
        61 -11.7854    247.6384    224.2487   9.3051303413e+01  -1.0578984327e+01    0.4186239    0.2977239  -5.68 0.0004657398    1.349    0.259
        62 -12.3967    248.1802    214.1573   9.1121568446e+01  -9.0388232420e+00    0.5765235    0.3055111 -29.87  0.001211391    1.745    0.427
        63  -8.9989    232.0954    250.6695   1.0047689550e+02  -1.2534175622e+01    0.1675928   0.09936812  28.57 0.0004591956    1.576    0.366
        64 -10.7710    224.8193    247.8823   1.0136203502e+02  -1.1144388396e+01    0.2658564     0.180229 -30.26 0.0005628048    1.410    0.291
        65 -12.4126    210.2118    245.9795   1.0383267271e+02  -8.7888016578e+00    0.3537153     0.244936 -30.60    0.0004418    1.427    0.299
        66 -11.0975    202.5139    240.8206   1.0447010245e+02  -6.8081804793e+00    0.3988003    0.3026984 -61.24 0.0009072414    1.926    0.481
        67  -9.6076    201.7080    250.1066   1.0618137186e+02  -8.1992991603e+00    0.3285663    0.2086742  -4.30  0.001325045    1.956    0.489
        68 -11.3072    166.7167    250.5198   1.1330623014e+02  -2.8637682203e+00    0.2943211    0.1389056  34.46 0.0003479271    1.928    0.481
        69 -10.1052    152.1186    250.2091   1.1628385136e+02  -4.5366840601e-01    0.4496219    0.1779043  46.87 0.0009170818    2.584    0.613
        70 -11.8309    140.3854    246.6735   1.1822638658e+02   2.1220332381e+00     0.345279    0.2795072 -19.35 0.0004883903    1.535    0.348
        71  -8.5782    101.5163    250.7253   1.2690830595e+02   7.5958349111e+00     0.210867    0.1026563  39.25 0.0009882769    1.832    0.454
        72  -9.6759     87.4323    249.8825   1.2970453499e+02   9.9262931291e+00    0.2162718    0.1887193  32.89 0.0005929433    1.320    0.242
        73  -9.2322     72.6749    250.6016   1.3276342556e+02   1.1951195718e+01    0.2126677    0.1142153  35.48 0.0006281425    1.888    0.470
        74 -10.0376     61.3557    248.8502   1.3483923478e+02   1.3904467699e+01    0.2544675    0.2126621 -47.18 0.0008574574    1.632    0.387
        75 -10.3019     46.9881    250.3590   1.3776406059e+02   1.5508794517e+01    0.2644608    0.1597179  32.61 0.0009223925    1.915    0.478
        76 -10.1921     16.3594    249.0229   1.4332705364e+02   1.9456383049e+01    0.2951303    0.2389495  17.54  0.001113086    1.983    0.496
        77 -10.2565      8.5185    248.5989   1.4468629150e+02   2.0389825791e+01    0.2354514    0.2218852 -65.87 0.0007519833    1.580    0.367
        78  -8.9696      1.8714    250.3451   1.4593735989e+02   2.0724826935e+01    0.1518531    0.1166801  65.41  0.001123941    1.175    0.149
        79 -10.6704     10.3863    239.6514   1.4379043325e+02   2.2047922952e+01    0.3571453    0.2555918  26.28  0.002331468    1.962    0.490
        80 -10.1301    214.6499    239.3797   1.0184778890e+02  -8.3780365301e+00    0.2411117    0.1870787 -17.16  0.000247299    1.201    0.168
        81  -9.9453    134.9259    239.0404   1.1827441263e+02   4.5101243635e+00    0.2398742    0.1926999 -48.11 0.0005019894    1.378    0.274
        82  -9.7155    117.9115    238.8308   1.2191079905e+02   7.3775525482e+00    0.2846338    0.2186668 -38.58  0.001300993    1.594    0.373
        83  -9.3415     61.9924    239.3784   1.3378506722e+02   1.5819748682e+01    0.2202189    0.1629997 -56.53 0.0006066659    1.572    0.364
        84 -10.0656    219.9603    238.4645   1.0066923269e+02  -8.9996410749e+00     0.222463    0.1664244 -25.88 0.0005085067    1.253    0.202
        85 -10.3113    148.7209    238.3338   1.1520553184e+02   2.3350451898e+00    0.2434415    0.2205517   7.42 0.0002494975    1.166    0.142
        86 -11.4106    159.3338    235.7024   1.1252179882e+02   1.0569487503e+00    0.3347952    0.2712507   8.38 0.0009068956    1.353    0.261
        87  -9.8662    158.3022    229.5717   1.1174281305e+02   2.4182668716e+00    0.3154612    0.2289969 -35.47 0.0008359481    1.519    0.342
        88 -10.8773    163.3997    225.2988   1.0992536043e+02   2.3831411877e+00    0.3629835    0.3395062  79.22  0.001285341    1.236    0.191
        89  -9.6797    165.7888    220.4481   1.0857204294e+02   2.9312559879e+00    0.2675266    0.2281227  -2.45 0.0003523439    1.265    0.209
        90  -8.9706    112.1005    237.9135   1.2303832713e+02   8.5182873516e+00    0.1963112    0.1643101  -9.03 0.0005986828    1.636    0.389
        91 -10.3535     90.9192    236.0352   1.2735224304e+02   1.2289664898e+01    0.3133946    0.2488064 -39.08  0.000545514    1.651    0.394
        92  -8.4207     47.6704    238.2864   1.3656993851e+02   1.7973293842e+01    0.1335826   0.07727005  65.91 0.0002245376    1.615    0.381
        93  -9.5130     41.4124    237.0116   1.3769868072e+02   1.9045350564e+01     0.275804    0.1801502 -50.60 0.0009492793    2.000    0.500
        94 -10.1219      3.1982    236.1376   1.4486744745e+02   2.3524124823e+01    0.2883345    0.1999043 -51.48  0.001218193    2.009    0.502
        95 -10.1171     77.7199    235.7885   1.3013177107e+02   1.4343356339e+01    0.2632442    0.2334037 -86.35 0.0005228745    1.138    0.121
        96 -11.3973    177.5727    232.4391   1.0812597443e+02  -1.3770322524e+00    0.3307453    0.2551316 -19.57 0.0004399328    1.414    0.293
        97 -10.1471    139.4802    234.9616   1.1667796412e+02   4.5572816839e+00    0.2721719    0.2377178 -24.11 0.0004814745    1.320    0.242
        98  -9.4943    129.5358    235.3992   1.1890343982e+02   6.1466672190e+00     0.255723    0.2230286 -14.12 0.0005883337    1.398    0.285
        99 -11.8670    204.7181    231.8406   1.0248084483e+02  -5.6282964518e+00    0.3255995    0.2864552 -19.52 0.0004571654    1.112    0.101
       100  -9.5376    152.9635    233.0186   1.1345613851e+02   2.6529967840e+00    0.2440678    0.1985366 -45.99  0.000356737    1.329    0.247
       101  -9.4302    152.6687    227.8441   1.1267988573e+02   3.7285109836e+00    0.2881838    0.2158379 -18.94 0.0008210979    1.681    0.405
       102  -9.5964    155.2913    223.5946   1.1140003776e+02   4.1294495380e+00    0.2684674    0.2258799 -30.34 0.0005737814    1.287    0.223
       103  -9.3916    108.1873    233.4001   1.2327417650e+02   1.0105304954e+01    0.2333073    0.2043355 -32.07 0.0005613617    1.423    0.297
       104  -8.4362     64.8033    234.1671   1.3266600632e+02   1.6560456860e+01    0.1644329    0.1455102 -62.92 0.0004868843    1.327    0.246
       105 -10.1397     35.3673    231.0896   1.3838303403e+02   2.1081963124e+01    0.3834066    0.2328211 -45.39  0.001614723    2.444    0.591
       106  -9.5675    165.9229    232.3638   1.1057195512e+02   5.8405794810e-01    0.2236255    0.1911147 -29.24 0.0003549279    1.237    0.192
       107  -9.9931    123.3011    231.0843   1.1963161333e+02   8.0881739874e+00     0.321292    0.2545089 -12.51 0.0006438128    1.748    0.428
       108 -10.1998    100.1440    230.8388   1.2468790938e+02   1.1956940117e+01    0.3203421    0.2478148 -39.01 0.0008192816    1.640    0.390
       109  -9.7912     84.9044    231.8586   1.2813335793e+02   1.4120895272e+01    0.2763875    0.1933881 -53.13 0.0007152404    1.608    0.378
       110 -10.8145     54.7654    231.0655   1.3443327863e+02   1.8621209772e+01    0.3113091    0.2644417  18.89 0.0007343568    1.628    0.386
       111 -10.0901    145.4055    231.1991   1.1480411873e+02   4.3033752135e+00    0.2562034    0.2279648  19.16 0.0004820069    1.152    0.132
       112  -9.4711    133.7273    230.6355   1.1727145367e+02   6.4140369781e+00    0.2861539    0.2047994 -37.24 0.0007979175    1.654    0.396
       113  -9.6294     10.0704    231.4690   1.4330166221e+02   2.3823813732e+01    0.2408281    0.1676974  23.61  0.001324853    2.065    0.516
       114 -10.4525    113.1949    228.3409   1.2146520868e+02   1.0363984631e+01    0.3049554     0.260641 -62.43 0.0002633446    1.241    0.194
       115  -9.5026     44.4785    229.7512   1.3642301929e+02   2.0252839286e+01    0.2785282    0.1983991 -55.14  0.000900461    1.653    0.395
       116  -9.7588     78.8952    228.5719   1.2903503357e+02   1.5754800313e+01    0.2785964    0.1798611 -58.13 0.0005075583    1.628    0.386
       117  -8.8960     29.7523    229.0558   1.3932648464e+02   2.2194920275e+01    0.2162404    0.1459279 -62.42 0.0009698812    1.568    0.362
       118 -10.3734    174.3913    227.4818   1.0794840017e+02   8.3578934366e-02    0.2617989      0.22589  -7.88 0.0005065927    1.192    0.161
       119  -8.4467    130.0346    229.0063   1.1783564938e+02   7.3820475899e+00    0.1642997    0.1531943  52.17  0.000444852    1.015    0.015
       120  -9.0345    106.8055    228.2542   1.2286846880e+02   1.1437999358e+01    0.2390353    0.1929633 -43.63 0.0005474251    1.456    0.313
       121  -9.2706    109.5025    224.1951   1.2169186961e+02   1.1880408256e+01    0.2530353    0.2199457  44.53 0.0005272649    1.112    0.101
       122  -9.6916     92.7270    228.1126   1.2595690346e+02   1.3732807683e+01    0.2453183     0.219184 -54.46 0.0005130675    1.282    0.220
       123 -10.1884     67.7299    227.2115   1.3128515160e+02   1.7690217289e+01    0.2612655    0.2271692 -77.46  0.000398276    1.175    0.149
       124  -9.2053    138.9592    227.3808   1.1561236184e+02   6.1889366916e+00    0.2436231    0.1875982 -31.76 0.0005265764    1.537    0.349
       125  -9.7871     19.9053    227.2701   1.4111857997e+02   2.3697162239e+01    0.2462333    0.2075415 -48.86  0.000868868    1.642    0.391
       126  -9.5484      1.7074    227.2182   1.4457597515e+02   2.5575282965e+01    0.2053619    0.1585262 -85.91 0.0007133964    1.163    0.140
       127 -10.0019      7.5013    225.4318   1.4336948087e+02   2.5395125272e+01    0.3396067     0.274457  16.24  0.001598815    1.896    0.473
       128 -10.9633    206.5094    223.3028   1.0060341281e+02  -4.4196635945e+00     0.321692    0.2338983 -26.29  0.000520202    1.345    0.256
       129  -9.5413    120.4397    224.8565   1.1933972300e+02   9.8977969191e+00    0.2632858    0.2321044 -40.94 0.0008075624    1.287    0.223
       130 -11.8222    235.9349    226.6444   9.5586931598e+01  -9.3650961007e+00    0.3568791    0.2343105 -29.32 0.0004523435    1.372    0.271
       131  -9.7755    129.3005    224.0201   1.1722940341e+02   8.5608376124e+00    0.2772488    0.2430928 -23.30 0.0005933124    1.348    0.258
       132  -9.5723    128.7816    218.9841   1.1655058214e+02   9.7353978747e+00    0.2492809    0.2190206 -18.03 0.0005351775    1.358    0.264
       133  -9.3702    104.1984    223.9690   1.2284805854e+02   1.2805909838e+01    0.2486638    0.2103109 -56.61 0.0006563952    1.275    0.216
       134  -8.6518     89.4816    225.0121   1.2626928462e+02   1.4931195736e+01    0.1896975    0.1682323 -84.55 0.0005444756    1.109    0.098
       135  -8.8668     92.2467    221.7758   1.2522435205e+02   1.5224097538e+01    0.2033087    0.1679368 -27.14 0.0006150023    1.653    0.395
       136  -9.2450    135.5978    223.0898   1.1567514969e+02   7.6682990135e+00    0.2365468    0.2049405 -25.14 0.0006376269    1.337    0.252
       137 -10.0393     97.6548    222.3210   1.2408542219e+02   1.4237295598e+01    0.3219365    0.2281363 -44.07 0.0006310445    1.692    0.409
       138  -9.3187     82.4679    223.1108   1.2757842455e+02   1.6441652967e+01     0.230109    0.2119994 -23.45 0.0007320075    1.432    0.302
       139 -10.3956     49.6952    222.5547   1.3463119629e+02   2.1202782959e+01    0.2755764    0.2425407 -71.86 0.0004999665    1.250    0.200
       140  -9.7384    114.8918    221.9182   1.2014540909e+02   1.1478204876e+01     0.261133    0.1987225 -48.43 0.0007895739    1.442    0.307
       141  -9.4377     74.1151    222.2900   1.2932116646e+02   1.7878935856e+01    0.2266321    0.2044521 -72.61 0.0003656142    1.190    0.160
       142  -9.9163     39.8006    221.2790   1.3658569651e+02   2.2740966539e+01      0.30599    0.2345732 -37.84  0.001028919    1.920    0.479
       143  -9.5802     15.5349    221.6790   1.4154280405e+02   2.5402509557e+01    0.2799729    0.1676811 -57.08  0.001014793    1.869    0.465
       144  -9.0637     68.0188    221.3812   1.3055160308e+02   1.8970650296e+01    0.2365234     0.173691 -53.17 0.0006939213    1.543    0.352
       145 -10.2924     58.6985    220.6703   1.3250142249e+02   2.0435343363e+01    0.4455148    0.3091434  61.71  0.002498787    1.324    0.245
       146 -10.1734     56.0138    216.5992   1.3263401772e+02   2.1737716658e+01    0.2780364    0.1680234 -74.59 0.0006105046    1.554    0.356
       147  -9.2115     28.5825    221.9901   1.3896009333e+02   2.3906333067e+01    0.1825881    0.1796597  17.44  0.000564448    1.452    0.312
       148  -9.6114    140.6664    220.3423   1.1409577937e+02   7.3639082117e+00    0.2517471    0.2293797 -23.66 0.0005690643    1.214    0.176
       149  -8.6350     88.0419    220.0309   1.2593450327e+02   1.6281343772e+01    0.2002266    0.1676162 -24.23 0.0004573422    1.655    0.396
       150 -10.3509      7.7265    216.5359   1.4269024987e+02   2.7340049933e+01    0.3541957    0.2109095 -47.76  0.001560039    2.312    0.567
       151  -8.9661    136.0466    218.1773   1.1477764739e+02   8.6378414006e+00    0.2146586    0.1864102   7.14  0.000469945    1.327    0.247
       152  -8.9802     95.4750    217.9687   1.2397265092e+02   1.5572981873e+01    0.2023281    0.1340714 -62.18 0.0004794988    1.530    0.346
       153  -9.1367     77.1187    217.3709   1.2804261420e+02   1.8562489032e+01     0.220488    0.1757401 -62.18  0.000589857    1.297    0.229
       154  -9.7608     47.1362    217.8345   1.3469057642e+02   2.2613545639e+01    0.2081486    0.1517457  73.96 0.0007771591    1.223    0.183
       155  -8.9247     21.8070    217.2126   1.3992901291e+02   2.5739676434e+01    0.2255843    0.1278898 -54.01  0.001201469    2.039    0.510
       156 -10.9887    244.3522    136.9372   7.6700885716e+01   5.3266846413e+00    0.8948043    0.5263874  20.93  0.003437067    3.961    0.748
       157 -10.0048     83.0177    215.7487   1.2649977521e+02   1.8043897495e+01    0.3030331    0.2432978 -38.08 0.0007734959    1.597    0.374
       158  -8.8806     71.9035    216.8740   1.2914896993e+02   1.9447807992e+01    0.1933905    0.1850944 -53.00 0.0005682167    1.283    0.221
       159  -9.9013     30.9735    214.7979   1.3782246766e+02   2.5270769555e+01    0.3408331    0.1908031 -57.02  0.001059127    1.882    0.469
       160 -10.0595    143.4790    214.4873   1.1248128158e+02   8.1137253621e+00     0.344914    0.2800809  -9.31 0.0008595005    1.532    0.347
       161  -9.2484     90.6270    215.7029   1.2476127042e+02   1.6866941833e+01    0.2248576    0.2098273 -40.16 0.0008139601    1.291    0.226
       162 -10.0410     62.8809    213.4258   1.3074850542e+02   2.1538772920e+01     0.358009    0.2477898 -52.97 0.0009765336    1.600    0.375
       163  -9.9421     51.4032    213.3281   1.3328293919e+02   2.3109702677e+01    0.3117174    0.1919499 -57.81  0.001055234    1.665    0.399
       164 -10.1002     96.7271    212.5533   1.2291282980e+02   1.6615455570e+01    0.2881442     0.250793 -38.87  0.000653176    1.375    0.272
       165 -10.2344    117.4364    212.5654   1.1812259702e+02   1.3130487792e+01    0.2715519     0.243594  -1.14 0.0006548622    1.353    0.261
       166  -8.9759     74.2847    212.6296   1.2807639116e+02   2.0087968016e+01    0.2132528    0.1781943  29.43 0.0006238682    1.407    0.289
       167  -9.4482     78.4307    209.0642   1.2665561463e+02   2.0308387785e+01    0.2571002    0.2308999 -35.35 0.0006863745    1.399    0.285
       168  -9.4801    111.1708    213.4162   1.1970352268e+02   1.4011969578e+01    0.2589757    0.2184145 -28.28 0.0005446767    1.474    0.322
       169  -9.2885     41.0529    212.8415   1.3548655113e+02   2.4530601563e+01    0.2007209    0.1828575 -22.70  0.000754622    1.567    0.362
       170  -8.9525     88.6230    211.6340   1.2465404422e+02   1.8128704532e+01    0.1984891    0.1653452 -27.94 0.0006411484    1.600    0.375
       171  -9.5478     25.2118    210.8809   1.3867332570e+02   2.6819424813e+01    0.2787089    0.1787395 -60.93  0.001162562    1.568    0.362
       172  -9.5244     17.5704    211.2534   1.4029476393e+02   2.7546620753e+01    0.2572801     0.187056 -38.93  0.001146385    2.028    0.507
       173  -8.9708     56.1783    210.3422   1.3188592721e+02   2.3179973840e+01    0.2274338    0.1633831 -63.37 0.0006415139    1.368    0.269
       174 -10.2520     93.3586    209.2388   1.2321216381e+02   1.7933961119e+01    0.2879405     0.258856 -55.34  0.000876317    1.215    0.177
       175  -9.2609     72.7023    207.8835   1.2782173052e+02   2.1441920002e+01    0.2073346     0.195445  30.16 0.0005187932    1.280    0.219
       176  -9.2751     66.0415    206.9825   1.2923967665e+02   2.2617602139e+01    0.2087201    0.1605233 -39.07 0.0006618536    1.693    0.409
       177 -10.2475     46.6173    206.4869   1.3358726549e+02   2.5335085118e+01    0.2744089    0.2441393  18.27 0.0005290646    1.494    0.331
       178  -8.8979     31.8742    206.8819   1.3687454597e+02   2.7007907511e+01    0.1883948    0.1575369 -62.53 0.0006843063    1.320    0.242
       179 -10.1676     86.4461    205.0722   1.2422741798e+02   2.0020568019e+01    0.3125951    0.2579604 -60.40 0.0008589046    1.236    0.191
       180  -8.9982     76.7543    204.1668   1.2637858950e+02   2.1727355670e+01    0.2503641    0.1782432 -48.39 0.0006839235    1.580    0.367
       181  -8.1538     38.6781    205.6488   1.3526080814e+02   2.6506233421e+01    0.1286253   0.09350508 -45.08  0.000704811    1.749    0.428
       182 -10.0460      6.4479    204.1423   1.4200162821e+02   3.0270023884e+01    0.2740507    0.2170437   9.50 0.0008682085    1.923    0.480
       183  -9.9265     55.9488    202.3100   1.3098141540e+02   2.5124922612e+01    0.3012381    0.2179888 -46.86 0.0006062625    1.639    0.390
       184  -9.0963     92.5684    203.0307   1.2247757392e+02   1.9530450906e+01    0.2523168    0.2073273  16.53 0.0007601517    1.538    0.350
       185  -9.4579     21.0117    202.4769   1.3879875713e+02   2.9223852243e+01    0.2268386    0.1458996 -62.37  0.000622694    1.493    0.330
       186 -10.6609     98.1026    200.3959   1.2075096833e+02   1.9252552305e+01    0.3853093    0.2849877 -71.16  0.000975422    1.365    0.268
       187  -8.4597     64.3201    202.2881   1.2903737605e+02   2.3985506059e+01    0.1293556    0.1066619 -34.18 0.0003402359    1.598    0.374
       188 -10.1396     69.4163    200.2740   1.2757507968e+02   2.3746699331e+01    0.3036694    0.2359202 -50.00 0.0004039854    1.431    0.301
       189  -8.5946     33.8216    201.4120   1.3589434316e+02   2.8078391509e+01    0.1533121    0.1288682  15.46 0.0005233655    1.640    0.390
       190  -8.1634     28.6632    201.6882   1.3706161421e+02   2.8591324732e+01    0.1235225   0.09165633 -46.19  0.000704533    1.687    0.407
       191  -9.5996     80.4529    199.2618   1.2480914543e+02   2.2347976135e+01    0.2606283     0.248942 -62.45 0.0005278533    1.176    0.149
       192  -9.2268     41.2419    199.8582   1.3406058088e+02   2.7579391361e+01    0.2084284    0.1942795 -35.54 0.0007391366    1.409    0.290
       193 -12.9541    170.2525    210.6799   1.0585499230e+02   4.1170299533e+00     2.763373     1.619818 -49.77   0.01267816    1.787    0.441
       194 -10.0184    103.7880    198.2375   1.1903855739e+02   1.8813061582e+01    0.3216152    0.2566822  53.11  0.001125937    1.218    0.179
       195  -9.1032     74.9946    198.9738   1.2607163080e+02   2.3243292051e+01    0.2124312    0.1935276  89.87 0.0004392228    1.045    0.043
       196  -9.4353     49.3410    198.5994   1.3205921355e+02   2.6880509131e+01    0.2419637    0.2103789 -62.58 0.0008402257    1.236    0.191
       197  -9.8012     88.9807    196.3002   1.2231223147e+02   2.1728732280e+01    0.3854608     0.261222 -39.55 0.0009354463    1.832    0.454
       198  -8.5831     94.2682    194.5927   1.2075855722e+02   2.1284844585e+01    0.2933428    0.1438577  28.83   0.00112105    2.539    0.606
       199  -8.3671     27.5092    197.4924   1.3689670662e+02   2.9713417565e+01     0.129585    0.1070466 -85.14 3.357755e-05    1.056    0.053
       200  -8.4057     80.7461    204.4373   1.2547848526e+02   2.1057086700e+01    0.1777092     0.138404  26.07  0.000500765    1.532    0.347
       201  -9.5424     60.9278    195.8892   1.2900091915e+02   2.6008400763e+01    0.2355965    0.1827151 -68.73 0.0005374895    1.200    0.166
       202  -8.5328     54.4274    194.7165   1.3039052471e+02   2.7166942076e+01    0.1821423     0.116234 -59.65 0.0004935341    1.492    0.330
       203  -8.9570     16.9349    195.0556   1.3899512218e+02   3.1383755337e+01    0.1853681    0.1326135 -50.10 0.0005306641    1.635    0.388
       204  -8.6180     82.0937    193.9980   1.2363408645e+02   2.3376452719e+01    0.2135719    0.1717591 -28.52 0.0005214929    1.641    0.391
       205  -8.7426     74.3210    193.9693   1.2551884513e+02   2.4564403863e+01    0.2001257    0.1705735 -71.24 0.0005910469    1.114    0.102
       206  -9.2572     36.1444    193.3958   1.3450507707e+02   2.9736015014e+01    0.2349503    0.1788204 -54.33 0.0005727824    1.420    0.296
       207  -8.7512     26.8695    192.0792   1.3648477220e+02   3.1077363319e+01    0.1952652    0.1375497 -47.55 0.0006153414    1.676    0.403
       208  -9.7593     64.2571    190.2509   1.2743492950e+02   2.6931578205e+01     0.282197     0.249919  17.91 0.0004911131    1.414    0.293
       209  -8.3189     49.4959    191.5200   1.3115634326e+02   2.8584144222e+01    0.1366895    0.1188092 -83.71  8.77471e-05    1.046    0.044
       210  -8.2684      9.3166    191.2833   1.4031621558e+02   3.2995794973e+01    0.1167414      0.08417 -51.72 0.0003341683    1.582    0.368
       211  -9.0762     77.8057    189.1022   1.2394309810e+02   2.5238979893e+01    0.2624908    0.1864133 -44.68 0.0009138123    1.592    0.372
       212  -9.0789     96.7131    190.8617   1.1955307958e+02   2.1788381362e+01    0.2331335    0.2077142  18.22 0.0006103347    1.328    0.247
       213  -8.3475    101.2980    189.2854   1.1815696453e+02   2.1399610484e+01    0.1416268    0.1177472 -21.22 0.0001798073    1.550    0.355
       214  -9.0324     89.8993    188.6046   1.2086902938e+02   2.3462780522e+01     0.234432    0.1933589 -52.06 0.0005413233    1.257    0.204
       215  -8.8342     84.9478    189.3382   1.2221374662e+02   2.4074250558e+01    0.1984821    0.1842204  49.34 0.0006953166    1.140    0.122
       216  -9.0652     72.9607    188.0333   1.2497901796e+02   2.6229139753e+01    0.2162264     0.170137 -32.40 0.0005899362    1.638    0.389
       217  -8.2441      1.3463    188.2707   1.4178509857e+02   3.4398238761e+01    0.1144862    0.0818439 -50.58 0.0003051118    1.619    0.382
       218  -8.0755    113.3178    187.3069   1.1484034098e+02   1.9780140915e+01     0.148966    0.1202878 -17.08 0.0003012136    1.632    0.387
       219  -8.4087     57.0693    186.9901   1.2873802096e+02   2.8718046199e+01    0.2092835    0.1584608 -38.60 0.0006080327    1.645    0.392
       220  -8.9841     20.8229    186.2930   1.3726459174e+02   3.3090309498e+01     0.228591    0.1292872 -51.52 0.0006666026    1.888    0.470
       221  -8.1511      7.3219    186.3516   1.4031226300e+02   3.4337589732e+01    0.1257666   0.07967623 -50.96 0.0007047948    1.750    0.429
       222  -9.7602    109.5266    184.1393   1.1521116229e+02   2.1224234059e+01    0.2755598    0.2360882 -13.68 0.0007614682    1.470    0.319
       223  -8.8696     34.2985    184.8325   1.3395803010e+02   3.2028340134e+01    0.2250825    0.1643413 -27.53 0.0009209698    2.001    0.500
       224  -8.5626     26.8706    184.6782   1.3569194728e+02   3.2865610308e+01     0.181936    0.1580816 -35.97 0.0007472645    1.481    0.325
       225  -8.9005    104.0332    184.0193   1.1656308770e+02   2.2217420727e+01    0.2234858     0.213755  82.49 0.0003522985    1.027    0.026
       226  -8.5578     87.0168    184.5332   1.2092434593e+02   2.4933512566e+01    0.2074917    0.1458372  34.48 0.0005835103    1.526    0.345
       227  -8.0331     61.6754    184.6919   1.2728423981e+02   2.8666376794e+01    0.1381447    0.1058627 -35.75 0.0005111964    1.650    0.394
       228  -9.5366     95.7975    182.5939   1.1838529862e+02   2.3974475895e+01    0.3444301    0.2601642 -12.72  0.001114374    1.975    0.494
       229  -9.0037     67.4258    182.9538   1.2559765469e+02   2.8295392895e+01    0.2450407    0.2033131   5.76 0.0007510246    1.618    0.382
       230  -8.2435     72.6557    182.7086   1.2424710703e+02   2.7598350529e+01     0.140802    0.1112543 -28.60 0.0004117242    1.658    0.397
       231  -9.2591     54.9358    180.7248   1.2839865847e+02   3.0555641983e+01    0.3212464    0.1616791 -51.34  0.001260938    2.003    0.501
       232  -8.4034      9.3247    182.2886   1.3948789683e+02   3.5125801709e+01    0.1203239   0.08370127 -49.91 0.0002985967    1.609    0.378
       233  -9.6253     77.3007    180.9009   1.2278923296e+02   2.7354892364e+01     0.208575     0.172502 -64.28 0.0004872989    1.145    0.126
       234  -8.6106     46.8427    181.4153   1.3049840873e+02   3.1406426179e+01    0.1677643    0.1357234   7.40 0.0005727414    1.697    0.411
       235 -10.0155    121.0317    179.1644   1.1141535619e+02   2.0344717068e+01    0.4818819    0.2283245 -38.99  0.001673806    2.756    0.637
       236  -9.8348    135.2582    167.7397   1.0558883067e+02   2.0373544553e+01    0.3494631    0.3097288  12.76 0.0007472793    1.289    0.224
       237 -10.6377    129.9386    172.6609   1.0791789918e+02   2.0229402277e+01    0.6267409    0.2598398  36.24  0.002151669    2.619    0.618
       238  -8.6831     80.8309    184.8951   1.2253571836e+02   2.5817898515e+01    0.2172291    0.1926788 -41.48 0.0007261153    1.284    0.221
       239  -8.6710     89.9969    180.3224   1.1946553641e+02   2.5498359947e+01    0.2047567    0.1856319  41.48 0.0005722443    1.172    0.147
       240  -8.1700     14.3247    180.3276   1.3815186282e+02   3.5145961132e+01    0.1273697    0.0837279 -48.77 0.0006074395    1.696    0.410
       241  -8.6965     83.1361    179.1426   1.2101611063e+02   2.6892619175e+01    0.2139927    0.1943325 -40.47 0.0004928515    1.238    0.192
       242  -8.3521     42.4360    178.8088   1.3124337234e+02   3.2582055802e+01    0.1928687    0.1076408 -57.07 0.0005965513    1.651    0.394
       243  -8.6321     34.7994    179.4091   1.3319002857e+02   3.3304273010e+01    0.1576331     0.132536   5.08 0.0005663311    1.624    0.384
       244  -8.4840     20.0222    179.4903   1.3673544713e+02   3.4812021133e+01    0.1650717    0.1294335  30.92 0.0006522169    1.547    0.353
       245 -10.3090    134.3478    177.2216   1.0774689403e+02   1.8291074057e+01     0.351066    0.2980885 -87.75  0.000823942    1.315    0.240
       246  -8.4206    129.7970    178.1158   1.0904052000e+02   1.8948808256e+01    0.2065129    0.1837527 -11.69 0.0006608608    1.314    0.239
       247  -8.1711     62.3312    181.2677   1.2662568121e+02   2.9429787774e+01    0.1340351    0.1079154 -31.60 0.0002127893    1.582    0.368
       248  -8.8496     65.0573    177.9258   1.2543722977e+02   2.9887896160e+01      0.21782    0.1665121 -34.44 0.0006765729    1.634    0.388
       249  -9.8382    100.8921    176.1995   1.1595240980e+02   2.4692032190e+01    0.5219428    0.2962336  62.48            0    2.399    0.583
       250  -8.6154     69.1885    177.6211   1.2433632247e+02   2.9377342592e+01    0.1863632    0.1412065  17.78  0.000577635    1.697    0.411
       251  -8.2620      6.4713    177.4651   1.3967846778e+02   3.6520603358e+01    0.1259018   0.09938486 -77.36 0.0001803769    1.068    0.064
       252  -9.8491    140.1429    175.0598   1.0590079005e+02   1.7679215298e+01    0.2997201    0.2636615 -23.45 0.0004915229    1.268    0.211
       253  -8.5210    117.9232    175.5435   1.1149652652e+02   2.1800637288e+01    0.2239313    0.1515952  37.58 0.0007331559    1.520    0.342
       254  -8.6292    112.7615    175.1870   1.1273377889e+02   2.2834976379e+01    0.2069497    0.1809416 -20.65  0.000499431    1.359    0.264
       255  -8.4539     93.8456    175.3896   1.1761737344e+02   2.6092554795e+01     0.196668    0.1464776  21.89  0.000510985    1.644    0.392
       256  -8.3512     37.9844    174.8133   1.3182915312e+02   3.4085368555e+01     0.200238    0.1441725 -27.59 0.0006285158    1.952    0.488
       257  -8.0952     86.2984    174.3226   1.1938072149e+02   2.7597397951e+01    0.1478969    0.1142131 -30.26 0.0003056976    1.624    0.384
       258  -8.1129    145.6134    173.7415   1.0431259436e+02   1.6914990733e+01    0.1561285    0.1226758   2.75 0.0006970595    1.683    0.406
       259  -8.2855     51.4696    173.4453   1.2823906385e+02   3.2819626344e+01    0.1394276    0.1227103 -74.70 0.0001317897    1.045    0.043
       260  -9.4166    107.5281    171.6053   1.1338599329e+02   2.4662774380e+01    0.2969631    0.2510096 -12.55 0.0007749302    1.494    0.330
       261  -9.0014     89.8678    171.8991   1.1802355195e+02   2.7625507595e+01    0.2231503    0.1964012 -34.86  0.000539305    1.285    0.222
       262  -9.3451     76.6633    171.6138   1.2142489424e+02   2.9783620202e+01    0.2131166    0.1671695 -29.01 0.0006629892    1.607    0.378
       263  -8.9149     24.2684    172.1836   1.3489420531e+02   3.6179617073e+01    0.1931581     0.177751 -24.54 0.0007420727    1.396    0.284
       264  -9.0029    102.9085    171.1297   1.1448879973e+02   2.5600226304e+01    0.2393756    0.1851707 -22.37  0.001112207    1.701    0.412
       265  -8.0518     82.3047    171.2916   1.1989304928e+02   2.8993783139e+01     0.144057     0.114222 -28.67 0.0002991912    1.574    0.365
       266  -8.5743     62.6399    170.6538   1.2493304200e+02   3.2051781774e+01    0.2158435     0.158581 -35.51 0.0009049788    1.665    0.399
       267  -8.2679      8.6630    171.7243   1.3860181574e+02   3.7710849483e+01     0.121504    0.0835181 -47.60 0.0003911441    1.609    0.378
       268 -10.3220    142.8498    169.3272   1.0406186246e+02   1.8496938835e+01     0.433231    0.3084332  59.93  0.001322525    1.611    0.379
       269  -9.3257    119.4078    169.9427   1.1001792195e+02   2.2891304063e+01    0.2824247    0.2302334  31.87 0.0006792092    1.317    0.241
       270  -9.4145    164.7758    167.0857   9.8425119771e+01   1.4612198459e+01    0.5003122    0.2899724 -25.61  0.001659228    2.656    0.624
       271  -9.8329    170.0670    166.7806   9.7164409328e+01   1.3613436766e+01    0.3711611    0.2992057 -30.49 0.0005380777    1.311    0.237
       272  -9.1633    172.8686    162.3487   9.5582805214e+01   1.4031180454e+01    0.2492901    0.2024693  50.99 0.0005863737    1.294    0.227
       273  -9.4141    128.0809    166.0110   1.0702012736e+02   2.2191000537e+01    0.2866502    0.2502804   6.78 0.0005230049    1.358    0.264
       274  -8.7169     95.0385    169.5019   1.1623352272e+02   2.7364019785e+01     0.211267    0.1503564  37.03 0.0003949067    1.475    0.322
       275 -10.4991    150.2343    166.5524   1.0170071010e+02   1.7669561643e+01    0.6450273    0.3707276  34.79  0.002384164    1.913    0.477
       276  -8.9298     85.0301    167.5028   1.1850283695e+02   2.9515394121e+01    0.2646137    0.1942646 -43.73 0.0005987625    1.448    0.309
       277  -8.3014     37.6282    168.6823   1.3110955390e+02   3.5648543591e+01     0.139478    0.0943495 -38.78  0.000703369    1.794    0.443
       278  -8.0995    100.3259    167.2843   1.1442829433e+02   2.7010050225e+01    0.1495724     0.120662 -18.35 0.0003571126    1.603    0.376
       279  -8.3650     44.4379    170.7772   1.2965759199e+02   3.4345997776e+01    0.1911479    0.1101597 -56.16 0.0004880975    1.587    0.370
       280  -8.2018      9.0045    167.5030   1.3808236354e+02   3.8698038443e+01    0.1551045   0.09641036 -30.83 0.0006377232    2.309    0.567
       281  -8.9831    106.8403    166.3771   1.1254736427e+02   2.6082047219e+01    0.2064466    0.1488263  25.18 0.0004761476    1.644    0.392
       282  -8.5792     90.8091    166.2431   1.1674060707e+02   2.8890148728e+01    0.2008705     0.176122 -25.32 0.0006361195    1.340    0.254
       283  -8.2885     58.9726    165.5308   1.2508422249e+02   3.3839177679e+01    0.1799663    0.1240891 -13.20 0.0007392527    2.319    0.569
       284  -8.4595     44.8822    165.3741   1.2877177032e+02   3.5645629639e+01    0.1713939    0.1340586   4.32 0.0005592018    1.736    0.424
       285  -9.4398    159.9769    163.1984   9.8689587626e+01   1.6467066108e+01    0.3463886    0.2465191  28.18 0.0007732589    1.629    0.386
       286  -9.5425    163.7270    160.1342   9.7157879859e+01   1.6395823924e+01    0.2786682    0.2470344   4.18 0.0004878022    1.291    0.225
       287  -9.7910    120.3470    163.3429   1.0843355713e+02   2.4326638222e+01     0.287764    0.2796519 -20.14 0.0005423113    1.108    0.098
       288  -8.4473     95.7647    164.3997   1.1507728410e+02   2.8518386774e+01    0.1969711    0.1493306  23.04 0.0004341474    1.571    0.364
       289  -8.6725     80.8197    163.6823   1.1893242446e+02   3.1144755607e+01    0.2170188    0.1874952  -1.56 0.0006456117    1.450    0.310
       290  -8.2281     64.3897    164.2839   1.2343917790e+02   3.3417703889e+01    0.1452606    0.1083042 -27.23 0.0007004368    1.750    0.429
       291  -8.8259    111.3219    163.1670   1.1073517904e+02   2.6061105163e+01    0.2519237    0.2129154  21.06 0.0006067877    1.362    0.266
       292 -10.8343    213.3525    160.4162   8.6872313808e+01   6.4675668093e+00    0.3677045    0.2948696 -44.10 0.0009304641    1.142    0.124
       293  -8.3458    168.4579    162.5107   9.6603216436e+01   1.4893023174e+01    0.1537623    0.1479757 -33.62 0.0001114504    1.035    0.034
       294  -7.6719     99.3169    162.3117   1.1372763391e+02   2.8427649627e+01    0.1533114    0.1199338 -22.26 0.0003224424    1.641    0.391
       295 -10.5738    205.7268    159.4237   8.8118192502e+01   8.1178988224e+00    0.3388811    0.2936547  28.49 0.0005620419    1.269    0.212
       296  -8.8104    147.0552    161.1573   1.0130187162e+02   1.9570962201e+01    0.2331136    0.2096529  -3.44 0.0004580785    1.271    0.213
       297  -9.2793    139.3147    161.2896   1.0321866552e+02   2.1103457154e+01    0.2851615    0.1918099  29.57 0.0006469798    1.721    0.419
       298  -8.3526    133.1347    161.6191   1.0482510936e+02   2.2257518900e+01    0.2111309    0.1502231  28.26 0.0005214915    1.619    0.382
       299  -9.0770    153.2892    160.1064   9.9582254680e+01   1.8543773450e+01    0.2526564    0.2149823  23.15 0.0004808902    1.313    0.238
       300  -7.9658    129.2742    160.3676   1.0552958609e+02   2.3320517119e+01    0.1601848    0.1225429 -21.55 0.0004881069    1.673    0.402
       301  -8.3050    124.5147    160.4251   1.0675321690e+02   2.4236363324e+01    0.1536128    0.1512646 -60.86 0.0001921753    1.038    0.037
       302  -8.3941     84.9907    160.5035   1.1722072499e+02   3.1284964573e+01    0.1939408    0.1352068  -2.90 0.0007027596    2.326    0.570
       303  -9.3753    159.1313    158.2297   9.7798849330e+01   1.7774402660e+01    0.2951838    0.2560954  -6.19 0.0005510426    1.354    0.261
       304  -8.0932     74.3286    159.2828   1.1988788312e+02   3.3248340705e+01    0.1450261    0.1123024 -27.31 0.0002521512    1.605    0.377
       305 -12.4332    244.8975    240.9290   9.6484390192e+01  -1.2763549211e+01     1.072242    0.7349404 -42.25  0.006643518    1.639    0.390
       306 -10.1226    176.9213    156.9897   9.3518659464e+01   1.4385753264e+01    0.3170912    0.2801677 -17.64 0.0004443668    1.238    0.192
       307  -9.3116    168.2407    157.7405   9.5606689744e+01   1.6005769758e+01    0.2839901    0.2104693  30.17 0.0006803282    1.526    0.345
       308  -9.2277    134.6303    154.7648   1.0296152561e+02   2.3598524687e+01     0.236506     0.221408 -10.76 0.0006468485    1.178    0.151
       309  -8.0597     90.2919    158.3013   1.1536306527e+02   3.0971202652e+01    0.1489922    0.1165001 -26.97 0.0002243545    1.568    0.362
       310  -8.6355     78.6552    158.7016   1.1860279068e+02   3.2737603730e+01    0.1495826    0.1138278 -25.66 0.0007035532    1.675    0.403
       311  -8.2273     69.6443    158.6849   1.2105711757e+02   3.4088065563e+01    0.1502062    0.1094315 -29.10 0.0007045048    1.743    0.426
       312  -8.2495     55.4757    158.4669   1.2487786235e+02   3.6077528212e+01    0.1427989     0.125981 -62.31 0.0002327005    1.069    0.064
       313  -9.9978     24.8855    155.8277   1.3268482845e+02   4.0142753305e+01    0.2686259    0.1889682 -34.10  0.001484412    1.729    0.422
       314  -9.0334    136.3040    157.9633   1.0324398223e+02   2.2499210271e+01    0.2202802    0.1975877 -47.58 0.0004030941    1.103    0.093
       315  -8.8558    149.9191    156.9649   9.9694200914e+01   1.9963665826e+01    0.2823442    0.2105174 -55.74  0.001020995    1.349    0.259
       316  -8.3855    105.9876    156.9790   1.1087377223e+02   2.8568255759e+01    0.1831416    0.1743885  55.15 0.0004118845    1.078    0.073
       317 -10.2150    197.5159    154.7666   8.8731488889e+01   1.0689524203e+01    0.3089013    0.2727661  -4.03  0.000473746    1.282    0.220
       318  -7.9488    168.3229    150.2939   9.3925715289e+01   1.7653809696e+01    0.2515649    0.1447938 -41.65 0.0003058189    1.726    0.421
       319  -8.8443    164.0437    156.2276   9.6223504125e+01   1.7213702711e+01    0.2124695    0.1877481  79.25 0.0007012102    1.260    0.206
       320  -9.2322    166.0327    153.2502   9.5106874960e+01   1.7470989553e+01    0.4301613    0.2304846  48.59  0.001700273    1.965    0.491
       321  -8.5891    141.2129    156.5897   1.0172663887e+02   2.1832717038e+01    0.2075958     0.152439  29.42 0.0004324531    1.542    0.352
       322  -9.9621    127.9559    155.5347   1.0482162251e+02   2.4746042625e+01    0.3495394    0.2850788  82.43    0.0011249    1.441    0.306
       323  -8.8815     99.4909    156.1623   1.1244822213e+02   2.9931811913e+01    0.2322406    0.2066703 -16.77 0.0005107498    1.311    0.237
       324  -9.8261    216.4890    154.3140   8.5001292652e+01   7.0975133714e+00    0.2559532    0.2418149  30.57 0.0002919815    1.167    0.143
       325  -8.6305    154.8595    155.1978   9.8126993910e+01   1.9352541660e+01    0.2098189    0.1857338  -3.52 0.0004786598    1.311    0.237
       326  -9.1435    113.6631    155.0666   1.0843497725e+02   2.7621292856e+01     0.222126    0.1954391 -47.73     0.000602    1.127    0.113
       327  -8.6902     17.6070    154.7315   1.3444782952e+02   4.1070904143e+01    0.1884765    0.1066638 -79.92 0.0009506034    1.619    0.382
       328  -8.5120    211.7662    154.0541   8.5821233995e+01   8.0482556491e+00    0.1978062    0.1756966 -37.07  0.000383399    1.052    0.049
       329  -9.4243    206.3212    152.4159   8.6500581324e+01   9.4362156059e+00    0.2524734    0.2204945  -8.15 0.0004442309    1.299    0.230
       330  -8.9726    192.8707    152.7938   8.9236183983e+01   1.2036360166e+01    0.2193011    0.1996321  -7.07 0.0005023829    1.210    0.173
       331  -8.0673     91.4742    153.5426   1.1409603606e+02   3.1965920101e+01    0.1517632    0.1425646 -74.91 0.0003642799    1.019    0.019
       332  -8.9149    171.6648    152.0694   9.3579850524e+01   1.6559685753e+01    0.2609386    0.2146973   9.31  0.000535071    1.512    0.339
       333  -9.9588    144.9919    151.2844   9.9617809793e+01   2.2304455568e+01    0.3221744    0.2857156  45.13 0.0003962873    1.153    0.133
       334  -9.5018    143.2817    147.0567   9.9076562506e+01   2.3646647725e+01    0.3277144    0.2291056 -44.08 0.0006545564    1.418    0.295
       335  -8.9871    107.9200    151.3287   1.0916595390e+02   2.9611318071e+01    0.2497889    0.2111837 -69.75 0.0004180357    1.199    0.166
       336  -8.0840     85.3309    152.2778   1.1553419909e+02   3.3297807632e+01    0.1482538    0.1165799 -21.56 0.0003034528    1.600    0.375
       337  -9.8126    221.6781    150.8017   8.3322658935e+01   6.8175296235e+00    0.2641969    0.2092032  19.71 0.0008030458    1.581    0.368
       338  -9.3136    157.5659    150.9226   9.6531757170e+01   1.9768454913e+01    0.2805122    0.2222052  22.83 0.0006071388    1.498    0.332
       339  -9.0292    152.1139    151.1014   9.7858838207e+01   2.0867230110e+01    0.2347346    0.2098083 -10.31 0.0003343501    1.278    0.218
       340 -10.3217    137.4464    135.6749   9.7868704533e+01   2.7511227218e+01    0.4855182    0.3300684   0.74  0.001401582    2.707    0.631
       341 -11.3854    133.1320    146.8753   1.0157166075e+02   2.5779508094e+01    0.8032743    0.5160573 -62.03  0.002743918    1.738    0.425
       342  -8.2671     48.3012    151.3452   1.2567315307e+02   3.8756883646e+01    0.1456484   0.09660657 -39.23 0.0005860809    1.682    0.406
       343  -9.0024    212.0639    150.0676   8.4912919338e+01   8.7944753672e+00    0.2144116    0.1843552 -20.84 0.0003921337    1.250    0.200
       344 -10.0781    215.2608    146.8990   8.3646532136e+01   8.8115020098e+00    0.2908249    0.2356544  38.21 0.0003983567    1.390    0.281
       345  -9.1977    203.2001    149.4195   8.6451049341e+01   1.0667070827e+01     0.357259    0.2483107   1.38  0.001502292    2.411    0.585
       346  -8.6483    176.1468    150.4118   9.2223952458e+01   1.5990187013e+01    0.2191831     0.151191  42.06 0.0007883825    1.525    0.344
       347 -10.3951     61.0244    145.5166   1.2106813734e+02   3.8602088163e+01    0.4318305    0.1446463 -53.95   0.00154649    2.549    0.608
       348  -9.4810    197.3227    148.1492   8.7321799637e+01   1.2110569344e+01    0.2489162    0.2173725  -0.94 0.0002923256    1.347    0.257
       349 -10.8210    132.0460    139.9468   1.0024872537e+02   2.7637802839e+01    0.5307465    0.3338143 -58.02  0.001544076    1.685    0.407
       350  -9.0875    122.0254    148.4586   1.0479321122e+02   2.7623196796e+01    0.2692409    0.2161449 -33.12 0.0004500531    1.365    0.267
       351  -9.7145     54.0382    149.4818   1.2375725399e+02   3.8518841568e+01    0.2478493      0.19756 -64.70 0.0007540488    1.115    0.103
       352  -8.0146    209.2681    148.2643   8.5046030855e+01   9.7038634130e+00    0.1357397     0.111959  -9.93 0.0002283579    1.462    0.316
       353  -9.5197    182.2501    148.0171   9.0377307436e+01   1.5238802333e+01    0.2548742    0.2216532  28.23 0.0003461181    1.276    0.216
       354  -8.5097    172.4981    148.4350   9.2577160881e+01   1.7189496996e+01    0.1531672    0.1485061 -51.71  0.000113486    1.013    0.013
       355  -9.3019    162.1433    147.4408   9.4680325086e+01   1.9595102992e+01    0.2733504     0.236053 -12.51 0.0003505105    1.357    0.263
       356  -8.0967     78.6942    149.6768   1.1686695388e+02   3.5002163614e+01    0.1515147    0.1119447 -29.38 0.0005107819    1.642    0.391
       357  -9.6539    190.4942    146.2394   8.8268787610e+01   1.3908738796e+01    0.4609413    0.2958823  53.90  0.001935073    1.720    0.419
       358  -9.0091    150.2964    146.9025   9.7337739179e+01   2.2215882016e+01    0.2827618     0.225693  31.77  0.000329517    1.374    0.272
       359  -8.1301     98.4401    146.4748   1.1070629773e+02   3.2522035394e+01    0.1534876    0.1443896 -47.98 0.0002149138    1.060    0.056
       360  -8.1305     39.0000    145.9911   1.2739455539e+02   4.1149920809e+01     0.227767   0.06860805 -64.13 0.0007902671    2.859    0.650
       361 -10.1387    224.0175    144.5690   8.1597285049e+01   7.5992904886e+00    0.3093395    0.2477845  25.72 0.0008487211    1.539    0.350
       362  -9.0197    176.3913    144.3148   9.0792043440e+01   1.7272650050e+01    0.2447931     0.223396   8.23 0.0006250401    1.246    0.197
       363  -9.7324    208.6808    143.0898   8.4032721176e+01   1.0868237734e+01    0.2686008    0.2255599  16.69 0.0006330926    1.466    0.318
       364  -9.7086     67.9793    149.0199   1.1975150116e+02   3.6761538078e+01    0.2336041    0.1684855 -30.70 0.0005808453    1.675    0.403
       365  -8.0044    106.4315    144.5137   1.0808411243e+02   3.1559389510e+01    0.1552555    0.1460726 -40.76 0.0001379601    1.081    0.075
       366  -7.9860     81.2848    144.3765   1.1507040589e+02   3.5920510495e+01    0.1570546    0.1099608 -31.17 0.0007015141    1.719    0.418
       367 -10.5928     66.2885    143.2294   1.1912662023e+02   3.8449630621e+01    0.2764488    0.2534459  65.52  0.001570924    1.164    0.141
       368  -9.7161     50.7816    147.4099   1.2431459596e+02   3.9441428809e+01    0.1899137    0.1850062 -24.51 0.0005970954    1.167    0.143
       369  -8.5258    219.0419    142.7226   8.2075351344e+01   8.9106766624e+00    0.1809599    0.1752493  22.04 0.0004048834    1.161    0.139
       370  -9.1214    200.4541    143.1598   8.5608141125e+01   1.2510227238e+01    0.2432909    0.2088276  36.41 0.0003430486    1.292    0.226
       371  -8.3819    203.5098    139.7585   8.4271727768e+01   1.2586636720e+01    0.2020611    0.1743849 -46.73 0.0003442288    1.069    0.065
       372  -9.0727    171.8788    142.9309   9.1458907583e+01   1.8533194133e+01    0.2311008      0.20694  -7.53 0.0005254065    1.285    0.222
       373  -8.5936    119.9341    143.1681   1.0414900195e+02   2.9308773040e+01    0.2073657    0.1850559 -10.55 0.0004053905    1.290    0.225
       374 -10.0835     73.6383    142.6944   1.1691011918e+02   3.7516614247e+01    0.2461245    0.1874449  12.64 0.0006477796    1.642    0.391
       375  -8.5455    194.7864    141.8518   8.6426689806e+01   1.3944490874e+01     0.218344    0.1940177 -18.81 0.0005768509    1.245    0.196
       376 -10.0796    139.4540    141.0111   9.8625851555e+01   2.5853686488e+01    0.4061674     0.306172  34.11 0.0006838756    1.440    0.305
       377  -9.2207    214.3979    140.6376   8.2454901726e+01   1.0228977439e+01    0.2068391    0.1699342  18.40 0.0006023282    1.540    0.351
       378  -9.3410    155.6879    140.8060   9.4646568012e+01   2.2465694037e+01     0.260368    0.2343302 -13.60 0.0005928121    1.258    0.205
       379  -8.7735    147.9602    141.4705   9.6643479282e+01   2.3958226946e+01    0.2336822    0.1565378  41.65 0.0006191158    1.546    0.353
       380 -10.3471    230.0819    138.0466   7.9198817542e+01   7.7204042941e+00    0.2727215    0.2326102 -50.07 0.0003371322    1.040    0.039
       381  -8.6060    187.0377    138.7308   8.7281798069e+01   1.6220617837e+01    0.1984946    0.1929603  45.85 0.0003362855    1.099    0.090
       382  -8.3755    181.8425    139.3909   8.8507372612e+01   1.7180946153e+01    0.2111872    0.1451271  34.77 0.0008990904    1.691    0.408
       383  -9.2415    166.5447    138.5829   9.1636398930e+01   2.0632847032e+01    0.2637869    0.2276414  36.64 0.0006929388    1.242    0.195
       384  -8.2125    160.9836    139.7571   9.3172002277e+01   2.1567404086e+01    0.1929705    0.1336073  45.66 0.0003198205    1.488    0.328
       385  -9.2391    224.8559    138.1749   8.0100497143e+01   8.6845569988e+00    0.2019455    0.1866093 -22.14 0.0007248822    1.177    0.150
       386  -8.7216    152.0556    137.6407   9.4761172418e+01   2.3959029235e+01     0.213057    0.1993668  44.55 0.0005055878    1.104    0.094
       387  -8.2187    123.6818    138.7012   1.0212757208e+02   2.9631066907e+01    0.1567174    0.1256862  -9.39 0.0004631428    1.616    0.381
       388  -8.2565    116.4246    138.5296   1.0401718670e+02   3.1108430869e+01    0.1556921    0.1485357 -40.82 0.0001441391    1.058    0.054
       389  -8.1139    109.4981    138.5042   1.0588988409e+02   3.2445716976e+01    0.1563102    0.1474405 -31.07 -7.235722e-05    1.101    0.091
       390  -8.0072     99.6081    138.7296   1.0867880579e+02   3.4214621948e+01    0.1558095    0.1207248  -8.65 0.0006987351    1.722    0.419
       391 -11.3992     69.1235    136.1885   1.1689474267e+02   3.9791104465e+01    0.4600213    0.3435872  73.49  0.001645955    1.681    0.405
       392  -8.8100    217.7275    132.1561   8.0032198595e+01   1.1247096785e+01    0.3351248     0.230185  -3.41  0.001397784    2.719    0.632
       393  -9.8832    208.3862    135.8627   8.2504489556e+01   1.2385730753e+01    0.2661174    0.2052689  43.30 0.0003916864    1.442    0.306
       394  -8.6730    143.1692    135.7883   9.6471835620e+01   2.6276977921e+01    0.2124234    0.1869789 -11.20 0.0004686818    1.325    0.245
       395  -9.6060    193.0421    134.8077   8.5185084054e+01   1.5775898085e+01    0.2380455    0.2209155 -52.30 0.0004365614    1.013    0.013
       396  -8.2492    183.6427    135.7441   8.7296114470e+01   1.7574751080e+01    0.1488131    0.1212178   9.71  0.000420371    1.614    0.380
       397  -9.1585    171.9333    134.9689   8.9600869049e+01   2.0260624053e+01    0.3856651    0.2299105  56.69  0.001588684    1.889    0.471
       398  -8.8930    199.0098    134.4936   8.3955336308e+01   1.4590409679e+01    0.2097511    0.1489739  47.99 0.0005053948    1.513    0.339
       399  -8.8575    188.0692    133.5042   8.5878725484e+01   1.7101979209e+01    0.2662346    0.2044445 -26.77 0.0005164722    1.491    0.329
       400  -9.1926    163.7256    133.4209   9.1056136003e+01   2.2379369518e+01    0.2817501    0.2364763 -25.21 0.0005950384    1.340    0.254
       401  -9.0248    156.0347    134.0347   9.2967644283e+01   2.3912362314e+01    0.2367957    0.2293889 -50.97 0.0004907622    1.031    0.030
       402  -8.2204     75.3087    134.2863   1.1467843511e+02   3.9341363689e+01    0.1467852    0.1108429 -25.11 0.0002817711    1.572    0.364
       403 -11.8674    196.7509    171.7939   9.2522102827e+01   7.2852359679e+00     4.421198     2.193205  19.72   0.01084079    7.025    0.858
       404  -8.6081    150.0722    133.2995   9.4201199661e+01   2.5364989626e+01    0.2153731    0.1995562  53.27 0.0004238051    1.101    0.092
       405  -9.2334    129.5704    106.6822   9.2592539353e+01   3.5620580372e+01    0.2457286    0.1812037  69.13 0.0003375484    1.664    0.399
       406  -8.8449    133.4834    133.4931   9.8350544502e+01   2.8844449430e+01    0.2348649    0.1537569  32.02 0.0007509233    1.760    0.432
       407 -10.3418    136.7950    129.9123   9.6644276382e+01   2.8970535725e+01    0.3935723    0.2936502 -35.18  0.001116226    1.434    0.302
       408 -11.4801    134.8594    122.8018   9.5380707670e+01   3.0986370340e+01     1.001864     0.413543 -53.17  0.003329094    2.707    0.631
       409 -10.2364    133.9791    107.6165   9.1715813904e+01   3.4473570764e+01     0.528226    0.2482204 -45.55  0.001506609    2.118    0.528
       410 -10.3011    242.5358    131.7424   7.5921378269e+01   6.6130164370e+00    0.2456962    0.2269467  30.47 0.0003022765    1.320    0.242
       411  -9.4389    236.2150    132.3539   7.7023808769e+01   7.6569221011e+00    0.3694482    0.1700276  44.13  0.001528854    2.628    0.619
       412  -9.2959    226.1371    131.5323   7.8476349884e+01   9.7209054188e+00    0.2336266    0.1994698 -15.53 0.0004736576    1.403    0.287
       413  -9.2966    114.5155    130.8468   1.0271998443e+02   3.3305336494e+01    0.2604836    0.2158601 -40.02 0.0006702632    1.213    0.176
       414  -9.1637    146.9435    136.7138   9.5769659905e+01   2.5262467280e+01    0.2537007    0.2114331 -34.49 0.0003154722    1.260    0.207
       415  -7.9958     32.3156    131.3785   1.2688883567e+02   4.5422985810e+01    0.1468922   0.08501758 -39.66 0.0002018666    1.807    0.447
       416  -7.7048    198.4249    130.4749   8.3161838062e+01   1.5533981684e+01    0.1486198    0.1377283 -44.25 0.0001415622    1.066    0.062
       417  -9.8912    179.5002    129.8209   8.6781781091e+01   1.9722227417e+01    0.2658159    0.2522148  37.23 0.0004198365    1.143    0.125
       418  -9.3561    160.8943    129.9066   9.0859720044e+01   2.3767434294e+01    0.2315793     0.213914  -2.30 0.0004930619    1.235    0.190
       419  -8.6752    128.1699    121.8664   9.6866766733e+01   3.2607448690e+01    0.2405036     0.192063  -5.38  0.000382023    1.636    0.389
       420 -10.0624    125.9285    129.5360   9.9349143141e+01   3.1322343771e+01    0.4706558    0.2186805 -53.25  0.001222281    2.246    0.555
       421  -9.3598    121.5096    126.5646   9.9792017486e+01   3.2909213379e+01    0.2819566    0.2017952  30.09 0.0007916636    1.579    0.367
       422  -9.1464    124.4778    124.4535   9.8481724706e+01   3.2787108748e+01    0.2738651    0.2483007 -17.55 0.0006114722    1.207    0.172
       423  -9.5189    219.0551    135.9244   8.0615266647e+01   1.0246297933e+01     0.230082    0.2065421  25.37 0.0004954714    1.319    0.242
       424 -10.4029    134.1645    113.4805   9.3192793770e+01   3.3183863093e+01    0.5188057    0.2396869 -37.88  0.001469512    2.419    0.587
       425  -8.2757    131.4525    129.4529   9.7893087327e+01   3.0198368786e+01    0.1553671    0.1513353 -33.13   0.00010544    1.053    0.051
       426  -9.7802    248.0778    127.4152   7.4221576517e+01   6.4107498792e+00    0.2783363    0.2121897  52.06  0.001116774    1.547    0.354
       427  -9.9928    233.3811    127.2024   7.6397018522e+01   9.1565401045e+00    0.2411161    0.2103914 -18.45 0.0003388457    1.354    0.262
       428  -9.4904    155.0615    128.2220   9.1797771494e+01   2.5412535350e+01    0.2373323    0.2167776   1.06 0.0006105896    1.262    0.208
       429  -8.5606     73.3549    128.2921   1.1395382852e+02   4.1095152716e+01    0.1503811    0.1101194 -21.45 0.0007029525    1.684    0.406
       430  -9.6913    221.5613    126.5046   7.8160819129e+01   1.1584034936e+01    0.2808104    0.2333038  28.64  0.001532291    1.520    0.342
       431  -8.9332    192.8745    126.9445   8.3423508867e+01   1.7433040681e+01    0.2194203    0.1984113  -1.43 0.0005300657    1.329    0.248
       432  -8.8437    186.7433    127.2367   8.4699006228e+01   1.8692713633e+01    0.1955132    0.1772913   2.46  0.000439158    1.319    0.242
       433  -8.8626    172.0065    127.0387   8.7712769272e+01   2.1950160216e+01    0.2361793    0.1916224   6.95 0.0005401663    1.659    0.397
       434  -8.5033    165.7756    126.4613   8.8935422446e+01   2.3444117613e+01    0.2099553    0.1490216  34.46 0.0007347012    1.631    0.387
       435  -8.5039    158.3871    126.2563   9.0551569538e+01   2.5114213591e+01    0.1560283    0.1237504  13.03 0.0006965952    1.679    0.405
       436  -8.7774    200.0972    124.7360   8.1548722547e+01   1.6341886297e+01    0.1907475    0.1869882  62.25 0.0003496015    1.118    0.105
       437  -8.2003     62.3006    125.3435   1.1665285555e+02   4.3389192749e+01    0.1504034    0.1018258 -30.95 0.0003989356    1.677    0.404
       438  -9.4258    241.1055    123.3610   7.4422287191e+01   8.4207584170e+00    0.2476445    0.2093013  -2.66 0.0008895593    1.614    0.381
       439  -9.6099    152.0567    124.1042   9.1497026363e+01   2.6974165417e+01    0.2339104    0.2269795 -66.80 0.0004547885    1.006    0.006
       440  -8.5233    108.0018    123.9502   1.0284192722e+02   3.6179235031e+01    0.2309234    0.1832672 -12.25 0.0003024063    1.576    0.366
       441  -7.7714      5.3153    124.3589   1.3373088692e+02   4.9290739080e+01    0.1361536   0.07177279 -44.87 0.0007043584    1.752    0.429
       442  -9.5310    249.6907    122.5466   7.3013126609e+01   7.0033936113e+00    0.2114511    0.1952113 -15.05 0.0007085049    1.325    0.246
       443  -9.4106    228.1078    122.9848   7.6342139888e+01   1.0966382843e+01    0.2082693    0.2023763 -16.85 0.0003556012    1.205    0.170
       444  -8.4027    170.1983    122.7810   8.7082867912e+01   2.3252201859e+01    0.2017732     0.181434  -7.59 0.0003859681    1.315    0.239
       445  -8.4163    146.5151    123.5233   9.2675067888e+01   2.8313456542e+01    0.1547141    0.1519046 -35.70 0.0002523302    1.055    0.052
       446  -9.1898    180.0263    121.7674   8.4775599233e+01   2.1292624851e+01    0.2595175    0.2104638  26.83 0.0007563744    1.514    0.340
       447  -8.6249      1.8331    122.0116   1.3441167232e+02   5.0058107775e+01    0.2179527   0.09200528 -49.33 0.0007324567    1.968    0.492
       448  -9.1178    212.5957    120.5677   7.8382634118e+01   1.4548193727e+01    0.2189038    0.2091604  49.34 0.0005035996    1.188    0.158
       449  -9.2675    188.0000    120.9997   8.2997380795e+01   1.9701007484e+01    0.2179823    0.2119643 -52.11 0.0003292331    1.078    0.072
       450  -8.9922    116.9935    121.0033   9.9626908059e+01   3.5093283257e+01    0.2456801    0.1894547 -11.50 0.0007313971    1.702    0.412
       451  -7.8677     89.3034    120.3649   1.0735162950e+02   4.0413806110e+01    0.1576606    0.1132957 -21.67 0.0007036125    1.736    0.424
       452  -8.2632    238.9984    119.5007   7.3941199703e+01   9.5235794156e+00    0.1757109    0.1359271  59.49 0.0004389522    1.470    0.320
       453  -8.7851    203.0992    119.3432   7.9778332220e+01   1.6777654983e+01    0.1943971    0.1763053  73.60 0.0004139177    1.151    0.131
       454  -8.8128    194.1230    118.7584   8.1298866230e+01   1.8820848090e+01    0.1923092    0.1884978  78.49  0.000324304    1.099    0.090
       455  -8.0674    166.6757    118.7010   8.6856987636e+01   2.4893926675e+01    0.1518113    0.1246932   5.00 0.0004074239    1.630    0.386
       456 -10.3423    157.3974    117.3886   8.8599855022e+01   2.7239524857e+01    0.4042842     0.255382 -39.12  0.001283993    1.628    0.386
       457 -10.2524    248.1199    115.9836   7.1916778925e+01   8.4658629014e+00    0.3452724     0.258152  37.88  0.001949631    1.793    0.442
       458  -8.4133    242.9865    117.2330   7.2894678409e+01   9.1890097395e+00    0.1627544    0.1568675 -16.89  0.000453056    1.269    0.212
       459  -8.6542    240.3652    115.4035   7.2898117338e+01   1.0013007644e+01    0.5129891    0.3423133  15.98   0.00215746    3.412    0.707
       460  -8.1992    184.4425    117.5566   8.2889130226e+01   2.1181615076e+01    0.1487047      0.14264 -53.05  9.53024e-05    1.066    0.062
       461  -8.6296    174.0791    117.4921   8.4983197939e+01   2.3494572768e+01    0.2217162    0.1507954  48.76 0.0005073786    1.519    0.342
       462  -8.4144    124.6996    117.6614   9.6714153926e+01   3.4270972161e+01    0.1573495    0.1235951  -8.88 0.0006948441    1.665    0.399
       463  -8.7106     65.7565    117.0180   1.1372799365e+02   4.4887143450e+01    0.2030899    0.1797513 -47.08 0.0005767124    1.031    0.030
       464  -9.2449    147.6814    115.9959   9.0513922357e+01   2.9692102105e+01    0.2226042    0.1991402 -46.26 0.0005904045    1.107    0.097
       465  -9.4812    129.7631    114.2861   9.4525963402e+01   3.3950315406e+01    0.3055414    0.2116417 -35.08 0.0008655463    1.552    0.356
       466  -9.5594      6.7168    113.5654   1.3166451314e+02   5.1703045106e+01    0.2835586    0.1324991 -73.67  0.001350138    2.071    0.517
       467  -8.9989    230.9882    114.4022   7.4079130220e+01   1.2004557677e+01    0.1787742    0.1663931  73.03 0.0005340811    1.193    0.162
       468  -8.1392    225.4926    114.4788   7.4942472435e+01   1.3080937430e+01    0.1412223    0.1239608 -57.35 4.213025e-05    1.010    0.010
       469  -8.6031    203.4265    113.7076   7.8442875977e+01   1.7809582124e+01    0.1872954    0.1353071 -35.78 0.0002631956    1.441    0.306
       470  -8.7632    181.5039    113.9940   8.2626143055e+01   2.2553384630e+01    0.2404343     0.167725   9.06 0.0003955074    2.677    0.626
       471  -9.2298    185.8489    112.9841   8.1530899610e+01   2.1790029005e+01    0.2393729    0.2138446  52.12 0.0004450454    1.186    0.157
       472  -8.1960    163.4494    114.5422   8.6540560452e+01   2.6483944237e+01    0.1510105    0.1483574 -44.41 9.622528e-05    1.072    0.067
       473  -8.6820    153.4160    113.7963   8.8614231456e+01   2.8885749163e+01    0.2107067    0.1470206 -33.84 0.0004295857    1.571    0.363
       474  -8.4416     21.4928    114.4585   1.2720386954e+02   5.0415163511e+01    0.1341149    0.1033476 -46.72 0.0005553561    1.132    0.117
       475  -9.1092    121.9436    113.4378   9.6361074212e+01   3.5775011541e+01    0.2164327    0.1330416  67.04 0.0006123203    2.471    0.595
       476  -9.2862    114.0661    112.9311   9.8367823823e+01   3.7489978316e+01    0.2416587     0.186837  -9.24 0.0005420314    1.680    0.405
       477  -7.9055     41.3344    113.3391   1.2065916952e+02   4.8792619844e+01    0.1461287   0.09014085 -32.43 0.0007051547    1.750    0.429
       478  -9.4142    248.0270    111.2746   7.0984011967e+01   9.3215705531e+00    0.2465638    0.1723472 -31.92 0.0008410741    1.586    0.370
       479  -7.6172    208.4979    111.4971   7.7064615536e+01   1.7153359338e+01    0.1450679     0.131745 -60.85 0.0008106017    1.020    0.020
       480  -8.9026    194.6818    111.1183   7.9423686421e+01   2.0209560168e+01     0.207788    0.1786578 -46.78 0.0005105689    1.125    0.111
       481  -9.5787    248.4509    105.5319   6.9776782628e+01   1.0254552256e+01    0.2448492    0.2250689  -5.17 7.592524e-05    1.478    0.324
       482  -9.8141    241.6507    105.2756   7.0643359190e+01   1.1584599027e+01     0.689798    0.3236425 -32.71  0.002812864    2.697    0.629
       483 -10.8389    247.9136    100.5757   6.8857058406e+01   1.1217590048e+01    0.8137493    0.4160449  79.75  0.003235664    3.544    0.718
       484  -9.6342    248.9153     95.8876   6.7795556943e+01   1.1834167033e+01    0.2254305     0.219317   6.19 0.0004735857    1.405    0.288
       485  -9.8164    244.7826     96.1499   6.8376514820e+01   1.2576000388e+01    0.3600979       0.2148  69.21  0.001127297    1.943    0.485
       486 -11.7996    238.4723    217.3014   9.3427458108e+01  -8.1989673247e+00    0.4551986    0.2742611 -29.10 0.0006187905    1.524    0.344
       487  -9.0062    168.3692    109.8063   8.4307446973e+01   2.6348111792e+01    0.2132276    0.1420311 -33.43 0.0005305026    1.671    0.402
       488  -8.6682    143.9871    110.0282   8.9877351012e+01   3.1773482508e+01    0.1867176    0.1730738  55.08 0.0004156116    1.083    0.077
       489  -8.8517    118.3285    109.2986   9.6252803296e+01   3.7420628650e+01    0.1539095    0.1215267  -0.67 0.0004015296    1.638    0.389
       490  -8.6805     66.7905    109.4257   1.1159854357e+02   4.6493177639e+01    0.1862403    0.1368291  12.72 0.0005735831    1.591    0.372
       491  -8.3738      1.5618    109.2349   1.3257134935e+02   5.3005546455e+01    0.1820221   0.08214509 -55.29 0.0009339977    1.653    0.395
       492  -8.7222    176.7742    108.2497   8.2188888330e+01   2.4763249011e+01    0.1989885    0.1811311   4.63  0.000604582    1.342    0.255
       493  -7.8873    155.3280    108.2903   8.6784115346e+01   2.9600778694e+01    0.1512589    0.1234636   9.95 0.0004197313    1.619    0.382
       494 -10.0825    123.2071    107.8624   9.4566226895e+01   3.6718555689e+01    0.3323207     0.228759  46.03  0.001213761    1.466    0.318
       495  -7.9415    218.7248    107.6890   7.4541122267e+01   1.5724307063e+01    0.1301704    0.1118203 -10.33 0.0002149252    1.556    0.357
       496  -8.0468    201.2941    107.3362   7.7364974519e+01   1.9495616215e+01    0.1397357     0.117569  -2.65 0.0007027456    1.645    0.392
       497  -8.5447    190.2737    107.0563   7.9288136166e+01   2.1973097093e+01    0.2055355     0.181583 -55.61 0.0004291266    1.068    0.064
       498  -8.0979    236.3503    106.2521   7.1586205881e+01   1.2436193996e+01    0.1212457    0.1073036  10.92 0.0003174792    1.593    0.372
       499  -8.1207    182.7163    106.7049   8.0640399026e+01   2.3730543440e+01    0.1403994    0.1205868   3.65 0.0001888839    1.541    0.351
       500  -9.0563    160.8689    105.9101   8.4948100425e+01   2.8832311382e+01    0.2175041    0.2049313  -0.96 0.0002820659    1.216    0.178
       501  -9.0550    113.0036    105.7044   9.6758816057e+01   3.9274312142e+01    0.2110136    0.1974313  35.69 0.0004348365    1.081    0.075
       502  -9.5220     12.7360    106.0543   1.2847425260e+02   5.3009920609e+01    0.1818468    0.1392529 -56.12 0.0006124112    1.059    0.056
       503  -9.1640    166.3951    104.9416   8.3515945777e+01   2.7771804661e+01    0.3104294    0.2119146  71.10  0.001372231    1.752    0.429
       504  -8.9688     65.8644    103.6945   1.1047256707e+02   4.7914662022e+01    0.2216011    0.1703034  -3.49  0.001157427    1.506    0.336
       505  -8.3675    218.9646    102.7768   7.3431853242e+01   1.6578883444e+01    0.1910817    0.1716788 -81.54 0.0004238739    1.082    0.076
       506  -8.2082    205.8257    103.1459   7.5634134682e+01   1.9303589487e+01    0.1789357    0.1704165  -2.73 0.0003146825    1.298    0.230
       507 -10.0317    119.5777    101.9236   9.3948321499e+01   3.8727292001e+01    0.3070606    0.2457063 -13.76 0.0009857028    1.508    0.337
       508  -8.9710    190.0226    102.3407   7.8220562955e+01   2.2935288894e+01    0.2009974    0.1877184  82.35 0.0004797016    1.070    0.065
       509  -8.4808    120.3694    132.8837   1.0162937920e+02   3.1668076387e+01    0.2227798    0.1409933 -39.77  0.000496893    1.652    0.395
       510  -8.5526      6.3015    102.3354   1.2989889974e+02   5.4272029319e+01    0.1326062   0.07051557 -41.61 0.0005433513    1.660    0.398
       511  -8.4569    195.4309    101.4988   7.7047688555e+01   2.1890219066e+01    0.1456621     0.134107 -65.97 0.0001138136    1.027    0.026
       512  -9.1691    129.6984    100.3765   9.0879125701e+01   3.6899254354e+01    0.2876019    0.2085136   7.60  0.001237638    2.055    0.513
       513  -8.9660    238.7649    100.2495   7.0010606287e+01   1.3029252625e+01    0.1729516     0.155643 -28.86  0.001057072    1.353    0.261
       514  -8.9203     18.9955    100.0129   1.2524872557e+02   5.3901764154e+01    0.1903823    0.1482256  72.81  0.001136013    1.724    0.420
       515  -8.2884     24.2102     99.5942   1.2340360058e+02   5.3570635571e+01    0.1689494     0.113801  -8.13 0.0009381152    1.747    0.428
       516  -7.8663    209.6249     98.6907   7.4005344678e+01   1.9306140637e+01     0.137987    0.1143024  14.38 0.0007030561    1.779    0.438
       517  -8.8693     89.8769     98.0443   1.0140947655e+02   4.5286393649e+01    0.2155918    0.1961123  88.29  0.000563794    1.321    0.243
       518  -8.5810    225.4679     97.5525   7.1324823561e+01   1.6173164821e+01    0.1385778    0.1200275 -64.37  8.47563e-05    1.005    0.005
       519  -8.6904    188.9990     96.9801   7.7134698105e+01   2.4175223436e+01    0.2107999    0.1817476   8.62  0.000329555    1.575    0.365
       520  -9.3266      7.4002     96.8316   1.2852841062e+02   5.5421303221e+01     0.184467   0.08363451 -52.88 0.0008521859    1.661    0.398
       521  -8.4792    203.3767     95.8325   7.4378620055e+01   2.1186375652e+01    0.1905767    0.1316077 -33.93 0.0003706686    1.601    0.375
       522  -8.1810    122.2569     96.4001   9.1730300969e+01   3.9294952994e+01    0.1530783    0.1168431  -9.68 0.0006959396    1.710    0.415
       523  -8.2146    195.3124     95.2933   7.5618658699e+01   2.3070836907e+01    0.1357557     0.116891  14.12 0.0004081231    1.593    0.372
       524  -8.0381    135.7108     95.6651   8.8102674873e+01   3.6529594775e+01    0.1502111    0.1204163   2.03 0.0003507673    1.632    0.387
       525  -8.9427    235.4495     93.7688   6.9126399636e+01   1.4813783735e+01    0.1745675    0.1203151 -36.95  0.000466137    1.515    0.340
       526  -9.6568    229.5569     94.3023   7.0049781493e+01   1.5909136252e+01    0.2132316    0.1642419  38.01 0.0007479558    1.777    0.437
       527  -8.1355     94.3421     94.2710   9.9014315467e+01   4.5266386852e+01    0.1464655    0.1117176   0.51 0.0003279981    1.611    0.379
       528  -9.9135      2.6825     90.3583   1.2890475998e+02   5.7109048474e+01    0.2470311    0.1450371 -57.02  0.001461841    1.329    0.248
       529  -8.1190     75.7366     93.6564   1.0463163846e+02   4.8587159758e+01    0.1446747    0.1028238 -20.44 0.0004321203    1.600    0.375
       530 -10.0130    224.4914     91.7551   7.0227059270e+01   1.7396185797e+01    0.2381936     0.178666  66.97 0.0007083692    1.399    0.285
       531  -8.3293    164.6238     92.2238   8.0672305716e+01   3.0633895203e+01     0.198514    0.1414241 -30.75 0.0003905202    1.607    0.378
       532 -10.8685    241.8937     90.7498   6.7660442342e+01   1.4058046881e+01    0.5372946    0.2268022 -38.88  0.002118053    2.311    0.567
       533  -9.4877    247.9724     90.9522   6.6934700558e+01   1.2849541867e+01     0.221508    0.2083748 -88.70 0.0005402368    1.238    0.192
       534 -11.9877    242.8998     80.6311   6.5502563968e+01   1.5547593474e+01    0.7353857    0.3539155 -52.99   0.00352929    1.841    0.457
       535 -11.4689    243.6123     65.2463   6.2380806175e+01   1.7848137447e+01    0.4132247    0.2793129 -38.34  0.002388054    1.595    0.373
       536  -9.6949    248.1540     72.1303   6.3218448415e+01   1.5884203391e+01    0.2342717    0.2126939 -38.30 0.0004785713    1.415    0.293
       537 -10.8302    248.9344     68.0013   6.2334303864e+01   1.6377233804e+01    0.5658903    0.2842341  53.68  0.002853701    2.413    0.586
       538 -11.1260    249.2318     60.9275   6.0948293865e+01   1.7398180398e+01    0.5120285    0.2725743 -45.85  0.002780154    1.632    0.387
       539 -10.2746    249.5960     85.4281   6.5647963654e+01   1.3460501398e+01    0.4274346    0.2989397 -30.47  0.002377914    1.789    0.441
       540 -10.7610    249.2592     78.2002   6.4274036590e+01   1.4703521759e+01    0.4973358    0.3407801 -51.54  0.001507755    1.228    0.186
       541  -8.6816    127.9674     91.2740   8.8838086158e+01   3.9082515033e+01    0.1973064    0.1835893  37.52  0.000173885    1.074    0.069
       542  -7.8715    103.6604     91.6594   9.5538357657e+01   4.4031198836e+01    0.1538516    0.1141864  -1.45 0.0007049868    1.768    0.434
       543 -10.8111    236.7320     88.4992   6.7870711901e+01   1.5460498417e+01     0.287181    0.2573222  43.06  0.001289037    1.475    0.322
       544 -10.9332    234.3024     85.4392   6.7558880887e+01   1.6466135314e+01     0.300046     0.224962  60.34  0.001738967    1.472    0.320
       545  -8.7870    203.5145     88.9658   7.2788509770e+01   2.2388708308e+01    0.2098152    0.1321264 -43.10 0.0004490245    1.524    0.344
       546  -8.0771    196.7463     89.6929   7.4066538954e+01   2.3764714404e+01    0.1290717      0.11478  -1.10 0.0002038212    1.513    0.339
       547  -8.7806    158.3183     88.5594   8.1044614840e+01   3.2766503277e+01    0.2248492    0.1787746 -15.37 0.0002816219    1.622    0.384
       548  -8.4092    183.4804     88.4436   7.6082486926e+01   2.6992968497e+01    0.1446918    0.1345707 -82.68 0.0002097704    1.019    0.019
       549 -10.1909      9.7428     85.9318   1.2553200956e+02   5.7619417794e+01    0.2549945    0.2074207  64.63 0.0009916294    1.705    0.414
       550  -8.0905    121.2983     90.2556   9.0280092527e+01   4.0710677641e+01    0.1426865    0.1147156  12.34 0.0001755355    1.500    0.333
       551  -8.3786    151.0253     86.4484   8.2062004256e+01   3.4830004289e+01    0.2001882    0.1229982  30.69 0.0003980939    2.283    0.562
       552  -8.0762     28.2986     84.3693   1.1849612669e+02   5.6491178141e+01    0.1389283   0.07803014 -32.00  0.000703085    1.735    0.424
       553 -10.0987    218.4422     82.6734   6.9133457358e+01   2.0232773729e+01    0.3250159    0.2167892  26.73  0.001414533    2.995    0.666
       554  -8.7710    205.9435     82.8326   7.1014148445e+01   2.2920385712e+01    0.1923046    0.1888397  80.19 0.0004003142    1.218    0.179
       555 -10.2374      2.3998     82.1867   1.2737683856e+02   5.8853027892e+01    0.2769079     0.197494 -84.57  0.001706896    1.796    0.443
       556  -8.9069    235.4116     81.4682   6.6599852319e+01   1.6904573810e+01    0.1315063    0.1115253 -63.50 0.0001823017    1.051    0.049
       557  -8.6915    185.5122     81.4894   7.4038418533e+01   2.7755361115e+01    0.1436614    0.1313448 -82.03 -3.230658e-05    1.006    0.006
       558  -8.2435    110.6345     80.2428   9.0285091407e+01   4.4821583706e+01    0.1992952    0.1334339 -28.81 0.0006482124    1.657    0.397
       559  -8.0205     19.2894     80.3877   1.2081124641e+02   5.8084087165e+01     0.136959   0.07177693 -34.56 0.0007010592    1.759    0.432
       560  -9.7379      8.7955     79.9343   1.2456619072e+02   5.8932606938e+01    0.2584729    0.1285661 -15.67  0.001287112    2.499    0.600
       561  -8.0000    159.2709     79.6918   7.8530373332e+01   3.4137259216e+01    0.1450287    0.1096987 -76.02 0.0002483038    1.543    0.352
       562 -10.2907    235.7205     77.6736   6.5785809364e+01   1.7465346804e+01    0.1908467    0.1596228 -87.32 0.0006034335    1.134    0.118
       563  -9.9356    239.0552     75.0031   6.4838347063e+01   1.7224920665e+01    0.1985998    0.1643299 -67.58 0.0004005996    1.016    0.016
       564  -9.0233    215.0346     78.4733   6.8702220051e+01   2.1670609527e+01    0.1901357    0.1286691  62.56 0.0005144678    1.508    0.337
       565  -9.3232    183.8594     76.7538   7.3177757776e+01   2.8943914000e+01    0.3861484    0.1333613 -47.82  0.001347787    2.982    0.665
       566  -8.7046    206.1862     76.8952   6.9637945051e+01   2.3869731273e+01    0.2081513    0.1644808 -71.59 0.0003919693    1.186    0.157
       567  -8.5093    150.8367     77.1632   7.9619186230e+01   3.6524648392e+01    0.1954484    0.1680031  29.90 0.0003653711    1.320    0.242
       568  -8.5759    193.9960     75.7235   7.1250541713e+01   2.6798819406e+01    0.1947016    0.1705329  81.05 0.0003820962    1.083    0.077
       569  -8.5046    174.5352     75.5821   7.4536417856e+01   3.1296798103e+01    0.1423164    0.1308204  86.44 6.631835e-05    1.013    0.013
       570 -11.9693    237.5401     69.7720   6.3967420237e+01   1.8362407096e+01    0.4539354    0.3233264  70.97  0.002692753    1.433    0.302
       571  -8.9101    203.7544     70.0248   6.8446336188e+01   2.5533833340e+01     0.203885     0.167594 -82.45 0.0003255575    1.118    0.105
       572  -8.0190    157.4635     73.5390   7.7278091825e+01   3.5607440808e+01    0.1421891    0.1349972  62.90 0.0001417681    1.064    0.060
       573  -8.0787    140.2181     72.0363   8.0540218592e+01   3.9825415243e+01    0.1781329    0.1179928 -37.86 0.0003800345    1.591    0.371
       574 -10.5921      1.7315     68.3414   1.2456761891e+02   6.1692560520e+01    0.4982976    0.1171521 -55.86  0.001483943    2.912    0.657
       575  -8.0098    195.3429     71.3000   7.0004303906e+01   2.7220765124e+01    0.1327523    0.1091906  29.89 0.0007036745    1.674    0.403
       576 -10.0701     92.5960     69.6521   9.2280729726e+01   5.0248075353e+01    0.3292184     0.269273 -40.27 0.0009646536    1.276    0.217
       577  -8.0037    163.3196     69.2841   7.5015865440e+01   3.4945912570e+01    0.1384974    0.1096712  29.20 0.0002633059    1.589    0.371
       578  -8.1800    116.2869     69.3538   8.5556329497e+01   4.5547015286e+01     0.143822    0.1087694   8.73 0.0003879181    1.669    0.401
       579  -8.2348    214.4336     68.4916   6.6608436257e+01   2.3424199734e+01    0.1352386    0.1153664 -73.78 0.0001044714    1.009    0.009
       580  -9.1251    170.6893     68.1676   7.3365140172e+01   3.3408991825e+01    0.2276326     0.181987  74.42 0.0004326335    1.207    0.171
       581  -8.5991    183.1381     66.6251   7.0841147439e+01   3.0765538189e+01     0.204919    0.1179273  50.92 0.0009482586    1.794    0.443
       582  -9.2818    206.4429     72.4988   6.8612126796e+01   2.4536094558e+01    0.2069979     0.170138  66.66 0.0001079054    1.233    0.189
       583  -8.5677    223.2904     65.3446   6.4785329381e+01   2.2013241126e+01    0.1170388    0.1063999  13.39 0.0005397269    1.656    0.396
       584  -7.9561    138.7059     65.2840   7.8985447393e+01   4.1267840902e+01    0.1378175    0.1085348 -83.23 0.0002419769    1.540    0.351
       585  -7.8656     86.6491     65.6542   9.2841418805e+01   5.2026175622e+01    0.1457503    0.1009981   4.47 0.0007040201    1.816    0.449
       586  -9.6946     68.6114     64.0943   9.8196942920e+01   5.5353837171e+01    0.2940039     0.239743  22.84  0.001000468    1.174    0.148
       587  -8.0121    152.6496     64.6959   7.5885714101e+01   3.8157800861e+01    0.1439304    0.1073993  28.25 0.0007040867    1.702    0.412
       588  -8.3900    145.8471     63.9792   7.7084327189e+01   3.9840661567e+01    0.2222561    0.1646013   5.97  0.001066283    1.994    0.498
       589  -8.2413    208.2169     62.5971   6.6158040464e+01   2.5709313431e+01    0.1718287    0.1180204  57.65 0.0003639397    1.518    0.341
       590  -9.3398      3.3259     61.6174   1.2228769976e+02   6.2896673545e+01    0.1919406    0.1272412 -13.10  0.000740192    1.469    0.319
       591  -8.9245    217.1371     61.1505   6.4672734229e+01   2.3978195612e+01    0.1840678    0.1334215 -70.88 0.0003717356    1.270    0.213
       592  -9.4057    246.7644     83.4053   6.5588219205e+01   1.4338004482e+01    0.2317578     0.214133  85.65 0.0005995393    1.249    0.199
       593  -8.3026    157.5396     59.4820   7.3539645858e+01   3.7822808445e+01    0.1385993    0.1278768  70.70 5.679119e-05    1.029    0.028
       594  -8.1047     19.6287     59.7108   1.1519899425e+02   6.2078548067e+01    0.1278357   0.07329136 -22.19 0.0007022297    1.717    0.417
       595  -8.4377    165.1192     57.7998   7.1710944890e+01   3.6308293680e+01    0.1804868    0.1618966  29.22 0.0004981065    1.338    0.253
       596  -9.3024    124.5266     57.4681   7.9970917518e+01   4.5641076334e+01    0.2350954     0.213924  46.36 0.0005365525    1.020    0.019
       597  -8.3760     31.4892     58.4542   1.1008935698e+02   6.1192511778e+01    0.1246345   0.09822826 -19.59  0.000114958    1.052    0.050
       598  -9.7102     12.7175     27.5558   1.0754138728e+02   6.7945698493e+01    0.3138481    0.1614292 -27.80  0.001469889    1.673    0.402
       599  -8.5378    108.0745    249.0585   1.2534302381e+02   6.8971999001e+00    0.1834885    0.1566937  -7.91 0.0005251046    1.614    0.380
       600 -10.0735     31.6265    247.5189   1.4043539475e+02   1.8010899121e+01    0.2614526    0.2191777 -42.85 0.0007658774    1.826    0.452
       601  -8.8234     23.8762    249.1819   1.4198352492e+02   1.8576238304e+01    0.1424769    0.1289874  84.85 0.0004693165    1.335    0.251
       602 -12.1306     12.3564     39.7090   1.1201391900e+02   6.6119393282e+01    0.7850279     0.629036  32.23  0.003308945    1.683    0.406
       603 -10.6663      2.1991     53.9315   1.2071571728e+02   6.4390548544e+01    0.4295281    0.2158289 -58.01  0.001875083    1.933    0.483
       604 -10.4376    124.1704    246.8657   1.2167730344e+02   4.7419052009e+00    0.2420043    0.2161534 -55.51 0.0004428089    1.259    0.206
       605  -9.9808      2.0157     45.9076   1.1850667315e+02   6.5824705527e+01    0.2422291    0.1405269 -37.81 0.0003697127    1.317    0.241
       606 -10.1646      4.7544     41.4929   1.1595290348e+02   6.6395209187e+01    0.2231233    0.1553296 -31.78 0.0002588204    1.103    0.093
       607 -11.3420    233.7846    244.3928   9.9099224718e+01  -1.1828875187e+01      0.30018    0.2095277 -13.01 0.0004115521    1.322    0.244
       608 -12.1895    191.6185    244.5979   1.0728038768e+02  -5.7717025770e+00    0.3119026    0.2515069  -0.17  0.000755311    1.212    0.175
       609  -8.9022    186.5475    245.4991   1.0845286463e+02  -5.1361374409e+00    0.1724062    0.1249797 -37.95 0.0001264922    1.461    0.315
       610 -10.4253    163.5637    245.0099   1.1310623764e+02  -1.3738511451e+00    0.2554133    0.2229747 -39.16 0.0004343578    1.256    0.204
       611 -10.4499    157.0340    245.9864   1.1462235188e+02  -4.8471463776e-01     0.249374    0.2138109 -31.62  0.000417737    1.284    0.221
       612  -8.8462    146.9786     56.6432   7.4830857906e+01   4.0691722750e+01    0.1978784    0.1633231  60.05 0.0004368722    1.118    0.105
       613  -9.6422    250.1658     54.3954   5.9618845271e+01   1.8182873884e+01    0.2283052    0.1448781 -54.92  0.000583344    1.301    0.232
       614 -10.1767    249.4859     49.5214   5.8772312416e+01   1.9018133487e+01    0.2657815    0.1494807 -35.44  0.001432118    2.071    0.517
       615 -10.8838     78.3972     53.2070   9.1390312731e+01   5.5486416312e+01    0.4583982    0.3289252  48.71  0.002453414    1.526    0.345
       616  -9.5445     20.4691     50.4962   1.1205878772e+02   6.3638013193e+01    0.2104166    0.2002147 -33.93  0.001574997    1.409    0.290
       617  -8.0082    163.2892     51.2914   7.0350762688e+01   3.7675565573e+01    0.1299531    0.1024372  34.01  0.000286812    1.544    0.352
       618  -9.2076    172.0531     49.9583   6.8543342284e+01   3.5823089792e+01    0.1929337    0.1720277  77.44            0    1.037    0.036
       619  -7.6595     42.2995     49.3211   1.0286426610e+02   6.1506959812e+01     0.126984   0.08144092 -10.92 0.0006581281    1.624    0.384
       620  -9.9911    248.3649     41.6608   5.7417286622e+01   2.0336768166e+01    0.2446065    0.1490604  44.63  0.001279582    2.865    0.651
       621  -8.7417     38.4643     40.5140   1.0128889718e+02   6.3339962558e+01     0.206954      0.10023  19.50 0.0008631784    2.314    0.568
       622  -9.1118     24.0049     38.3113   1.0647598385e+02   6.5282064552e+01    0.1575738    0.1213713  -1.20  0.000296972    1.112    0.101
       623  -8.8478     75.5164    246.4556   1.3176128787e+02   1.2397878759e+01    0.1986716    0.1100716 -54.75 0.0006554159    2.057    0.514
       624  -8.5020     53.5463     36.5347   9.4048003266e+01   6.1875836974e+01     0.120356    0.1012198   5.39 8.486638e-05    1.053    0.050
       625  -9.4741     25.8412     33.9909   1.0412855400e+02   6.5739500367e+01    0.1761065    0.1212989 -11.22  0.000357492    1.238    0.192
       626  -8.0041    173.7034     33.7381   6.4283345258e+01   3.7562972549e+01    0.1221961   0.09190983  45.65 0.0006907813    1.507    0.336
       627 -11.6633    176.8376    243.8107   1.1016240895e+02  -3.3073396835e+00    0.3029462    0.2476349 -14.88  0.000434018    1.292    0.226
       628  -8.7285    249.3604     32.3158   5.5622750592e+01   2.1392311860e+01    0.1032237   0.08914966  50.60 0.0007042791    1.757    0.431
       629  -9.1467     30.0914     31.2331   1.0129522983e+02   6.5666922779e+01     0.195106    0.1424283 -22.00 0.0008448507    1.191    0.160
       630 -10.0957     69.8077     29.4454   8.5820675621e+01   6.0179084529e+01     0.347445    0.1793231   5.24  0.001385967    3.752    0.733
       631  -9.8280     66.4064     28.7773   8.6683161565e+01   6.0834966115e+01    0.1733037     0.114258 -26.24 0.0005823463    1.569    0.363
       632  -8.3766    170.4506    246.1968   1.1186211225e+02  -2.7021964721e+00      0.15637    0.1301036 -62.61 0.0003778456    1.512    0.338
       633 -10.7077      3.5697     27.5898   1.1180241304e+02   6.8680027290e+01    0.3978141    0.2496448  -5.51  0.002238821    1.396    0.284
       634  -9.4108      4.4431     23.5099   1.0988778914e+02   6.9213150731e+01    0.2043648    0.1136508  -4.30 0.0005839817    1.714    0.417
       635  -8.5718     60.3057     28.3366   8.8578287291e+01   6.1886421433e+01    0.1259241   0.08016545  10.30 0.0007040458    1.672    0.402
       636 -11.0732     66.7972     22.3890   8.4166438242e+01   6.1492080397e+01    0.3276795    0.2612081  39.92  0.002104365    1.234    0.190
       637  -9.6607     78.7942     22.1122   8.0388635468e+01   5.9392366126e+01     0.227432    0.1961733 -23.70  0.001484788    1.329    0.248
       638  -8.9231     34.1144     20.3395   9.5339482237e+01   6.6602093504e+01    0.2021934    0.1270652  -2.68  0.001009219    1.523    0.343
       639  -9.1328     47.8199     18.2456   8.9121942154e+01   6.4963560431e+01    0.2480709    0.1460586   1.59 0.0008881426    1.894    0.472
       640 -10.0719    132.9841    245.3960   1.1960844060e+02   3.5849290647e+00    0.2226936    0.1945937 -44.58 0.0003428135    1.297    0.229
       641  -9.8860    113.4000    244.4551   1.2363317571e+02   6.9683444843e+00    0.2925223    0.2199221 -38.75 0.0007819875    1.681    0.405
       642 -10.3584     93.1009    244.6620   1.2793320576e+02   1.0133700096e+01     0.289433    0.2442987  26.23 0.0005925979    1.403    0.287
       643 -10.0846     80.3285    244.4035   1.3055435521e+02   1.2119838103e+01    0.2483456    0.2368563  34.51  0.000458344    1.307    0.235
       644  -9.5644     41.1654    244.9110   1.3842222922e+02   1.7387880612e+01    0.2406891    0.2036196 -58.23 0.0009598687    1.523    0.343
       645  -9.0774     56.6945     17.3571   8.5593259516e+01   6.3694669469e+01    0.1765701     0.111325 -27.93 0.0006642788    1.688    0.408
       646  -9.4269    151.8684    244.6642   1.1550638259e+02   6.0850313223e-01    0.2196389    0.1782293 -23.62 0.0004915868    1.432    0.301
       647  -9.0505    155.0594    241.1379   1.1429075517e+02   7.4124622452e-01    0.2134909    0.1735188 -11.88 0.0003080649    1.442    0.307
       648 -10.4346    104.4970    241.6486   1.2515910033e+02   8.9698981605e+00    0.3264705    0.2531733 -31.58  0.000706942    1.776    0.437
       649  -8.4709    101.4153    238.8340   1.2545628716e+02   1.0046875566e+01     0.180948    0.1653288 -81.11 0.0006143551    1.151    0.131
       650 -11.2281    225.6092    240.2172   9.9902116258e+01  -1.0076040021e+01     0.401809    0.2186842 -38.84  0.001674263    1.804    0.446
       651 -10.3878     24.9297    240.1335   1.4113417479e+02   2.0349522213e+01    0.3587017     0.202878 -55.96  0.001647627    2.133    0.531
       652 -10.8688    169.9344    240.6651   1.1108570302e+02  -1.6266076533e+00    0.2739739    0.2311572  -1.85 0.0004237208    1.241    0.194
       653 -10.5197     68.4373    240.2890   1.3255914987e+02   1.4719807861e+01    0.2605681    0.2246372 -55.55 0.0004431944    1.423    0.297
       654  -9.9588     51.3941    240.6776   1.3604776972e+02   1.6972409639e+01    0.2601757    0.1994139 -57.24 0.0007884123    1.561    0.359
       655 -10.0166    125.2258    240.1055   1.2051481522e+02   5.9116688356e+00     0.253926    0.2203379 -43.59 0.0003960166    1.317    0.241
