#   1 NUMBER                 Running object number                                     
#   2 MAG_AUTO               Kron-like elliptical aperture magnitude                    [mag]
#   3 X_IMAGE                Object position along x                                    [pixel]
#   4 Y_IMAGE                Object position along y                                    [pixel]
#   5 X_WORLD                Barycenter position along world x axis                     [deg]
#   6 Y_WORLD                Barycenter position along world y axis                     [deg]
#   7 A_WORLD                Profile RMS along major axis (world units)                 [deg]
#   8 B_WORLD                Profile RMS along minor axis (world units)                 [deg]
#   9 THETA_WORLD            Position angle (CCW/world-x)                               [deg]
#  10 FWHM_WORLD             FWHM assuming a gaussian core                              [deg]
#  11 ELONGATION             A_IMAGE/B_IMAGE                                           
#  12 ELLIPTICITY            1 - B_IMAGE/A_IMAGE                                       
         1 -14.4903    162.0231    101.9538   4.4550393470e+01   2.9736956963e+01     6.299661     5.383747  -0.96   0.01712335    1.537    0.349
         2 -16.9189    245.2444    104.0204   3.3138271803e+01   1.4941867429e+01     4.238369      2.86971 -37.20  0.009439554    1.375    0.273
         3 -16.2944    247.7767     83.4711   2.9308436826e+01   1.7574575946e+01     4.522127     1.886886 -60.40  0.007930277    2.806    0.644
         4 -12.1476      5.3164     98.5323   9.6057180615e+01   5.6440510214e+01     1.393192    0.7167121 -74.25  0.006195183    2.020    0.505
         5  -9.4710    208.9252     12.8215   1.9650810510e+01   3.3006015365e+01     0.300403    0.1784274  89.55  0.002061304    1.453    0.312
         6  -8.2549    218.4744     11.9840   1.8902279962e+01   3.1360733612e+01     0.146089   0.08584191 -44.09 0.0005217639    1.538    0.350
         7  -8.8077    147.8423      9.5816   2.4065373187e+01   4.5715743884e+01     0.350758    0.1316662  59.22  0.001697835    2.380    0.580
         8  -7.9514     84.0067      8.9310   3.3892994260e+01   6.0109880352e+01     0.144155    0.1238998  58.60 0.0002939707    1.063    0.059
         9 -10.4177    169.3135      3.1421   2.0549123278e+01   4.1731505093e+01    0.4568793    0.2386034 -74.01  0.002675383    1.775    0.436
        10  -8.5064    213.6672      3.3456   1.7624762010e+01   3.3094602388e+01    0.2787199   0.07543868 -36.36  0.001222682    3.251    0.692
        11  -7.9345     99.8571      2.7921   2.8626821963e+01   5.7043462748e+01    0.1563575    0.1227468 -83.35 0.0004736296    1.295    0.228
        12  -9.6185    179.5112    163.6707   5.4313917794e+01   1.4567542790e+01    0.5318846    0.2302434 -53.51  0.002076391    2.639    0.621
        13  -8.8266    188.8625    176.2038   5.4888890157e+01   1.0725862755e+01     0.424274    0.2746529 -72.65  0.001790324    3.243    0.692
        14  -9.6881    185.3363    170.8783   5.4563868909e+01   1.2266906523e+01    0.4166885    0.2728401  48.07  0.001951929    1.930    0.482
        15 -10.6291    177.8893    170.3448   5.5929836873e+01   1.3492179849e+01    0.4985369    0.4674421 -15.25   0.00297219    1.096    0.088
        16 -10.0865    175.5644    165.3021   5.5421533143e+01   1.4859500584e+01    0.3818031    0.2126822 -52.24   0.00175391    1.840    0.457
        17  -8.7764    101.0001    176.0127   7.5806309810e+01   2.4503170364e+01    0.2186515    0.2067825   0.95            0    1.018    0.018
        18  -8.6816    194.6343    173.2039   5.3246962918e+01   1.0471709076e+01    0.3663142    0.2166559 -67.29  0.001468181    3.494    0.714
        19  -7.7440    146.6501    172.2834   6.3141150319e+01   1.8022356562e+01    0.1412614    0.1169415  71.20 0.0003607776    1.653    0.395
        20  -9.7933    213.1301    167.1699   4.8913400832e+01   9.0102129469e+00    0.2544628     0.238916 -69.33 0.0006407303    1.367    0.268
        21  -9.1979    202.4693    166.3945   5.0573595480e+01   1.0626228346e+01    0.3751571    0.2100654 -50.98  0.001888723    1.770    0.435
        22  -8.1239    110.5326    167.9629   7.1606583684e+01   2.4965957310e+01    0.2294721    0.1502592 -53.07 0.0004290124    1.533    0.348
        23  -9.5713    207.2778    162.8084   4.9083207139e+01   1.0600521715e+01    0.3764352     0.177679  44.99 0.0005910521    2.644    0.622
        24  -8.3323    158.1861    162.8499   5.8621104110e+01   1.8169425292e+01    0.2032321    0.1611911 -16.87 0.0004436816    1.335    0.251
        25  -8.6504    223.4059    161.8975   4.6330947247e+01   8.5604985342e+00    0.1963004    0.1758998  82.54   0.00127544    1.580    0.367
        26  -7.7991    141.2376    162.6176   6.2513773776e+01   2.1064848039e+01    0.1440503    0.1164168 -78.85 0.0006920266    1.634    0.388
        27  -9.7387    214.1395    155.5220   4.6610150542e+01   1.0937077904e+01    0.5500916    0.3272863 -63.29  0.001913319    2.528    0.604
        28  -9.4182    209.4329    158.5065   4.7924409172e+01   1.1071456231e+01    0.2691619    0.1989748 -31.62 0.0006590432    1.195    0.163
        29  -9.4683    209.3015    154.6925   4.7232855451e+01   1.1775711217e+01    0.2416246    0.1931035 -44.59 0.0005880814    1.114    0.102
        30  -9.5947    206.4392    152.5667   4.7300891083e+01   1.2576981509e+01    0.3323814    0.2715239  -7.52  0.000989094    1.382    0.277
        31  -7.5324     44.5074    157.5253   9.0359566570e+01   3.7223843415e+01    0.1484694    0.1463979 -71.21 0.0001660712    1.021    0.020
        32  -9.8202    190.4070    141.8821   4.7954589976e+01   1.7046058603e+01    0.5273157    0.2955253 -54.35  0.001919908    1.858    0.462
        33 -10.6829    191.9190    153.1161   4.9907783756e+01   1.4678533870e+01    0.4368938    0.2965845 -50.13  0.001282441    1.390    0.281
        34 -10.0829    189.1478    147.2579   4.9252529497e+01   1.6231397279e+01    0.3227135      0.24003 -62.15 0.0006907478    1.538    0.350
        35  -9.8829    165.3337    154.0823   5.5293344196e+01   1.8811602135e+01    0.5568781    0.3816932  30.84  0.002349244    1.614    0.380
        36 -10.6198     69.6070    145.7831   7.9811554785e+01   3.7109350212e+01    0.4732915     0.362129 -62.16  0.001675299    1.338    0.253
        37 -11.2135     66.4930    142.9967   8.0319171944e+01   3.8299094835e+01     1.118444    0.5212075 -35.92  0.003759878    2.815    0.645
        38 -13.3231     17.1782    122.7825   9.4999485036e+01   4.9312602602e+01     2.219402     1.795279  24.90  0.007638596    1.308    0.236
        39 -12.8042     65.0173    121.4981   7.6274723283e+01   4.4094219062e+01     1.703953     1.341587   7.73  0.002823578    1.362    0.266
        40 -14.2584    226.4121     91.7555   3.2966730848e+01   1.9682461205e+01        1.332    0.8412815 -72.05  0.004571829    1.810    0.447
        41  -7.6900     49.0000    248.9891   9.9307938016e+01   1.3776091686e+01     0.189519   0.07450004 -70.41 0.0005802705    2.865    0.651
        42 -12.2310     56.1221    119.2472   7.9060328804e+01   4.5972940801e+01    0.9454126     0.692461 -46.47  0.002498912    1.326    0.246
        43  -8.7606    229.1655    239.5884   5.8356078259e+01  -4.7406564435e+00     0.180152    0.1266999 -33.79 0.0006056829    1.312    0.238
        44  -8.3103    108.3841    106.8727   5.8383670138e+01   3.9732510432e+01    0.4503113    0.1513983  47.43  0.001095051    3.155    0.683
        45  -9.2954    210.5251    187.9056   5.3067728037e+01   5.6722304759e+00     0.316838    0.3001001  77.58  0.001328475    1.562    0.360
        46  -8.1719    122.6858    237.0684   7.9842843489e+01   7.5316672556e+00    0.1825071    0.1605142 -10.69 0.0003816601    1.084    0.077
        47  -7.9338    127.1492     81.8410   4.6820196210e+01   4.0711844917e+01    0.1748504    0.1618071  12.90 0.0009922289    1.255    0.203
        48 -10.7890    217.8321    184.9054   5.1302498379e+01   5.2932799752e+00    0.5369403    0.3880515 -28.44  0.002028371    1.142    0.124
        49  -9.0975    204.4079    200.2395   5.6300679269e+01   4.2463830028e+00    0.2414973    0.1699139 -24.23  0.001454815    1.220    0.180
        50  -8.2685     97.9331     68.8215   5.0610702490e+01   4.9331603584e+01    0.1959387    0.1759313  29.62 0.0002421247    1.136    0.120
        51 -12.3202     48.6994    121.1850   8.2310166446e+01   4.6476068529e+01    0.8391792     0.746822 -78.96 0.0009979891    1.243    0.196
        52  -8.4655    210.4952    177.0948   5.1150636800e+01   7.5938532999e+00    0.1944537    0.1058934 -43.33  0.001016731    1.551    0.355
        53  -9.7997    146.9316     44.5633   3.3080216037e+01   4.2044317689e+01    0.5103324    0.1726478 -36.96  0.001303332    3.007    0.667
        54  -9.8725    152.2899     42.4157   3.1733006213e+01   4.1139739230e+01    0.4699161    0.3178091   0.31  0.002276131    2.981    0.665
        55 -10.6756    192.4062    194.1599   5.7475602444e+01   6.8543854257e+00    0.9672499    0.4989569 -63.52  0.003178717    5.366    0.814
        56  -9.2310    149.4922     30.9546   2.9236681765e+01   4.3140542336e+01    0.2219904     0.124914 -28.85  0.001169758    2.178    0.541
        57  -7.5408    176.3240    190.6479   6.0041919657e+01   9.7007011358e+00    0.1272424    0.1102007 -88.91 0.0006892976    1.757    0.431
        58 -10.0501    240.1290     24.8216   1.9844812440e+01   2.6265721577e+01    0.2811091    0.2058011 -50.78  0.001787444    1.267    0.211
        59  -8.6839    240.1850     20.1932   1.9066425201e+01   2.6768795507e+01    0.1901819    0.1250766 -73.04 0.0006824848    1.179    0.152
        60  -8.9951    210.3927    182.1226   5.2067571482e+01   6.7124725622e+00    0.2501878    0.2027405 -32.36  0.001069794    1.052    0.050
        61  -8.5074     49.0322    235.8882   9.8176662122e+01   1.6672865242e+01    0.1945049     0.180288  27.28 0.0004478834    1.065    0.061
        62  -9.2400    154.5302    213.4356   6.8745680484e+01   8.1566761058e+00    0.3483401    0.2199372  39.34  0.001744855    1.772    0.436
        63  -9.7040    230.8258    207.7899   5.3047197589e+01   1.3569178520e-02     0.372494    0.1332733 -32.67   0.00167223    2.624    0.619
        64 -10.7888    223.5913    177.0950   4.9000564514e+01   5.9283358705e+00    0.5865126    0.3866376 -54.16  0.003432721    1.717    0.418
        65  -7.3668     31.2770    208.6857   1.0043169184e+02   2.5044743824e+01    0.1445334   0.09423704  58.75 0.0002530996    1.566    0.361
        66  -8.2368    224.0699    202.3097   5.3243986200e+01   1.6252448673e+00    0.1603604     0.132775  -9.57 0.0007066886    1.156    0.135
        67 -10.3638     98.1336    248.0687   8.7203460961e+01   8.3308460330e+00    0.2510748    0.2196694 -35.24 0.0004755947    1.239    0.193
