#   1 NUMBER                 Running object number                                     
#   2 MAG_AUTO               Kron-like elliptical aperture magnitude                    [mag]
#   3 X_IMAGE                Object position along x                                    [pixel]
#   4 Y_IMAGE                Object position along y                                    [pixel]
#   5 X_WORLD                Barycenter position along world x axis                     [deg]
#   6 Y_WORLD                Barycenter position along world y axis                     [deg]
#   7 A_WORLD                Profile RMS along major axis (world units)                 [deg]
#   8 B_WORLD                Profile RMS along minor axis (world units)                 [deg]
#   9 THETA_WORLD            Position angle (CCW/world-x)                               [deg]
#  10 FWHM_WORLD             FWHM assuming a gaussian core                              [deg]
#  11 ELONGATION             A_IMAGE/B_IMAGE                                           
#  12 ELLIPTICITY            1 - B_IMAGE/A_IMAGE                                       
         1 -12.2883     52.9657    115.4429   6.5590034300e+01   4.7002868737e+01     2.945574    0.5365638 -67.19  0.006010556    7.563    0.868
         2 -13.8861    233.5510     53.5622   7.2075553926e+00   2.1325090062e+01     1.232827     1.045172 -81.46  0.004792647    1.217    0.178
         3 -13.5684    240.6559     48.4125   5.4056464591e+00   2.0626921078e+01     0.990783    0.8828129  50.41  0.001422206    1.519    0.342
         4 -11.5589      8.9289      3.3615   5.0651446533e+01   7.7594646056e+01    0.3273088    0.2505176  -4.73  0.002230982    1.143    0.125
         5 -12.3298      2.7696     20.4138   6.5072329553e+01   7.4948850940e+01    0.6589167    0.2622205 -62.21  0.001367258    2.417    0.586
         6 -11.5896      2.2063     10.7295   6.0954092702e+01   7.6878157621e+01    0.5931666    0.1768613 -52.29  0.002652112    2.656    0.624
         7 -12.6758     12.2654     10.2172   5.2283353784e+01   7.6100862676e+01    0.8677007    0.4447286 -22.06  0.004289368    2.308    0.567
         8  -9.4295     41.9293    228.4048   8.1255601980e+01   2.0431201591e+01    0.2292074    0.1344075  77.85 0.0009785593    1.660    0.398
         9  -9.6171     71.8694    249.0904   7.6370808706e+01   1.2851813078e+01    0.2132289    0.1467756 -86.29   0.00137131    1.668    0.400
        10 -11.7125     29.3670    248.1994   8.4902504135e+01   1.7949928304e+01    0.4729719    0.2883804  44.14  0.001436429    1.245    0.197
        11 -14.6788      3.7706     79.1333   7.9152748413e+01   6.1158761195e+01      14.2563     1.409736 -76.27   0.02349649   14.600    0.932
        12 -10.4493    104.2823    199.9863   6.4135083825e+01   1.8083223152e+01    0.3502261    0.1739081  23.97   0.00142358    2.482    0.597
        13  -9.6089     98.2991    200.2955   6.5609212526e+01   1.8925694541e+01    0.1284809    0.1067853 -11.29 0.0001904351    1.571    0.363
        14 -13.6003      3.0937    217.8745   8.9074718490e+01   2.6615738648e+01     1.218441    0.5330498  32.35  0.002377326    2.041    0.510
        15 -11.1612     78.1211    194.0679   6.9789180286e+01   2.3279535604e+01    0.3575485    0.2130632 -88.75  0.001666655    2.019    0.505
        16  -9.6985    102.1405    191.6229   6.3511794034e+01   2.0238590763e+01    0.2166634    0.1837988  85.41 0.0004078226    1.252    0.201
        17  -9.2057     58.0824    193.8022   7.4776281202e+01   2.6058667323e+01    0.3231121    0.1716531 -88.01  0.001051473    2.106    0.525
        18 -10.3501     98.7429    181.4640   6.2903064061e+01   2.3082127439e+01    0.3774424     0.263945  22.08  0.001235025    1.645    0.392
        19  -9.9910    120.0800    180.0202   5.7323675326e+01   1.9900490593e+01    0.2218442    0.2082277  54.76 0.0006250908    1.033    0.032
        20  -8.7132     65.7176    176.3318   7.0889082022e+01   2.9248073288e+01    0.1503364   0.09597139  66.78 0.0004114844    1.611    0.379
        21  -9.5380     35.6098    228.0262   8.2593863201e+01   2.1220554619e+01    0.2522952    0.1166136  47.09  0.001342704    1.644    0.392
        22 -10.9476     97.3175    170.3110   6.1562901371e+01   2.5949354823e+01    0.7877674    0.1976683  47.49  0.002048016    4.928    0.797
        23 -13.2565    235.3666    158.6651   2.9803182338e+01   4.5318855440e+00     1.125296    0.6045205 -29.21  0.005871256    1.665    0.399
        24 -11.7364     47.2810    159.1410   7.3989552851e+01   3.6013744425e+01    0.3088907    0.2744279 -17.29   0.00081427    1.464    0.317
        25 -12.0809     74.6320    133.2806   6.1706029795e+01   3.9064842559e+01     0.359666    0.2947209 -56.20 0.0003851905    1.217    0.178
        26 -13.6053     67.9603    145.1424   6.5864937129e+01   3.6935561879e+01     2.106774     1.122056  78.60  0.002949811    2.881    0.653
        27  -8.2829     62.7429    170.2737   7.0955819769e+01   3.1165951153e+01    0.1424847   0.09670711  66.37            0    1.460    0.315
        28  -9.0026     32.6103    157.2207   7.8047701990e+01   3.8173317138e+01    0.1940506    0.1150841 -67.22 0.0008436818    1.575    0.365
        29  -8.9519    110.4969    167.1457   5.7568843649e+01   2.4486934312e+01    0.2064797    0.1464787 -59.82 0.0003950434    1.458    0.314
        30 -14.7124      9.9037    207.2444   8.7192700778e+01   2.8291275193e+01      4.34041     1.176425  23.71   0.01618329    4.336    0.769
        31 -11.1010     60.4062    151.6009   6.9136340536e+01   3.6299458920e+01     0.279736    0.2542003 -71.71 0.0003520715    1.125    0.111
        32 -13.2697     45.1735    146.9822   7.3133885323e+01   3.9470341676e+01    0.4952674    0.4262799 -24.30  0.001325802    1.485    0.326
        33  -9.1663     54.3210    150.6283   7.0829278367e+01   3.7365676895e+01     0.263618    0.1643056 -87.81 0.0007622263    1.659    0.397
        34 -10.7399     20.5266    143.9994   8.0394442533e+01   4.2818459317e+01    0.3889098    0.2807806  69.95 0.0008247006    1.255    0.203
        35 -11.8099     39.4954    163.8801   7.6738696374e+01   3.5697795261e+01    0.4589756    0.3331503 -14.64  0.001591309    2.093    0.522
        36  -9.0996    174.4395    149.2493   3.8831846574e+01   1.6566129523e+01    0.2047537    0.1343908 -52.49  0.000950182    1.623    0.384
        37  -8.3979    179.5058    141.5669   3.6118025751e+01   1.7121644818e+01    0.1431144     0.135936 -37.58  0.000154426    1.047    0.045
        38  -9.1044    133.5134    143.7710   4.7058510294e+01   2.5715489497e+01    0.3679247    0.1491935 -59.10   0.00113351    3.336    0.700
        39  -9.3029     91.8169    133.4433   5.6414491640e+01   3.6144545989e+01    0.3236759    0.2295733  13.38  0.001382487    1.967    0.492
        40 -10.0774     87.5865    136.0351   5.8222983168e+01   3.6209602644e+01    0.3473075    0.2766944  32.72 0.0008802682    1.340    0.254
        41  -9.4063    105.4996    130.4755   5.1717852259e+01   3.4383380825e+01    0.3026403    0.2478067 -65.95  0.001465656    1.218    0.179
        42  -9.7182    102.8678    127.3666   5.1788657437e+01   3.5665641980e+01     0.377657    0.2815949  28.98  0.001172589    1.516    0.340
        43  -9.1812     56.2388    244.3920   7.9257077165e+01   1.5622926312e+01    0.1947997    0.1270071 -65.12 0.0007986894    1.831    0.454
        44 -10.3868     89.0710    122.3640   5.4868715998e+01   3.9496808344e+01    0.3229724    0.2693202  30.54 0.0009964486    1.312    0.238
        45  -8.7029    111.8003    122.1894   4.7975624893e+01   3.5206993099e+01    0.2225786    0.1943001 -11.15  0.001073999    1.402    0.287
        46  -9.6474    101.9958    116.5327   4.9491427722e+01   3.8554909930e+01    0.2597033    0.2109291 -41.19 0.0003268142    1.301    0.231
        47  -9.9126    204.9416    110.7286   2.4364787148e+01   1.7927740663e+01    0.2973827    0.2488931  35.63  0.001354732    1.393    0.282
        48 -10.3923     21.3608    107.6644   7.5966979141e+01   5.2494326922e+01    0.2674442     0.218405  76.13  0.001515143    1.197    0.164
        49 -10.2916     35.9873    103.2965   6.9637989905e+01   5.2298876319e+01    0.2944161    0.2383552  84.00 0.0005033484    1.239    0.193
        50  -9.8362     32.4983     98.8645   7.0198448222e+01   5.3844121045e+01    0.3432728      0.21019  66.23  0.001149377    1.969    0.492
        51 -12.1830    243.1998     94.2538   1.5286188351e+01   1.3424009424e+01    0.4704452    0.2085838 -46.35  0.002195357    1.927    0.481
        52  -9.8734     71.0769    162.7899   6.7628765779e+01   3.1892238187e+01    0.2606511    0.2010894 -64.58 0.0003886246    1.295    0.228
        53  -8.4899     74.7171     87.3136   5.0813296339e+01   5.0975782078e+01    0.1530437    0.1195945  84.04 0.0002343275    1.575    0.365
        54  -9.0136    184.7331     77.3970   1.9300063858e+01   2.8222304412e+01    0.1909814    0.1371412  49.81 0.0005465653    1.568    0.362
        55 -14.3351      9.6697    239.8749   8.8464988335e+01   2.1541284580e+01     3.932981     2.440921   0.82  0.004382587    3.322    0.699
        56 -12.6340    213.7637     64.0675   1.1807505148e+01   2.3902967087e+01     1.437854     1.125269  56.52  0.008273704    1.501    0.334
        57 -13.0155      3.7428    184.7475   8.7654796972e+01   3.3989512487e+01     0.405598    0.3494457 -88.19 0.0007797916    1.220    0.180
        58 -10.4237     37.6332    233.3713   8.2466242504e+01   1.9914414543e+01    0.2575789    0.1854277  89.80 0.0006176702    1.388    0.280
        59  -9.7311    124.2928     56.2769   2.4870676386e+01   4.6731830686e+01    0.2877056    0.2201357 -58.13 0.0006155209    1.362    0.266
        60 -14.8209     15.6573    177.8117   8.4309157957e+01   3.4620657705e+01     2.927593     1.701841  52.88  0.008168358    1.473    0.321
        61 -11.2105     97.9437    227.6588   6.8889413066e+01   1.3397107215e+01    0.5377663   0.09159289  37.89  0.001743913    3.923    0.745
        62 -11.2279     20.0072     34.7565   5.8950953962e+01   7.0629379077e+01    0.3158179    0.1741844 -66.99  0.001501285    2.244    0.554
        63 -10.8369    127.3141    231.0488   6.2927497194e+01   8.6192634183e+00    0.3215485    0.2352255  76.48  0.001844593    1.936    0.484
        64  -9.1795    141.3043    227.3070   5.9502190997e+01   7.2618173391e+00    0.1237931   0.09114879   0.07 0.0007014937    1.604    0.377
        65  -9.3641     47.8478    232.0934   8.0216674387e+01   1.9000065763e+01    0.1927819    0.1284134  62.54 0.0006322213    1.271    0.213
        66  -8.8919     60.2410     21.2298   3.0328485208e+01   6.6945206880e+01    0.1659262    0.1579085  89.01 0.0004539283    1.289    0.224
        67  -8.9310    189.3454     15.0695   1.6994331270e+00   3.6124487482e+01     0.187455    0.1495915 -55.23 0.0006119442    1.105    0.095
