#   1 NUMBER                 Running object number                                     
#   2 MAG_AUTO               Kron-like elliptical aperture magnitude                    [mag]
#   3 X_IMAGE                Object position along x                                    [pixel]
#   4 Y_IMAGE                Object position along y                                    [pixel]
#   5 X_WORLD                Barycenter position along world x axis                     [deg]
#   6 Y_WORLD                Barycenter position along world y axis                     [deg]
#   7 A_WORLD                Profile RMS along major axis (world units)                 [deg]
#   8 B_WORLD                Profile RMS along minor axis (world units)                 [deg]
#   9 THETA_WORLD            Position angle (CCW/world-x)                               [deg]
#  10 FWHM_WORLD             FWHM assuming a gaussian core                              [deg]
#  11 ELONGATION             A_IMAGE/B_IMAGE                                           
#  12 ELLIPTICITY            1 - B_IMAGE/A_IMAGE                                       
         1 -14.8454    247.6581     38.6358   1.9954815714e+00   2.1911563170e+01     1.757704    0.4106667 -31.50   0.00718952    3.601    0.722
         2 -10.3061     86.5254     53.8346   3.1388577024e+01   5.5172363205e+01    0.2892663    0.1515496 -34.64  0.001146762    2.164    0.538
         3 -10.3329    212.3140    247.0142   4.4309497186e+01  -1.2205989810e+00     0.169997   0.05796207 -22.94 0.0007043851    4.229    0.764
         4 -10.1973    169.4684    242.5100   5.1419928664e+01   3.6549396080e+00    0.1165455   0.08706236   6.14  0.000123467    1.002    0.002
         5 -10.3641    160.5933    240.7607   5.2931493849e+01   4.8711321976e+00     0.135844    0.1122783 -46.95 0.0009505031    1.690    0.408
         6 -10.0403    236.0000    229.0581   3.7981057276e+01  -1.2890051731e+00    0.1585491    0.0475565 -36.47 0.0008007589    2.931    0.659
         7 -10.5289    184.5889    227.7610   4.6510012833e+01   4.0589715703e+00    0.1419203    0.1051461 -40.41  0.000953324    1.657    0.396
         8 -10.3216    250.0000    215.9989   3.3975528189e+01  -1.0388792666e+00    0.1634246   0.04543206 -35.84 0.0008062863    2.969    0.663
         9 -10.1942    198.5453    214.7167   4.2016191574e+01   4.3294568397e+00    0.2086584   0.09536773 -34.32   0.00113377    2.022    0.505
        10  -9.7932    185.0000    212.9936   4.4234328564e+01   6.1336293298e+00    0.1806996   0.06168797 -42.10 0.0008021012    2.940    0.660
        11 -10.4452    192.3739    209.1761   4.2270710236e+01   5.8257665489e+00    0.1547627    0.1037783 -43.10 0.0009520831    1.749    0.428
        12 -10.4279    236.7233    207.7322   3.4656775305e+01   1.2105098572e+00    0.1892775    0.1193769 -47.65  0.001090777    2.540    0.606
        13 -11.1470     98.6588    203.7089   6.2039773482e+01   1.8929091484e+01    0.3471618    0.1232976 -57.06   0.00136662    3.115    0.679
        14 -10.3388    197.0068    203.5216   4.0531695065e+01   6.1025977282e+00    0.1880067      0.13534 -24.35 0.0008344579    1.227    0.185
        15 -10.6781    183.9966    203.0228   4.2857147096e+01   7.7538549633e+00    0.1664103    0.1542316  49.96  0.001140619    1.678    0.404
        16 -10.0362    210.6898    200.5338   3.7664012992e+01   4.9359636740e+00    0.2030117   0.09014706 -37.37  0.001085374    2.046    0.511
        17 -10.4050    140.0000    199.0033   5.1396043057e+01   1.4221649223e+01    0.2035771   0.07417069 -49.54 0.0008091025    2.989    0.665
        18 -10.7373    123.5640    197.3333   5.4989634283e+01   1.6815653742e+01    0.3094366    0.1278841 -50.37  0.001304982    2.604    0.616
        19 -11.4751     88.2725    196.1669   6.3772112021e+01   2.1878649679e+01    0.4334037    0.1302173 -63.12  0.001465135    4.045    0.753
        20  -9.9459    215.6339    194.8541   3.5910098969e+01   5.1612375304e+00    0.1557039   0.09432805 -41.32 0.0009427248    1.768    0.434
        21 -10.6624    224.7201    192.9024   3.4126042321e+01   4.3993787819e+00    0.3123899    0.1288851 -43.84  0.001554537    2.740    0.635
        22 -10.9283    245.8961    192.9031   3.0961654183e+01   2.1408577092e+00    0.2680296     0.176726 -50.80  0.001659527    2.678    0.627
        23 -10.4489    185.2977    193.8408   4.1105543831e+01   9.0126305979e+00    0.2282048    0.1043867 -47.42  0.001069584    2.579    0.612
        24 -10.4306     76.6701    192.6789   6.6464780348e+01   2.4152670671e+01    0.1410715    0.1031426 -17.11 0.0007048816    1.693    0.409
        25 -10.7345    129.0803    187.2133   5.2091763429e+01   1.8010241347e+01    0.3433045    0.1825079 -49.91  0.001596987    2.029    0.507
        26 -11.1073     95.4746    187.9736   6.0768174768e+01   2.2677587671e+01    0.2689199    0.1404069 -78.77 0.0009936308    3.478    0.713
        27 -10.7476    111.5069    196.5045   5.7829472757e+01   1.8655997387e+01    0.1378455    0.1204206  21.25 0.0002896498    1.017    0.016
        28 -10.2574    155.5356    185.0866   4.5667139715e+01   1.4558056601e+01    0.3070445    0.1298783 -57.67  0.001040182    4.530    0.779
        29 -11.2511    120.0034    183.7543   5.3768499554e+01   2.0041112859e+01    0.5592217    0.1985969 -63.93  0.001405724    7.411    0.865
        30  -9.9510    164.7524    184.9904   4.3687343411e+01   1.3256587969e+01    0.1713402    0.1044439 -40.31 0.0008979607    1.630    0.387
        31  -9.6922    235.3029    180.6885   3.0473631770e+01   4.8568853649e+00   0.09697366   0.08227837 -41.26 0.0003534645    1.610    0.379
        32 -10.9695    147.3249    179.1920   4.6469463797e+01   1.6854882261e+01    0.3230702    0.1284008 -56.71  0.001100142    4.065    0.754
        33 -10.6266    120.5354    169.5250   5.1245138165e+01   2.2941819072e+01    0.2423479    0.1445879 -65.68  0.001035374    2.315    0.568
        34 -10.8572    149.7201    168.1906   4.3943039844e+01   1.8584108104e+01    0.3265796    0.1149172 -44.63  0.001222647    2.823    0.646
        35 -10.2892     54.5014    168.0021   6.9974560876e+01   3.2786141712e+01    0.2099377    0.1128411  73.12  0.000680699    2.557    0.609
        36 -10.9289    212.7378    162.3195   3.0700866960e+01   1.0253964170e+01    0.3250166    0.1404193 -41.34  0.001592795    2.122    0.529
        37 -10.6691     91.6612    158.4805   5.7282890208e+01   2.9988967295e+01    0.2611803    0.1404147 -57.56  0.001089233    1.967    0.492
        38 -10.1195    132.0000    151.0300   4.4838921025e+01   2.4982847872e+01    0.2394155   0.08204892 -48.85 0.0008069436    2.974    0.664
        39 -10.5627     90.8100    149.3648   5.5928908186e+01   3.2319442701e+01    0.2919173    0.1225279 -60.57  0.001029606    2.659    0.624
        40 -10.3057    189.3079    148.1222   3.1967776062e+01   1.5932496666e+01    0.3358392    0.1000422 -47.59  0.001090384    4.217    0.763
        41 -10.6110    198.8533    148.0305   3.0277275396e+01   1.4475562273e+01    0.2610036    0.1389071 -37.67  0.001334681    1.657    0.396
        42 -10.7473    105.2830    143.6994   5.0553100175e+01   3.1260575773e+01    0.3626356    0.2090599  70.48   0.00113969    3.957    0.747
        43 -10.6186     54.5184    144.5128   6.6875594573e+01   3.8834734076e+01     0.150842    0.1400976  54.33 9.779726e-05    1.033    0.032
        44 -10.5148    147.9812    144.4813   3.9651407197e+01   2.3534076719e+01      0.27617    0.1839598 -83.24  0.001030002    3.477    0.712
        45  -9.9835     16.4707    137.4842   7.9535922580e+01   4.4631761694e+01    0.1411385    0.1313298  72.89 2.766438e-05    1.004    0.004
        46 -10.5050    197.4646    136.5130   2.8198382984e+01   1.6569560616e+01    0.1296062    0.1106244 -23.05 5.762997e-05    1.016    0.016
        47 -10.5481     69.0349    135.8322   6.0478599175e+01   3.9108641641e+01    0.2510827    0.2180586 -61.27 0.0003919064    1.182    0.154
        48 -10.7989     21.4929    135.4932   7.7520817162e+01   4.4769986306e+01    0.2705455    0.1279702  85.17  0.001036284    2.432    0.589
        49 -10.7705    179.4792    133.4897   3.0749583776e+01   2.0074619688e+01    0.2482505    0.1164597 -49.52  0.001032995    2.372    0.578
        50 -10.2126    142.8287    130.9792   3.7914177187e+01   2.7206558766e+01    0.2398784    0.1746525 -72.96  0.001093888    1.979    0.495
        51  -9.7985    204.6687    130.3230   2.5757601827e+01   1.6419206244e+01    0.1225015   0.09569551 -63.58 0.0007049978    1.701    0.412
        52 -10.5080     82.4713    130.0113   5.4823888129e+01   3.8484494941e+01    0.2410702    0.1534081 -57.48  0.001039696    1.615    0.381
        53 -10.4656    192.7078    128.8830   2.7412089808e+01   1.8611336034e+01    0.2215833    0.1521935 -23.15  0.001203726    1.467    0.318
        54 -10.6491    168.3942    129.2088   3.1959447315e+01   2.2807750888e+01    0.1999706    0.1235135 -49.27 0.0006311417    1.675    0.403
        55 -10.9403    152.4317    128.2784   3.5106935734e+01   2.5938261650e+01    0.3588524      0.13494 -46.13   0.00129482    2.636    0.621
        56 -10.3291    186.3133    128.6625   2.8472694882e+01   1.9735663023e+01    0.1301343    0.1027127 -67.64 0.0007046452    1.692    0.409
        57 -10.8174     97.9204    126.7145   4.9160280119e+01   3.6606203484e+01    0.4887274    0.2139181 -65.99  0.001441838    3.876    0.742
        58 -11.0959     11.5662    128.0148   8.0538327561e+01   4.7557541377e+01    0.3101591    0.1592845  73.83  0.001296156    2.101    0.524
        59 -10.3467    188.2383    123.2451   2.6966655412e+01   2.0324828060e+01    0.2184773   0.09346859 -47.60 0.0008893008    2.439    0.590
        60 -10.5885    179.3239    123.3322   2.8568348363e+01   2.1889765784e+01    0.1392133    0.1023451  -3.70 0.0007050524    1.705    0.414
        61 -11.2227     57.4462    121.1657   6.1916911846e+01   4.4654214809e+01    0.3604802    0.1587531 -75.67  0.001149199    3.221    0.689
        62 -10.5186    172.3531    121.1987   2.9394316692e+01   2.3542046972e+01    0.2044671    0.1185018 -47.56 0.0006891363    1.716    0.417
        63  -9.6873    158.6419    121.3214   3.2171348325e+01   2.6104895677e+01    0.1436398    0.1138256 -83.95 0.0003131968    1.766    0.434
        64 -10.6876    130.1210    117.7046   3.7923889870e+01   3.2449581882e+01    0.2985543    0.1774406 -59.67   0.00121259    2.089    0.521
        65 -10.5225    185.5726    114.7708   2.5552525687e+01   2.2237663472e+01      0.27081     0.120221 -35.27  0.001147527    2.130    0.530
        66 -10.9085      2.0000    114.9927   8.3249798930e+01   5.1675800311e+01     0.238207   0.07419649 -80.59 0.0008082669    2.983    0.665
        67 -10.9592    108.3575    112.8613   4.2707717631e+01   3.7879964993e+01    0.3164709    0.1470209 -57.26  0.001097437    2.583    0.613
        68 -11.2744     91.8503    112.0128   4.7650982956e+01   4.1283923846e+01    0.4765721    0.2274144 -67.80  0.001446961    3.616    0.723
        69 -11.7268     78.0848    110.8216   5.2083898272e+01   4.4082964546e+01    0.6715379    0.3127623 -69.95   0.00207079    3.489    0.713
        70 -11.0675    121.7847    110.6958   3.8365571410e+01   3.5645883017e+01    0.4432242    0.1780967 -40.17  0.001499786    2.725    0.633
        71 -10.4213     13.3985    107.8639   7.7796890500e+01   5.2964584773e+01    0.3602114   0.08424288 -64.67   0.00114177    3.278    0.695
        72 -11.0710    128.3794     99.9750   3.3835051270e+01   3.6528044968e+01    0.5311041    0.2569388 -38.77  0.002029973    2.176    0.540
        73 -10.6812      6.0000    102.0043   8.0411703775e+01   5.5023565108e+01    0.2401406   0.07554162 -78.14 0.0008066773    2.972    0.664
        74 -10.9747     42.6290     98.1472   6.3313958403e+01   5.2808179227e+01    0.6760199    0.2417162 -73.01  0.001959531    3.945    0.747
        75 -10.6587    107.3901     98.2230   3.9140463682e+01   4.1380992625e+01    0.2220804    0.1470039 -58.70 0.0007291849    1.690    0.408
        76 -11.4464     94.5650     93.8405   4.1933006030e+01   4.5038703102e+01    0.6436866    0.3065633 -40.44  0.002328813    2.350    0.575
        77 -11.4784    123.9799     89.1560   3.1966617734e+01   3.9693768668e+01    0.5606416    0.2197236 -43.39  0.001957822    2.544    0.607
        78 -11.2553     34.5703     85.5130   6.4258389593e+01   5.7143725273e+01    0.6550636    0.2393394 -48.87  0.002284891    2.652    0.623
        79 -11.5615     85.8371     86.3556   4.2726345147e+01   4.8536239272e+01    0.3067941    0.2187296 -78.57  0.001281995    1.944    0.486
        80 -11.2853     48.2024     84.4565   5.7538804528e+01   5.5649034171e+01    0.3699518     0.215427  72.63  0.001290474    3.095    0.677
        81 -11.3630    104.3274     83.1031   3.5667201637e+01   4.5315998857e+01    0.4169209    0.2624156 -72.43  0.001563894    2.555    0.609
        82 -10.8947     23.5206     79.0389   6.8399902057e+01   6.0003162139e+01     0.332352    0.1474801 -77.64    0.0012087    2.687    0.628
        83 -10.9473    127.8651     74.7681   2.6766743572e+01   4.1585417603e+01    0.3916785    0.1786988 -53.18  0.001384942    2.684    0.627
        84 -14.2011    238.7551     69.4603   8.8811220981e+00   1.9656467733e+01    0.5798681    0.4630362  68.93  0.004203043    1.542    0.352
        85 -10.1569     12.3554     74.2804   7.3454224852e+01   6.2151185913e+01    0.1526645   0.09407111 -34.23 0.0005027077    1.659    0.397
        86 -11.3329     81.8562     72.7253   3.9842961875e+01   5.2400504075e+01    0.3019999    0.2100338 -78.65  0.001241547    2.156    0.536
        87 -10.5582     95.1767     71.5566   3.4846656836e+01   4.9752234089e+01    0.4106291    0.1705956 -55.34  0.001270484    3.427    0.708
        88 -10.8877    105.3518     70.8881   3.1490917185e+01   4.7569128221e+01    0.3106358    0.1345787 -49.54  0.001088184    2.556    0.609
        89 -10.9522     51.0036     68.8061   5.1607788140e+01   5.9094656877e+01    0.5294443    0.2365736 -70.68   0.00143743    5.075    0.803
        90 -10.3609    118.8511     69.8586   2.7466580453e+01   4.4608016723e+01    0.2102486    0.2019411  14.06 0.0002669665    1.153    0.133
        91  -9.7720    154.4980     67.9670   1.9255911901e+01   3.6574927442e+01    0.2041382    0.1344065 -38.70 0.0003670777    1.465    0.317
        92 -10.6658     36.4107     63.2319   5.7308885336e+01   6.2590710962e+01    0.2031671    0.1429855 -72.75 0.0009534484    1.672    0.402
        93 -10.4970     72.4899     57.9865   3.8183239077e+01   5.7465414896e+01     0.354758    0.1466688 -51.19  0.001225281    2.812    0.644
        94 -10.2024    131.1622     57.2176   2.0564803295e+01   4.3844957805e+01    0.2102527    0.1649711 -69.07 0.0007427061    1.353    0.261
        95  -9.6968    224.4872    248.4857   4.2520966326e+01  -2.4864076088e+00    0.1037727   0.07163144  -2.73 0.0001367007    1.035    0.034
        96 -10.5568     62.5029     53.1549   4.0527533398e+01   6.0490039830e+01    0.3006617    0.1483317 -48.62  0.001192731    2.162    0.537
        97 -10.3420    159.4881     54.9555   1.4743559371e+01   3.7437536875e+01      0.21163    0.1296684 -37.19   0.00102478    1.567    0.362
        98 -11.0390     28.4675     42.4824   5.4616594583e+01   6.8454656112e+01     0.244348    0.2023719 -18.85 0.0006420272    1.190    0.160
        99 -11.7477    238.4626     42.3983   3.3590696905e+00   2.3026520808e+01    0.1825556    0.1599708 -53.36 0.0005466733    1.172    0.146
       100 -10.3869    184.4830     41.5034   7.8411781644e+00   3.3645590611e+01     0.130353    0.1109926 -60.97 0.0001144215    1.001    0.001
       101 -10.2836     69.6561     41.3222   3.2495177992e+01   6.1235904295e+01    0.1488987    0.1165333  89.49 0.0007050224    1.731    0.422
       102 -10.7025     36.4914     40.0499   4.8529199186e+01   6.7828221036e+01      0.36738    0.1388978 -51.20  0.001369542    2.758    0.637
       103 -10.6173    122.0449     36.8789   1.5622029040e+01   4.9164141120e+01    0.2632675    0.1931179  73.97  0.001343736    1.309    0.236
       104 -11.0168     21.8930     53.7936   6.2870513919e+01   6.6586537759e+01    0.3520112    0.1969838 -85.98  0.001390116    2.831    0.647
       105 -10.1725     38.2288     35.5623   4.5406577836e+01   6.8458142857e+01     0.197908    0.1282581  23.15 0.0007115291    1.609    0.378
       106 -10.7436    176.5565     33.1962   6.5150531142e+00   3.6438657081e+01    0.2197636    0.1689645  83.21 0.0004517924    1.269    0.212
       107  -9.8907     81.3031     26.9713   2.1818940422e+01   6.0758935762e+01    0.2307794   0.08918732 -50.99 0.0007035898    4.172    0.760
