#   1 NUMBER                 Running object number                                     
#   2 MAG_AUTO               Kron-like elliptical aperture magnitude                    [mag]
#   3 X_IMAGE                Object position along x                                    [pixel]
#   4 Y_IMAGE                Object position along y                                    [pixel]
#   5 X_WORLD                Barycenter position along world x axis                     [deg]
#   6 Y_WORLD                Barycenter position along world y axis                     [deg]
#   7 A_WORLD                Profile RMS along major axis (world units)                 [deg]
#   8 B_WORLD                Profile RMS along minor axis (world units)                 [deg]
#   9 THETA_WORLD            Position angle (CCW/world-x)                               [deg]
#  10 FWHM_WORLD             FWHM assuming a gaussian core                              [deg]
#  11 ELONGATION             A_IMAGE/B_IMAGE                                           
#  12 ELLIPTICITY            1 - B_IMAGE/A_IMAGE                                       
         1 -14.4798    198.6052    203.7484   8.8862391012e+01   2.0727690649e+00     3.203039     2.519893 -37.66   0.01900316    1.414    0.293
         2 -14.7951    193.3218     79.3128   6.1244474711e+01   2.5762761176e+01      4.27371      2.66397  30.15   0.01732092    2.233    0.552
         3 -12.2235    224.4790     64.0772   5.2260674225e+01   2.0741915390e+01     1.187641    0.7085857  59.26  0.001447034    1.748    0.428
         4 -14.6766    226.2765     46.2987   4.7561067172e+01   2.2915278399e+01     8.652375      1.45493  53.02     0.022802    6.095    0.836
         5 -14.7120    209.1057     72.4847   5.6714745501e+01   2.3066322770e+01     5.818349     3.124994 -21.53   0.02264786    2.420    0.587
         6 -11.6149    236.8648     17.4920   3.9534487910e+01   2.4141041099e+01    0.4226797    0.2571692 -20.38  0.001324026    2.050    0.512
         7  -9.1186    215.9902      8.7397   3.9318755279e+01   2.9997014139e+01    0.2346043    0.1719339 -16.41 0.0006662186    1.701    0.412
         8 -12.3090    107.5116      4.4614   5.3908876984e+01   5.7180498264e+01     1.377149    0.3241297  49.38  0.004868326    3.167    0.684
         9  -9.2015    137.3111      8.6639   4.9450235648e+01   4.9699494979e+01    0.1381108    0.1004543 -65.32 0.0004419962    1.684    0.406
        10 -12.2987     85.1761      2.9277   5.9010818109e+01   6.2158197576e+01      1.22869     0.285381  51.23  0.004501156    3.283    0.695
        11 -10.2846    125.0909      2.1170   4.9323849117e+01   5.3256235728e+01    0.2889663     0.153969  58.57  0.001054155    1.599    0.375
        12 -10.6987     47.2142    155.8722   1.1545404034e+02   3.7150772967e+01    0.5150818    0.4461296  74.46   0.00323685    1.103    0.094
        13 -10.3677     53.3090    152.0596   1.1344239962e+02   3.7342013207e+01    0.3588995    0.2632409 -63.29  0.001394344    1.266    0.210
        14 -10.3111     40.1005    159.2319   1.1757815944e+02   3.7149769878e+01    0.4079448    0.3036515 -12.92  0.001486382    2.203    0.546
        15 -12.0888    170.1402    215.2958   9.6463772876e+01   5.1598629794e+00     0.414341    0.2948076 -42.53   0.00236776    1.614    0.381
        16  -8.7939    133.3828    149.1433   9.2527101611e+01   2.5119479966e+01     0.215559    0.1423822 -62.76 0.0006025058    1.716    0.417
        17 -11.4807    187.3145    139.2624   7.7884519084e+01   1.5861886504e+01    0.5415869    0.1983494 -40.01  0.001827538    2.716    0.632
        18 -10.9568    174.4540    140.8557   8.1033087403e+01   1.8323180026e+01    0.3248065    0.2318526 -48.06  0.001504661    1.450    0.310
        19  -8.7980    131.5980    140.7776   9.1166532815e+01   2.7358600032e+01    0.2160444    0.1452226 -60.96 0.0006667819    1.631    0.387
        20 -10.8459    173.3516    129.8865   7.8660354433e+01   2.0800733259e+01    0.3822367    0.2622287 -70.41  0.001428115    2.166    0.538
        21 -10.3824    160.1595    130.4641   8.1808795939e+01   2.3600866490e+01    0.3684562    0.2722747 -75.67  0.001595601    1.869    0.465
        22 -10.2260    166.5079    127.5100   7.9618419380e+01   2.2815238831e+01    0.3074349    0.2315148 -51.21  0.001034285    1.382    0.276
        23 -11.3292    179.6033    246.8332   9.9324571914e+01  -1.1607134745e+00    0.4146893     0.210512  30.23  0.002183147    1.812    0.448
        24 -11.0126    176.3790    113.1534   7.3771206438e+01   2.3496779160e+01    0.3370452    0.3097982  -9.73  0.001281419    1.136    0.120
        25 -10.1203    157.8614    114.1041   7.8219790266e+01   2.7571723221e+01    0.2474855    0.2191353 -78.08 0.0006201294    1.276    0.216
        26  -9.5152    152.4137    114.2167   7.9552493293e+01   2.8784372905e+01    0.2327408    0.1475866 -53.37 0.0009541804    1.708    0.415
        27  -9.2555    146.4995    113.9616   8.0934606989e+01   3.0165874612e+01    0.2454291    0.1544305 -44.69 0.0007042918    1.574    0.364
        28 -11.3709    133.9517    109.3135   8.2900650208e+01   3.3936309109e+01    0.4459307    0.3098138 -45.09  0.001601524    1.416    0.294
        29 -11.5523    183.8906    240.2979   9.7601110382e+01  -9.3242584108e-01    0.2706097    0.2433432 -37.87  0.001916376    1.396    0.284
        30  -9.6604    154.4972    107.5250   7.7271712007e+01   2.9719176060e+01    0.2850002    0.1454514 -51.70 0.0009222616    2.202    0.546
        31 -11.1578    141.2838    106.0807   8.0140457765e+01   3.3024852486e+01    0.4885229    0.3306372 -12.88  0.001915208    2.252    0.556
        32 -10.0532    159.7926    239.5209   1.0204202168e+02   3.0468198066e+00     0.200422    0.1851264 -43.02  0.001417396    1.334    0.250
        33 -11.3575    148.8162    102.6304   7.7313041956e+01   3.2047209817e+01    0.4609545    0.3579783  48.77  0.001563582    1.305    0.234
        34 -12.5871    158.5299     98.6311   7.3876025087e+01   3.0602834687e+01    0.8427094    0.6342682 -74.32  0.003699155    1.754    0.430
        35 -10.8540    158.3535     81.9154   6.9110055369e+01   3.3904845019e+01    0.4696421    0.2673082 -27.61  0.001826314    2.034    0.508
        36  -9.6761    121.0976     99.6599   8.3728687674e+01   3.8791612216e+01    0.2888152    0.2087505 -53.59  0.001320881    1.420    0.296
        37 -10.8040    134.0075     97.5069   7.9638150271e+01   3.6474538950e+01     0.337516    0.2429408 -42.22  0.001407582    1.367    0.268
        38  -8.6500    128.2988     98.3275   8.1388117253e+01   3.7550302427e+01    0.1585678    0.1243592  -3.98 0.0007028205    1.636    0.389
        39 -11.7800    157.3213     89.2188   7.1482947968e+01   3.2756532687e+01    0.6728351    0.4337735 -38.15  0.001568857    1.541    0.351
        40 -12.6993    178.7905    210.6778   9.3980398594e+01   4.4171582999e+00     0.535842    0.3632689 -46.64  0.002943629    1.723    0.420
        41 -10.4586    148.6039     94.7575   7.5152593339e+01   3.3718556104e+01    0.3210734    0.2516653 -50.78   0.00116264    1.311    0.237
        42 -11.5417    142.0678     91.9711   7.5972290741e+01   3.5802370070e+01    0.6782914     0.278825 -35.12  0.002226572    2.724    0.633
        43 -10.9412    150.6716     87.8494   7.2651723451e+01   3.4612970422e+01    0.4277393    0.3191115 -49.59  0.001967533    1.384    0.277
        44 -10.0010    129.1033     87.6937   7.8086828935e+01   3.9614278451e+01    0.2810928    0.2122037 -51.02 0.0007771715    1.370    0.270
        45  -9.0604    133.4876     83.4894   7.5658700012e+01   3.9481684851e+01    0.1545743     0.151368 -11.90 5.398816e-05    1.004    0.004
        46 -10.2951    170.5162    123.1247   7.7618550543e+01   2.2821393855e+01    0.3224736    0.2448201 -82.62  0.001104442    1.858    0.462
        47 -11.2266    150.5991     78.8496   6.9987477279e+01   3.6361077487e+01    0.5464447    0.2641442 -31.91  0.001987565    2.273    0.560
        48 -10.4525    143.1525     80.8812   7.2404078442e+01   3.7752172058e+01    0.2454088    0.2170443 -72.16 0.0008885543    1.273    0.214
        49  -9.8793    137.4995     80.0494   7.3570912551e+01   3.9237170123e+01    0.2435794    0.1523793 -39.05  0.001031816    1.586    0.370
        50 -11.1310    157.5015     75.0827   6.7259618691e+01   3.5374649067e+01     0.351779    0.2858082 -34.65  0.001041744    1.236    0.191
        51 -11.4253    151.4942     71.2309   6.7446682719e+01   3.7542031420e+01    0.4345402    0.3452358 -40.88  0.001705196    1.263    0.208
        52  -8.9827    243.1610     69.7464   5.1189525452e+01   1.5663956470e+01     0.201845    0.1720618 -63.25 0.0005698592    1.132    0.117
        53 -10.9011    132.8391     69.5352   7.1460912660e+01   4.2311106257e+01      0.31203    0.2450508   0.78  0.001265179    1.543    0.352
        54 -11.8145    229.8418     75.0535   5.4261209718e+01   1.7803493230e+01     1.236565    0.6073877 -55.52  0.004117572    2.482    0.597
        55  -8.4501    141.2907    122.6416   8.4456112121e+01   2.9411962645e+01    0.1609477    0.1248634 -83.68 0.0004908633    1.689    0.408
        56 -11.0249    138.9160     67.8747   6.9391717082e+01   4.1182466172e+01     0.377402    0.2236807 -24.48  0.001522293    1.995    0.499
        57 -11.1914    150.4926     65.0004   6.5729390966e+01   3.8882043251e+01    0.3881437    0.2871944  46.83   0.00172975    1.337    0.252
        58 -11.2533    145.7932     67.2568   6.7532039848e+01   3.9638229634e+01    0.3585677    0.2817848 -15.11  0.001269501    1.439    0.305
        59 -10.8923    250.0817     59.5929   4.7974302924e+01   1.5669686213e+01    0.3154621    0.1838005 -47.64 0.0007162653    1.521    0.343
        60 -10.7634    148.0508     55.8348   6.3347201446e+01   4.1011392605e+01    0.3095922    0.2071481  36.59    0.0013816    1.629    0.386
        61  -8.3491    140.3053    117.6409   8.3441027018e+01   3.0727476249e+01    0.1629006    0.1255972 -84.22 0.0007039712    1.726    0.421
        62 -11.2494    168.2031    112.2718   7.5350022763e+01   2.5570990922e+01     0.538891    0.2523049 -50.77  0.001877206    2.450    0.592
        63  -9.9803    190.7418     37.5403   4.9941457314e+01   3.2833945234e+01    0.2779222    0.2485702 -53.72 0.0007311326    1.103    0.093
        64 -11.6545    163.1820    120.8104   7.8705300727e+01   2.4959157521e+01    0.5253515    0.4490596 -39.88  0.002185983    1.161    0.139
        65 -10.5069    228.1530     30.1744   4.3374083850e+01   2.4613994515e+01    0.4241201      0.30587 -34.76  0.001664578    1.379    0.275
        66 -11.3582    204.5949    117.8076   6.9209957339e+01   1.6151779242e+01    0.4011252     0.327088   3.14  0.001167929    1.419    0.295
        67 -10.5856    182.4446    120.6697   7.4392312095e+01   2.0608483069e+01    0.2816208    0.2210487 -58.24 0.0006813786    1.426    0.299
        68 -10.2512    157.2895    120.6151   8.0035723387e+01   2.6327634950e+01    0.2984424    0.1876195 -52.64 0.0008469978    1.712    0.416
        69  -9.4492    112.3457    248.3427   1.1202582866e+02   9.0790207000e+00    0.2072012    0.1559392  55.23 0.0003437815    1.083    0.077
        70  -9.9915    133.9879     16.0761   5.2706928031e+01   4.9791157679e+01    0.3202685    0.2162272  75.10 0.0006786705    1.600    0.375
        71  -8.6550    242.7906    200.4840   8.0068040756e+01  -4.7805314981e+00    0.1659087    0.1117578  33.18  0.000394073    1.412    0.292
        72 -12.3334    179.5895    231.6492   9.7139029936e+01   1.0061589966e+00    0.5079623    0.3035352  59.99  0.002458542    2.575    0.612
        73 -11.5112    167.8039    201.6937   9.4702339846e+01   7.8990493222e+00    0.4048268    0.2445523 -42.75  0.001748763    1.846    0.458
        74 -12.5586      7.4494    175.0543   1.2628021112e+02   3.6663538634e+01    0.8563622    0.5676519  82.04   0.00503721    1.178    0.151
