#   1 NUMBER                 Running object number                                     
#   2 MAG_AUTO               Kron-like elliptical aperture magnitude                    [mag]
#   3 X_IMAGE                Object position along x                                    [pixel]
#   4 Y_IMAGE                Object position along y                                    [pixel]
#   5 X_WORLD                Barycenter position along world x axis                     [deg]
#   6 Y_WORLD                Barycenter position along world y axis                     [deg]
#   7 A_WORLD                Profile RMS along major axis (world units)                 [deg]
#   8 B_WORLD                Profile RMS along minor axis (world units)                 [deg]
#   9 THETA_WORLD            Position angle (CCW/world-x)                               [deg]
#  10 FWHM_WORLD             FWHM assuming a gaussian core                              [deg]
#  11 ELONGATION             A_IMAGE/B_IMAGE                                           
#  12 ELLIPTICITY            1 - B_IMAGE/A_IMAGE                                       
         1 -15.0513     29.9278     80.1697   1.0088037809e+02   5.7427458089e+01     3.150263     2.659439  19.58   0.01987697    1.354    0.261
         2 -11.9894     31.6283     29.9387   8.3831042228e+01   6.7219040630e+01     2.602176     0.969741  38.04   0.01151802    3.191    0.687
         3 -14.9541     11.0595     20.7416   9.0487818113e+01   7.0738074072e+01     2.956408     1.932288 -32.90   0.01964665    1.215    0.177
         4 -12.6986     75.6653     32.9870   6.6919314696e+01   6.0077414469e+01     1.162935    0.7473288  33.87  0.006215627    1.455    0.313
         5 -12.8793     63.7142     45.4335   7.6289153487e+01   6.0243023640e+01     1.191743    0.6675608 -25.89  0.005702608    1.884    0.469
         6 -14.6312     62.6541     73.1330   8.6363445460e+01   5.5157144256e+01     2.565325     1.502523 -12.10   0.01051345    2.664    0.625
         7 -14.2548     96.9122     71.9743   7.4174043490e+01   4.9506562302e+01      1.38235    0.8639666  38.96  0.002637938    1.612    0.380
         8 -12.2183     83.0450     22.4222   6.0119592734e+01   5.9997932822e+01    0.5860865    0.4042688  47.75  0.002078855    1.367    0.268
         9 -12.5101    123.5455     10.6991   4.5678125303e+01   5.2233750266e+01     1.041774    0.2813023  52.68 0.0006480927    2.840    0.648
        10 -12.8311     75.7445     13.3303   5.8525314848e+01   6.2441634118e+01    0.4576329    0.3741366  23.24  0.001673833    1.036    0.035
        11 -14.0464     87.1102      6.8939   5.2430347588e+01   6.0742394773e+01     3.058964    0.9189839  52.70   0.01250032    2.612    0.617
        12 -13.1674    104.7862      4.7579   4.7309342208e+01   5.7066991219e+01    0.7407744    0.6430214  61.82  0.004092401    1.136    0.120
        13 -12.8328    185.7294     11.8462   3.7090114014e+01   3.7177632122e+01    0.5178036    0.3695705  66.12  0.002452331    1.297    0.229
        14 -11.8825    175.2611     13.9815   3.8851857564e+01   3.9459867130e+01     0.394038    0.3082247  13.93  0.002283315    1.733    0.423
        15 -11.4759    150.5731      8.7767   4.0614132301e+01   4.5930516337e+01    0.3477177    0.2924389  78.15  0.001423602    1.071    0.067
        16 -11.5411    155.5307     14.8470   4.1713489838e+01   4.4151712526e+01    0.3897949    0.2137943  51.73  0.001923013    1.715    0.417
        17 -11.2470    156.2265     10.2869   4.0270454762e+01   4.4422428076e+01    0.2952614    0.2120919  88.01  0.001005734    1.368    0.269
        18 -10.3486    170.1568      9.8808   3.8355479420e+01   4.1093997688e+01    0.1747887    0.1419085  49.96 0.0009826954    1.303    0.232
        19 -12.1923    193.4394      6.9785   3.5080609079e+01   3.5854458624e+01    0.5767313    0.2434785 -44.48  0.002737765    2.240    0.554
        20 -12.0227    188.3560      5.3182   3.5167039661e+01   3.7203130584e+01     0.330308    0.2924002 -42.30 0.0009785839    1.258    0.205
        21 -10.7134    128.6604      5.9396   4.3135390655e+01   5.1437564342e+01    0.3304113    0.2206661 -13.49  0.001834652    1.774    0.436
        22 -12.3237    138.7033      4.4753   4.1035098871e+01   4.9164109201e+01    0.7270687     0.308296  57.84   0.00310949    1.925    0.481
        23 -10.7538      5.2638      4.4353   8.6219125009e+01   7.3722732460e+01    0.3881489    0.1678872 -27.65  0.001866302    2.064    0.515
        24 -12.1461    161.8498      3.1547   3.7492887351e+01   4.3707843738e+01    0.5092042    0.3309469  67.75  0.002881525    1.322    0.244
        25 -11.5681    179.2429      4.6637   3.5932523023e+01   3.9414360669e+01    0.2271205    0.1693494 -79.60 0.0006595695    1.246    0.198
        26 -11.4149     73.4100      1.5208   5.3964443409e+01   6.3996134420e+01     0.218983     0.129032  52.17 0.0005156161    1.518    0.341
        27  -9.6423    211.7907      1.3929   3.2172948179e+01   3.2224281587e+01      0.16294   0.09700286  68.01 0.0006525413    1.575    0.365
        28 -11.7809    203.3666    171.8659   7.3666833130e+01   6.7062530111e+00    0.3862751    0.2149314 -48.29  0.001707336    1.972    0.493
        29 -14.0127     41.8491     47.7655   8.6157462233e+01   6.2921310158e+01     1.108088    0.6680591   0.31  0.002164454    2.020    0.505
        30 -13.9172     42.4923     42.6281   8.3952706267e+01   6.3767455365e+01     1.509985      0.61041  19.32  0.003958964    3.765    0.734
        31  -8.9913    162.6802     90.2934   6.2492229206e+01   3.1373288651e+01    0.1549026    0.1204932 -78.64 0.0006273402    1.608    0.378
        32  -9.9133    249.3852     86.6219   4.7270997751e+01   1.2973897510e+01    0.2013759    0.1347334 -62.03   0.00108313    1.572    0.364
        33 -11.5723    234.8870    163.7625   6.6114185471e+01   2.6479567989e+00    0.3416635    0.2473959 -14.77  0.001338397    1.373    0.272
        34 -11.9672     92.9043     58.8349   7.0985529271e+01   5.2712334192e+01    0.7793375    0.3247425 -33.81  0.002952953    2.559    0.609
        35 -12.6758    239.7639    156.9426   6.3863373989e+01   2.9882626396e+00    0.7291887    0.3996025 -26.68  0.003446685    1.815    0.449
        36 -12.9499     84.4377     63.2082   7.5298166599e+01   5.3536344509e+01    0.9571257    0.6166312 -31.87  0.004329426    1.543    0.352
        37 -13.3863    247.7148    142.7705   5.9600079180e+01   4.0353426898e+00     1.371638     0.490377 -38.32   0.00552769    2.370    0.578
        38 -12.8716     69.2392     54.6651   7.7658792368e+01   5.7741878678e+01    0.6569716    0.5269302  35.32  0.001714863    1.307    0.235
        39 -10.4050    168.4564     80.7616   5.8632971802e+01   3.1757731441e+01    0.2957027    0.1393682 -41.90 0.0009914628    2.068    0.516
        40 -10.8570     18.7785    154.3905   1.1647687103e+02   4.0352536405e+01    0.1552941    0.1258277   0.53  0.000942064    1.671    0.402
        41  -9.2282    234.4904     75.5045   4.6664882345e+01   1.7683676737e+01    0.1343029    0.1178819 -51.89 0.0008103627    1.034    0.033
        42 -11.6414    150.7294     73.2573   6.0224567180e+01   3.7316439624e+01    0.3597291    0.2294624 -45.13   0.00103877    1.599    0.375
        43 -10.0378    160.5853     72.2037   5.7810930044e+01   3.5136703261e+01    0.2034534    0.1836197  70.44 0.0005329296    1.117    0.105
        44 -11.6744    118.4362     73.2727   6.8238693807e+01   4.4767771611e+01    0.4585923    0.3063193  19.67  0.001959487    2.006    0.501
        45 -12.8394    117.7811     65.5931   6.5935288199e+01   4.6299469539e+01    0.6702921    0.5106749  14.38  0.003261919    1.556    0.357
        46 -12.1023    129.0982     62.9159   6.2112443810e+01   4.4190175742e+01    0.7332552    0.4386155 -57.57  0.002999044    2.296    0.565
        47  -9.9989    164.6448     68.0179   5.5790238065e+01   3.4861970186e+01    0.2084682    0.1814911 -36.51 0.0004668092    1.168    0.144
        48 -11.0487    126.0374     65.7267   6.3792312927e+01   4.4416012601e+01    0.2932018    0.2554433 -82.82   0.00028312    1.378    0.274
        49  -9.2080    177.2865     64.3004   5.2394931160e+01   3.2411119905e+01    0.1403538    0.1139025  21.45  0.000189154    1.556    0.357
        50 -10.9478    214.5503     61.3396   4.5933494700e+01   2.4156287633e+01    0.3837794    0.2404066 -35.57  0.001931911    1.550    0.355
        51 -10.0088    166.0822     62.9184   5.4050626140e+01   3.5341008009e+01    0.2148326    0.1712237  25.83 0.0003335016    1.521    0.342
        52  -9.3139    189.6996     59.3091   4.8991345430e+01   3.0212249056e+01    0.1472386    0.1025783 -68.22 0.0004350938    1.600    0.375
        53 -12.6112    124.8674     56.7479   6.1159731345e+01   4.6178019512e+01    0.3112859    0.2822678  37.06 0.0004828407    1.060    0.057
        54 -10.4998    156.9959     76.9674   5.9943322842e+01   3.5166594616e+01    0.1826496    0.1798815  81.57 0.0004257802    1.007    0.007
        55 -11.6043    174.4155     56.4840   5.0724501310e+01   3.4313418306e+01    0.2612906     0.239062 -86.33 0.0003127414    1.059    0.056
        56 -10.7333    164.4891     53.5282   5.1637136893e+01   3.7171403920e+01    0.3563022    0.2332936 -49.64  0.001696856    1.598    0.374
        57  -9.5371    137.2994     55.7045   5.7844401722e+01   4.3427521732e+01    0.1440667    0.1138689 -75.44 0.0003109383    1.571    0.364
        58 -10.9435    131.8579     53.7924   5.8487416106e+01   4.5011880011e+01    0.2342995    0.2156633  35.38 0.0003814241    1.061    0.058
        59 -10.2429    155.4586     52.0349   5.2890935238e+01   3.9596215557e+01      0.22756    0.1878575  64.05 0.0006096493    1.170    0.145
        60 -10.8874    145.3609     50.4791   5.4440044670e+01   4.2279577641e+01    0.2660393    0.2568565 -54.50 0.0007649267    1.076    0.070
        61  -9.4671    213.4402     50.5096   4.3465543088e+01   2.5982768553e+01    0.1338023    0.1196405 -66.95 0.0002402771    1.026    0.025
        62 -12.1865    143.8041     75.3234   6.2418445716e+01   3.8592342991e+01    0.5188517    0.4221092 -77.69  0.001878694    1.494    0.331
        63  -9.6562    194.5091     47.9408   4.5310929158e+01   3.0726545104e+01    0.1938036    0.1309937 -37.29  0.000363304    1.469    0.319
        64 -10.5991    116.0355     45.7025   5.9658054335e+01   4.9883187088e+01    0.2146084    0.1964022 -19.61 0.0004464977    1.131    0.116
        65 -10.5847    204.4067     43.4132   4.2857915386e+01   2.9030701760e+01    0.2385446    0.2052253  51.10  0.001421414    1.325    0.246
        66 -11.0024    196.5244     41.4614   4.3375910453e+01   3.1134795338e+01    0.4782448    0.2584181 -38.94  0.002288354    1.775    0.437
        67 -10.9490    181.7449     43.2810   4.5914683293e+01   3.4421094638e+01    0.2595856    0.2296752 -82.70  0.000205117    1.066    0.062
        68 -11.2391    156.9798     43.6470   5.0088444692e+01   4.0413062902e+01    0.3547594     0.233679  61.48 0.0007507229    1.434    0.303
        69 -10.6167    140.8360     43.9486   5.3318108734e+01   4.4302536005e+01     0.235316    0.1958722  55.00 0.0003699934    1.129    0.114
        70 -10.8470    128.5726     42.9553   5.5668267467e+01   4.7369310737e+01    0.2771744    0.2588341 -16.68 0.0006067023    1.127    0.113
        71 -10.0691    122.2354     43.4478   5.7327885167e+01   4.8783293777e+01    0.2235532    0.1840035  40.34 0.0005261435    1.151    0.131
        72 -11.9346    217.1544     39.0542   4.0310828287e+01   2.6706232277e+01     0.426567      0.33344  27.43   0.00203848    1.869    0.465
        73 -10.0325    226.1189     39.4557   3.9445929826e+01   2.4673453903e+01    0.2095986    0.1456601 -62.18  0.000608213    1.307    0.235
        74  -9.6045    159.8549     36.4646   4.7446172627e+01   4.0653164953e+01    0.1986978    0.1289374  64.89 0.0003765759    1.444    0.308
        75 -11.1663    140.5869     35.0273   5.0509204238e+01   4.5536451889e+01    0.3542998    0.1938763  56.29  0.001630874    1.654    0.395
        76  -9.7052    240.5028     34.4839   3.6965923079e+01   2.2258901102e+01    0.1260141    0.1018146 -64.91 0.0001509249    1.014    0.014
        77 -10.5238    176.5247     33.5239   4.4013186114e+01   3.6950123728e+01    0.2571394    0.2093424  89.34 0.0007647069    1.179    0.152
        78 -10.4442    149.7623     32.0004   4.7841579080e+01   4.3676288059e+01    0.4282881    0.2353204  34.73  0.001829959    2.365    0.577
        79  -9.5922    216.4964     28.4627   3.7914068694e+01   2.8194386261e+01    0.1260786    0.1116855 -78.39 6.556869e-05    1.070    0.066
        80 -11.8763    241.7472     22.5855   3.4360444323e+01   2.3468940066e+01    0.2994601    0.2052798 -69.35 0.0004172382    1.259    0.205
        81 -11.3132    149.2800     22.0879   4.4867284508e+01   4.4925861043e+01    0.3770311    0.3134235  87.43  0.001903742    1.201    0.167
        82 -11.0346    153.8771     20.1582   4.3547029806e+01   4.4010869954e+01    0.2496611     0.211842  50.58 0.0003784739    1.166    0.142
        83 -12.3631     49.6642    141.8953   1.0637516103e+02   4.0387777465e+01    0.8811802    0.4870776  31.77  0.004172832    1.977    0.494
        84 -11.6525    191.8679    137.3109   6.8343020516e+01   1.5596334431e+01    0.6335918    0.2964329  42.06  0.002438286    2.279    0.561
        85 -12.4880    201.4886    139.3336   6.6901816228e+01   1.3242326959e+01    0.4721821     0.342796 -57.98  0.002268402    1.620    0.383
        86 -10.9902      3.5256    140.1197   1.1904595147e+02   4.4959453712e+01    0.3732263    0.2158081 -74.45  0.002106965    1.369    0.270
        87 -10.6640    215.0109    141.4798   6.4841501044e+01   1.0178391297e+01    0.2109642    0.1434344  44.73  0.001037855    1.607    0.378
        88 -10.5931    141.2813     21.3489   4.5993273439e+01   4.6948400206e+01    0.4325544    0.2061757  73.32   0.00181023    2.314    0.568
        89 -10.2798    234.7970     21.3864   3.4672496283e+01   2.5060623977e+01    0.2092867    0.1413098  70.95  0.001275117    1.485    0.327
        90 -10.5072    208.5268     18.9829   3.6494388232e+01   3.1107558107e+01    0.2466137    0.1776243  82.99   0.00120946    1.264    0.209
        91 -10.3218    202.0370     17.3023   3.6738609614e+01   3.2782416676e+01    0.2031489    0.1710291 -52.96 0.0005472439    1.170    0.145
        92 -10.8157     33.5665    135.6974   1.1009858188e+02   4.3649506755e+01    0.2292749    0.1447993  53.32  0.001101663    1.774    0.436
        93 -12.0114    202.8404    128.2799   6.4070860781e+01   1.5086677937e+01    0.5933642    0.3022241  51.88  0.002435679    2.205    0.546
        94 -12.7464    218.5532    122.7691   5.9953800782e+01   1.2915967406e+01    0.7186248    0.5121357 -41.91  0.003686291    1.273    0.214
        95 -11.2580    111.8771    109.9098   8.0882358121e+01   3.8482003470e+01     0.245041    0.2152094  -8.35 0.0008985146    1.250    0.200
        96 -11.1386    198.9430    108.4005   6.0005774453e+01   1.9673774365e+01    0.2937196     0.210822 -32.06 0.0007238436    1.377    0.274
        97  -9.4502    242.2889     10.3134   3.1809070255e+01   2.4765258375e+01    0.1008904   0.08996078  45.79  0.000202183    1.586    0.370
        98 -11.2217     89.8247     98.3939   8.4437636712e+01   4.5250156490e+01    0.5460567    0.2512494 -45.81   0.00209251    2.057    0.514
        99 -12.1791    140.6171     96.8399   6.9481152172e+01   3.5185365454e+01    0.5824925    0.3895332 -45.79  0.002579007    1.492    0.330
       100 -11.1192      1.9009     95.6980   1.1417493876e+02   5.5722990819e+01    0.2364307    0.1290061 -59.59  0.001312523    1.394    0.283
       101 -11.9971     71.5304     93.5160   8.9139903234e+01   4.9367242165e+01    0.3113969    0.2186898  60.37  0.001398661    1.973    0.493
       102 -13.0808     72.0909     84.3019   8.6339768268e+01   5.1345806666e+01    0.6004109     0.433452 -10.90  0.002939036    1.662    0.398
       103 -10.8475    246.6290    183.4649   6.8077570423e+01  -2.4226293230e+00    0.2412939    0.1941454 -19.11 0.0002345075    1.044    0.042
       104 -10.9760     34.1874    177.4482   1.1501842010e+02   3.3315777350e+01    0.2812559     0.208798 -22.72  0.001572214    2.020    0.505
       105 -14.2740      9.0998     64.0119   1.0540828772e+02   6.2536004209e+01     1.963917    0.9168388 -22.03  0.009490579    2.512    0.602
       106 -13.3643      3.5448     47.1688   1.0355085386e+02   6.6364709583e+01     0.852169    0.7005488  68.65  0.004168605    1.833    0.454
