#   1 NUMBER                 Running object number                                     
#   2 MAG_AUTO               Kron-like elliptical aperture magnitude                    [mag]
#   3 X_IMAGE                Object position along x                                    [pixel]
#   4 Y_IMAGE                Object position along y                                    [pixel]
#   5 X_WORLD                Barycenter position along world x axis                     [deg]
#   6 Y_WORLD                Barycenter position along world y axis                     [deg]
#   7 A_WORLD                Profile RMS along major axis (world units)                 [deg]
#   8 B_WORLD                Profile RMS along minor axis (world units)                 [deg]
#   9 THETA_WORLD            Position angle (CCW/world-x)                               [deg]
#  10 FWHM_WORLD             FWHM assuming a gaussian core                              [deg]
#  11 ELONGATION             A_IMAGE/B_IMAGE                                           
#  12 ELLIPTICITY            1 - B_IMAGE/A_IMAGE                                       
         1 -12.0199    188.3916     38.6743   5.6042803878e+01   3.2643557381e+01     1.221239    0.8933862  39.95  0.004633005    1.493    0.330
         2  -8.8752      4.4096     12.3903   1.0850445703e+02   7.4801998259e+01    0.2386986     0.142344  80.87  0.001157193    2.934    0.659
         3 -11.7763    212.5848      6.2197   4.3795800185e+01   3.0049225695e+01    0.9740572    0.7981398 -85.15  0.005732294    1.234    0.189
         4  -8.7216    120.2099      9.1994   5.6265985620e+01   5.4012061287e+01    0.3408355    0.2741882 -88.86  0.001091338    1.389    0.280
         5  -9.1378      3.1513      5.4441   1.0638849682e+02   7.6334839052e+01    0.4414053    0.1097571 -41.13  0.001661902    3.680    0.728
         6  -8.0598    178.9856      5.7477   4.6595673626e+01   3.8624139798e+01    0.1917139    0.1845675 -89.12 0.0005574562    1.036    0.035
         7  -8.4860    171.0039      5.7701   4.7441556845e+01   4.0736941556e+01    0.2244006    0.1974765 -27.96 0.0002696055    1.140    0.123
         8  -8.4366    137.9480      4.7783   5.1320299844e+01   4.9725560583e+01    0.2328197    0.2035287 -10.37 0.0003693354    1.188    0.158
         9  -8.8354     13.2878    184.3385   1.2753537932e+02   3.5532675330e+01    0.2366361    0.1370856  37.44  0.001042053    1.558    0.358
        10 -17.5234     21.9799    242.3163   1.2806469640e+02   2.4876222996e+01     3.531545     2.867189  38.52   0.01790025    1.424    0.298
        11  -7.6383    250.5337    184.4655   8.1045381191e+01   1.9146205392e+00    0.1155339   0.08251332   9.40            0    1.081    0.075
        12  -8.9563     98.4991    199.9905   1.1090568736e+02   2.2865448251e+01    0.2799476    0.1519895  61.68  0.001502467    2.112    0.527
        13  -8.3370    100.5455    180.5220   1.0824680340e+02   2.5971203666e+01    0.2728266    0.1530513  66.97  0.001181535    2.386    0.581
        14 -13.8509      9.7694    211.3333   1.2922445788e+02   3.0968718221e+01     1.807388     1.011064 -48.17   0.01113984    3.265    0.694
        15  -9.7970    226.3154    178.7343   8.3759969552e+01   6.0651881199e+00    0.3622606    0.1749364  29.97  0.001834936    1.915    0.478
        16  -7.5170    236.4766    178.5016   8.2121407296e+01   4.5569196187e+00    0.1181517   0.09003633  10.37 4.675823e-05    1.026    0.025
        17 -10.2516    194.7765    175.3065   8.8492585166e+01   1.1516477902e+01    0.2381158    0.2115652  27.53 0.0006758848    1.175    0.149
        18  -8.4288    147.1272    176.9902   9.7893864414e+01   1.9234303581e+01    0.1808038    0.1574818  31.45 0.0002892962    1.037    0.035
        19  -8.4445    193.8153    197.4248   9.2316881368e+01   8.8564614018e+00    0.2025141    0.1422255 -72.46 0.0009547962    4.236    0.764
        20  -8.6445    239.1708    211.2309   8.7100499607e+01   8.8752876163e-01    0.1683138    0.1265226  -3.74 0.0002719038    1.228    0.186
        21  -8.1154     93.0604    219.9364   1.1389989175e+02   2.0381460511e+01    0.1643081     0.129188  47.74 0.0006431964    1.036    0.035
        22 -10.1229     80.2796    160.0480   1.1030131862e+02   3.2833135018e+01    0.3430618    0.2682709  81.35 0.0003178189    1.277    0.217
        23 -10.9511     80.8144    155.0961   1.0952671392e+02   3.3771665548e+01    0.3899083    0.2966594 -36.96 0.0008970918    1.758    0.431
        24  -8.6030      6.0800    161.7535   1.2813302141e+02   4.0587260510e+01     0.190974    0.1643472 -88.10 0.0004214845    1.254    0.203
        25  -8.8545     91.9212    160.3018   1.0756045990e+02   3.1096988083e+01    0.2064348    0.1782304 -83.05 0.0003133688    1.199    0.166
        26  -8.7192    214.9303    158.5976   8.1916396615e+01   1.0312896640e+01    0.1954912    0.1604327 -13.83 0.0003768575    1.180    0.153
        27  -9.1428    116.0459    195.6725   1.0684555371e+02   2.1071573714e+01    0.1869304    0.1698079  85.20 0.0004901887    1.252    0.201
        28  -7.3244    200.3211    156.6770   8.4065538723e+01   1.3083538611e+01    0.1151939    0.1043057 -89.56 0.0003983706    1.676    0.403
        29  -9.5293     97.5107    153.4517   1.0523481478e+02   3.1617654772e+01    0.5116153    0.4055691 -25.67  0.001978713    1.733    0.423
        30  -9.5322    133.6150    147.6100   9.5775584448e+01   2.6660965357e+01    0.5743288    0.2229275 -47.83  0.002297091    2.803    0.643
        31  -7.8049    143.1331    154.1318   9.4864756140e+01   2.3772741450e+01    0.1707391    0.1508108  70.96  0.001023102    1.289    0.224
        32  -9.9511     39.4754    151.9972   1.1945719785e+02   3.9572596451e+01    0.3317155    0.2334168  63.86  0.001387035    1.229    0.186
        33  -9.1715    183.4835    214.7999   9.6662166118e+01   8.3097939368e+00    0.2068783    0.1589995  47.58  0.001458903    1.474    0.322
        34  -8.3622    147.6985    149.5952   9.3034888261e+01   2.3743759549e+01    0.2429614    0.1203827  39.02 0.0005386381    1.886    0.470
        35  -8.9102     71.3880    161.7214   1.1263643847e+02   3.3706477750e+01    0.3061684    0.1582124  50.22  0.001237536    1.744    0.427
        36  -7.5113    242.1982    146.6457   7.5248809872e+01   7.2279822966e+00    0.1608528   0.09745932  31.03  0.000355031    1.562    0.360
        37 -10.0348     41.1098    145.5477   1.1843758201e+02   4.0795059189e+01    0.4925695    0.1322698  41.41  0.002032342    2.958    0.662
        38  -9.8164    237.2194    192.9889   8.4487479516e+01   2.9330448801e+00    0.2741322    0.2528779 -89.99  0.001559298    2.227    0.551
        39  -9.6660      7.3672    193.7392   1.2910457341e+02   3.4288857364e+01    0.3673821    0.1166376  34.84  0.001668562    2.452    0.592
        40  -9.0572     94.7387    194.1305   1.1105510061e+02   2.4385458737e+01    0.5763579    0.2948537  52.62  0.002482797    1.798    0.444
        41  -7.9008     96.3359    202.2671   1.1158074639e+02   2.2782591339e+01    0.1544992    0.1172692 -61.78 0.0002641343    1.581    0.367
        42  -9.9303    108.6390    139.4733   1.0020053638e+02   3.2641900481e+01    0.4090807    0.3178183 -41.69  0.002271079    1.460    0.315
        43 -10.4009     97.0084    139.3490   1.0309655667e+02   3.4599612796e+01    0.3448057    0.2778621  47.72 0.0003868565    1.158    0.137
        44  -7.3015    118.4502    138.4459   9.7609018838e+01   3.1140365589e+01      0.13707    0.1258893  58.07 0.0001896762    1.040    0.039
        45  -9.1585    225.5991    188.0484   8.5480240706e+01   5.1383732595e+00     0.234309     0.152708  34.46  0.001519667    1.353    0.261
        46  -9.1929    226.4033    183.2915   8.4540198126e+01   5.5420281901e+00    0.2208846    0.1652744  12.39 0.0002571338    1.080    0.074
        47  -7.1941    233.2653    133.7019   7.3928084203e+01   1.0282439104e+01    0.1121949   0.09582525 -44.29 0.0001734881    1.515    0.340
        48  -6.9113    171.7093    132.2817   8.4460589827e+01   2.2116334184e+01    0.1273746     0.110956  88.18 0.0001649047    1.529    0.346
        49  -8.4278    115.0579    130.5053   9.6904973320e+01   3.3350491754e+01    0.2115285    0.1851279 -55.98  0.000498451    1.195    0.163
        50  -8.7901     29.0778    129.0882   1.2006966023e+02   4.5687567743e+01     0.210108    0.1184323  65.51  0.001126435    1.711    0.415
        51  -9.3729     74.4206    126.6354   1.0696921433e+02   4.0837344628e+01    0.3205502    0.1905048  51.51  0.001587877    1.666    0.400
        52  -8.7840    103.0326    126.2615   9.9145501893e+01   3.6361399928e+01    0.2770639    0.2295157  17.92 0.0008195848    1.449    0.310
        53  -7.6261    110.4993    119.5145   9.5803546408e+01   3.6461259239e+01    0.1405745    0.1345761  65.75 0.0004345137    1.001    0.001
        54  -9.4503      5.3269    113.1280   1.2558485719e+02   5.1254469217e+01    0.2340142     0.193816 -13.03  0.001603704    1.658    0.397
        55 -10.1961     41.4617    115.2502   1.1485574763e+02   4.7642042448e+01    0.4095787    0.1920082  31.88  0.001644768    2.214    0.548
        56  -8.1125     65.2967    115.0063   1.0762803347e+02   4.4777894843e+01    0.1900613    0.1604811 -75.96 0.0004307843    1.112    0.100
        57 -10.7145     56.1974    110.8462   1.0967683757e+02   4.6949635610e+01    0.4530059    0.3406063  54.72  0.002584977    1.316    0.240
        58  -9.4435      3.2136    109.2945   1.2594683496e+02   5.2274454076e+01    0.2612952    0.2051649 -51.75 0.0009900973    1.459    0.315
        59  -8.7189    158.9798    108.9561   8.1677135301e+01   2.8751348257e+01    0.2086233    0.1986706  22.73  0.001182396    1.014    0.014
        60  -9.2391     31.7450    107.5689   1.1685715044e+02   5.0443458375e+01    0.2670384    0.1608038 -50.85  0.001424537    1.771    0.435
        61  -8.2017    121.5815    105.9955   8.9800058922e+01   3.7151308765e+01    0.2147361    0.1902062  46.39 0.0001062736    1.112    0.101
        62  -9.5442    215.3179    104.0291   7.0002118525e+01   1.7568774576e+01    0.2249561    0.1952297  30.13  0.000207639    1.156    0.135
        63  -9.3626     63.2183    105.2006   1.0648767424e+02   4.7348653456e+01    0.3189041    0.1390423  45.63  0.001334011    2.346    0.574
        64  -7.5416     27.5525    102.4497   1.1754742058e+02   5.2049519322e+01    0.1260478    0.1080211 -79.15 6.292608e-05    1.065    0.061
        65  -8.1128    219.9717    100.5839   6.8450151302e+01   1.7094035439e+01    0.2292259    0.1712016  -9.91 0.0005053694    1.304    0.233
        66  -7.3709     40.6727     88.6996   1.1092189112e+02   5.4054532489e+01    0.1323617   0.09421144 -38.28 0.0007030057    1.639    0.390
        67  -8.6241    102.8790     86.7048   8.9901473806e+01   4.4925536274e+01    0.3095763    0.2336728 -80.50 0.0003932709    1.691    0.409
        68  -7.7425    160.1575     82.5521   7.4330370482e+01   3.3115418572e+01    0.2108188    0.1476557  54.41  0.000346034    1.461    0.316
        69 -10.2188    117.8971     65.8494   7.9222590617e+01   4.5987437066e+01     0.242638    0.2322979 -29.66            0    1.035    0.034
        70  -7.5015    129.3327     63.2177   7.5358467460e+01   4.3824131301e+01    0.2181295    0.1344275 -44.51 0.0004906377    1.637    0.389
        71  -8.9388    213.8082     56.0274   5.7752884130e+01   2.4318113819e+01    0.3794374    0.2130372 -18.00  0.001146926    1.839    0.456
        72 -10.7460    173.9615     51.7746   6.2342103796e+01   3.4568063315e+01    0.5154305    0.3921122  65.73  0.001789036    1.379    0.275
        73  -9.7047    187.5420     46.4632   5.8560653733e+01   3.1870351298e+01    0.5457416    0.3846858 -74.44  0.001395075    1.763    0.433
        74  -7.5785    237.1779    249.5960   9.2794582694e+01  -2.1681249131e+00    0.1416321   0.06345333  27.57 0.0004839496    1.644    0.392
        75 -11.0167    193.0181     32.1007   5.3415834804e+01   3.2259814536e+01    0.5350558    0.4860696  -9.88  0.001139703    1.130    0.115
        76  -7.2678    142.0060     42.0000   6.4999204624e+01   4.4161562820e+01    0.2425826    0.0862368  59.95  0.000415495    2.834    0.647
        77  -7.4527    161.8739     36.2112   5.9239295730e+01   3.9799548708e+01    0.1974284    0.1687752  20.88 0.0003108536    1.274    0.215
        78  -9.0252    189.5405     15.8264   4.8751914071e+01   3.4910715578e+01    0.2495048    0.1926361  45.71  0.001311184    1.392    0.282
        79  -7.2314    140.9772     16.7498   5.5619719430e+01   4.7701490473e+01    0.1791671     0.123674  65.43 0.0008384659    1.422    0.297
        80  -9.2846    131.0567    188.7605   1.0289921783e+02   1.9921276975e+01    0.3360226    0.2337953  84.79  0.001854334    2.268    0.559
        81  -8.7042    113.0455    248.5087   1.1273453981e+02   1.3783306036e+01    0.1643867   0.07501068  38.68  0.001024688    1.567    0.362
        82  -9.6692    119.9581    247.0901   1.1142172019e+02   1.3085320159e+01     0.241118    0.1434288  44.97   0.00160162    1.264    0.209
        83  -7.7464    244.1844    228.3883   8.8892328085e+01  -1.2803973299e+00     0.135927   0.07821894  39.13 0.0007922027    1.728    0.421
        84  -7.8851    101.2804    221.9148   1.1252254502e+02   1.9004607572e+01    0.1428733    0.1209361  52.76 0.0004762385    1.121    0.108
        85  -9.1024    157.4467    220.1900   1.0195909701e+02   1.1418138968e+01    0.2215068    0.1489364  20.31   0.00145537    1.501    0.334
