#   1 NUMBER                 Running object number                                     
#   2 MAG_AUTO               Kron-like elliptical aperture magnitude                    [mag]
#   3 X_IMAGE                Object position along x                                    [pixel]
#   4 Y_IMAGE                Object position along y                                    [pixel]
#   5 X_WORLD                Barycenter position along world x axis                     [deg]
#   6 Y_WORLD                Barycenter position along world y axis                     [deg]
#   7 A_WORLD                Profile RMS along major axis (world units)                 [deg]
#   8 B_WORLD                Profile RMS along minor axis (world units)                 [deg]
#   9 THETA_WORLD            Position angle (CCW/world-x)                               [deg]
#  10 FWHM_WORLD             FWHM assuming a gaussian core                              [deg]
#  11 ELONGATION             A_IMAGE/B_IMAGE                                           
#  12 ELLIPTICITY            1 - B_IMAGE/A_IMAGE                                       
         1 -14.1084    165.1482     44.1984   7.5772128490e+01   3.8442999263e+01     1.223814     1.058004  -5.86    0.0040626    1.376    0.273
         2 -14.2227    181.3694     11.1786   6.4300539094e+01   3.8349380113e+01     1.764968     1.072919  70.16  0.006945216    1.415    0.293
         3 -10.3891    125.0173    244.8694   1.2935955021e+02   6.7004535865e+00    0.1648489    0.1401619  65.67 0.0003556276    1.074    0.069
         4 -19.8831     64.3718    167.4546   1.3168204592e+02   3.2929294818e+01     19.63935     5.381125 -63.69   0.06666446    3.368    0.703
         5 -14.3215    101.1285    242.1882   1.3358688353e+02   1.1106231022e+01      0.81255    0.6043817 -59.93    0.0042831    1.547    0.354
         6 -10.9280     23.6626    215.2352   1.4544625833e+02   2.7143518484e+01    0.1457606    0.1073056 -82.18 0.0003849815    1.193    0.162
         7  -9.1090    111.7098    213.2382   1.2779255884e+02   1.5113557908e+01    0.1334694   0.09251834  67.51 0.0002163589    1.462    0.316
         8 -12.1872    105.9970    204.5391   1.2775099123e+02   1.7942121677e+01     0.443531    0.3167105 -79.77  0.001410059    1.469    0.319
         9 -12.1457     11.4698    205.9785   1.4696489954e+02   3.0350246917e+01    0.3041422    0.2327154  45.10  0.001515575    1.536    0.349
        10  -9.8569    152.5952    198.2380   1.1661887168e+02   1.0729063327e+01    0.2661003    0.2266947 -38.52 0.0007681188    1.302    0.232
        11 -10.9741    125.2377    239.4172   1.2861975279e+02   7.6526504386e+00    0.3517924     0.156529 -56.10  0.001375937    2.551    0.608
        12  -9.7379    112.4581    196.8253   1.2517386298e+02   1.8508162352e+01    0.2623216    0.2100217  -2.89  0.001322947    1.980    0.495
        13 -11.0643    169.8615    195.5201   1.1241515395e+02   7.9067431651e+00    0.2314131    0.2038842 -87.52 0.0005874517    1.318    0.241
        14  -9.6836    103.5147    194.4203   1.2677767136e+02   2.0593679125e+01    0.3468022    0.1940805  26.77  0.001424797    2.671    0.626
        15 -10.6502    152.5462    192.0189   1.1549612124e+02   1.2025451618e+01    0.3280036    0.1931275  52.16  0.001223231    1.716    0.417
        16 -11.3345    164.2008    187.7580   1.1214629654e+02   1.0598263996e+01    0.3957044    0.2223013  33.69  0.001551106    1.963    0.491
        17 -10.4522    164.8196    183.5640   1.1119047330e+02   1.1341312114e+01    0.2378307    0.1782357 -54.92 0.0005632638    1.422    0.297
        18 -10.3296    155.4617    187.4971   1.1400656837e+02   1.2397047557e+01    0.2464018    0.1886281  53.99 0.0001111701    1.292    0.226
        19 -10.7464    152.2609    184.5685   1.1415395473e+02   1.3654990532e+01    0.2781838    0.2275737 -73.70 0.0005930224    1.370    0.270
        20 -10.5417     36.6446    186.3195   1.4028368779e+02   3.1995650621e+01    0.2106651     0.202278   8.08  0.000612782    1.518    0.341
        21  -9.4571    134.2642    244.7243   1.2756626248e+02   5.1646183332e+00    0.1226083   0.08739874  67.61 0.0004037682    1.474    0.322
        22 -10.8387     25.8667    184.9622   1.4238809311e+02   3.3470852237e+01    0.1703932    0.1355569 -85.81 0.0003186878    1.068    0.064
        23 -11.1716     30.6897    182.9918   1.4118656432e+02   3.3405354997e+01    0.2321193    0.1748376  42.57 0.0005761718    1.518    0.341
        24 -10.6824    146.1413    179.1006   1.1446922226e+02   1.6059232147e+01    0.2784999    0.2173546  59.95 0.0008346733    1.314    0.239
        25 -11.4906      5.4082    177.6350   1.4589339157e+02   3.7031148130e+01    0.2889837    0.1866118  63.40  0.001252464    1.469    0.319
        26 -12.0950    204.4751    176.0134   1.0130857682e+02   4.8088550803e+00    0.4764096    0.4443036  33.51  0.001148166    1.079    0.073
        27 -11.2451    197.3396    176.9213   1.0294161892e+02   6.0679401058e+00    0.6012102    0.3915524 -67.75  0.002491618    2.453    0.592
        28 -11.8706    193.4942    166.1635   1.0143346070e+02   8.9779251896e+00    0.4860887    0.3400686 -48.99 0.0006622822    1.477    0.323
        29 -12.0205    190.1910    161.0172   1.0099126294e+02   1.0712851823e+01     1.189413    0.4388461 -42.65  0.002826042    2.694    0.629
        30 -11.6716    142.4163    175.2902   1.1457198419e+02   1.7644079357e+01    0.5754984    0.3887808  16.34  0.002377508    2.333    0.571
        31 -11.7342    137.5013    171.0426   1.1486710502e+02   1.9576199669e+01    0.4309234    0.2727777 -64.81  0.001467168    1.817    0.450
        32 -12.2228    132.8655    168.5972   1.1546581250e+02   2.1050851917e+01    0.4710159    0.4099728 -81.37  0.001487739    1.181    0.153
        33  99.0000    136.7003    242.0222   1.2673650704e+02   5.2259011754e+00    0.4056448    0.1727726  49.49  0.001398527    2.101    0.524
        34  -9.9344    160.6821    241.6564   1.2202148957e+02   1.1327517792e+00     0.218391    0.1604772 -32.64  0.001005014    1.712    0.416
        35 -10.6823    200.4867    168.0826   1.0041837261e+02   7.1480180997e+00    0.3422182    0.2760561 -55.09   0.00107563    1.354    0.262
        36 -10.2899    204.3324    165.8643   9.9163176949e+01   6.7898798315e+00    0.4442754    0.2764813 -47.70  0.002004196    1.656    0.396
        37 -11.5367    126.4908    172.7586   1.1777810365e+02   2.1342769269e+01    0.5223472    0.3383797  64.67  0.001743518    1.836    0.455
        38 -10.1786     25.5741    164.8788   1.4034077729e+02   3.8070261547e+01    0.2349936    0.1911183 -20.07  0.001503967    1.854    0.461
        39 -10.8305    237.0069    158.2831   9.1353141794e+01   1.7029079021e+00    0.1929683    0.1839535  10.23 0.0004847106    1.095    0.087
        40 -10.9240     12.7509    241.1028   1.4905932643e+02   2.3152836870e+01    0.1621196    0.1079248 -61.07  0.001121667    1.935    0.483
        41  -9.4998    167.2855    155.6701   1.0475964862e+02   1.6764942547e+01    0.1560798    0.1228915 -85.17 0.0003266267    1.614    0.380
        42  -9.9592    109.2813    239.6868   1.3174054744e+02   1.0261847006e+01    0.1366363    0.1095307 -63.36 0.0004007854    1.409    0.290
        43 -10.0019    174.5322    148.7347   1.0157302535e+02   1.6672174440e+01     0.355986    0.2550929 -68.27  0.001159406    1.755    0.430
        44 -10.8223    152.6798    139.2643   1.0433366259e+02   2.3562859438e+01    0.2818555    0.2419801 -82.17 0.0009842971    1.294    0.227
        45 -10.6546      6.7837    138.9362   1.4173643437e+02   4.5620693786e+01    0.2827046    0.2379471  68.48  0.002040615    1.300    0.231
        46 -10.1694     11.3144    138.0190   1.4052095080e+02   4.5491800818e+01    0.2299454    0.1767972  43.17  0.001190153    1.554    0.357
        47  -9.6201      1.5911    140.0490   1.4310666763e+02   4.5735463875e+01    0.1653219    0.1111882 -72.67   0.00039822    1.117    0.104
        48  -9.7148     28.4631    238.3777   1.4630489540e+02   2.1929216612e+01    0.1127551   0.08119603  74.37 0.0001501817    1.029    0.028
        49 -10.9223    160.5077    127.8072   9.9717688803e+01   2.4330041881e+01    0.3956011    0.2887272 -56.01   0.00166978    1.430    0.301
        50 -11.6565     21.6689    236.8261   1.4733632072e+02   2.3005164480e+01    0.1563996    0.1102642 -87.59 0.0005612731    1.193    0.161
        51 -10.7305    131.0468    234.7478   1.2685728374e+02   7.5201734745e+00    0.1867785    0.1654133 -80.50 0.0005352143    1.220    0.180
        52  -9.6768    167.7419    112.8539   9.4273086757e+01   2.5819622418e+01    0.3123299    0.2136738  83.17  0.001238366    2.168    0.539
        53  -9.7035    141.6106    230.0125   1.2408058565e+02   6.5480346658e+00    0.1761748     0.160502  81.67 0.0005966572    1.145    0.127
        54  -9.9960    205.6139    110.1303   8.5907983647e+01   1.7446640669e+01    0.2804757    0.2231212  47.21  0.000642292    1.333    0.250
        55 -11.1872    152.5973    221.8064   1.2059965681e+02   6.0998253436e+00    0.2561234    0.2299011  76.92 0.0003247634    1.179    0.152
        56 -10.1891     10.2019    101.8546   1.3560019643e+02   5.3706096314e+01     0.221337    0.1894267  66.16   0.00113282    1.424    0.298
        57 -11.3615    100.8279     98.4131   1.0735545643e+02   4.3306994384e+01    0.4243588    0.2932273  65.66  0.001907124    2.024    0.506
        58 -12.6926     22.5022    220.6434   1.4606307401e+02   2.6151620486e+01    0.2519028    0.1482207 -70.30  0.001598042    1.562    0.360
        59  -9.8318     98.8686     80.9170   1.0288000909e+02   4.7240654462e+01    0.2089773    0.2019255 -16.23 0.0004589169    1.053    0.050
        60 -10.3607    217.9987    219.5084   1.0721146045e+02  -5.2699504446e+00    0.2170192    0.1369557 -45.09 0.0008286533    1.828    0.453
        61 -13.5742    153.5460     58.8490   8.2288794724e+01   3.9146840972e+01     1.153105    0.9642825  23.37  0.001013429    1.356    0.263
        62  -9.7419    160.9719    247.3317   1.2278919097e+02   1.4534520138e-01    0.3761235    0.1912188  24.30  0.001131638    3.244    0.692
        63 -12.1437    169.4761     36.1718   7.2754919888e+01   3.8431532095e+01     0.372486    0.3641674  -7.80 0.0008540998    1.167    0.143
        64 -10.0174     13.3899     59.9099   1.2564358757e+02   6.2169120376e+01    0.1622634    0.1480628 -22.96 0.0004115925    1.232    0.188
