#   1 NUMBER                 Running object number                                     
#   2 MAG_AUTO               Kron-like elliptical aperture magnitude                    [mag]
#   3 X_IMAGE                Object position along x                                    [pixel]
#   4 Y_IMAGE                Object position along y                                    [pixel]
#   5 X_WORLD                Barycenter position along world x axis                     [deg]
#   6 Y_WORLD                Barycenter position along world y axis                     [deg]
#   7 A_WORLD                Profile RMS along major axis (world units)                 [deg]
#   8 B_WORLD                Profile RMS along minor axis (world units)                 [deg]
#   9 THETA_WORLD            Position angle (CCW/world-x)                               [deg]
#  10 FWHM_WORLD             FWHM assuming a gaussian core                              [deg]
#  11 ELONGATION             A_IMAGE/B_IMAGE                                           
#  12 ELLIPTICITY            1 - B_IMAGE/A_IMAGE                                       
         1 -16.4261    190.3208    153.0029   4.2061089650e+01   1.2644448954e+01      7.27424     4.133763 -69.64   0.02085738    5.102    0.804
         2 -16.9418    245.0141     38.9050   7.5906924436e+00   2.0743586903e+01     4.316115     2.033892 -69.88   0.01717235    2.593    0.614
         3 -18.6617    239.6759     83.4083   1.7633276582e+01   1.5316083550e+01     8.267552     7.391013  49.97   0.05186269    1.333    0.250
         4 -10.9200    250.4349      5.1427   5.5931280734e-01   2.3699679455e+01    0.1885819     0.110437 -53.32 0.0005117799    1.390    0.280
         5 -10.3333    238.2505      1.3279   6.2716507171e-01   2.6565327480e+01    0.1508799   0.08612311 -87.27 0.0002151814    1.532    0.347
         6 -11.3552     11.8281    206.3312   9.3127691795e+01   2.8955931636e+01    0.1768386    0.1236122  79.64  0.001149693    1.150    0.130
         7 -10.8434    249.8128    249.7467   4.9190893817e+01  -1.2817498289e+01    0.1986076    0.1168217  22.65  0.001249679    1.463    0.317
         8 -13.1509    192.3694    194.4655   5.0307635238e+01   4.1429404052e+00      1.12134    0.5899832 -63.05  0.003426171    5.276    0.810
         9 -10.1653    245.6641    201.7173   4.1421045945e+01  -5.6035714651e+00    0.1307063    0.0847374  -1.80 0.0005426306    1.621    0.383
        10 -13.1420    204.7625    199.0914   4.8648583562e+01   1.1813254513e+00    0.5151874    0.3929022  19.84  0.002489391    1.246    0.197
        11 -12.2155    226.1438    192.9055   4.3276915657e+01  -1.2479167634e+00    0.3796366    0.2668543 -35.96  0.001766031    1.362    0.266
        12 -14.4041    173.2201     92.0973   3.0684672610e+01   2.8588251472e+01     1.284696    0.8780189  -9.84  0.002407959    2.231    0.552
        13 -10.1225    136.2375    221.2195   6.7321018311e+01   8.7280315558e+00    0.1823735    0.1487994  57.94 0.0004027694    1.295    0.228
        14 -11.4832    131.9627    137.2091   5.2262268712e+01   2.8225488340e+01    0.6087238    0.2931505 -59.69  0.002025922    2.783    0.641
        15 -12.2766    143.8718    145.8745   5.1204249163e+01   2.3771501607e+01    0.7817343    0.4007862 -65.04  0.002424757    3.492    0.714
        16 -13.0167     66.6563    143.6577   7.2197997540e+01   3.7984295133e+01      2.32395     1.340726 -67.30  0.007369777    1.710    0.415
        17 -13.3886     37.3412    133.6240   7.9201194910e+01   4.3969753503e+01    0.3906115    0.3431398   0.54  0.001039602    1.361    0.265
        18 -15.1284     45.4995    131.6585   7.6412513049e+01   4.3613207972e+01     2.212275     1.295903  -3.17  0.007261856    2.773    0.639
        19 -14.0269     53.5726    131.4830   7.3911776511e+01   4.2733301585e+01     0.811474    0.5617435 -39.62  0.001822523    1.514    0.339
        20 -12.3861    133.9472    146.4780   5.3890896558e+01   2.5654856878e+01       1.0844    0.3662329 -56.26  0.002927952    4.159    0.760
        21 -13.7130     28.5028    144.8526   8.3366141186e+01   4.2003806855e+01    0.9137217    0.5690842  38.40  0.004915006    1.751    0.429
        22 -11.3616    235.5807    215.9865   4.5884340956e+01  -6.3396938821e+00    0.3486557    0.2233762  11.61  0.001514169    1.551    0.355
        23 -13.3710    161.5944    128.4180   4.2674667098e+01   2.3881868306e+01    0.6665288    0.5501461  50.35  0.002036045    1.252    0.201
        24 -11.9772    153.0617    127.2517   4.4434224305e+01   2.6005769456e+01    0.5051919    0.2814713 -25.08  0.001737219    2.735    0.634
        25 -12.3723    199.6479    144.3905   3.8193887665e+01   1.2487332308e+01     0.369246    0.3279686 -68.38   0.00144473    1.315    0.239
        26 -12.8933    233.8570    182.3897   3.9773825240e+01  -7.0690030545e-01    0.4049607    0.2846626 -40.92  0.002240001    1.421    0.296
        27 -13.4785    186.1668    171.8633   4.7054540562e+01   9.6532196651e+00     1.148374    0.4356032 -49.01  0.003924072    2.978    0.664
        28  -9.6877     92.9723    120.9613   5.9480295697e+01   3.9565420625e+01    0.1806152    0.1716894 -42.93 0.0003883957    1.008    0.007
        29 -13.9310    177.3973    169.1485   4.8402436373e+01   1.1897851648e+01    0.9296448    0.6854086 -55.81  0.003851773    1.554    0.357
        30 -10.7694    113.3678     95.1210   4.6424065162e+01   4.1586089784e+01    0.2558917    0.2076329  27.41 0.0004572275    1.283    0.220
        31 -10.1810    110.8511    168.1397   6.4479160443e+01   2.4865204749e+01    0.2247503    0.1981019  78.70 0.0004322311    1.207    0.171
        32 -10.8463    209.6810    164.2417   4.0580232260e+01   6.7066328841e+00    0.2256822    0.1929525  52.86 0.0007337955    1.390    0.281
        33 -11.7668    157.6209     88.6128   3.3089657225e+01   3.2930870449e+01    0.4508495    0.1844916 -34.38   0.00152185    2.731    0.634
        34 -10.4486    168.2941    162.3277   4.8996472231e+01   1.5131930214e+01    0.1566114    0.1188812  -6.55 0.0003577926    1.627    0.385
        35 -12.4838    169.8274     79.4081   2.7944535412e+01   3.1696649514e+01    0.5619226    0.3267415 -26.25  0.002293062    2.110    0.526
        36 -10.8352    159.2997    160.3338   5.0665612558e+01   1.7371938771e+01    0.1588989    0.1209733  -7.38 0.0002472654    1.652    0.395
        37 -11.2145    158.9765     77.1260   2.9559853384e+01   3.4703765103e+01    0.2665408    0.2236326 -38.30 0.0009064832    1.216    0.178
        38 -13.3012    194.4903     66.6340   2.0142100420e+01   2.7940106171e+01    0.5451956    0.4636235 -39.50   0.00202845    1.201    0.167
        39 -12.1098    205.8051     66.5115   1.8386329770e+01   2.5328309501e+01    0.3963382    0.2683471 -52.57  0.001104467    1.415    0.293
        40 -11.2738    106.0395     63.4199   3.8719016881e+01   4.9265565401e+01    0.6855567      0.18893 -38.74  0.002124419    3.705    0.730
        41 -12.0469    143.9084     62.6247   2.8618103636e+01   4.0775407119e+01    0.3011003    0.2132909 -43.53  0.001455777    1.480    0.324
        42 -12.9146    178.3420     50.8535   1.8610511235e+01   3.4185106065e+01    0.5690818    0.4148772   4.46  0.002430338    2.083    0.520
        43 -13.2815    184.7368     55.3528   1.8778469169e+01   3.1986695460e+01    0.9598821    0.3691649 -28.50  0.003377386    3.300    0.697
        44 -12.6830    249.7651    203.2812   4.0998853220e+01  -6.4179903672e+00    0.6225638    0.1859183 -32.95  0.002366901    3.281    0.695
        45 -11.2555    205.1149     52.5583   1.5088722262e+01   2.7578599802e+01     0.356685    0.2253027 -32.25 0.0008853875    1.696    0.410
        46 -11.2417    207.2611     47.1147   1.3496985569e+01   2.7851292674e+01    0.4677037    0.2353575  46.94  0.002052715    2.464    0.594
        47 -12.0757    141.0699     51.6132   2.5868824262e+01   4.3153124529e+01    0.2943706    0.2369415  34.90 0.0006958092    1.291    0.225
        48 -10.6711    126.4555     47.9851   2.8066888061e+01   4.7146980018e+01    0.2083581    0.1422724 -29.80 0.0005226485    1.576    0.365
        49 -11.2181    123.1351     42.8750   2.7174288257e+01   4.8635518240e+01    0.2029101    0.1913715  87.87 0.0004728313    1.184    0.156
        50  -9.6220    118.2759     43.3137   2.8523524991e+01   4.9694575473e+01    0.1418334    0.1028167  21.58 0.0003421328    1.562    0.360
        51 -12.0567    193.6877     29.4504   1.0898915768e+01   3.3315643544e+01    0.4084689    0.3515309   7.27  0.001407731    1.590    0.371
        52 -10.9441    190.1138     36.8506   1.3209253235e+01   3.3244057625e+01    0.2655019    0.2513345 -41.27 0.0004197324    1.206    0.171
        53 -12.0274    191.0627     40.7507   1.4069327703e+01   3.2510928995e+01    0.3921649    0.2508624  47.50  0.001162185    1.750    0.429
        54 -11.0402    194.0317     36.6588   1.2644741542e+01   3.2337863633e+01    0.2490622    0.2083359 -51.69 0.0006900765    1.187    0.158
        55 -11.4005    181.5380     41.4820   1.5616538835e+01   3.4700689093e+01    0.2617475    0.1341727 -33.38 0.0007360381    2.055    0.513
        56 -12.3166    181.2893     35.1535   1.3986540602e+01   3.5576690278e+01    0.4147591    0.2729059 -16.11   0.00151385    2.059    0.514
        57 -11.7207    185.0923     28.6936   1.1794118169e+01   3.5450968093e+01    0.3231358    0.2589564   5.89  0.001684794    1.756    0.430
        58 -12.5922    169.0278     38.3725   1.6703266334e+01   3.8148211419e+01     0.361639    0.3105232   9.65  0.001283465    1.466    0.318
        59 -12.2324    152.3494     26.7231   1.6103791993e+01   4.3628296318e+01    0.3991054    0.1432385  55.65  0.001584537    2.344    0.573
        60 -11.8751    151.2266     22.3547   1.4996307221e+01   4.4381088864e+01    0.2866312    0.1844558   0.58  0.001385513    2.295    0.564
        61 -11.1641    154.5087     16.4668   1.2753726567e+01   4.4193165601e+01    0.2160923    0.1323108  -4.51  0.001038281    2.407    0.585
        62 -11.4909    239.5942    206.5154   4.3404535906e+01  -5.4725381912e+00    0.2446308     0.192805  21.63 0.0008711927    1.257    0.204
        63 -14.9736      6.7372    141.2063   8.8937983665e+01   4.4611889644e+01     1.110273    0.7054107 -72.45  0.004115665    1.260    0.206
