#   1 NUMBER                 Running object number                                     
#   2 MAG_AUTO               Kron-like elliptical aperture magnitude                    [mag]
#   3 X_IMAGE                Object position along x                                    [pixel]
#   4 Y_IMAGE                Object position along y                                    [pixel]
#   5 X_WORLD                Barycenter position along world x axis                     [deg]
#   6 Y_WORLD                Barycenter position along world y axis                     [deg]
#   7 A_WORLD                Profile RMS along major axis (world units)                 [deg]
#   8 B_WORLD                Profile RMS along minor axis (world units)                 [deg]
#   9 THETA_WORLD            Position angle (CCW/world-x)                               [deg]
#  10 FWHM_WORLD             FWHM assuming a gaussian core                              [deg]
#  11 ELONGATION             A_IMAGE/B_IMAGE                                           
#  12 ELLIPTICITY            1 - B_IMAGE/A_IMAGE                                       
         1 -15.1634     11.7534    148.8144   1.4353525962e+02   4.2832200963e+01     9.446957     3.188693 -85.17   0.03431959    4.126    0.758
         2 -13.3375    196.4241     28.2720   6.9112263479e+01   3.2937287344e+01      1.43795     1.344197  24.93  0.007136534    1.305    0.234
         3 -13.3870    212.6957      8.4365   6.2315956068e+01   3.1253311590e+01     1.065418    0.8472422  50.11   0.00427134    1.456    0.313
         4 -11.9819      3.7211      3.5888   1.1372396683e+02   7.1752208632e+01    0.6236064     0.251175 -36.11  0.003825424    1.891    0.471
         5  -9.6148     18.6716      4.3230   1.0704512634e+02   7.0395884564e+01    0.0881632   0.08086424 -21.82 0.0006303739    1.694    0.410
         6 -12.2579     12.2833    240.1672   1.5052511201e+02   2.3781083369e+01    0.4044884    0.2153044  87.53  0.002311364    1.456    0.313
         7 -11.5970    248.0273    249.0966   1.0956904870e+02  -1.3668558115e+01    0.4405518    0.2695457  32.61  0.002765313    1.384    0.278
         8 -11.3898    138.8801    249.6832   1.2952027655e+02   4.1387219327e+00    0.3222557    0.2352175  49.79  0.001863787    1.111    0.100
         9 -11.3381    125.5934    250.2610   1.3202669070e+02   6.2613281001e+00    0.5418119    0.1309372  42.62  0.001973774    3.449    0.710
        10 -11.3631     98.8357    248.8245   1.3669710724e+02   1.0807676385e+01    0.3581581    0.2777089  23.68  0.002213223    1.981    0.495
        11 -11.2072     47.2923    248.0895   1.4546145072e+02   1.8246452973e+01    0.3285618    0.3045784 -41.61  0.002187739    1.945    0.486
        12 -12.0153     34.2835    245.0705   1.4735774978e+02   2.0404003414e+01    0.5822136    0.3783601 -79.96  0.004158281    1.402    0.287
        13 -10.1803     29.1545    249.8441   1.4847541748e+02   2.0133974480e+01      0.23655    0.1703889  64.86  0.001243486    1.170    0.145
        14  -9.8623     29.5290    246.5071   1.4820778235e+02   2.0699121666e+01    0.1756877    0.1216875  77.06 0.0007570986    1.031    0.030
        15 -11.3031     12.5220    248.9936   1.5097129923e+02   2.2142668743e+01    0.2865073    0.2424002  64.38  0.002434835    1.491    0.329
        16 -10.2204      2.7777    249.6112   1.5244518333e+02   2.3045017273e+01      0.30214    0.1447303  46.87   0.00207469    1.870    0.465
        17 -10.5983      2.7609    246.3955   1.5229145535e+02   2.3623148823e+01    0.2269284    0.1358068  64.89  0.001206186    1.226    0.185
        18 -10.7412     22.5295    236.8960   1.4871466528e+02   2.3285598172e+01     0.255252     0.171632 -50.67  0.001667822    2.489    0.598
        19  -9.4773      2.0000    237.9998   1.5198461232e+02   2.5231631087e+01    0.1651635   0.04513779 -77.82 0.0008088868    2.987    0.665
        20 -14.0228    103.7628    229.4569   1.3364785636e+02   1.3608041267e+01     4.207814    0.1396211  46.62  0.008092017   12.007    0.917
        21 -10.0195      4.6175    229.1908   1.5110938958e+02   2.6625823151e+01    0.1425893   0.07463613 -73.55 0.0004249092    1.674    0.403
        22 -11.8463     21.9307    126.5223   1.3833624496e+02   4.7026254260e+01    0.4001491    0.2581381  54.77  0.001113377    1.809    0.447
        23 -12.5088     47.8051    216.1803   1.4279702139e+02   2.4383822086e+01    0.7019522    0.5396466 -68.18  0.003684157    1.427    0.299
        24  -8.7049     60.4915    227.5109   1.4150988757e+02   2.0441752886e+01    0.1243492   0.09024604  73.83 -1.299167e-05    1.083    0.077
        25 -10.1109    174.0677    222.9860   1.1894372042e+02   2.4236588386e+00    0.3874764    0.2518913  60.18  0.001959236    1.786    0.440
        26 -12.7589     32.8614    233.7903   1.4681685328e+02   2.2698678844e+01    0.2773844    0.2222702  89.90 0.0007520728    1.255    0.203
        27  -9.2481    184.3058    238.3168   1.1939905733e+02  -1.9012841893e+00    0.1263674   0.09266771  13.40 0.0003476864    1.628    0.386
        28  -8.8755     91.9813    214.0949   1.3409605832e+02   1.8552566378e+01    0.2165746    0.1333485  75.13  0.001025555    1.736    0.424
        29 -12.4012      9.8340    207.1409   1.4888958041e+02   3.0457142404e+01    0.5973622    0.4524752  29.79  0.003101455    1.946    0.486
        30  -8.8101    152.5294    213.0481   1.2165508524e+02   8.2042254078e+00     0.178702    0.1368043 -53.94 0.0002875249    1.452    0.311
        31 -11.5641     59.8180    199.6559   1.3885145254e+02   2.6311325508e+01    0.2836332     0.213859 -69.79 0.0005206036    1.296    0.228
        32  -9.2512    194.6232    198.4346   1.1052444332e+02   2.8476627594e+00    0.2669339    0.1230794 -56.14 0.0009462246    3.495    0.714
        33 -11.8545     66.2978    191.1281   1.3654072761e+02   2.7298096714e+01    0.2750018    0.2311686 -70.43 0.0004766888    1.235    0.190
        34 -10.6031     13.8632    196.7552   1.4742486103e+02   3.2209900495e+01    0.3419232    0.1630234  55.32  0.002005558    1.918    0.479
        35 -10.6673     76.6971    178.1301   1.3258443966e+02   2.8740470314e+01    0.2473205    0.2026942 -82.68 0.0003480534    1.073    0.068
        36 -13.1459     63.2884    176.2306   1.3530353495e+02   3.1062538804e+01     0.504119    0.2729585 -47.28  0.001727832    2.280    0.561
        37  -9.6235     97.4468    174.5172   1.2733499443e+02   2.6313265603e+01    0.2757126    0.2094212  82.14 0.0007579455    1.342    0.255
        38 -11.7842     84.8078    168.8680   1.2934758700e+02   2.9648649134e+01    0.7598556    0.6117638  28.02  0.004247785    1.564    0.361
        39 -13.7714     37.7860    227.0432   1.4548454659e+02   2.3428320829e+01    0.6992339    0.5021315  74.21  0.002395824    1.046    0.044
        40 -10.1370     97.0964    152.8840   1.2364244003e+02   3.1402178939e+01    0.3478511    0.2871853 -49.41 0.0007162892    1.260    0.206
        41  -9.1408    100.0236    148.6693   1.2211103427e+02   3.1894769661e+01    0.1910782     0.183435  64.21 0.0003988794    1.115    0.103
        42 -11.9690     85.6523    151.9567   1.2629900028e+02   3.3478229453e+01    0.3047739    0.2425465 -47.10 0.0006957137    1.343    0.255
        43 -12.1330     67.3271    143.6316   1.2942424409e+02   3.8118565882e+01    0.6693631    0.4420219  68.47  0.002717602    1.786    0.440
        44 -10.3377     96.1758    135.0104   1.2032829118e+02   3.5761425097e+01    0.2535024    0.2191767 -36.80 0.0004230952    1.271    0.213
        45  -9.8473    109.2144    137.4868   1.1748657297e+02   3.2882733939e+01    0.4639182    0.3025861 -20.90  0.001683079    2.691    0.628
        46 -10.9910     30.7415    131.2755   1.3676857699e+02   4.5170778020e+01    0.2790007    0.2154152  66.62  0.000555919    1.413    0.292
        47 -10.9175    152.7053    248.9830   1.2687272472e+02   1.9028394163e+00    0.2295856    0.1950523  60.52  0.001331892    1.131    0.116
        48  -8.4770     79.5194    131.5999   1.2401674138e+02   3.9217885264e+01    0.1400749    0.1251313 -82.19  0.000139054    1.084    0.078
        49  -8.9286    106.3544    124.0841   1.1522261058e+02   3.6511989067e+01    0.1988993    0.1721419 -55.59 0.0003480574    1.093    0.085
        50  -9.4926    168.0341    113.3491   9.7249938180e+01   2.5724419475e+01    0.2981042    0.2138179 -62.28  0.001006517    1.604    0.376
        51  -9.1471    202.7001    111.6896   8.9647001358e+01   1.7843967594e+01    0.1518314    0.1230322   8.45 0.0002889011    1.602    0.376
        52 -10.0903     54.2840    229.4240   1.4279093454e+02   2.0890486605e+01    0.2585109    0.1505131  74.05  0.001149198    1.519    0.342
        53  -9.2865    150.3120    229.3370   1.2459360807e+02   5.6302565770e+00    0.1262506    0.1018508   9.26 0.0007045501    1.688    0.408
        54  -9.8085    157.9887     76.7173   8.9460071993e+01   3.5239287889e+01    0.2183747    0.1971616  56.27 0.0005707568    1.087    0.080
        55 -11.6546     10.2662     54.0982   1.2802197301e+02   6.3130022691e+01    0.4000436    0.2180145  12.60  0.001968552    2.198    0.545
        56 -11.2275      2.0744     50.3823   1.3013160351e+02   6.4291804347e+01    0.4674175   0.09589306 -58.96  0.001861562    3.720    0.731
        57 -10.2421     80.8361    248.9174   1.3987262493e+02   1.3506012611e+01    0.2301029    0.1403344  80.73  0.001227537    1.607    0.378
        58 -11.2251    129.4451    245.7938   1.3078290878e+02   6.3810363967e+00    0.2573067    0.1688215  64.85  0.001090657    1.514    0.339
        59 -10.2044      2.9977     39.4742   1.2683611887e+02   6.6213360788e+01    0.1436862   0.09871672   5.29  0.001043446    1.625    0.385
        60 -11.0953     20.0812    243.1529   1.4948542646e+02   2.2387842344e+01    0.2354895    0.1319581  62.25  0.001090541    1.358    0.264
