#   1 NUMBER                 Running object number                                     
#   2 MAG_AUTO               Kron-like elliptical aperture magnitude                    [mag]
#   3 X_IMAGE                Object position along x                                    [pixel]
#   4 Y_IMAGE                Object position along y                                    [pixel]
#   5 X_WORLD                Barycenter position along world x axis                     [deg]
#   6 Y_WORLD                Barycenter position along world y axis                     [deg]
#   7 A_WORLD                Profile RMS along major axis (world units)                 [deg]
#   8 B_WORLD                Profile RMS along minor axis (world units)                 [deg]
#   9 THETA_WORLD            Position angle (CCW/world-x)                               [deg]
#  10 FWHM_WORLD             FWHM assuming a gaussian core                              [deg]
#  11 ELONGATION             A_IMAGE/B_IMAGE                                           
#  12 ELLIPTICITY            1 - B_IMAGE/A_IMAGE                                       
         1 -14.2811    224.6159      8.2755   3.3459370818e+01   2.9035487771e+01     1.226319    0.9691849  54.48  0.003978022    1.517    0.341
         2 -15.0966    197.3677     38.7529   4.3590107110e+01   3.1755633855e+01     2.413324     1.577541  21.21   0.01099239    2.575    0.612
         3 -13.8268     59.1081      4.3464   6.1622916786e+01   6.7009059977e+01     1.310423    0.3560668  44.09  0.005329944    3.020    0.669
         4 -10.9248     30.0613     36.3460   8.9376779609e+01   6.6640872950e+01     0.173104    0.1427452  -6.64  0.001156625    1.118    0.106
         5 -19.2694     15.5753    162.0451   1.1941753721e+02   3.9042775608e+01     18.92308     5.846132 -80.54   0.07218848    3.190    0.687
         6 -11.1582    184.3450    212.5176   8.6781548167e+01   3.4218571661e+00    0.2578938    0.2396881  79.38  0.001589628    1.480    0.324
         7 -10.7495     89.8141    212.1238   1.0736207319e+02   1.8835030895e+01     0.246856    0.2008966  89.07  0.000519897    1.243    0.196
         8  -9.7622     61.6683    210.6912   1.1339506763e+02   2.2987158726e+01    0.2284712    0.1225418  29.45  0.001054092    2.076    0.518
         9 -10.4211     65.7701    206.8950   1.1210904768e+02   2.3283102227e+01    0.2899368    0.2353215 -55.86  0.001097864    1.412    0.292
        10 -10.2740     57.2290    211.2452   1.1440816641e+02   2.3424972950e+01    0.2709848    0.2318791 -79.45  0.001772866    1.193    0.162
        11 -10.8881     55.3722    206.1223   1.1432115568e+02   2.4766123212e+01    0.3273363    0.2116753 -85.71  0.001178375    1.496    0.332
        12  -9.6105     70.8255    210.5435   1.1137983519e+02   2.1825608523e+01    0.2023406    0.1432028  69.33 0.0008612953    1.351    0.260
        13 -11.5338     41.6546    207.6095   1.1741596199e+02   2.6052420919e+01    0.3414282    0.1823219  74.32  0.001766099    1.923    0.480
        14  -8.9874    224.2616    206.6844   7.7884626342e+01  -2.0015472510e+00     0.109201    0.1034822 -51.48 0.0002294474    1.541    0.351
        15  -9.4895     93.7526    205.3984   1.0563594947e+02   1.9689262843e+01    0.2174463    0.1624367  -0.36  0.001109712    2.050    0.512
        16 -10.2820     96.3784    202.1717   1.0460887819e+02   1.9992530216e+01     0.245126    0.1906266 -77.69 0.0009894955    1.349    0.259
        17 -12.4742    204.2400    200.4422   8.0572009439e+01   2.1803690587e+00    0.5981091    0.2487063  28.98  0.002335255    2.776    0.640
        18 -12.1386    192.9901    195.0471   8.1824645753e+01   5.0088825451e+00     1.305039    0.7034112 -59.70  0.004869871    3.673    0.728
        19 -16.2721     69.9500    144.7742   1.0260996373e+02   3.7462918512e+01     11.92581     5.842317  76.95   0.02906189    7.317    0.863
        20 -11.9338     63.3601    200.4645   1.1196452462e+02   2.5014718257e+01    0.3913059    0.1972361 -56.35 0.0009232143    2.072    0.517
        21 -11.3411     66.9792    195.5078   1.1058332008e+02   2.5658883021e+01    0.3474526    0.2414975  89.73 0.0009037085    1.445    0.308
        22 -11.5302     62.4559    250.4366   1.1668584013e+02   1.4959271598e+01    0.2265345    0.1163281  51.73 0.0007195734    1.574    0.365
        23  -9.6945     39.2376    199.6951   1.1726174899e+02   2.8060903693e+01    0.1725722    0.1141628  56.39 0.0004390526    1.354    0.262
        24 -12.1327    140.7473    196.6242   9.3511157079e+01   1.3881072044e+01    0.4644445    0.2232998 -62.90   0.00174167    3.085    0.676
        25 -13.2580     52.0034    196.0590   1.1407815082e+02   2.7414504677e+01    0.4547803     0.292938 -45.89  0.001359244    1.977    0.494
        26 -13.5240     63.0496    183.4128   1.1008128196e+02   2.8961248678e+01    0.8944043    0.7180454 -32.96  0.005118097    1.634    0.388
        27 -10.4067     71.1196    185.6667   1.0840938764e+02   2.7368502151e+01    0.2090353    0.1760009 -88.56 0.0004316141    1.107    0.097
        28 -10.9854     26.6127    203.5124   1.2026872098e+02   2.8546768741e+01    0.4514175    0.1229728  47.31  0.001904565    3.053    0.672
        29 -11.4604     31.3282    195.2863   1.1861897651e+02   2.9886080631e+01    0.2426474    0.1430523  58.33 0.0006127839    1.547    0.354
        30  -9.8782     82.2537    194.9466   1.0694602792e+02   2.3683852788e+01    0.2345546    0.1889875  40.09  0.001112372    1.233    0.189
        31 -12.6039    148.1115    187.4616   9.0203760755e+01   1.4466801316e+01    0.6639925    0.3972103 -63.53  0.002851126    2.251    0.556
        32  -9.9483    175.6731    217.3151   8.9391144462e+01   4.0266892993e+00    0.1274199    0.1037915  63.89 0.0007043999    1.671    0.402
        33 -12.3650     49.1236    248.6771   1.1904215177e+02   1.6905429698e+01    0.2058117    0.1511068  84.42  0.000627456    1.255    0.203
        34 -10.3731     91.7313    183.8875   1.0313404226e+02   2.4809305614e+01    0.2324341    0.2263908  20.05 0.0007237315    1.166    0.142
        35 -11.7805     99.2983    180.9717   1.0082105004e+02   2.4303748101e+01    0.2957726    0.2811868  -0.34 0.0006523521    1.211    0.174
        36  -9.7057     61.7285    194.0761   1.1163796359e+02   2.6664158005e+01     0.171858    0.1456087  89.68  0.001060976    1.076    0.070
        37 -11.3769    187.2165    175.6341   7.9198734685e+01   9.6210602774e+00    0.3870617     0.335082 -41.62  0.001108232    1.221    0.181
        38 -10.4990    148.5152    175.4808   8.7845793902e+01   1.6917136786e+01    0.2554604    0.2298845 -64.28 0.0005918523    1.225    0.184
        39 -11.3071    146.5057    171.9718   8.7631768225e+01   1.8048904802e+01    0.3204831    0.2702854 -63.65 0.0007606996    1.323    0.244
        40 -11.1583     53.3666    166.1154   1.1033108448e+02   3.4298555269e+01    0.8249202    0.3201462 -43.49  0.002849726    3.934    0.746
        41 -11.4012     51.6913    171.5278   1.1143484200e+02   3.3186642531e+01    0.2484253    0.2146529  75.35 0.0004749635    1.067    0.063
        42 -11.2259     47.5534    172.4472   1.1257853597e+02   3.3443529843e+01    0.3607809    0.2537671 -54.09  0.001089141    1.481    0.325
        43 -12.7111    232.9226    173.8915   6.9912931651e+01   1.8654860352e+00    0.4449075    0.2717043  43.49  0.002281959    1.844    0.458
        44  -9.8754    193.3280    170.1153   7.6772014340e+01   9.5334336503e+00    0.2055256    0.1788947 -29.47 0.0007693349    1.119    0.106
        45 -11.1434    240.0889    169.4729   6.7751801479e+01   1.4164481317e+00    0.1845179    0.1274296  34.68 0.0004192092    1.544    0.352
        46 -10.8108    185.0231    168.4523   7.8172297273e+01   1.1420665001e+01    0.2923706    0.2170637 -40.62  0.000743007    1.343    0.256
        47 -10.7973    137.1639    167.3875   8.8980190254e+01   2.0812930708e+01    0.3684023    0.2852154  60.90  0.001795378    1.470    0.320
        48 -10.1057     58.0440    227.2784   1.1567937602e+02   1.9974832684e+01     0.207413     0.145004  82.15 0.0007148047    1.343    0.255
        49 -10.8860     57.5176    159.0012   1.0828171774e+02   3.5539726711e+01    0.2203671    0.1961551 -10.31 0.0003762472    1.414    0.293
        50 -12.4300     93.3055    151.0952   9.7219462501e+01   3.2409864688e+01    0.7222924    0.5921651 -13.12  0.003674893    1.539    0.350
        51 -10.8467    135.1805    135.6181   8.2570773746e+01   2.8422576880e+01    0.4799093    0.2253652  29.76  0.001580384    2.945    0.660
        52 -11.5537    134.3143    147.3289   8.5479478064e+01   2.5911439929e+01    0.9118138    0.2727576 -52.83  0.002584791    3.810    0.738
        53 -10.2680    112.3789    150.5599   9.1931303964e+01   2.9283962334e+01    0.4024256    0.2652875  69.29  0.001661474    2.154    0.536
        54 -10.2990    174.8240    148.9829   7.6132594817e+01   1.7351519487e+01    0.2765503    0.2166351 -61.93 0.0008749492    1.527    0.345
        55 -10.9139    133.0000    140.9845   8.4388104287e+01   2.7629230907e+01    0.5006347    0.2046651 -50.90  0.001689741    2.500    0.600
        56 -11.1445    105.4066    137.6443   9.1106359685e+01   3.3637001869e+01    0.5907435    0.3383397 -30.45  0.002222964    2.501    0.600
        57 -11.2512    106.0649    130.8063   8.9387432915e+01   3.5167828643e+01    0.4130843    0.3387541 -62.09  0.001239224    1.238    0.192
        58 -12.4106     93.2480    137.1977   9.4466576078e+01   3.5829950918e+01    0.2948022    0.2632007 -32.47 0.0004462344    1.186    0.157
        59 -10.5027    135.8869    128.4085   8.0644956497e+01   2.9918378529e+01    0.4092438    0.1900861 -49.08  0.001484828    2.165    0.538
        60 -11.2518    114.0180    128.7734   8.6661798089e+01   3.4179831568e+01    0.5306726    0.3184922  29.50 0.0009975755    1.921    0.479
        61 -10.1151    160.6591    128.0934   7.4412127079e+01   2.4727472675e+01    0.3632595     0.191965 -53.28  0.001358271    2.171    0.539
        62  -9.2899     95.9758    128.0381   9.1677703034e+01   3.7611166445e+01    0.1764767    0.1668685 -54.93            0    1.013    0.013
        63 -11.1472    100.8420    124.7560   8.9491009824e+01   3.7558100154e+01    0.2905084    0.2460421  -3.58 0.0006717886    1.382    0.277
        64 -11.4248    119.7412    123.0284   8.3664614140e+01   3.4420364043e+01    0.4870326    0.3424647  -4.89  0.001989946    2.163    0.538
        65  -9.8972     59.7589    219.8754   1.1467337409e+02   2.1281503410e+01    0.2900127    0.1841533 -45.41  0.001584626    2.182    0.542
        66 -10.7152    135.2702    119.0762   7.8452333596e+01   3.2145491419e+01    0.4925055    0.1309125 -42.04  0.001313709    3.955    0.747
        67 -10.1020    109.0939    118.0808   8.5454156830e+01   3.7632600843e+01    0.2226376     0.215439 -40.30 0.0003030696    1.003    0.003
        68 -10.8257    231.3850    113.8773   5.7088444197e+01   1.2434399985e+01    0.2819769    0.2342159 -36.40 0.0008401819    1.067    0.063
        69  -9.7704    167.7027    112.6788   6.8858312507e+01   2.6381851616e+01    0.3217881    0.2298721 -79.30  0.001325669    2.135    0.532
        70 -12.3773    118.0075    108.6330   8.0421122661e+01   3.8060402305e+01    0.7416351    0.6102782 -50.73  0.002933524    1.214    0.176
        71 -10.2757    205.4990    110.1877   6.0585393804e+01   1.8455004726e+01    0.3020716    0.2137941  41.23 0.0008942808    1.547    0.354
        72 -10.5384    134.5087    105.4608   7.5017955810e+01   3.5292134568e+01    0.5567125     0.150294 -46.14  0.001530754    3.765    0.734
        73 -10.0322    131.7829     99.3215   7.4025484215e+01   3.7191917440e+01    0.3731209    0.2363862 -86.34   0.00115563    3.975    0.748
        74 -10.2848     63.3512     99.1085   9.5194980987e+01   4.9586024260e+01    0.2592652    0.2060298  40.80  0.000697654    1.405    0.288
        75 -10.1406     53.2912    219.6982   1.1600305105e+02   2.2116212638e+01    0.1458709    0.1218515  41.46 0.0005875657    1.280    0.219
        76 -11.8442     48.9169    216.3263   1.1662308252e+02   2.3347459397e+01    0.3415329    0.2469454  77.63  0.002163955    1.219    0.180
        77 -11.2080    163.2901    217.6203   9.2036523991e+01   6.0149420879e+00    0.2305509    0.1571362 -22.31  0.001187341    1.801    0.445
        78  -9.4875    184.5054     77.4373   5.5950653062e+01   2.9060436682e+01    0.1449989    0.1424683 -67.06 0.0001170451    1.030    0.029
        79 -12.1049    248.7078    245.7036   8.0280642321e+01  -1.0661852098e+01    0.3744064    0.2355773   8.32  0.002444871    1.339    0.253
        80 -13.6732    181.5001     52.6586   4.9648914801e+01   3.3683688844e+01    0.7325096    0.6770077  19.73 0.0007659602    1.248    0.199
        81  -9.3089     83.8067    245.2587   1.1213892458e+02   1.3124754393e+01    0.1851416    0.1237019  72.47  0.000552581    1.546    0.353
        82 -10.2284     63.4615    214.3999   1.1337247095e+02   2.1964340473e+01    0.3347498    0.1706631  60.69  0.001636368    2.014    0.503
        83 -10.1964    189.7775     14.9045   3.8306672478e+01   3.6353159649e+01    0.1885673    0.1717876  59.46  0.000752777    1.200    0.167
        84  -9.9323    167.8982    231.6471   9.3281910992e+01   2.8626761803e+00    0.1979948    0.1661478 -12.20 0.0007295079    1.269    0.212
