#   1 NUMBER                 Running object number                                     
#   2 MAG_AUTO               Kron-like elliptical aperture magnitude                    [mag]
#   3 X_IMAGE                Object position along x                                    [pixel]
#   4 Y_IMAGE                Object position along y                                    [pixel]
#   5 X_WORLD                Barycenter position along world x axis                     [deg]
#   6 Y_WORLD                Barycenter position along world y axis                     [deg]
#   7 A_WORLD                Profile RMS along major axis (world units)                 [deg]
#   8 B_WORLD                Profile RMS along minor axis (world units)                 [deg]
#   9 THETA_WORLD            Position angle (CCW/world-x)                               [deg]
#  10 FWHM_WORLD             FWHM assuming a gaussian core                              [deg]
#  11 ELONGATION             A_IMAGE/B_IMAGE                                           
#  12 ELLIPTICITY            1 - B_IMAGE/A_IMAGE                                       
         1  -9.7313    201.3498     37.9566   5.9110564982e+01   2.9884200196e+01    0.3976482    0.2115899 -26.46  0.001561245    1.995    0.499
         2  -8.5169    234.4101     19.1063   5.2211115600e+01   2.5080274568e+01    0.3277939    0.2095692  -7.30  0.001822334    2.450    0.592
         3  -8.9520    238.0437     15.6526   5.1271576093e+01   2.4733780422e+01    0.2869873    0.1555828 -38.32  0.001091099    1.491    0.329
         4  -8.3208    221.0000     16.9758   5.2546924373e+01   2.8010365669e+01     0.284216    0.1371186 -36.56  0.001525992    1.735    0.424
         5  -9.3104    221.4159     13.1553   5.1656333277e+01   2.8318505199e+01    0.4170693    0.3196275  40.75  0.002667128    1.871    0.466
         6  -9.1050    229.9721     15.1397   5.1604830862e+01   2.6372150482e+01    0.2602421    0.2374918  43.68  0.001700355    1.514    0.340
         7  -8.2947    244.9072     14.0797   5.0590587987e+01   2.3591017711e+01    0.2421378    0.1828856 -82.44  0.001747031    1.293    0.227
         8  -8.6593    199.6824     14.9672   5.3505224222e+01   3.2843324339e+01    0.2040891    0.1626204 -67.83 0.0006653338    1.047    0.045
         9  -9.3591    212.9489      8.7060   5.1130732999e+01   3.0551742214e+01    0.4992114    0.2106015 -40.17  0.002554851    1.890    0.471
        10  -8.1382    239.5275      9.0527   4.9810195367e+01   2.5115971492e+01    0.2445119   0.08636154 -44.30  0.001031013    2.003    0.501
        11  -7.8696     18.2464      9.0260   1.0012360354e+02   7.6304411084e+01    0.1578272   0.09965526 -39.09 0.0006941081    1.570    0.363
        12  -7.6200    249.7931      7.3573   4.9002961354e+01   2.3358470348e+01    0.1382444   0.09282587  75.88 0.0009503508    1.667    0.400
        13  -7.7212    206.4482      6.7245   5.1045871741e+01   3.2157726136e+01    0.2314482   0.09355989 -35.18  0.001126598    2.082    0.520
        14  -8.5057    200.8360      5.1747   5.1008232224e+01   3.3553219598e+01    0.1544457     0.146236  58.92   0.00107758    1.352    0.260
        15  -7.2914    171.2781      5.3547   5.3128899470e+01   4.0503656964e+01    0.1243197   0.09537765  41.13  0.000701011    1.652    0.395
        16  -7.0250     42.3334      4.6734   8.0600203611e+01   7.2838291863e+01    0.1217523    0.1040445 -79.93 0.0007051475    1.715    0.417
        17  -8.1278    240.1898      2.3609   4.8392520687e+01   2.5640166966e+01    0.2970452    0.1299371 -68.56  0.001617432    2.091    0.522
        18  -8.0520    232.2300      2.5431   4.8773006106e+01   2.7171838686e+01    0.4282888    0.1024586  86.94  0.001510516    5.307    0.812
        19  -7.3855    189.9930      2.2512   5.0948303309e+01   3.6303674330e+01    0.1596114   0.09514878  84.56 0.0007631808    1.529    0.346
        20  -7.9586     63.6177      2.2354   6.9887452655e+01   6.8405629883e+01    0.1766312    0.1240656   1.79 0.0009489583    1.642    0.391
        21  -7.7027     23.5698      2.2143   9.0859305588e+01   7.6563262523e+01    0.1649795      0.10962 -17.42 0.0006674139    1.564    0.361
        22  -7.9322     87.5821    140.7665   1.1088161495e+02   3.5818918450e+01    0.2062196    0.1489295 -75.18 0.0003127665    1.606    0.377
        23  -8.5559    249.4455    249.7647   9.4222695186e+01  -6.1415727810e+00    0.1971102    0.1158569   5.19  0.001185829    1.279    0.218
        24  -7.4645      9.0237    141.4971   1.3701260397e+02   4.5141648283e+01    0.2005164   0.07357366  44.80 0.0008088876    2.452    0.592
        25  -7.5242     60.5009    137.5232   1.1910764883e+02   4.0828946743e+01    0.1462863    0.1412784  60.17 0.0008099973    1.034    0.033
        26  -7.9003    243.0330    135.0186   7.5821703104e+01   8.6139144250e+00     0.174865    0.1360732 -54.80  0.001126923    1.631    0.387
        27  -7.9088    170.0799    134.3506   8.7923243507e+01   2.1383636041e+01    0.1972866    0.1718169  33.32 0.0005124433    1.149    0.129
        28  -7.0047    103.7075    133.3208   1.0443477119e+02   3.4728427207e+01    0.1559315     0.119944  73.73 0.0003933173    1.609    0.378
        29  -7.6273     40.0110    133.5329   1.2558779279e+02   4.4434134610e+01    0.2059978    0.1388026  26.77 0.0003999863    1.500    0.333
        30  -7.8014     25.0657    129.3318   1.3039338744e+02   4.7032933439e+01    0.1946999    0.1771245  43.28 0.0009587609    1.110    0.099
        31  -7.5378    242.3366    124.3312   7.3799062792e+01   1.0200891517e+01    0.1221986   0.08471952  -2.08 0.0007052101    1.735    0.424
        32  -7.2560    214.0229    123.0000   7.7512274647e+01   1.5080093721e+01     0.199468   0.07448029  49.45 0.0006238684    3.005    0.667
        33  -7.3930     69.1852    122.6335   1.1339452993e+02   4.3371518839e+01    0.2050499    0.1447581  20.94 0.0004641666    1.563    0.360
        34  -7.3397     12.4744    115.4972   1.3361095993e+02   5.1659820665e+01    0.1369651    0.1224842  79.56 0.0008096716    1.047    0.045
        35  -7.0346    248.6687    113.2901   7.0806096762e+01   1.0736653355e+01    0.1142904   0.08224551 -55.98 0.0007018859    1.626    0.385
        36  -7.7618    104.7967    111.8088   9.9035759596e+01   3.9547951419e+01    0.2317374    0.2120319   8.17 0.0006233694    1.194    0.162
        37  -8.0207     14.2983    111.4336   1.3246646727e+02   5.2604391994e+01    0.3699173    0.1488556  34.92  0.001009686    2.372    0.578
        38  -7.2931      6.0000    111.9976   1.3579385583e+02   5.2978944204e+01    0.2247107   0.06990214 -78.73 0.0007988291    2.917    0.657
        39  -7.4714    249.7375     98.9833   6.7800528209e+01   1.2493450559e+01    0.1568344   0.08482159 -33.79 0.0008381287    1.494    0.331
        40  -9.6449     51.3241     95.3631   1.1431068742e+02   5.3019686346e+01    0.2639966    0.2600796  87.42 0.0002662762    1.016    0.015
        41  -7.0513     73.3021     94.6872   1.0530695971e+02   4.9695460647e+01    0.1563139    0.1199166  72.86 0.0007018931    1.611    0.379
        42  -8.0272     61.7798     91.0414   1.0888201442e+02   5.2541527616e+01    0.2328778    0.1959856 -27.92 0.0007600434    1.295    0.228
        43  -8.2434     19.7591     90.7580   1.2733630510e+02   5.7642061458e+01     0.304227       0.2077 -21.89  0.001526935    1.676    0.403
        44  -8.0996      1.3807     88.1272   1.3542153455e+02   5.9424110853e+01     0.195368    0.1154598 -78.45  0.000418744    1.527    0.345
        45  -8.3573    232.3697     83.9891   6.6577306764e+01   1.7499419472e+01    0.4161882    0.1306212 -43.23  0.001644148    2.717    0.632
        46  -7.7307    103.6584     83.2902   9.1320377965e+01   4.6136049265e+01    0.1594756    0.1237398  82.66 0.0003039844    1.649    0.394
        47  -7.5167    236.7975     78.2196   6.4847515841e+01   1.7480703516e+01    0.2170036    0.1041073 -59.34  0.000959423    2.831    0.647
        48  -7.6051    195.2347     77.4659   6.9762794424e+01   2.5829899107e+01    0.3094264   0.06304167 -43.42 0.0008777209    4.496    0.778
        49  -8.1166    215.0120     75.4101   6.6670144390e+01   2.2011500183e+01    0.3265812    0.1780036  37.60  0.001478401    2.753    0.637
        50  -8.8457    223.7010     66.4154   6.3617712940e+01   2.1525755273e+01    0.2288157    0.1250636  65.33 0.0009880234    2.066    0.516
        51  -8.0835    250.0739     65.3647   6.0865122627e+01   1.6795612478e+01    0.2292756    0.1369832 -41.12 0.0009298912    1.313    0.238
        52  -7.6134    238.2497     64.0092   6.1640313649e+01   1.9076814047e+01    0.1661949   0.08737659 -34.50   0.00088968    1.593    0.372
        53  -8.4576     69.7485     64.0251   9.7086233087e+01   5.7394678131e+01    0.2548778    0.2076947  26.37 0.0002591368    1.253    0.202
        54  -7.5014    119.5171     62.9429   8.0091672035e+01   4.6315476686e+01    0.2160841    0.1402099  -6.74 0.0008089418    2.680    0.627
        55  -8.9240    215.7929     61.7654   6.3391378755e+01   2.3732893601e+01    0.2817477     0.183286  41.78  0.001275018    2.029    0.507
        56  -8.2119    171.9525     58.8814   6.8302911177e+01   3.3929928624e+01    0.3430634    0.2009624  62.59    0.0015993    1.706    0.414
        57  -7.7176    235.9536     60.0000   6.0983770602e+01   2.0013595578e+01    0.1776907   0.06885503  66.63 0.0008095857    2.992    0.666
        58  -7.1064     19.6545     57.3026   1.2029531686e+02   6.6089973508e+01    0.1368503   0.09968677  56.55 0.0007039598    1.686    0.407
        59  -8.6964     41.5091     54.5623   1.0702193902e+02   6.4240463039e+01    0.3010451    0.2423738 -63.43 0.0006505513    1.382    0.276
        60  -8.4308    236.6865     53.7639   5.9562815136e+01   2.0657778452e+01    0.2293904    0.1604953 -84.16  0.001426955    1.581    0.367
        61  -8.7961    228.4756     52.0009   5.9896577763e+01   2.2454846468e+01    0.3260668    0.1947183 -41.21  0.001452811    1.377    0.274
        62  -7.9328      2.3903     53.7790   1.2989713557e+02   6.8035394795e+01    0.1978102    0.1470442 -13.43 0.0006504631    1.377    0.274
        63  -8.8476    244.9405     51.4604   5.8388799776e+01   1.9413603286e+01    0.3247998    0.1878602 -69.33  0.001588373    1.931    0.482
        64  -7.5286    249.1550     48.3544   5.7416314945e+01   1.9026113673e+01     0.154741   0.09873726 -84.07 0.0009515058    1.790    0.441
        65  -7.4121    214.6846     46.3028   5.9859796783e+01   2.5966839322e+01    0.1347471   0.08069816 -60.23 0.0004480653    1.619    0.382
        66  -7.5638    238.5077     44.4842   5.7406650590e+01   2.1440321496e+01    0.1203156    0.0961786 -50.78 -2.59173e-05    1.004    0.004
        67  -8.5172    189.5164     44.0095   6.1915643949e+01   3.1819812282e+01     0.249697    0.1301611 -27.23  0.001138691    2.044    0.511
        68  -8.9640    244.3292     41.8501   5.6411303790e+01   2.0664510210e+01    0.3113583    0.2331944 -29.49  0.002057835    1.334    0.250
        69  -7.1887    179.2927     43.6461   6.3045758156e+01   3.4276984518e+01    0.1492974   0.09120363 -60.99 0.0006040831    1.683    0.406
        70  -8.0613    216.6529     40.9620   5.8421101812e+01   2.6211589903e+01    0.1819586    0.1381268 -45.72 0.0008373707    1.128    0.114
        71  -8.1376     12.7647    249.4270   1.4093076306e+02   2.1023557584e+01    0.1480248   0.09302933  21.06 0.0009534307    1.657    0.397
        72  -7.9146     61.7079     38.9462   9.0318602426e+01   6.3883874873e+01    0.1968589    0.1835129 -23.52  0.000729269    1.114    0.103
        73  -7.9817    238.4953     38.0367   5.6020483567e+01   2.2198183561e+01    0.2217644    0.1388347 -71.64  0.001339363    1.604    0.377
        74  -9.0446    248.2825     32.0586   5.4105429706e+01   2.1052365127e+01    0.3635147    0.1627674 -57.69  0.001873165    2.046    0.511
        75  -8.6774    227.3599     34.2539   5.6009341185e+01   2.4809760346e+01    0.3437394    0.1746834 -64.47  0.001775643    2.009    0.502
        76  -8.7510    227.4946     30.5224   5.5164308693e+01   2.5208112755e+01    0.2287928   0.09747113 -34.51 0.0007778075    1.958    0.489
        77  -8.7950    190.9646     34.0178   5.9135361942e+01   3.2724225433e+01     0.199358    0.1595461  32.27 0.0008618201    1.678    0.404
        78  -7.3011     33.3184     34.6893   1.0357701990e+02   6.9582178620e+01    0.1283561    0.1075099  65.70 0.0007034498    1.642    0.391
        79  -8.5181    221.4575     30.9289   5.5700456055e+01   2.6391575163e+01    0.2448871    0.1903513 -20.64   0.00154901    1.503    0.335
        80  -7.2604    181.2805     32.6407   5.9789132521e+01   3.5175341357e+01    0.1465967   0.08610597 -59.15 0.0007014415    1.668    0.400
        81  -8.7860    215.7253     29.8676   5.5894819766e+01   2.7710048390e+01     0.418372    0.1816264  68.37  0.002040265    2.356    0.576
        82  -9.2208    185.4860     37.5646   6.0659113253e+01   3.3575714961e+01    0.4337491    0.1482135 -45.17  0.001688211    2.617    0.618
        83  -8.8054    115.6370     26.4022   6.7663110296e+01   5.2750334681e+01    0.2570416    0.2223834  55.11 0.0004248675    1.114    0.103
        84  -9.2114    224.9052     23.3180   5.3728203468e+01   2.6530326295e+01    0.4148026    0.1836228 -62.68  0.002021576    2.247    0.555
        85  -8.3097    205.2104     24.4804   5.5433249851e+01   3.0590199328e+01    0.3306864    0.1109417 -55.24  0.001283617    3.057    0.673
        86  -7.7949    227.5182    248.5102   9.7488929391e+01  -3.8539958293e+00    0.1062453   0.07476539   4.42 4.775176e-06    1.034    0.032
        87  -7.8836    248.6009    245.2110   9.3705949543e+01  -5.6031042594e+00    0.1391149   0.07171912 -17.86 0.0009459257    1.640    0.390
        88  -7.3393    176.4595     20.5044   5.6932165515e+01   3.7722152562e+01    0.1365227    0.1132844 -70.22 0.0001120097    1.049    0.047
        89  -8.2966    214.5471    245.2094   9.9185728417e+01  -2.1097734388e+00    0.2456619    0.1105723  39.99  0.001312823    2.866    0.651
        90  -8.0533    192.3311    243.3001   1.0283989417e+02   6.4958485516e-01     0.117864   0.06974991   3.28 0.0007032108    1.647    0.393
        91  -8.5204    173.1054    241.5151   1.0621086236e+02   3.2219731323e+00    0.1653927     0.134531   2.75 0.0005296248    1.140    0.123
        92  -7.0439    187.2944     16.6332   5.4898150865e+01   3.5531857216e+01    0.1443247   0.07764458 -58.20 0.0003880425    1.718    0.418
        93  -7.3173     30.9615     16.4523   9.5329092720e+01   7.3242163960e+01    0.1684232    0.1101449  57.28 0.0006075279    2.368    0.578
        94  -8.6168    247.2696    238.6078   9.2955829409e+01  -4.7914097925e+00    0.2711081    0.1167455  -6.40  0.001313124    3.408    0.707
        95  -8.7583    240.8250    238.7660   9.3972217959e+01  -4.1648515014e+00    0.2382147    0.1092515  13.40  0.001386431    2.184    0.542
        96  -7.9010     98.6571    225.3251   1.2011022266e+02   1.5714034668e+01    0.1355387   0.08243175  52.86 0.0007050881    1.736    0.424
        97  -7.3045    162.4943     15.4820   5.6895809961e+01   4.1718441929e+01    0.1373624    0.1171001 -78.26  0.000810318    1.019    0.019
        98  -7.3426    155.3262    219.2872   1.0669619201e+02   8.8415435756e+00    0.1282463   0.08572391   3.69 0.0007009947    1.609    0.379
        99  -8.9449    247.6394    215.3607   8.9376546809e+01  -2.2802664863e+00    0.2716249    0.1276959  17.80  0.001387986    2.195    0.544
       100  -8.1395     27.7103    212.2619   1.3606338376e+02   2.6830915553e+01    0.2459629    0.1278065  71.31  0.001279883    1.934    0.483
       101  -7.6991    250.5493     16.7580   5.0856585689e+01   2.2275260820e+01     0.162032   0.07479127 -43.18 0.0009396574    1.582    0.368
       102  -7.4592    237.7869    193.0509   8.7237131115e+01   1.5401137505e+00    0.1478992   0.07700524 -31.81 0.0007538431    1.691    0.409
       103  -7.2511     16.5152    182.9674   1.3732643876e+02   3.4381019700e+01    0.1722405   0.08734874 -52.81 0.0008069973    2.400    0.583
       104  -6.9453     86.2919    172.3414   1.1657541140e+02   2.8489848252e+01    0.1428847    0.1108008 -19.90 0.0003659898    1.652    0.395
       105  -7.0116    147.3335    168.2570   1.0002425187e+02   1.9139873126e+01    0.1422938    0.1046705   6.01 0.0004381417    1.568    0.362
       106  -7.2351     57.4666    165.4660   1.2403027760e+02   3.4197737542e+01     0.146227    0.1247306  56.24 0.0008076426    1.075    0.070
       107  -7.4607      7.6368    150.6643   1.3804615773e+02   4.2919114038e+01    0.1366528   0.08990473 -42.88 0.0007035536    1.822    0.451
       108  -7.4979    111.5376    147.5456   1.0513556270e+02   2.9980227373e+01    0.1518468    0.1415185  46.09 0.0001892665    1.044    0.042
       109  -7.6088     35.5568    147.4716   1.2880357878e+02   4.1295100058e+01     0.140057    0.1272239  68.50 0.0001355389    1.005    0.005
