#   1 NUMBER                 Running object number                                     
#   2 MAG_AUTO               Kron-like elliptical aperture magnitude                    [mag]
#   3 X_IMAGE                Object position along x                                    [pixel]
#   4 Y_IMAGE                Object position along y                                    [pixel]
#   5 X_WORLD                Barycenter position along world x axis                     [deg]
#   6 Y_WORLD                Barycenter position along world y axis                     [deg]
#   7 A_WORLD                Profile RMS along major axis (world units)                 [deg]
#   8 B_WORLD                Profile RMS along minor axis (world units)                 [deg]
#   9 THETA_WORLD            Position angle (CCW/world-x)                               [deg]
#  10 FWHM_WORLD             FWHM assuming a gaussian core                              [deg]
#  11 ELONGATION             A_IMAGE/B_IMAGE                                           
#  12 ELLIPTICITY            1 - B_IMAGE/A_IMAGE                                       
         1 -11.5402    112.4452     39.4883   2.8148322025e+01   5.1213355302e+01     1.205304    0.8414826  31.02  0.006010288    1.789    0.441
         2 -10.1729     33.9664     30.4527   5.2436547492e+01   6.9466222651e+01    0.6529433    0.3707159 -28.13  0.003121646    1.982    0.496
         3 -10.5590     64.9839     29.0525   3.7250731552e+01   6.3659773842e+01    0.6476927    0.4581714  34.18  0.002822556    1.397    0.284
         4 -10.8130    132.5895     20.7972   1.8282397549e+01   4.8560953587e+01    0.7977733    0.4353999 -31.81  0.004020269    1.891    0.471
         5 -10.3124    136.7901     18.4749   1.6985710446e+01   4.7794696650e+01     0.604649    0.3494698 -37.88   0.00314053    1.712    0.416
         6  -9.6312     35.2728     19.5083   4.5712587998e+01   7.0953348420e+01    0.3695236    0.2470229 -28.79  0.001871442    1.575    0.365
         7  -9.6397     57.6676     13.6821   3.2217349109e+01   6.7144147889e+01    0.4526424     0.345277 -14.09  0.002651425    1.458    0.314
         8 -10.0755      4.5048     14.8178   6.4790644513e+01   7.6177231157e+01    0.6049332    0.2501718  20.09  0.002754027    2.419    0.587
         9  -9.4701    158.7610     14.1947   1.3303600545e+01   4.3097424067e+01    0.3635499    0.2211289  88.49  0.002029517    1.547    0.354
        10  -8.8367     68.6768     12.6753   2.8049422663e+01   6.4761213775e+01    0.3341812    0.1278293 -22.38  0.001343915    3.115    0.679
        11 -10.4206     38.9840     10.5702   3.8392083688e+01   7.1411642323e+01    0.3521156    0.2613104  -6.33  0.002052065    1.454    0.312
        12  -8.9065    114.3332     10.1405   1.7274064145e+01   5.4005645939e+01    0.2438507    0.1552293  62.31  0.001326471    1.402    0.287
        13 -10.7250     28.3267      4.9080   4.0436264136e+01   7.4107746707e+01    0.5327964    0.4252442   7.69  0.003029104    1.198    0.165
        14 -10.4119     60.0548      3.5952   2.5967515116e+01   6.7575297810e+01    0.6185061    0.3285173  51.79  0.002850792    1.561    0.360
        15  -8.6966     98.0384      2.7912   1.7019025192e+01   5.8584795316e+01    0.1984657    0.1542869 -82.29 0.0004909722    1.278    0.217
        16 -10.1603     46.2771      6.5716   3.2626783966e+01   7.0346554134e+01    0.4223258    0.2843571  41.46  0.001994373    1.282    0.220
        17  -8.5834     57.8127    183.9301   8.1081911290e+01   2.8788900724e+01    0.1976876    0.1805977 -28.31 0.0002361381    1.181    0.153
        18  -8.2777    250.2464    249.9840   4.9250234764e+01  -5.2734026750e+00    0.1276503   0.06392236 -30.22 0.0008823018    1.582    0.368
        19  -9.2504     98.3035    250.4802   7.8203405798e+01   9.9155624435e+00    0.2188357    0.1182875  26.40 0.0002968482    1.504    0.335
        20  -7.9470    202.9810    181.4639   4.5879666568e+01   8.9552053735e+00     0.159043    0.1158267  25.40 0.0003959193    1.461    0.316
        21 -10.3112      8.1710    176.3310   9.4977014213e+01   3.5465531781e+01    0.2404047    0.1905963  88.64  0.001393995    1.185    0.156
        22  -8.9945     23.9606    164.6803   8.9259080698e+01   3.7228731054e+01    0.1925522    0.1740525  38.47 0.0004707317    1.104    0.094
        23  -9.0379      2.4934    161.3182   9.5745037296e+01   3.9724844464e+01    0.2298093    0.1226588  17.36   0.00107521    1.980    0.495
        24  -8.6104    129.9985    156.5300   5.6363177156e+01   2.4726813327e+01    0.2850013    0.1883457 -32.58 0.0009868937    1.584    0.369
        25  -8.6983     15.9895    138.0221   8.9266746777e+01   4.5044102533e+01    0.2062192    0.1945933 -77.14  0.001203726    1.020    0.020
        26 -10.2692     38.3411    126.0565   7.9316265195e+01   4.6266234842e+01    0.2482404    0.2206399  16.09 0.0003623061    1.175    0.149
        27  -7.9938    185.4264    103.2643   3.2731310345e+01   2.5058757718e+01    0.1734003    0.1137415 -46.51 0.0002976922    1.379    0.275
        28  -8.4119     84.9953     80.9342   5.0308684945e+01   5.0227589864e+01    0.2168018    0.2128632  -3.22 0.0003759482    1.011    0.010
        29 -10.0125    105.2892     74.9256   4.2027039096e+01   4.7119208589e+01    0.7156128    0.4454688 -61.40  0.002998597    2.110    0.526
        30  -8.6973     19.8231     73.3721   7.6762974107e+01   6.2034721659e+01     0.265672    0.2489368   0.11  0.001291983    1.095    0.087
        31 -10.5755     22.0538     66.4122   7.3660542682e+01   6.3525078108e+01     0.529424    0.4285749 -41.07  0.001629093    1.135    0.119
        32  -9.4711     12.3820     64.4250   7.8572762534e+01   6.4869586097e+01    0.4587508    0.2414954 -44.80  0.002131873    1.701    0.412
        33  -7.7280    135.5666     62.4513   3.0863781053e+01   4.2381260838e+01    0.1395782    0.1317571 -75.10  0.000115049    1.008    0.007
        34  -8.7934      6.8159     55.3273   7.9477576954e+01   6.7464449970e+01    0.3780827    0.1368615 -51.48  0.001555044    2.241    0.554
        35  -9.0481     88.8588     55.7350   4.0289696410e+01   5.4255552814e+01    0.3675245    0.2599348  47.96  0.001816481    1.352    0.260
        36  -9.6436     58.6061     53.3052   5.0539297055e+01   6.0992138690e+01    0.4799463    0.3752261 -14.86  0.002496184    1.429    0.300
        37 -10.8882    130.9021     50.1212   2.7961877048e+01   4.5333403261e+01    0.7895871    0.5219684  72.96  0.002836797    1.578    0.366
        38 -10.8085      3.3876    246.8325   9.9376881180e+01   1.9899117493e+01    0.4753571    0.2863846 -88.14  0.002985166    1.752    0.429
        39  -9.6541     18.4115     44.9459   6.8638057904e+01   6.8796002530e+01    0.3964429    0.3325753 -47.70   0.00150579    1.217    0.178
        40  -7.9630    174.0055     44.7395   1.9875335179e+01   3.6232924152e+01    0.1676901     0.146034 -75.77 0.0002296604    1.056    0.053
        41 -10.6450     97.6158     41.7417   3.2498447891e+01   5.4437995063e+01    0.7810826    0.5599428  20.50  0.003830589    1.834    0.455
        42  -8.9578     55.7458     43.8072   4.7792883459e+01   6.3268405531e+01    0.2880976    0.1951454  51.64   0.00130387    1.580    0.367
        43  -8.6857     48.1492     43.0510   5.0978664733e+01   6.4819477519e+01    0.2342685    0.1553469 -12.43  0.001085036    1.981    0.495
        44  -9.5171    129.3775     40.6674   2.5219460600e+01   4.6996536794e+01    0.4704476    0.2626266  37.60   0.00203716    2.437    0.590
        45  -9.6111      3.5309     34.4522   7.4955967550e+01   7.2406387664e+01    0.4179276    0.2985801 -17.44  0.002439246    1.279    0.218
        46  -9.0599     87.2028     34.1717   3.2336973956e+01   5.7932112152e+01    0.3377683    0.2463598  65.29  0.001484952    1.355    0.262
        47 -10.0229     83.8904    245.5636   8.0986561450e+01   1.2399765509e+01    0.3063927    0.1646744 -54.24  0.001648982    2.128    0.530
        48  -9.9611     22.8631    244.2390   9.4949492379e+01   1.8789010265e+01    0.2675617    0.1853371  -7.53  0.000423511    1.908    0.476
        49  -9.9347    248.7953    241.1119   4.8188377905e+01  -4.1277520435e+00    0.2106168    0.1149526   9.87  0.001484949    1.652    0.395
        50  -8.6354     10.3116    240.6421   9.7624303371e+01   2.0573728723e+01    0.1319742   0.06424364  52.82 0.0001883838    1.739    0.425
        51 -10.0837    120.2153     22.5198   2.0721703314e+01   5.1367514332e+01    0.4759575    0.2339991  44.49  0.002098146    2.351    0.575
        52  -8.6581     82.3241     23.3301   2.9095085993e+01   6.0429557118e+01     0.143284   0.09506677  31.90            0    1.701    0.412
        53  -9.9427     19.8149     27.4812   5.9845791112e+01   7.2094747478e+01    0.5843777    0.3104946  15.51  0.002696836    2.167    0.539
        54  -7.6264    123.4683    233.4844   7.0567152486e+01   1.0038219116e+01     0.127719    0.1067681  12.54   0.00022498    1.018    0.017
        55  -9.2863     26.3345     19.2138   5.0882578697e+01   7.2525381679e+01    0.3111745    0.2260948  19.39  0.001459806    1.277    0.217
        56 -10.5379      7.5254    224.7815   9.7626855285e+01   2.4103123262e+01    0.2905859    0.1624682  45.22  0.001641624    1.469    0.319
        57 -11.0282      6.0396    214.9263   9.7568085569e+01   2.6382191807e+01    0.3440081    0.2559173  41.80  0.001177828    1.157    0.136
        58  -8.2714    212.7503     14.8649   9.4630284121e+00   3.1733217984e+01    0.1524666    0.1346693 -55.15 0.0005104474    1.210    0.173
        59  -8.5386     25.3331    220.1185   9.3055317430e+01   2.3617679188e+01    0.1869668    0.1492509 -53.44 0.0006581671    1.455    0.313
        60  -9.0934     99.0246     14.1626   2.1390592455e+01   5.7372647977e+01      0.32696    0.1760186  68.44  0.001588612    1.663    0.399
        61  -8.2571     32.1625    217.8591   9.1198532267e+01   2.3489741538e+01    0.1651402    0.1465419 -14.96 0.0003986278    1.326    0.246
        62  -7.5906     62.0410    210.9825   8.2915474797e+01   2.1931239285e+01    0.1573882     0.142791  36.02 0.0003267868    1.011    0.011
        63  -8.0821     34.6490    208.1206   8.9855502676e+01   2.5458021928e+01     0.172154    0.1115619 -59.57            0    1.661    0.398
        64 -10.7526      9.6095    204.1124   9.6155005671e+01   2.8576465352e+01    0.3274767    0.1727258  61.15  0.001643965    1.798    0.444
        65  -9.5056    114.0257    200.5549   6.8199455523e+01   1.7642503000e+01    0.2291589    0.1922407 -38.49  0.001319427    1.231    0.188
        66 -10.8251      2.5007    193.8617   9.7523910190e+01   3.1534536672e+01    0.5073104    0.1628352 -72.66  0.002046755    2.883    0.653
