#   1 NUMBER                 Running object number                                     
#   2 MAG_AUTO               Kron-like elliptical aperture magnitude                    [mag]
#   3 X_IMAGE                Object position along x                                    [pixel]
#   4 Y_IMAGE                Object position along y                                    [pixel]
#   5 X_WORLD                Barycenter position along world x axis                     [deg]
#   6 Y_WORLD                Barycenter position along world y axis                     [deg]
#   7 A_WORLD                Profile RMS along major axis (world units)                 [deg]
#   8 B_WORLD                Profile RMS along minor axis (world units)                 [deg]
#   9 THETA_WORLD            Position angle (CCW/world-x)                               [deg]
#  10 FWHM_WORLD             FWHM assuming a gaussian core                              [deg]
#  11 ELONGATION             A_IMAGE/B_IMAGE                                           
#  12 ELLIPTICITY            1 - B_IMAGE/A_IMAGE                                       
         1 -11.9152    107.5516     29.1550   6.6954818204e+01   5.4370615790e+01    0.4862359    0.2773727 -21.37 0.0004333621    1.818    0.450
         2 -12.4319     17.9416     24.7766   9.9138282086e+01   6.8807890377e+01     0.551817     0.315132 -54.65   0.00227351    1.757    0.431
         3 -12.1919      2.1439     24.9410   1.0683408371e+02   6.9827046154e+01     0.406794    0.1917709 -52.43  0.002408175    1.564    0.361
         4 -11.3194      5.3132     16.8593   1.0227808288e+02   7.1111111724e+01    0.3884645    0.2620951 -44.67  0.002722638    1.189    0.159
         5 -11.4786    182.2305     19.0703   4.8624946011e+01   3.7047193535e+01    0.3526734    0.2934867   1.22  0.000906607    1.403    0.287
         6 -11.4534    200.9327     13.0431   4.4556414640e+01   3.2887400654e+01    0.4809595    0.2566411  25.11  0.001155147    3.322    0.699
         7 -10.1827     31.9692     12.9582   8.7214578818e+01   6.9413193409e+01    0.2879406     0.239235 -34.51   0.00202365    1.388    0.280
         8 -10.6375    116.9246     15.0633   5.8911363622e+01   5.3927644115e+01    0.3132628     0.189689  36.55  0.001141705    1.598    0.374
         9 -11.2339    128.2157     11.9561   5.5238424819e+01   5.1554649149e+01    0.4973014    0.1915465 -12.65  0.001434983    3.523    0.716
        10  -9.9670    128.0490      8.4778   5.3941797929e+01   5.1927968441e+01    0.1976975    0.1656988  52.84 0.0003794545    1.098    0.089
        11 -11.4806    210.2300     11.8608   4.3236681879e+01   3.0669934145e+01    0.4404255    0.2741818  -8.80  0.002102247    2.138    0.532
        12 -11.7888    173.0150     13.2926   4.8122163590e+01   4.0053630342e+01    0.3669971    0.2112078 -28.22  0.001718013    1.809    0.447
        13 -11.2077    147.5287     13.2348   5.2073823213e+01   4.6622159225e+01      0.31165    0.2088531  38.34 0.0006742862    1.501    0.334
        14 -10.5357    150.7131     12.0455   5.1118623405e+01   4.5929595977e+01     0.215846    0.1924072  49.82 0.0003150437    1.042    0.041
        15 -10.7962     75.5760     12.9183   6.9556038767e+01   6.2872050477e+01    0.2645937    0.2170904 -61.61  0.001530724    1.945    0.486
        16 -10.0465     51.1220     13.5218   7.8990976013e+01   6.6849198746e+01    0.2644026    0.1388532 -18.55  0.001333278    1.942    0.485
        17 -10.6435    132.8738     12.7058   5.4589256156e+01   5.0341811247e+01    0.2399491    0.2197525 -61.38 0.0006341508    1.253    0.202
        18 -10.4614    218.5210     12.0077   4.2446363222e+01   2.8600102459e+01    0.2655734     0.189177  72.14 0.0007040638    1.342    0.255
        19  -9.6286     97.5598     12.0457   6.2509520035e+01   5.8579048198e+01     0.196455     0.125012 -20.01 0.0007155163    1.566    0.362
        20 -10.2627     67.2411     12.1193   7.2070900610e+01   6.4457476494e+01    0.2198615    0.1556219  21.41 0.0009562795    1.300    0.231
        21 -10.3895     21.0317     11.7457   9.1980256406e+01   7.0734058743e+01    0.2631003    0.1720118  42.97  0.001593582    2.465    0.594
        22 -11.4026     12.8267     11.0925   9.5897053041e+01   7.1553612135e+01    0.3407167    0.1698636  20.21  0.001110306    2.227    0.551
        23 -11.3745    194.1999      8.4144   4.4011226219e+01   3.5080310898e+01    0.3299589    0.1933841  73.67  0.001262557    1.597    0.374
        24 -10.8557    185.2906      8.9329   4.5199282903e+01   3.7315259374e+01    0.2481766     0.183771  64.50 0.0002256814    1.251    0.200
        25 -11.5699    165.8434      3.8321   4.6116397206e+01   4.2812004045e+01    0.3750174    0.2653799  35.54  0.001245104    1.526    0.345
        26 -11.8548    160.8903      3.1015   4.6559087425e+01   4.4149905382e+01    0.5304289    0.3482287  56.92  0.002467958    1.365    0.268
        27 -11.3767    146.7180      7.7737   5.0297454759e+01   4.7351362542e+01    0.3747336    0.2058667  32.94  0.001657324    2.066    0.516
        28  -9.7523     73.8019      8.5577   6.8073436557e+01   6.3697086636e+01     0.264296    0.1428702  28.93  0.001315054    1.853    0.460
        29  -9.4463     46.9314      8.7783   7.8375971336e+01   6.8084187370e+01    0.2131909    0.1452975  23.67  0.000470537    1.400    0.286
        30 -10.1208     51.4828      6.7291   7.5423986503e+01   6.7672124008e+01    0.3021339    0.1697098   7.77  0.001540049    2.103    0.524
        31  -9.6399    229.3070     10.9833   4.1185683394e+01   2.6098236499e+01    0.1795381    0.1559339 -51.55 0.0001993168    1.102    0.092
        32 -10.3876    111.8675      5.1114   5.6014299654e+01   5.6068412735e+01    0.3065695    0.1924257 -20.09  0.001212289    1.654    0.395
        33 -10.8316    108.3205      7.8966   5.7993683415e+01   5.6623023569e+01    0.4553024    0.2073103  61.66  0.001957864    2.239    0.553
        34 -10.5607    106.8147      3.8907   5.6659714939e+01   5.7329651665e+01    0.5539577    0.2165507  31.68  0.002028845    3.208    0.688
        35 -11.3132    170.7210      6.5144   4.6312077035e+01   4.1309650823e+01    0.2501048    0.2149915  22.77 0.0007326675    1.295    0.228
        36 -10.4684     87.3273      6.3286   6.2811704188e+01   6.1299802748e+01    0.2189593    0.2055493  20.62 0.0003821869    1.191    0.160
        37 -10.4106     61.8340      6.4115   7.1228726796e+01   6.6051024520e+01    0.2206375    0.2119464  84.34  0.001087148    1.641    0.391
        38 -10.4128     31.5425      4.8107   8.3284596844e+01   7.0627411706e+01    0.3836407     0.243754 -54.70  0.001939956    3.360    0.702
        39 -10.2511     24.6637      6.6959   8.7655639548e+01   7.1135623903e+01    0.2125226    0.1466451 -41.54  0.001391184    1.585    0.369
        40  -9.7997     20.1290      6.8082   9.0025103460e+01   7.1577433129e+01     0.228864    0.1174035 -30.39 0.0008345239    1.564    0.361
        41 -11.6017    208.7841      4.6211   4.1455690969e+01   3.1775449387e+01    0.3409423    0.2475774 -73.03 0.0003689836    1.329    0.248
        42 -11.1262    134.0758      5.2010   5.1562795243e+01   5.0746259832e+01    0.2949469    0.1945871 -27.34  0.001522501    1.619    0.382
        43  -9.7886     37.9924      2.0641   7.8780845200e+01   7.0168923193e+01    0.1620396    0.1341304 -10.05 0.0002905003    1.203    0.169
        44  -9.7261    153.3318      5.2648   4.8380544789e+01   4.5895477507e+01    0.1454034   0.09159324  41.66  0.000365223    1.578    0.366
        45 -10.1212     46.5524      4.5428   7.6337080125e+01   6.8671548937e+01    0.2024091    0.1462231   2.12 0.0001117886    1.169    0.144
        46  -9.8622     49.5309      2.5317   7.4023543155e+01   6.8466314799e+01    0.2090108    0.1440621  28.33 0.0007019208    1.358    0.264
        47 -12.2196    195.8403      3.3177   4.2399959677e+01   3.5159236074e+01    0.6554586    0.2387549  62.86  0.002647416    2.367    0.578
        48 -10.0817     12.9062      3.1052   9.1975089777e+01   7.2794466188e+01    0.2501614    0.2064995  88.00  0.001498069    3.381    0.704
        49 -10.2552    248.9104      2.8539   3.7707398816e+01   2.2430442549e+01     0.203859    0.1612684 -47.01 0.0003938921    1.158    0.136
        50 -10.6256    217.9775      2.5135   4.0064904876e+01   2.9717151158e+01    0.2465474    0.1879075 -38.34 0.0006717973    1.308    0.235
        51 -11.0019     74.1772      1.8789   6.4691623261e+01   6.4317670234e+01    0.2675482    0.1855611  33.28 0.0008900761    1.267    0.211
        52 -11.3202    180.3809      2.0493   4.3743354017e+01   3.9228403790e+01    0.3504975    0.1804447  71.17  0.001152266    1.764    0.433
        53 -10.5560    115.7162      2.0211   5.3912471258e+01   5.5440251977e+01    0.2162302    0.1719265  52.36 0.0003893677    1.147    0.128
        54 -10.6044     90.3832      1.5994   5.9778587402e+01   6.1111322369e+01    0.3026468    0.1442632  51.41 0.0009824387    1.868    0.465
        55 -10.6309     39.7069      5.3341   7.9754647548e+01   6.9526676279e+01    0.2339711    0.1841491 -12.05  0.001110341    1.095    0.087
        56  -9.8811    143.5307      1.4593   4.8593638875e+01   4.8705871888e+01    0.1380953    0.1213798  50.81 4.413495e-05    1.029    0.028
        57  -9.7300     43.5130      1.2948   7.5902169648e+01   6.9498654895e+01    0.1735534   0.09751451  36.91 0.0005268666    1.797    0.443
        58  -9.5698     19.7658    225.9722   1.2888716489e+02   2.5644660318e+01    0.1489413    0.1021942  83.54  0.001138136    1.142    0.125
        59 -10.5386    197.8980    239.9989   9.8561012517e+01  -2.4067960486e+00    0.3171326    0.2160386  -1.18  0.001554354    1.816    0.449
        60  -8.9463    207.2682    237.3369   9.6507738119e+01  -3.5603249440e+00    0.2065623    0.1290244 -12.48 0.0005431486    2.031    0.508
        61 -10.5145    200.8036    249.1435   9.9371030044e+01  -3.9782367658e+00    0.1907469    0.1579456  -5.77  0.000757465    1.331    0.249
        62 -11.6163    201.5100    244.6793   9.8609038875e+01  -3.5532095273e+00    0.3057967    0.1940974  31.41  0.001001626    1.257    0.205
        63 -10.7046    204.1113    240.4973   9.7539084260e+01  -3.4511899063e+00    0.2813449    0.1609206  39.16  0.001107845    1.416    0.294
        64 -11.3837    127.5148    248.2117   1.1214577542e+02   7.6321785324e+00    0.3002379    0.2451694 -71.66  0.002090708    1.487    0.327
        65 -11.4175    116.0654    249.4438   1.1427580643e+02   9.1788938978e+00    0.3809223    0.1993365  48.16  0.002266404    1.476    0.322
        66  -9.2969    105.9780    249.9869   1.1607386138e+02   1.0585331941e+01    0.1534099    0.1274735  25.60 0.0004343223    1.612    0.379
        67 -11.5337     38.8413    249.4539   1.2711500348e+02   1.9473729035e+01    0.2172875    0.1731473  73.86 0.0008072314    1.229    0.186
        68 -10.1560     30.9651    250.6079   1.2839572844e+02   2.0168441048e+01    0.1535612   0.08099511  56.89            0    1.361    0.265
        69 -11.1976      2.1107    224.0236   1.3163446804e+02   2.7720141787e+01     0.325485    0.1326036  86.62   0.00190335    2.030    0.507
        70 -11.6643      3.2195    233.1133   1.3184369099e+02   2.6001685569e+01    0.3443164     0.220232 -88.51  0.002652554    1.311    0.237
        71 -12.2050     30.6459    244.9314   1.2815055561e+02   2.1154248958e+01    0.5863916    0.3798236  30.50   0.00244856    2.252    0.556
        72 -11.8152     10.4330    225.9793   1.3039848823e+02   2.6577704346e+01    0.8142927    0.2116086  62.08  0.003158055    3.551    0.718
        73 -12.0980     22.2224    243.2385   1.2937332505e+02   2.2350915163e+01    0.5086567    0.3054767  86.48  0.003852785    1.356    0.263
        74 -12.6875      5.2341    246.8192   1.3208717180e+02   2.3468294460e+01    0.7643524    0.1812219  48.48  0.003516581    2.608    0.617
        75 -11.6084      7.8571    240.8460   1.3145792631e+02   2.4219872293e+01    0.4039662    0.1832299  45.00  0.002782916    1.846    0.458
        76 -12.4293     12.0403    234.5763   1.3054407472e+02   2.4891242762e+01     0.785512    0.2667288 -88.05  0.004261706    2.761    0.638
        77 -11.4295     24.3722    249.1294   1.2932856784e+02   2.1130857800e+01    0.5584511   0.08474966  47.03  0.002649039    3.401    0.706
        78 -11.6057     15.7921    244.4551   1.3041397760e+02   2.2813011046e+01    0.3983927    0.1948569  70.43  0.002193774    1.541    0.351
        79  -9.6760    164.4198    225.2841   1.0252794631e+02   5.1541935365e+00    0.1509416    0.1217282 -66.51 0.0009460273    1.630    0.387
        80  -9.3147    123.2116    225.4012   1.1033226730e+02   1.1962006626e+01    0.1715521   0.09545463  50.17 0.0005144619    1.517    0.341
        81  -9.7428     78.9364    223.2137   1.1837060839e+02   1.9004029703e+01    0.2538184    0.1237394  79.36  0.001186943    2.856    0.650
        82 -10.2087     36.4413    223.4709   1.2594819548e+02   2.4306175999e+01    0.2655175     0.137924  63.90   0.00116378    1.555    0.357
        83  -9.8318     63.8792    221.0819   1.2093026934e+02   2.1422065500e+01    0.2897632     0.140808  77.59  0.001478557    2.399    0.583
        84 -10.0387     54.7435    221.3074   1.2259269740e+02   2.2540604945e+01    0.2102916    0.1167164  77.92  0.001081545    1.702    0.412
        85 -11.0210     39.5791    217.7744   1.2502188569e+02   2.5013630110e+01    0.2269811    0.1951407  77.89  0.001159487    1.270    0.213
        86 -10.7175    228.7735    220.1816   8.9944717288e+01  -4.8472754213e+00    0.2045259    0.1752024  32.36 0.0003164411    1.293    0.227
        87 -11.5598     84.1108    220.8114   1.1718251208e+02   1.8718123878e+01    0.1850348    0.1549451  72.64 0.0003011881    1.087    0.080
        88 -10.7855    135.6104    218.7117   1.0711140953e+02   1.1075514516e+01    0.2632697    0.2136892 -57.80 0.0009773215    1.438    0.304
        89  -9.9693     47.0334    217.9928   1.2371632512e+02   2.4101508220e+01    0.2533131    0.1735223  36.33  0.001209548    1.723    0.419
        90  -9.8977     96.4584    218.4365   1.1460944186e+02   1.7352609812e+01    0.1222081    0.0986941  62.76 6.421072e-05    1.005    0.005
        91  -9.2766    175.5286    217.0123   9.9184015856e+01   4.5175523710e+00     0.164315    0.1069643 -11.16 0.0005466433    2.406    0.584
        92  -9.6420    100.8600    217.1406   1.1362472274e+02   1.6925755101e+01    0.1475328    0.1456121  54.74 0.0006777761    1.339    0.253
        93 -10.1196     81.0748    208.6407   1.1652425458e+02   2.1453191519e+01    0.3366951    0.2355256  11.50  0.001737465    2.888    0.654
        94 -11.0258     68.3071    215.0152   1.1958311766e+02   2.1983170885e+01    0.1924436    0.1511847  58.90 0.0003014594    1.129    0.114
        95 -10.8249     73.0654    216.1588   1.1879902022e+02   2.1125246441e+01    0.2230908    0.1854317 -69.94 0.0003043565    1.386    0.278
        96 -12.8537     74.4171    211.0490   1.1805279495e+02   2.1917598461e+01    0.2979069    0.2495828 -68.73 0.0004500202    1.373    0.272
        97 -10.5268     58.7963    215.8290   1.2141584308e+02   2.3064727267e+01    0.1945987    0.1428216  61.78 0.0003305569    1.106    0.096
        98 -11.4414     24.5496    208.1488   1.2703778834e+02   2.8497760032e+01    0.3746996    0.3091207  32.72  0.002855993    1.707    0.414
        99  -9.8945     31.9932    215.9932   1.2623231667e+02   2.6199670212e+01     0.268912    0.1809057 -50.55  0.001759839    2.292    0.564
       100 -10.5213     28.7496    213.4109   1.2663300798e+02   2.7042120894e+01    0.3200943    0.1415263  38.53  0.001856228    2.237    0.553
       101 -10.9031     31.2014    210.5842   1.2601479888e+02   2.7321077055e+01    0.2534024    0.1826542  46.28  0.001413472    1.444    0.307
       102 -10.1480     84.8387    213.9707   1.1635373376e+02   1.9892210994e+01    0.3068453    0.2580996  -4.61  0.001933964    2.058    0.514
       103 -10.7028     13.6375    212.8076   1.2920407035e+02   2.8700802369e+01    0.2577019    0.1629528 -59.71  0.001315317    2.020    0.505
       104 -11.6636      8.2299    210.9165   1.3001992760e+02   2.9575478273e+01    0.4005819    0.1777817 -81.08  0.002484809    1.851    0.460
       105 -11.4254      4.3688    205.6704   1.3040892065e+02   3.0931441285e+01    0.3143955    0.1754113  60.41   0.00153606    1.411    0.291
       106 -10.6054    125.5085    212.4459   1.0824818284e+02   1.3854668492e+01    0.2535169     0.226074   7.82 0.0005500856    1.467    0.318
       107 -12.0519    129.5038    207.5143   1.0678323491e+02   1.4078259795e+01    0.3664842    0.2704966  23.85  0.002063294    1.674    0.403
       108 -10.5985    111.5959    213.6674   1.1113612209e+02   1.5892104118e+01    0.2246973    0.1967228  28.65  0.000641395    1.384    0.277
       109  -9.5953      1.3654    212.8228   1.3125683298e+02   2.9846218984e+01    0.1360447   0.07316741 -76.20 0.0003138559    1.640    0.390
       110  -9.8914    117.9917    212.0933   1.0968344791e+02   1.5152321162e+01    0.1958709    0.1608809  53.39 0.0005133396    1.046    0.044
       111  -8.9586     52.6661    212.7551   1.2228845259e+02   2.4419788821e+01   0.09138197   0.09056747  50.39 0.0002923819    1.549    0.355
       112 -10.0568     39.1581    210.6293   1.2458959500e+02   2.6429014433e+01    0.2035944    0.1379132 -77.66 0.0008654852    1.378    0.274
       113 -10.5186    155.0484    209.9543   1.0206146520e+02   9.2337548123e+00    0.1920132    0.1679447  44.66 0.0003254982    1.020    0.019
       114 -10.6353    144.5083    208.9389   1.0399438203e+02   1.1249195862e+01    0.3006801     0.233004 -84.35  0.001587401    1.634    0.388
       115 -11.0914     67.1267    207.3250   1.1908982339e+02   2.3629220493e+01    0.2494109    0.1724333 -81.44 0.0002625055    1.357    0.263
       116 -10.9306     59.4457    208.0310   1.2062056601e+02   2.4490570772e+01    0.3212985    0.1848448  57.51  0.001112716    1.475    0.322
       117 -10.6277    196.5872    207.7422   9.3661574400e+01   2.2384323950e+00    0.2515939    0.1719976  -5.61  0.001044933    1.841    0.457
       118 -11.5646     34.6049    204.8694   1.2500140588e+02   2.8065605413e+01    0.2892494    0.2011982 -73.81  0.001095455    1.407    0.289
       119  -9.4872     39.9920    204.9236   1.2401170629e+02   2.7451899070e+01      0.13867    0.1035052  80.24 0.0004388159    1.046    0.044
       120 -11.7273     17.7991    207.7937   1.2820448515e+02   2.9250988068e+01    0.1945681    0.1362856  80.06 0.0003061947    1.049    0.047
       121  -9.6243    165.5408    202.4473   9.8793729061e+01   8.6348514029e+00    0.1331244    0.1163365  42.35 0.0004793541    1.037    0.035
       122 -11.2225     97.8437    200.8630   1.1230107899e+02   2.0490262043e+01     0.355503    0.2472339  41.38  0.001125835    1.401    0.286
       123 -10.3928     95.6170    194.8819   1.1200883021e+02   2.2029548155e+01    0.2284574    0.1703651  49.17 0.0003880299    1.229    0.186
       124  -9.3993     70.9103    200.2878   1.1765231321e+02   2.4521948006e+01    0.3165432    0.1500445 -59.75  0.001136871    2.180    0.541
       125 -11.2725      5.4893    200.1090   1.2992697743e+02   3.1908268177e+01    0.1737849    0.1259364  72.45  0.001341304    1.087    0.080
       126  -9.4740     90.7570    199.7940   1.1361042523e+02   2.1781592043e+01    0.1805803    0.1263015  69.52  0.001053079    1.348    0.258
       127  -9.8201    223.6074    198.9885   8.7080797813e+01  -1.2000427673e+00     0.206962     0.145834  32.88 0.0004310975    1.262    0.208
       128  -9.2991    149.8562    199.1852   1.0142262384e+02   1.2033213267e+01    0.1730304    0.1470824  21.98 0.0002564067    1.281    0.219
       129 -11.3770    108.4481    193.3461   1.0912855960e+02   2.0301870190e+01    0.4925312    0.2092254 -53.14  0.001615865    2.536    0.606
       130 -10.6450    121.4862    200.2518   1.0738921997e+02   1.6786987357e+01    0.3717641    0.2280005 -83.32  0.001516721    2.355    0.575
       131  -9.4311    169.6306    198.7921   9.7367024655e+01   8.5112583982e+00    0.1764837    0.1278475 -57.62 0.0007204097    1.720    0.419
       132  -9.3992     13.9819    197.7470   1.2828307221e+02   3.1590844744e+01    0.1936736   0.08231654  62.47  0.001085639    2.032    0.508
       133 -11.2381    128.2543    196.9165   1.0551150438e+02   1.6269458857e+01    0.2600805     0.189283  49.17  0.001467613    1.220    0.181
       134  -9.6728     82.5628    195.6791   1.1479678503e+02   2.3820802693e+01    0.2099084    0.1124854 -62.18  0.000696943    1.888    0.470
       135 -10.3403     37.7009    195.0699   1.2367247550e+02   2.9691978200e+01    0.3338657     0.160994 -63.49  0.001874369    2.032    0.508
       136  -9.5176    140.3457    195.1706   1.0273839189e+02   1.4474050064e+01     0.182997    0.1246642 -66.74 0.0009433496    1.787    0.440
       137 -11.1558     52.7267    192.0437   1.2046041172e+02   2.8562228202e+01    0.4069461    0.2024835 -85.22 0.0009853604    2.041    0.510
       138  -9.2222     44.5407    194.5049   1.2230043611e+02   2.9030096679e+01    0.1190007   0.09166832  78.38 1.218831e-05    1.007    0.007
       139  -8.9704      6.9463    195.0000   1.2938852262e+02   3.2785252472e+01    0.1461598   0.05576621  33.85 0.0006287775    2.857    0.650
       140  -9.8707    123.1284    193.1362   1.0601786173e+02   1.7883743914e+01     0.179429    0.1434755  75.07 0.0004058689    1.289    0.224
       141  -9.3753    100.3686    192.5130   1.1070989713e+02   2.1767850273e+01     0.127026    0.1119754  76.12 1.163253e-05    1.043    0.042
       142  -9.6678     58.6082    191.2998   1.1920449227e+02   2.7984134480e+01    0.2325573    0.1051697 -76.60  0.001131126    2.208    0.547
       143  -9.7661    188.7520    190.9436   9.2175354025e+01   6.2879322272e+00    0.2673339    0.1562306 -17.02   0.00114268    2.625    0.619
       144 -11.7113     91.6289    189.0843   1.1210099229e+02   2.3829739522e+01    0.2817509    0.2162756 -77.31 0.0004615976    1.274    0.215
       145 -10.6547    127.0924    189.4182   1.0461606967e+02   1.7926538277e+01    0.2224974    0.1940033 -64.20 0.0003409373    1.229    0.187
       146  -9.6150    120.4848    189.9210   1.0609487111e+02   1.8972306478e+01    0.1973956    0.1310815 -59.09  0.001040191    1.613    0.380
       147  -9.6775     19.0026    200.7474   1.2756220646e+02   3.0509859310e+01    0.1529455    0.1115646  76.99 0.0004954034    1.017    0.017
       148  -9.7656    165.8314    188.6343   9.6370046285e+01   1.0988059600e+01     0.256349      0.18213 -79.05  0.001217893    2.253    0.556
       149  -9.0680    149.0148    186.9815   9.9579463048e+01   1.4437311010e+01     0.157045    0.1453425  49.11 0.0009382232    1.019    0.019
       150 -10.7936    104.9495    185.6826   1.0879419555e+02   2.2433747780e+01    0.3080595    0.2403487 -79.64 0.0009462035    1.300    0.231
       151  -9.8869     85.4528    187.0474   1.1314933520e+02   2.5183688121e+01    0.2012893    0.1696054  38.52 0.0005719319    1.352    0.260
       152  -9.9797     74.4032    185.4872   1.1530010437e+02   2.7103411454e+01    0.2685375    0.1420594 -73.48  0.000924128    1.893    0.472
       153 -10.2653    130.6418    185.3606   1.0321552482e+02   1.8101338502e+01    0.2875259    0.2024616  88.14  0.001431451    1.877    0.467
       154 -10.5315     43.6276    185.3626   1.2166939222e+02   3.1040935141e+01    0.3348012    0.1606185 -64.59  0.001276482    1.936    0.483
       155 -10.4501     33.5046    184.5124   1.2362960160e+02   3.2339398745e+01    0.2444329    0.1673941  47.75   0.00108999    1.450    0.310
       156 -10.4618    177.8927    184.1621   9.3085932773e+01   9.4917505092e+00    0.2008187    0.1825633  57.17 0.0004296664    1.197    0.164
       157 -10.8728     15.8720    183.1671   1.2698672390e+02   3.4377708095e+01    0.2252596    0.1688015  85.27 0.0007388059    1.041    0.040
       158  -9.5788     88.2840    182.5083   1.1195502861e+02   2.5719176601e+01    0.2239661    0.1093579 -62.78  0.001054019    2.034    0.508
       159  -9.4461    213.0135    182.4722   8.5865571212e+01   3.1281187149e+00    0.1871784    0.1048604  21.29 0.0003879253    2.244    0.554
       160 -10.8915     56.6219    180.9731   1.1854869861e+02   3.0421938108e+01    0.3366075    0.2300129  28.91  0.001970377    1.888    0.470
       161  -9.6768    155.0848    181.0611   9.7254513106e+01   1.4419742836e+01    0.1969331    0.1755999  19.95  0.001131156    1.187    0.157
       162  -9.5081    182.3342    180.1547   9.1420892378e+01   9.3399327401e+00    0.2056827    0.1666138  -6.40  0.001116618    1.385    0.278
       163  -9.8666    131.4731    179.4665   1.0206146077e+02   1.9133182154e+01    0.2314002    0.1332886 -66.50  0.001020639    2.202    0.546
       164  -9.9722     92.0849    177.3100   1.1041108851e+02   2.6250816753e+01    0.2079125     0.167322 -60.06 0.0002099475    1.306    0.234
       165 -12.6935     32.2909    176.2983   1.2317193264e+02   3.4215479432e+01    0.2451324    0.1975515 -85.82 0.0004898866    1.126    0.112
       166 -10.3224     23.2748    176.3584   1.2501828109e+02   3.5108691337e+01    0.2791803    0.1393742  71.93 0.0009953779    1.906    0.475
       167 -10.2899    108.7308    176.5700   1.0660631669e+02   2.3719017385e+01    0.2311195    0.2042256  65.91 0.0006834186    1.030    0.029
       168 -11.6360     78.8851    174.3116   1.1292724154e+02   2.8878070742e+01    0.3804431     0.239275  82.90 0.0003169678    1.770    0.435
       169 -10.0757     74.2082    177.1642   1.1432708222e+02   2.8919268629e+01    0.1766085    0.1588945 -86.33 0.0003861553    1.140    0.123
       170  -9.6612     46.5957    177.2245   1.2027493550e+02   3.2440448720e+01    0.2127546    0.1193824  51.06 0.0006449219    1.661    0.398
       171  -9.5148      8.4960    177.4952   1.2803067930e+02   3.6219723699e+01    0.1142432   0.08152411  81.91 -0.0001896351    1.039    0.038
       172 -10.6246      4.2203    178.7451   1.2893384655e+02   3.6321955061e+01    0.1872948    0.1372298  89.54 0.0003905594    1.080    0.074
       173  -9.7214    142.9868    175.7594   9.8900975000e+01   1.7746347241e+01    0.1885116    0.1122088  42.90 0.0005317047    1.571    0.364
       174  -9.5487     17.4946    174.9902   1.2607685194e+02   3.5946369842e+01    0.1532899   0.07021673 -56.83 0.0008081802    2.390    0.582
       175  -9.7678    156.9347    173.5596   9.5469345915e+01   1.5503554987e+01    0.2212299    0.1320206  42.98  0.001017735    1.567    0.362
       176  -9.9580     87.8157    172.0900   1.1062203623e+02   2.8042329482e+01    0.2023412    0.1602984  80.78 0.0002256125    1.193    0.162
       177  -9.7162     63.0157    170.9797   1.1602840747e+02   3.1790065415e+01    0.1922679    0.1603604  77.04 0.0004539362    1.047    0.045
       178  -9.4551     41.2386    171.4094   1.2083096180e+02   3.4316642473e+01    0.1514852   0.09929164  54.82 0.0002958449    1.436    0.303
       179  -9.3591    188.0000    169.9526   8.8239371271e+01   1.0029710363e+01    0.2197858   0.08121364 -40.83 0.0007870384    2.837    0.647
       180  -9.4296     19.5060    169.9971   1.2527890683e+02   3.6830091667e+01    0.1764756   0.09137544 -77.36  0.001021607    1.559    0.358
       181  -9.7893     54.5407    167.7980   1.1753367867e+02   3.3566762109e+01     0.235071    0.1019915 -63.32  0.001117317    2.053    0.513
       182 -10.2383      2.5767    166.9891   1.2850309032e+02   3.8921068346e+01    0.3563904    0.1035434 -64.68  0.001700229    2.793    0.642
       183 -11.7769     24.3540    163.3314   1.2369081580e+02   3.7829348135e+01    0.2549226    0.1930238  75.02  0.000493576    1.134    0.118
       184  -9.8549    126.0636    161.5031   1.0009185064e+02   2.3881677932e+01    0.2076162    0.1852781 -66.06  0.001162147    1.134    0.118
       185 -10.5516     75.6453    161.7521   1.1193233129e+02   3.2142179556e+01    0.2355779    0.1942952  88.23 0.0004899268    1.085    0.078
       186 -10.9074    140.3882    160.9832   9.6704793384e+01   2.1266940961e+01    0.2668884    0.2027451  46.79 0.0004436345    1.264    0.209
       187 -10.9884     37.2685    159.3408   1.2045726571e+02   3.7427578616e+01    0.6086131    0.1879333  50.83  0.002462565    3.432    0.709
       188 -10.5548     30.1560    154.6432   1.2157211287e+02   3.9207409358e+01    0.3088564    0.1823802  55.05  0.001690546    1.673    0.402
       189  -9.8149     61.1970    166.1345   1.1584034797e+02   3.3105193103e+01    0.1736524    0.1572888 -82.48 0.0005992436    1.168    0.144
       190  -9.2368    113.9826    158.5022   1.0236323885e+02   2.6732028480e+01    0.2007108    0.1363767  43.13 0.0009862639    1.455    0.313
       191  -9.6374     65.7513    158.4065   1.1378041801e+02   3.4261125202e+01     0.232898    0.1140651  42.67  0.001111212    2.036    0.509
       192  -9.9883    113.0717    153.8138   1.0171714497e+02   2.7936391973e+01    0.2229055    0.1829991  73.38 0.0007828405    1.262    0.207
       193  -9.5436    207.1880    151.8335   8.0517053928e+01   9.3352999150e+00    0.1946375    0.1591503   6.82 0.0002920592    1.263    0.208
       194  -9.2634     45.5795    151.5666   1.1764840344e+02   3.8293626687e+01    0.1271899    0.1027692 -88.77 2.357225e-05    1.028    0.028
       195  -9.5760     37.9180    148.2094   1.1905972415e+02   3.9890292332e+01    0.2591527   0.07287841  38.31  0.001063179    3.374    0.704
       196  -9.4643    201.7832    143.7476   7.9734168180e+01   1.1897425796e+01    0.2345421    0.1776021 -77.33  0.001056959    2.087    0.521
       197 -10.5207     13.6603    143.2888   1.2423030776e+02   4.3234058823e+01    0.2725853    0.1892399  62.73  0.001803831    1.409    0.290
       198  -9.5011      4.6620    143.2201   1.2628276268e+02   4.3934287080e+01    0.1600873   0.07903373 -70.45 0.0004619937    1.565    0.361
       199  -8.9345     21.3186    142.2914   1.2233877848e+02   4.2822681537e+01    0.1147956   0.07939127 -51.34 0.0007009337    1.602    0.376
       200  -8.9539     57.6116    141.4869   1.1334280803e+02   3.9223333242e+01    0.1325966    0.1100757 -80.19 5.567049e-05    1.027    0.026
       201 -11.2067     35.4691    139.3307   1.1857602305e+02   4.2189147257e+01    0.2691241    0.2000328  77.24  0.001400424    1.272    0.214
       202  -9.1365     24.6938    139.7137   1.2125413853e+02   4.3115611325e+01    0.1154627    0.0806436 -51.10 0.0003265183    1.567    0.362
       203 -10.5949    236.1343    137.8135   7.2009754288e+01   5.8106135265e+00    0.2079013    0.1924022 -41.98 0.0006783602    1.228    0.185
       204  -9.6086     83.4315    138.6866   1.0629409116e+02   3.6334009938e+01    0.2567091    0.1282707  37.24  0.001117944    2.155    0.536
       205  -9.9441     49.7252    136.2605   1.1457349573e+02   4.1386391903e+01    0.2605674    0.1631441 -38.91  0.001328095    2.093    0.522
       206  -9.3786     77.4447    134.7444   1.0713318405e+02   3.8152595819e+01    0.2023937    0.1173258 -51.60 0.0009536943    1.655    0.396
       207  -9.1958     82.9699    134.7230   1.0568424591e+02   3.7336428988e+01    0.1562748    0.1242998  41.26 0.0003080307    1.357    0.263
       208 -10.9172      9.2399    131.9070   1.2417589994e+02   4.6143544703e+01    0.3727589    0.1512183 -53.11 0.0006495956    2.417    0.586
       209  -9.3662    105.0028    132.7698   9.9552638951e+01   3.4170667202e+01    0.2017244    0.1682417  77.49 0.0004650227    1.290    0.225
       210  -9.4413    101.5317    131.9704   1.0028650444e+02   3.4963644092e+01    0.1966348    0.1857589   0.37 0.0004975823    1.242    0.195
       211 -10.9123     39.9156    131.8885   1.1647113041e+02   4.3476666611e+01    0.3512734    0.2350586  53.16  0.001157814    1.598    0.374
       212 -12.0036     28.0254    131.8171   1.1950355253e+02   4.4639816114e+01    0.3445571    0.2262734  66.76  0.002038223    1.584    0.369
       213  -9.9889     57.1108    132.1297   1.1202363356e+02   4.1490129795e+01    0.1921058    0.1598378 -58.71  0.000302413    1.173    0.147
       214  -9.5778     17.8687    131.1118   1.2197105199e+02   4.5667357968e+01    0.1593767    0.1179019 -61.13 0.0003514175    1.278    0.218
       215 -10.9184     78.0279    129.3232   1.0597392299e+02   3.9349646246e+01    0.3641928    0.2168285  48.60  0.001494006    1.803    0.445
       216 -10.9929     20.6008    126.7219   1.2077380004e+02   4.6457991833e+01    0.2457599    0.2089076 -56.30 0.0005428752    1.282    0.220
       217 -10.0652     92.0296    126.1237   1.0157613408e+02   3.7932687985e+01    0.2125215    0.1962224 -75.61  0.000316497    1.017    0.016
       218  -8.8122    128.0000    124.9278   9.1876506000e+01   3.1594028607e+01    0.2419253   0.08538815 -47.90 0.0006296728    2.777    0.640
       219  -9.5578     69.1863    131.8134   1.0878359355e+02   4.0008342416e+01    0.1922665    0.1488274 -46.34   0.00106602    1.371    0.271
       220  -9.9953      3.6473    124.9825   1.2486372214e+02   4.8096375992e+01    0.1806143     0.125453 -59.07 0.0002081398    1.361    0.265
       221  -8.7741     83.6683    124.6288   1.0352751840e+02   3.9613275888e+01    0.1484046    0.1062182 -29.18 0.0001253982    1.834    0.455
       222 -10.1308     69.1143    123.2563   1.0723978877e+02   4.2049826199e+01    0.1919152    0.1738182 -52.52 0.0003561162    1.145    0.127
       223 -10.7021    237.9390    121.3056   6.7830118881e+01   8.1221434352e+00     0.204467    0.1880035  13.67   0.00115357    1.109    0.098
       224 -10.0942     21.9788    120.8340   1.1968214853e+02   4.7710227169e+01    0.3455369    0.1381202 -51.27  0.001070183    2.380    0.580
       225 -10.8143     19.9951    118.2119   1.1987226023e+02   4.8477447350e+01    0.3686474    0.1448101  34.94  0.001808392    2.814    0.645
       226 -10.6913     19.2702    102.6756   1.1790311494e+02   5.2135534403e+01    0.2539352    0.1546638  88.72  0.001410444    1.731    0.422
       227 -11.6480     13.2786    110.0098   1.2063676869e+02   5.0871234378e+01    0.2628532    0.1779644  84.57 0.0002923947    1.438    0.304
       228 -11.4011     19.4334    110.2601   1.1895715017e+02   5.0365746738e+01    0.5599217    0.2509344 -41.97  0.002367637    2.662    0.624
       229 -11.8393      9.1955    118.3455   1.2274806866e+02   4.9237407357e+01    0.4582574    0.2046999 -45.03  0.001469859    2.574    0.611
       230 -10.9952      1.3824    115.9759   1.2452451013e+02   5.0276481770e+01    0.2216343    0.1173031 -87.40  0.001262397    1.628    0.386
       231 -10.9805      5.9548    115.0059   1.2322235126e+02   5.0213817521e+01     0.227305    0.1648303 -65.48            0    1.163    0.140
       232 -11.7319      5.0995    110.4949   1.2293471779e+02   5.1295835623e+01    0.4385811    0.2077627 -46.28  0.001717072    2.213    0.548
       233 -10.4412     92.1531    118.8408   9.9968193606e+01   3.9622302744e+01    0.3648187    0.2844096  84.03   0.00119253    1.515    0.340
       234 -10.6003     55.2871    118.1254   1.1013182937e+02   4.5033498514e+01    0.2124594    0.1864168  52.98 0.0004435516    1.266    0.210
       235  -9.2049    123.3714    121.1476   9.2150683085e+01   3.3371602800e+01    0.2036653    0.1401461 -59.74 0.0002068685    1.540    0.351
       236  -9.5543     30.2031    117.5824   1.1701743844e+02   4.7767644155e+01    0.1427069    0.1224407 -10.65 0.0004340007    1.563    0.360
       237 -10.3009     34.4375    115.0399   1.1546217378e+02   4.7977267330e+01    0.2308423    0.1536572  57.16  0.001066672    1.708    0.415
       238 -10.3531     48.1318    112.3562   1.1112379550e+02   4.7220172868e+01    0.3148135    0.1763309 -73.02  0.001507721    1.718    0.418
       239  -9.1258    149.7183    111.2511   8.3020420807e+01   2.9915940803e+01    0.1481749    0.1238858 -88.54 0.0006839172    1.465    0.317
       240  -9.6729     92.7939    109.6155   9.7654655931e+01   4.1669308782e+01    0.1952465    0.1365618  50.74 0.0003241028    1.577    0.366
       241  -9.7508     37.0441    108.3552   1.1362926288e+02   4.9303132196e+01    0.1921056    0.1510073 -31.65  0.001172191    1.511    0.338
       242 -11.0143     63.7617    106.4096   1.0537930595e+02   4.6756288082e+01     0.370273    0.2437964  89.78  0.001153588    2.036    0.509
       243  -9.7837    123.9895    104.5071   8.7724637654e+01   3.6951170096e+01    0.2232643    0.1970952 -46.47   0.00010906    1.093    0.086
       244  -9.1070    100.5335    103.5000   9.3924503005e+01   4.1728214688e+01    0.1491344    0.1390333 -49.30 5.916891e-05    1.010    0.010
       245 -10.6848     43.6136    102.8922   1.1069751291e+02   4.9934197537e+01    0.1948309    0.1922025  29.11 0.0004130806    1.227    0.185
       246 -12.0672     42.1230     99.1174   1.1042061897e+02   5.0971355709e+01    0.7225045    0.4434667 -12.67    0.0034694    2.673    0.626
       247  -9.2600     29.4683    103.4781   1.1502928159e+02   5.1133881228e+01    0.1276286    0.1023983 -68.76 6.594648e-05    1.012    0.012
       248 -10.8989     52.6259    102.4891   1.0789551570e+02   4.9044576276e+01    0.2548298    0.1351533  30.66  0.001225958    2.218    0.549
       249 -10.4233     47.4235    104.8114   1.0992327405e+02   4.9079453893e+01    0.2779451    0.1240044 -50.94  0.001256801    1.946    0.486
       250 -10.0406      8.8365     99.3766   1.2047447065e+02   5.3603743525e+01    0.2140006    0.1485091  71.18  0.001290107    1.598    0.374
       251  -9.5622     78.9268    100.0000   9.9370688705e+01   4.6121362598e+01    0.2160797    0.0828613  36.23 0.0007965457    2.902    0.655
       252 -10.1906    103.5996     97.7979   9.1534580967e+01   4.2453800914e+01    0.2278456     0.136924 -58.04 0.0009619218    1.790    0.441
       253  -9.4508      3.7515     98.1329   1.2178691638e+02   5.4188347423e+01    0.1594136    0.1075404 -55.34  0.001039856    1.297    0.229
       254 -11.7546     54.7308     96.2021   1.0590514140e+02   5.0270259662e+01    0.4434591    0.1692862 -61.85  0.001748873    2.435    0.589
       255 -10.0770     23.0461     95.7344   1.1566131748e+02   5.3455478218e+01    0.2025514    0.1462667 -89.55 0.0003272792    1.421    0.296
       256 -10.8987     50.0163     94.7770   1.0706897716e+02   5.1143860326e+01    0.2570888    0.2133814  28.28  0.001206326    1.429    0.300
       257 -10.2392     46.6855     93.6800   1.0788226712e+02   5.1763283874e+01    0.2816686    0.1850647 -37.88  0.001260082    1.590    0.371
       258  -9.4177     38.6198     95.1394   1.1072225676e+02   5.2245049264e+01    0.1816436    0.1530156   9.06  0.001146792    1.485    0.327
       259  -9.0983    118.3709     94.2069   8.6378200345e+01   4.0351316812e+01    0.2077442    0.1399305 -53.30 0.0002767515    1.529    0.346
       260  -9.1832    115.2773     93.3110   8.6977124351e+01   4.1174638137e+01    0.1512726    0.1190175 -10.98 0.0002927377    1.560    0.359
       261 -10.1030    104.4697     91.1735   8.9435616149e+01   4.3755392388e+01    0.2534856    0.2071613  43.71 0.0004740907    1.305    0.233
       262 -11.1170     59.1401     90.3555   1.0315605489e+02   5.1086929445e+01    0.2453544    0.1945073 -55.67  0.000261797    1.091    0.083
       263 -10.2167     20.1070     81.8331   1.1408938523e+02   5.6853674999e+01    0.2084634    0.1609623  89.41 0.0005464223    1.417    0.294
       264  -9.9031     17.4993     91.5059   1.1666346841e+02   5.4835272383e+01    0.1579436    0.1235625  20.50   0.00071347    1.640    0.390
       265 -12.2592     21.3086     87.8252   1.1481741809e+02   5.5403818367e+01    0.2934317    0.2115019 -50.04  0.000266561    1.221    0.181
       266 -10.8296     27.1769     87.4427   1.1285468738e+02   5.5036883545e+01     0.335221    0.2387177 -65.21  0.001067211    1.146    0.127
       267 -10.8650      7.0603     90.3183   1.1970657835e+02   5.5771873366e+01    0.2625826    0.1568158 -73.34 0.0007149313    1.326    0.246
       268 -10.3981      1.4909     92.9805   1.2176891953e+02   5.5477935955e+01    0.2403592     0.108421 -81.25  0.000792263    2.010    0.502
       269 -10.8191     88.0353     88.8614   9.3680909592e+01   4.7200382932e+01    0.3298773    0.1922954 -43.09  0.001041475    1.598    0.374
       270 -10.8087     68.7384     88.3337   9.9579555195e+01   5.0280534936e+01    0.4173125    0.2807393   0.84  0.001962144    2.234    0.552
       271  -9.9666     10.5314     85.4740   1.1785890894e+02   5.6662721012e+01    0.2665066    0.1756468 -87.54  0.001621151    1.541    0.351
       272 -11.3310     14.5501     83.7399   1.1626762431e+02   5.6802139917e+01    0.2885374    0.1808452 -60.29  0.000308174    1.212    0.175
       273 -10.2276      2.7850     87.4044   1.2059540543e+02   5.6666069961e+01    0.2110039     0.125243 -71.68 0.0005966242    1.287    0.223
       274  -9.4118     63.6406     87.2718   1.0094242957e+02   5.1213308083e+01    0.1325741    0.1046771  77.20  0.000699996    1.650    0.394
       275 -11.0707    155.1565     85.3789   7.4402534423e+01   3.3878534441e+01    0.2708193      0.24849 -35.65 0.0002980386    1.071    0.066
       276 -10.3677     79.2130     84.9907   9.5344844540e+01   4.9486436303e+01    0.4075885    0.2502048   2.63  0.001590088    3.083    0.676
       277  -9.0472    128.9578     86.0000   8.1099769335e+01   3.9821434872e+01    0.2540135   0.08921067  47.27 0.0008015359    2.936    0.659
       278 -11.9954     50.3621     83.2885   1.0429979548e+02   5.3744306555e+01    0.3819432    0.2715877   5.72 0.0006231358    1.834    0.455
       279 -11.0229     73.1844     80.9938   9.6154101856e+01   5.1285431003e+01    0.4827839     0.213759 -40.12  0.001923997    2.280    0.561
       280 -10.4871     44.1819     80.9035   1.0579335142e+02   5.4955404996e+01    0.2728187    0.1931416 -26.88  0.001275077    1.581    0.368
       281  -8.9145     95.0218     82.0000   8.9557884352e+01   4.7486662191e+01    0.2196484   0.08502356  40.94 0.0004528032    2.781    0.640
       282  -9.2920    120.8258     80.3990   8.1573487121e+01   4.2726163053e+01     0.196182    0.1451827  33.18 0.0005229451    1.457    0.314
       283 -11.1808     54.0029     77.3766   1.0155817773e+02   5.4648063158e+01    0.4294744    0.2765057  56.56 0.0007749817    2.230    0.552
       284  -9.6986     18.2761     77.3385   1.1382684289e+02   5.7994513666e+01    0.2061343    0.1421517 -80.66 0.0005552777    1.479    0.324
       285 -10.2723     19.5784     73.1867   1.1252521855e+02   5.8830334074e+01    0.3741847    0.2045614 -18.09  0.001923392    2.568    0.611
       286 -11.1308     62.7032     75.4592   9.8065497356e+01   5.3972520091e+01    0.3309839    0.2614789  46.20  0.001136646    1.514    0.340
       287 -10.0036     28.7574     74.9079   1.0969125388e+02   5.7743914074e+01    0.3787195   0.09472082 -47.26  0.001407358    3.214    0.689
       288 -10.4379     93.4185     74.5378   8.7754352744e+01   4.9349129939e+01    0.2484051    0.1652519 -26.57 6.600415e-05    1.662    0.398
       289 -10.6342     69.5479     74.2754   9.5409311079e+01   5.3280814579e+01    0.2345448    0.2094286 -56.48 0.0005077994    1.155    0.134
       290  -9.1902    143.2949     72.3327   7.3192392263e+01   3.9184185339e+01    0.1600602    0.1220143   8.63 0.0003344539    1.639    0.390
       291 -11.0788     88.7315     70.2834   8.7870081304e+01   5.1057904376e+01    0.5368634    0.2086306 -46.87  0.001516364    2.438    0.590
       292 -10.7533     42.0575     71.0036   1.0403250701e+02   5.7378802173e+01    0.2068974    0.1736934 -23.47   0.00130971    1.234    0.190
       293 -10.5890     45.1957     69.0024   1.0236955957e+02   5.7485966221e+01    0.2962687    0.1592818 -45.71 0.0009214653    1.549    0.354
       294 -10.7263     79.7244     69.9477   9.0685781809e+01   5.2642576918e+01    0.2202407    0.2112308 -19.49 0.0003567544    1.094    0.086
       295 -10.6715     52.6298     69.7215   9.9920232567e+01   5.6488604728e+01      0.23705    0.2077235 -68.17 0.0008123331    1.266    0.210
       296 -10.5625     56.0862     66.1855   9.7650312859e+01   5.6822914195e+01    0.2735781    0.2216573 -24.29  0.000748565    1.208    0.172
       297 -10.5009      1.4067     68.8055   1.1803747537e+02   6.0865776344e+01     0.415509   0.08929449 -68.54  0.001540442    3.603    0.722
       298  -9.3645     63.6963     69.6622   9.6023888133e+01   5.5089316257e+01    0.1430977    0.0953475 -25.19 0.0007038959    1.670    0.401
       299 -10.3336    105.8531     67.0584   8.1529391869e+01   4.8478000869e+01    0.2393335    0.2107245  37.08 0.0004773839    1.184    0.155
       300  -9.8491     75.4554     66.2442   9.0921707279e+01   5.4084417983e+01    0.2313529    0.1898614  29.05  0.000702449    1.328    0.247
       301  -9.1491     49.2801     65.2924   9.9836727158e+01   5.7829508897e+01    0.1322339   0.08729117 -29.98 0.0002123435    1.530    0.346
       302 -10.3822     30.9370     64.3444   1.0632815777e+02   5.9879694481e+01    0.3293866    0.2376162 -60.24  0.002021093    1.236    0.191
       303 -10.5787     32.0121     59.1093   1.0450233618e+02   6.0903190123e+01    0.2542266    0.1660537  36.06  0.001483221    1.901    0.474
       304 -10.3572     14.7649     65.2859   1.1253938463e+02   6.0891896543e+01    0.2227899    0.1164263 -21.71  0.001150136    2.499    0.600
       305 -13.0788     24.0830     57.6247   1.0714982989e+02   6.1879727820e+01     0.368178     0.240418 -47.93 0.0005328657    1.188    0.159
       306  -9.7174     28.6406     53.1654   1.0410897354e+02   6.2440489315e+01    0.1752006    0.1668924  14.52 0.0007564398    1.311    0.237
       307 -10.6650     19.5690     41.0738   1.0416163541e+02   6.5611607190e+01    0.3091848    0.2130387  10.17  0.001253085    1.686    0.407
       308 -10.4778      4.1136     33.0079   1.0850294404e+02   6.8183803209e+01    0.4174309    0.1921068 -25.53  0.002263429    2.320    0.569
       309 -11.1394      4.9969     39.1218   1.0990690612e+02   6.6932109382e+01    0.5206761    0.2845353 -40.76  0.003230284    1.432    0.302
       310 -11.8904     17.2049     46.9802   1.0695127766e+02   6.4597347869e+01    0.4956795    0.1751772 -45.88  0.002060638    2.092    0.522
       311 -12.1275      5.4811     58.3231   1.1447566149e+02   6.2931282281e+01    0.6472305    0.3245225 -52.45  0.003791665    1.447    0.309
       312 -13.1171     12.4047     44.0853   1.0813199577e+02   6.5503718402e+01    0.7012231    0.2468834 -47.00 0.0006032942    2.023    0.506
       313 -12.5783     13.5361     36.5068   1.0534450253e+02   6.6935293132e+01    0.3413633    0.2128243 -54.56 0.0001818345    1.344    0.256
       314 -10.2776     98.1768     60.8860   8.1737106094e+01   5.1168392800e+01    0.2066443     0.196858 -51.42 0.0004511586    1.182    0.154
       315 -10.2952     73.4997     61.4321   8.9999280277e+01   5.5363192707e+01    0.2712809    0.1947388  20.83 0.0009104806    1.575    0.365
       316 -10.4797     69.1494     60.1428   9.1079375076e+01   5.6281329379e+01    0.4031665    0.1996302  39.23  0.001335536    2.258    0.557
       317  -9.6513     38.8228     60.7861   1.0239239377e+02   5.9905518403e+01    0.1603567    0.1444429 -76.32 0.0004049754    1.337    0.252
       318  -9.6740     16.4720     60.4897   1.1079654744e+02   6.1817495919e+01    0.1965456    0.1024476 -71.73 0.0005978167    2.010    0.502
       319  -9.0713    238.4468     58.5751   5.2159926002e+01   1.7859864170e+01    0.1401366    0.1272234 -49.97 9.095148e-05    1.006    0.006
       320  -9.3338     60.6453     57.9612   9.3389797353e+01   5.7927066622e+01     0.215528     0.110049 -66.12 0.0007045692    4.449    0.775
       321  -9.1565     44.6749     58.3119   9.9440592799e+01   5.9811738884e+01    0.1193708    0.1003479 -89.90 0.0007040505    1.660    0.398
       322  -9.4801    209.9285     57.4923   5.5776881065e+01   2.4886166787e+01    0.2047797    0.1463927  66.00 0.0003387409    1.449    0.310
       323 -10.1891     53.2434     56.0635   9.5493136297e+01   5.9270592936e+01    0.2939991    0.2122953  86.81  0.001134613    2.731    0.634
       324  -9.4744    225.8289     55.7950   5.3073777717e+01   2.1236838187e+01    0.1975653    0.1550821 -60.85 0.0003251805    1.281    0.220
       325 -10.2898    118.5260     55.4255   7.3883429497e+01   4.7924536892e+01    0.3431095    0.2051094  -4.23  0.001164072    2.826    0.646
       326 -10.3679    151.2086     53.3059   6.5143532681e+01   4.0504444386e+01    0.2467394    0.2155046  26.36 0.0003583509    1.182    0.154
       327  -9.5973     72.5261     54.5259   8.7948499452e+01   5.6866714657e+01    0.1393234    0.1203273 -23.22 0.0001346056    1.016    0.015
       328 -10.6635     33.4383     54.5249   1.0261851977e+02   6.1731590742e+01    0.2254844    0.1237046  23.30  0.001209107    2.163    0.538
       329 -11.6845     43.0929     50.6660   9.7599390973e+01   6.1539378339e+01    0.6890325    0.3278468 -22.44  0.002689583    3.492    0.714
       330 -11.2759     94.7254     49.5352   7.8710177902e+01   5.3890281996e+01    0.4690751    0.3259954 -14.80  0.001117935    1.576    0.365
       331 -10.9193     65.5526     49.5360   8.8647842129e+01   5.8872136709e+01     0.257169    0.1964299 -23.01 0.0007032545    1.202    0.168
       332  -9.1781     79.5796     49.4577   8.3650647109e+01   5.6657896894e+01    0.1398101    0.1213828 -17.82 8.876296e-05    1.017    0.017
       333  -9.4308     31.3440     47.9577   1.0142335405e+02   6.3262029372e+01    0.1675565    0.1200119 -43.18 0.0001754564    1.105    0.095
       334 -10.2711    114.7326     46.8267   7.1807973018e+01   5.0192825721e+01    0.2461737    0.1828385 -19.27 0.0005477578    1.368    0.269
       335  -9.0688    165.2684     46.2854   5.9966654366e+01   3.7990188134e+01    0.1483216    0.1140377  24.14 0.0001735564    1.497    0.332
       336 -11.2812     62.1123     44.6681   8.8109617758e+01   6.0274671723e+01     0.359506    0.1983753 -39.17  0.001234742    1.590    0.371
       337  -9.5196    123.7403     45.5967   6.8961521605e+01   4.8351194401e+01    0.2012178    0.1437628  64.13 0.0009421834    1.628    0.386
       338 -10.1280    199.8889     43.6551   5.3364636267e+01   2.9415454547e+01    0.2254553    0.2020347 -12.27 0.0003303755    1.224    0.183
       339  -8.7925    192.3508     44.3039   5.4689085923e+01   3.1261520643e+01    0.1552227    0.1106553  31.19 0.0007040711    1.702    0.412
       340  -9.1698     42.5237     44.5373   9.5718929500e+01   6.2801617068e+01    0.1274763     0.104954 -33.09 5.754456e-05    1.040    0.039
       341  -9.6217     33.0285     43.6951   9.9323450319e+01   6.3947913146e+01    0.1618899    0.1348211 -24.53 0.0001522596    1.105    0.095
       342 -11.8248    103.5551     39.1224   7.2039758446e+01   5.3805313162e+01    0.3225678    0.2334968 -27.42 0.0003906499    1.337    0.252
       343 -10.1358     70.2928     41.8941   8.4018941323e+01   5.9527665360e+01    0.2561295    0.1608316 -24.43  0.001294638    1.567    0.362
       344 -11.1254     70.8576     37.3474   8.1995234831e+01   6.0209138737e+01    0.3615538    0.2241968 -41.95 0.0005617436    1.604    0.377
       345 -11.3505     76.2032     33.5624   7.8529836359e+01   5.9920939213e+01     0.318064    0.2551994  19.11  0.001868082    1.208    0.172
       346 -10.2249     60.7608     52.0013   9.1300005131e+01   5.9086871271e+01    0.2096917    0.1853829  10.03 0.0009201969    1.199    0.166
       347  -9.5458    141.5836     42.2606   6.3493533609e+01   4.4573155301e+01    0.1916707    0.1438327 -12.57 0.0002996471    1.452    0.311
       348 -10.7310      9.7414     62.7922   1.1384595482e+02   6.1737964858e+01    0.2653408    0.2106856 -58.47  0.000951052    1.065    0.061
       349  -9.6102    151.8938     40.8686   6.0814125453e+01   4.2186944372e+01    0.2308974    0.1952508  15.08 0.0005925644    1.274    0.215
       350 -10.2557     90.8314     40.8295   7.6596033396e+01   5.6096141745e+01    0.2526218    0.1782188 -44.02  0.001292063    1.542    0.352
       351 -11.0551     41.1965     38.2125   9.3945043244e+01   6.4139941498e+01     0.482367    0.3031337 -18.58  0.001168653    1.672    0.402
       352 -10.2874    117.8036     38.7908   6.7972868532e+01   5.0736306801e+01    0.3625565    0.1811086  55.95 0.0007993276    2.107    0.525
       353 -10.0790     82.1178     39.0591   7.8751197281e+01   5.8000502569e+01    0.2069661    0.1797759 -13.02 0.0004461993    1.027    0.026
       354  -9.9038    156.1529     36.8494   5.8608981969e+01   4.1652297191e+01    0.2137176    0.1979783 -78.05   0.00033059    1.160    0.138
       355 -10.0627     85.9725     37.1091   7.6680295899e+01   5.7606933125e+01    0.2083027    0.1796999  -6.90 0.0005254431    1.030    0.029
       356 -12.1570    193.8682     35.2525   5.1805454522e+01   3.2086842610e+01    0.2720725    0.2601079 -79.23 0.0003068608    1.006    0.006
       357  -9.5361    198.3581     35.3199   5.1189836947e+01   3.0922625228e+01    0.2384088    0.1671844  49.65 0.0006140926    1.480    0.324
       358 -10.0260    142.4806     36.0597   6.1116267803e+01   4.5217408384e+01    0.2540712    0.2327984  12.82 0.0003785614    1.093    0.085
       359 -11.4724    142.2789     30.7617   5.9280246597e+01   4.5961695638e+01    0.3885454    0.3021517 -14.42 0.0008650406    1.361    0.265
       360  -9.9735    131.5733     36.2727   6.3628416408e+01   4.7864894047e+01    0.3170246    0.1717451  60.09 0.0009811752    1.925    0.480
       361 -11.2147    118.7705     33.4991   6.5705907008e+01   5.1264003407e+01    0.3421714    0.2716864  89.38 0.0007914943    1.744    0.427
       362 -10.8509     59.9000     33.6370   8.4568846668e+01   6.2521034868e+01    0.3976403    0.2441469  -3.20  0.001844308    2.094    0.523
       363 -10.7674     54.9989     33.4573   8.6417401503e+01   6.3250409725e+01     0.411003    0.1939517 -39.77 0.0003266339    1.869    0.465
       364 -10.7225    137.3706    248.2125   1.1040932733e+02   6.1099485894e+00    0.2661288    0.1740618 -88.87  0.001331367    2.377    0.579
       365  -9.4861     47.7572     34.4464   8.9752416971e+01   6.4036819351e+01    0.1580485    0.1111162   6.59 0.0005476815    1.519    0.342
       366  -9.8343     86.9198     33.1642   7.4753849845e+01   5.8034307595e+01    0.1964987    0.1879648 -23.72 0.0005333811    1.228    0.186
       367  -8.8354     66.3187     33.2895   8.1985207900e+01   6.1600966188e+01    0.1347053   0.09221283  -1.85 0.0002810541    1.598    0.374
       368  -9.2513    232.9933     32.0327   4.6084897845e+01   2.2742929743e+01    0.1644022    0.1472367 -74.87 0.0003959002    1.049    0.047
       369  -9.8923    206.4542     31.4896   4.9028292819e+01   2.9345256233e+01    0.1420821    0.1319808 -72.40  5.34054e-05    1.009    0.009
       370 -10.5772    158.9007     30.2391   5.5878166078e+01   4.1799897023e+01    0.2533186    0.2212958  13.94 0.0002114876    1.229    0.187
       371  -9.5676     33.0265     29.0157   9.3865484751e+01   6.6675260392e+01    0.1526949    0.1179825 -27.43  0.001005968    1.008    0.008
       372 -10.0665     24.3267     30.9192   9.8528297585e+01   6.7162413396e+01    0.1914718     0.176467 -51.82 0.0006224032    1.397    0.284
       373 -10.0632     23.1658     26.9309   9.7523784408e+01   6.7985846026e+01    0.1885443    0.1308524 -46.95 0.0006373653    1.320    0.242
       374 -10.6376     14.8735     18.2206   9.7977507982e+01   7.0199660488e+01    0.2074713    0.1263148 -38.01 0.0004368288    1.236    0.191
       375 -10.8759    140.0000    247.0050   1.0980666154e+02   5.8769710416e+00    0.1842037    0.1469433  48.77 0.0006041105    1.028    0.027
       376  -9.9077     10.4191     22.5123   1.0190701252e+02   6.9770779659e+01    0.1869614    0.1064946  16.99 0.0005542928    2.020    0.505
       377  -9.4719    163.6119     30.1377   5.5008356463e+01   4.0594954881e+01    0.1971739    0.1412193  -6.58 0.0005112101    1.647    0.393
       378 -10.8092    221.3817     28.6380   4.6477278722e+01   2.5973158879e+01    0.2585335    0.1774193 -35.95  0.001337912    1.397    0.284
       379 -10.8253     70.6196     28.8899   7.8528757452e+01   6.1591011327e+01    0.3396125    0.1829982  40.00  0.001677855    1.919    0.479
       380 -10.9928     49.2649     27.2486   8.6114572681e+01   6.5056692109e+01    0.3007946    0.2584053  86.14  0.001106137    2.190    0.543
       381  -9.6761     45.6679     24.3197   8.6340858925e+01   6.5998362537e+01    0.1637277    0.1390725  -2.62 0.0007214522    1.137    0.121
       382 -10.0483    181.4974     28.0818   5.1472657357e+01   3.6194605954e+01    0.2185425    0.1440553 -25.94  0.001033677    1.595    0.373
       383 -10.3309    204.6127     26.1060   4.7760227458e+01   3.0473796963e+01    0.3088561    0.1355987 -26.54  0.001120246    2.370    0.578
       384  -9.7426     77.9102    248.2619   1.2069767547e+02   1.4802667139e+01    0.2052419    0.1221677  85.74 0.0008789583    1.766    0.434
       385  -9.5727    210.5755    246.8013   9.7345588725e+01  -5.2034608731e+00    0.1925633    0.1384541  38.88 0.0009275263    1.247    0.198
       386 -10.4702    169.7688     23.3976   5.1803569951e+01   3.9800987953e+01    0.2423133    0.2000014 -28.50 0.0003523134    1.270    0.213
       387 -12.0813    116.9301     22.5364   6.1888225648e+01   5.3089193088e+01    0.2622414     0.215142 -13.24 8.135614e-05    1.222    0.182
       388 -11.3832    176.5479     21.7815   5.0263349457e+01   3.8221389655e+01    0.4040351    0.2345399  44.89  0.001286481    1.800    0.444
       389 -10.5544    207.3510    245.7996   9.7756090858e+01  -4.5922339635e+00     0.196749    0.1626218  10.69  0.001180006    1.169    0.145
       390 -10.3887    153.3545     23.1273   5.4472035007e+01   4.4075087547e+01    0.2434863    0.1813345  49.54 0.0003635969    1.263    0.208
       391 -10.4622    132.8631     22.2509   5.8156412439e+01   4.9322369099e+01    0.2476536    0.1890718 -37.87   0.00106862    1.411    0.292
       392  -9.6595     62.3209     23.0131   7.9013058542e+01   6.3812695345e+01    0.1851322     0.147834 -11.07 0.0007870698    1.053    0.050
       393 -10.4625    189.7828     20.7882   4.8124241392e+01   3.4898490002e+01    0.3169017    0.2172793  17.28  0.001054773    1.974    0.493
       394 -10.5231     38.0880     21.4489   8.8366278170e+01   6.7389809235e+01    0.4290525    0.1756877  33.42  0.002085228    2.687    0.628
       395 -10.3711     27.4338     21.1304   9.3120689884e+01   6.8593183213e+01     0.265594    0.1511869 -13.15  0.001255824    1.957    0.489
       396 -10.4670    226.0643     21.5140   4.4137430807e+01   2.5688193198e+01    0.2029512    0.1273639  72.55 0.0009245911    1.566    0.362
       397 -10.6694    219.5134     19.9887   4.4417872938e+01   2.7464625214e+01    0.2089759    0.1293655 -31.07  0.001037678    1.606    0.377
       398  -9.5968     89.5164     19.6144   6.8145642303e+01   5.9380024372e+01    0.1734947    0.1211817 -33.14 0.0009302774    1.495    0.331
       399 -10.5954    198.9677     18.0324   4.6180624442e+01   3.2846136337e+01    0.2429245    0.2109085 -25.67  0.001392032    1.244    0.196
       400 -10.2593     46.1390    245.7600   1.2574264679e+02   1.9242242462e+01    0.2313513    0.1121091  80.36  0.000584281    2.014    0.503
       401  -9.4686    101.7906     19.1754   6.4416700273e+01   5.6874876835e+01    0.1826008    0.1411513  19.74 0.0003356826    1.229    0.186
       402  -9.8076     92.6848     18.4381   6.6681947831e+01   5.8880487754e+01    0.2422871    0.1173888 -25.30  0.001087873    2.036    0.509
       403  -9.9680     65.4813     19.0210   7.5987399318e+01   6.3865359203e+01    0.1898462    0.1128592 -25.24  0.000428228    1.536    0.349
       404 -10.1140     61.5240     18.0146   7.7009845862e+01   6.4646315423e+01       0.2081    0.1511819  14.06 -8.62693e-05    1.297    0.229
       405 -10.1081     46.3754     17.8141   8.3057657707e+01   6.6906008698e+01    0.2604159    0.2251482  72.83  0.001613177    2.205    0.546
       406  -9.9241    193.2307     17.3766   4.6690600843e+01   3.4389390253e+01    0.1960481     0.126542  84.47 0.0004795516    1.600    0.375
       407  -9.7088    157.7643     17.5730   5.1829559570e+01   4.3555394917e+01    0.1914193     0.133542  79.51 0.0003552249    1.525    0.344
       408 -10.5510     30.0163     16.9916   9.0048014616e+01   6.9003830738e+01    0.2284488    0.1465944   4.45   0.00065547    1.626    0.385
       409  -9.6415    249.4236    246.5186   9.0771363009e+01  -1.0843778448e+01    0.1116572   0.08223455  16.32 0.0001386131    1.032    0.031
       410 -10.4235    229.8995     16.1670   4.2417251797e+01   2.5381486894e+01    0.2109309    0.1557814 -62.34 0.0005734577    1.253    0.202
       411 -10.0799    112.6349     15.6374   6.0159077557e+01   5.4857544319e+01    0.3050441    0.2075932  25.33  0.000649214    1.490    0.329
       412 -10.5662     97.2767    244.9423   1.1710899120e+02   1.2649169736e+01    0.2402564    0.1581918 -62.13  0.001604577    1.811    0.448
       413 -10.2026     23.3614     16.1922   9.2885491305e+01   6.9802570468e+01    0.1833568    0.1122094 -28.70 0.0007740875    1.300    0.231
       414 -10.4221     96.4568    238.9143   1.1668969255e+02   1.3760563417e+01    0.3450041     0.160833  58.24  0.001825967    2.023    0.506
       415  -9.8287     93.7643    234.2409   1.1672320427e+02   1.4942175800e+01    0.1932495    0.1441064 -79.72 0.0005374081    1.424    0.298
       416  -9.1126     11.6620     15.3251   9.8376897884e+01   7.0940105053e+01   0.09583849   0.08848199 -73.36 0.0007051365    1.723    0.420
       417 -10.3849    106.3585    244.6530   1.1549718588e+02   1.1372525156e+01    0.1959301    0.1378819  54.80 0.0003753817    1.105    0.095
       418 -11.2992    179.6485     13.8343   4.7384446954e+01   3.8277481330e+01    0.2521662    0.1761095  57.85 0.0008431415    1.343    0.256
       419 -10.6714     73.3087    244.3067   1.2116235056e+02   1.6072222277e+01    0.1957354    0.1354228  72.53  0.000598276    1.215    0.177
       420 -10.4667    169.1427     14.1145   4.8933840202e+01   4.0973758445e+01    0.2121096    0.1762729  43.74 0.0002775834    1.210    0.174
       421 -11.6729     76.1331    241.8735   1.2048925487e+02   1.6103898611e+01    0.2880207     0.181044  65.54 0.0006773304    1.319    0.242
       422 -10.7108    145.9181    242.8197   1.0825623798e+02   5.5585500338e+00    0.1718296    0.1612434  54.14 0.0004523862    1.192    0.161
       423  -9.6273     89.0066     13.7820   6.5710878753e+01   6.0170840177e+01    0.1828177    0.1507978  29.47 0.0002059476    1.102    0.092
       424 -10.8137     91.8621    242.3768   1.1781694805e+02   1.3843597951e+01    0.2275956     0.151988  58.44   0.00041626    1.179    0.152
       425  -9.3532     62.1923    243.1525   1.2294153521e+02   1.7711837931e+01    0.1553888   0.09424444  69.46 0.0006425844    1.368    0.269
       426 -10.8333    191.0887    240.4765   9.9838737155e+01  -1.3814670293e+00     0.308949     0.159307 -51.52  0.001589429    3.008    0.668
       427  -9.9970     55.4276    241.8946   1.2397742910e+02   1.8774630832e+01    0.2251023   0.09150214 -82.41   0.00118539    2.793    0.642
       428 -10.6596    137.8599    240.3632   1.0941507517e+02   7.2084838339e+00    0.1800288    0.1505803  79.66 0.0006361694    1.346    0.257
       429 -10.8947    119.8204    239.1258   1.1253311233e+02   1.0227208453e+01    0.3217691    0.1826205 -51.35  0.001883142    2.216    0.549
       430 -10.7739    246.4886    239.5519   9.0145089941e+01  -9.7206882686e+00    0.1961516    0.1541245 -14.22  0.001351055    1.362    0.266
       431 -10.1772    167.8923    238.4245   1.0372110481e+02   2.6484412888e+00    0.1911986    0.1663282 -88.00 0.0007390405    1.543    0.352
       432  -9.6247     63.4543    238.7894   1.2240991173e+02   1.8297665011e+01    0.1712734     0.106813  46.00  0.000750438    1.413    0.292
       433 -10.8513    144.4110    238.0392   1.0794427765e+02   6.5152830377e+00    0.2820869    0.1463943  39.53 0.0005125178    1.610    0.379
       434  -9.5415     84.0217    238.1568   1.1881080468e+02   1.5655165075e+01    0.2002214   0.09295938  59.04  0.001076152    1.967    0.492
       435  -9.5408     46.6349    238.5122   1.2520641728e+02   2.0425281038e+01    0.1082662   0.07545677  70.63 1.477201e-05    1.062    0.058
       436  -9.7775     43.8424    236.1479   1.2551636056e+02   2.1168778024e+01    0.1700249    0.1274567  72.87  0.001312005    1.073    0.068
       437 -10.3811    100.9525    236.9683   1.1570041957e+02   1.3429336133e+01    0.2185993    0.1824428 -17.38  0.001436708    2.080    0.519
       438 -10.3572    110.6013    241.4366   1.1442752438e+02   1.1258096446e+01    0.2219354    0.1570784  65.81 0.0007739476    1.298    0.230
       439 -10.0381    156.7304    234.3396   1.0521233092e+02   5.0684800891e+00    0.2654501    0.1093716 -54.46  0.001044534    3.364    0.703
       440  -9.4022     30.5315    236.4891   1.2771114308e+02   2.2621578395e+01    0.1059734   0.07461924  70.55 8.952419e-05    1.013    0.013
       441 -10.3743    249.8517    235.1151   8.8865860635e+01  -9.7322574565e+00    0.1615699    0.1326353  16.26 0.0004568087    1.219    0.180
       442 -10.1667    106.0928    235.1329   1.1458941033e+02   1.2972421186e+01    0.1626905    0.1414935  45.20 0.0004278882    1.253    0.202
       443 -10.3767     18.0289    233.6388   1.2955896860e+02   2.4451222856e+01    0.2790744    0.1285066  72.98  0.001437329    1.774    0.436
       444  -9.9251    230.1128    233.2112   9.1881461588e+01  -6.6140714754e+00    0.1819762    0.1257925  17.78 0.0003735316    1.214    0.176
       445 -10.0148    186.8802    250.4781   1.0197501427e+02  -1.9794757507e+00    0.1648308    0.1098261  36.44 0.0003758148    1.157    0.136
       446 -10.0719    174.2686    232.7289   1.0176618233e+02   2.4084455292e+00    0.2593345    0.1283272  26.60  0.001180712    2.554    0.608
       447  -9.3019     74.7847    231.9805   1.1990201423e+02   1.7995510094e+01    0.1809923    0.1179507 -66.86 0.0006857181    1.689    0.408
       448 -11.1751     72.8438    226.2165   1.1975062514e+02   1.9290279415e+01    0.3439478    0.1517841  54.99  0.001408554    1.933    0.483
       449 -11.5518     47.5668    231.1037   1.2455847407e+02   2.1622972626e+01    0.3505881    0.1630132  74.04  0.001962047    2.152    0.535
       450 -10.5862     29.5002    231.2612   1.2758411843e+02   2.3659937832e+01    0.2131985    0.1319689 -88.17 0.0007521815    1.379    0.275
       451 -10.1091    243.7326    231.1606   8.9231124757e+01  -8.4189401015e+00    0.1559503    0.1358037 -17.62 0.0005481475    1.445    0.308
       452 -10.2384    144.1023    232.1877   1.0726531391e+02   7.4674473282e+00    0.4251821    0.1336545  43.22    0.0017862    2.564    0.610
       453 -10.8024    153.2403    226.4631   1.0479804910e+02   6.8533792359e+00    0.3111162    0.2258176 -48.16  0.000432314    1.666    0.400
       454 -10.0250    149.5329    225.5130   1.0536767345e+02   7.6241175895e+00    0.1903224    0.1694577  65.68 0.0005137919    1.185    0.156
       455  -9.4164    109.8847    221.1273   1.1235430191e+02   1.4813184898e+01     0.170126    0.1346117  56.21  0.000362554    1.039    0.038
       456  -9.5767    112.5163    223.5863   1.1213907382e+02   1.3968198312e+01    0.1692592    0.1183733 -63.93 0.0001279227    1.620    0.383
       457 -10.6072    111.4641    227.9136   1.1282775122e+02   1.3380611379e+01    0.2232909    0.1773257  75.33  0.000452698    1.222    0.182
       458 -10.4123    108.8316    225.1328   1.1300901755e+02   1.4269481284e+01    0.1830804    0.1492564  58.34  0.000339156    1.014    0.014
       459  -9.6435     39.6671    229.1167   1.2576393520e+02   2.2907360277e+01     0.147896    0.1080032  81.11 0.0007156389    1.120    0.107
       460  -8.8648    126.2978    228.3024   1.1010202787e+02   1.0979278696e+01    0.1105908   0.09234554  15.89 0.0002486633    1.581    0.368
       461 -10.0389     93.7831    227.4933   1.1605639929e+02   1.6115309713e+01    0.2053088    0.1527063 -76.51 0.0009149399    1.427    0.299
       462  -9.5406     55.4278    228.5330   1.2302328082e+02   2.1127431936e+01    0.1110792   0.08456221  70.15   8.6457e-05    1.036    0.035
       463  -9.0690     24.2650    227.6414   1.2823985979e+02   2.4873018341e+01    0.1123371   0.05553695  70.00 0.0004910848    1.634    0.388
       464 -10.1469    234.1832    226.0074   8.9993369294e+01  -6.3957564120e+00    0.1612433     0.142639 -59.93  0.001078489    1.978    0.495
       465  -9.9277     98.9945    225.1357   1.1484898615e+02   1.5762885949e+01    0.2472336    0.1114219 -66.57  0.001237995    2.568    0.611
