#   1 NUMBER                 Running object number                                     
#   2 MAG_AUTO               Kron-like elliptical aperture magnitude                    [mag]
#   3 X_IMAGE                Object position along x                                    [pixel]
#   4 Y_IMAGE                Object position along y                                    [pixel]
#   5 X_WORLD                Barycenter position along world x axis                     [deg]
#   6 Y_WORLD                Barycenter position along world y axis                     [deg]
#   7 A_WORLD                Profile RMS along major axis (world units)                 [deg]
#   8 B_WORLD                Profile RMS along minor axis (world units)                 [deg]
#   9 THETA_WORLD            Position angle (CCW/world-x)                               [deg]
#  10 FWHM_WORLD             FWHM assuming a gaussian core                              [deg]
#  11 ELONGATION             A_IMAGE/B_IMAGE                                           
#  12 ELLIPTICITY            1 - B_IMAGE/A_IMAGE                                       
         1 -14.4692    151.8826     57.1547   8.6809981963e+01   3.9780025971e+01     1.400318     1.123935  10.67 0.0009615456    1.293    0.227
         2 -14.8833    163.3557     42.3574   7.9185394653e+01   3.9138848169e+01     1.459403     1.082342  -8.96  0.003486925    1.382    0.277
         3 -14.8068    180.1032      8.9048   6.4525572304e+01   3.8561173220e+01     2.209058     1.017732  57.42  0.006935937    1.958    0.489
         4 -11.3116     50.0209      2.0000   9.6337154193e+01   6.9061748215e+01    0.1904617   0.07065054  39.00 0.0008055059    2.964    0.663
         5 -11.6167    125.0420    244.0731   1.2848784644e+02   1.3348879691e+01    0.1438967    0.1282912 -74.03 0.0008228262    1.490    0.329
         6 -19.9852     75.0089    171.3335   1.3063170512e+02   3.1155521389e+01     14.40564     6.309053 -69.13   0.07490015    2.426    0.588
         7 -12.5118    156.6936    199.6063   1.1798091054e+02   1.4625651158e+01    0.4687354    0.3192621  73.18  0.002600701    2.458    0.593
         8 -11.2844    153.7908    194.9764   1.1788110830e+02   1.5744541820e+01    0.2531583    0.1851626  54.92  0.001049632    1.414    0.293
         9  -9.0160    137.3314    244.5872   1.2653646913e+02   1.1640356488e+01     0.106337   0.06391202  61.90 0.0006945473    1.973    0.493
        10 -10.7866    139.6414    200.4965   1.2128377074e+02   1.7155805453e+01    0.2785397      0.17069  39.53 0.0007855043    1.330    0.248
        11 -10.0737    150.7506    243.6884   1.2425932460e+02   9.9043187541e+00   0.09368499    0.0683213  20.91 0.0002620847    1.515    0.340
        12 -11.0869     21.6244    240.3820   1.4439915168e+02   2.5489143709e+01     0.094208   0.06801935  85.29 0.0005193562    1.345    0.256
        13 -10.6410     14.0000    238.8416   1.4545755617e+02   2.6381671331e+01    0.1078617   0.04094422 -83.15 0.0007436855    2.550    0.608
        14 -10.6938    131.2745    237.5834   1.2686563474e+02   1.3320100363e+01    0.1124936    0.1082872  67.45 0.0002127143    1.330    0.248
        15 -10.9956      7.8398    238.3364   1.4632991533e+02   2.6979341069e+01   0.08123512   0.04048683  71.01 0.0006483031    1.510    0.338
        16 -12.4768    117.8860    181.1100   1.2301045494e+02   2.3516621699e+01    0.6533831    0.3054191  63.21  0.002520578    4.096    0.756
        17 -11.1683    108.5391    182.5345   1.2506857528e+02   2.4650795257e+01    0.2092357    0.1658088  58.52  0.001418389    1.139    0.122
        18 -11.1778     30.5279    182.9635   1.4032596443e+02   3.3805803442e+01    0.1831722     0.126715  42.58 0.0004545691    1.405    0.288
        19 -12.4679    199.4491    179.2353   1.0680490343e+02   1.0220965725e+01    0.3953158    0.2873119 -59.68  0.002150927    2.501    0.600
        20 -13.4078    195.6773    169.5413   1.0575730321e+02   1.2171266084e+01    0.4635371    0.4208798 -15.59 0.0008649979    1.270    0.212
        21 -12.4221    193.6561    164.4971   1.0519692702e+02   1.3232808320e+01    0.3747649     0.296267  13.81  0.001500274    1.169    0.144
        22 -12.3400      5.2581    177.8313   1.4468808461e+02   3.6837574638e+01    0.2666036    0.1688511  57.35  0.001273541    1.262    0.208
        23 -10.6380     30.8001    232.5837   1.4273390096e+02   2.5761837908e+01    0.1342015    0.1015584  80.04  0.001245534    1.248    0.199
        24 -14.4545    144.8675    169.3333   1.1578564088e+02   2.1172039517e+01    0.7947844    0.5741279  73.38  0.004357459    1.955    0.489
        25  -9.9608     11.7146    173.7186   1.4332367379e+02   3.7075556403e+01   0.08464272   0.06938753 -64.71 0.0002226158    1.519    0.342
        26 -11.9020    165.4501    171.9651   1.1205474251e+02   1.7206192099e+01    0.2470661     0.166639  52.04  0.001366711    1.541    0.351
        27 -10.7657     34.4764    169.8692   1.3872991522e+02   3.5824245699e+01    0.1572428    0.1450764  26.74 0.0006975246    1.471    0.320
        28 -14.0280    138.4513    171.1159   1.1738892770e+02   2.1949452686e+01    0.7561462    0.5445845  55.17  0.004472063    1.399    0.285
        29 -11.9202    230.3275    166.8840   9.8974779019e+01   6.3316904513e+00    0.2641556    0.1478228 -37.25  0.001363009    2.204    0.546
        30 -11.0061     25.2686    165.0965   1.4023769896e+02   3.7549229007e+01    0.1562553    0.1279073  59.46 0.0005927057    1.176    0.150
        31 -10.3086     25.7899    229.9793   1.4339406866e+02   2.6610503800e+01    0.1676758   0.06167528 -85.64  0.001064455    2.772    0.639
        32 -11.0519    192.4773    157.7287   1.0411746444e+02   1.4409327482e+01    0.2876692    0.1770175  20.63  0.001418162    1.766    0.434
        33 -12.1229    126.0608    171.8339   1.2005948725e+02   2.3833590291e+01    0.2730921    0.2661529 -53.88  0.001008748    1.179    0.152
        34 -10.5946    139.0631    250.2122   1.2678325563e+02   1.0747797879e+01    0.1494153     0.103605  35.92 0.0006256556    1.188    0.159
        35 -11.1543     22.8428    156.0319   1.4013790221e+02   3.9488212992e+01    0.2219082    0.1680363 -63.34  0.001680658    1.463    0.317
        36 -13.7153    162.2622    154.0033   1.0948644660e+02   2.0620631862e+01    0.5211661     0.422583 -73.68  0.002032761    1.765    0.433
        37 -12.3728    174.2630    148.6120   1.0594360532e+02   1.9238494682e+01    0.3040517    0.2987537 -81.31  0.001192787    1.276    0.216
        38 -10.2789     22.5025    221.0773   1.4355113316e+02   2.8245883059e+01    0.1036153   0.07490939 -85.41 0.0004005215    1.413    0.292
        39 -11.8437     27.8027    135.8032   1.3751976119e+02   4.3121680970e+01    0.4076599    0.2541368 -15.93   0.00224546    3.172    0.685
        40 -11.6532      7.8570    138.4521   1.4218689383e+02   4.4096925475e+01    0.2840692    0.2097322  28.59  0.001656689    1.665    0.399
        41 -10.7290      1.7377    139.9688   1.4359161373e+02   4.4201727685e+01    0.1445323    0.1112435 -82.18 0.0005144903    1.172    0.147
        42 -11.1699    172.4940    138.9808   1.0432143696e+02   2.1139833864e+01    0.1987502    0.1379033 -36.41 0.0005658629    1.547    0.354
        43 -12.8308    160.6011    127.9300   1.0448386596e+02   2.5380682117e+01    0.4201418    0.3379402 -46.21  0.001811481    1.387    0.279
        44 -11.2649     16.4493    250.1013   1.4545158126e+02   2.4605924989e+01    0.1092911   0.06567722  83.75 0.0009897072    1.479    0.324
        45 -11.6304    111.5613    213.5097   1.2791444420e+02   1.9301862525e+01    0.1745308     0.128268  57.19 9.868967e-05    1.191    0.160
        46 -12.9881    108.8744    209.1390   1.2796075003e+02   2.0322451179e+01    0.3600398    0.2692502  85.65   0.00189867    1.549    0.354
        47 -10.9958    167.5027    112.6774   9.9361429491e+01   2.6627241308e+01    0.2890577    0.2330994  77.33  0.001280565    1.754    0.430
        48 -10.6463    130.4294    212.5647   1.2442033939e+02   1.6783273688e+01    0.1504122     0.104433 -79.45 0.0006134709    2.069    0.517
        49 -12.0961    116.2993    212.1846   1.2692809946e+02   1.8844232919e+01    0.2334539    0.1752404  80.36  0.001310806    1.562    0.360
        50 -10.8096    205.2980    110.2287   9.0965949630e+01   1.8824103572e+01     0.314155    0.1899987  39.76 0.0009849301    1.565    0.361
        51 -13.1523     11.7106    205.8801   1.4468771639e+02   3.1570582946e+01    0.3461629    0.2330149  27.07   0.00280586    1.947    0.486
        52 -13.4795    154.1637    185.9827   1.1650806632e+02   1.7004151942e+01    0.5522196    0.4048471 -67.54  0.003313277    1.976    0.494
        53 -12.2934    163.5211    202.6894   1.1714631922e+02   1.3119882312e+01    0.3231016    0.2237968  55.22  0.001264034    1.577    0.366
        54 -10.3483    144.0897     80.5175   9.6142320144e+01   3.7532804523e+01    0.2292031    0.1489535  46.22  0.001017144    1.546    0.353
        55 -10.2242    108.1973    248.3325   1.3154797962e+02   1.4991095851e+01   0.07643905   0.06952653  20.69 0.0003562885    1.498    0.332
        56 -10.2202    160.0125    246.5974   1.2305378082e+02   8.2896723809e+00    0.1657744    0.1003249 -30.73  0.001135633    2.500    0.600
        57 -13.1086    167.3983     34.1325   7.5495165304e+01   3.9186729303e+01    0.4948442    0.4216653  24.95 0.0009230673    1.127    0.113
        58 -11.0399     13.4054     59.8785   1.3252556364e+02   6.0737843000e+01    0.1683969    0.1500333  85.34 0.0004171778    1.239    0.193
        59 -12.8416    160.8820    198.1341   1.1699584689e+02   1.4162656147e+01    0.3219901    0.2788111 -87.42  0.002011819    1.616    0.381
        60 -10.4910    143.2490     33.4231   8.0307454758e+01   4.5485250054e+01    0.2587341    0.1913646  65.48  0.001203521    1.554    0.356
        61 -10.8435    133.8070    245.9913   1.2723974803e+02   1.1947942719e+01    0.1265633    0.1016687  39.24 0.0003032468    1.155    0.134
