#   1 NUMBER                 Running object number                                     
#   2 MAG_AUTO               Kron-like elliptical aperture magnitude                    [mag]
#   3 X_IMAGE                Object position along x                                    [pixel]
#   4 Y_IMAGE                Object position along y                                    [pixel]
#   5 X_WORLD                Barycenter position along world x axis                     [deg]
#   6 Y_WORLD                Barycenter position along world y axis                     [deg]
#   7 A_WORLD                Profile RMS along major axis (world units)                 [deg]
#   8 B_WORLD                Profile RMS along minor axis (world units)                 [deg]
#   9 THETA_WORLD            Position angle (CCW/world-x)                               [deg]
#  10 FWHM_WORLD             FWHM assuming a gaussian core                              [deg]
#  11 ELONGATION             A_IMAGE/B_IMAGE                                           
#  12 ELLIPTICITY            1 - B_IMAGE/A_IMAGE                                       
         1 -13.9313    197.1767     69.3630   4.4337780261e+01   2.6478514520e+01     5.242488     2.543291 -26.18    0.0211125    2.211    0.548
         2 -14.8133    244.7894     74.8584   3.9425769360e+01   1.5321557576e+01     3.641022     1.343047  47.09   0.01231728    3.335    0.700
         3 -13.5228    170.9109     89.3101   5.4363668632e+01   2.9383974176e+01     2.864659     2.098542   7.18   0.01306135    1.885    0.470
         4 -13.4097    221.3350     25.0095   2.9641668310e+01   2.6674167156e+01     2.734406     1.484643   1.93   0.01063479    3.681    0.728
         5 -15.4250    243.5379     33.5862   2.9804250130e+01   2.0811404201e+01     11.21989     2.899525 -25.29   0.03660633    4.332    0.769
         6  -9.3907    200.7147     13.4364   2.8478033010e+01   3.2771772790e+01    0.4254342    0.3146658  11.51  0.001603623    1.812    0.448
         7  -9.8788    202.7652     18.3525   2.9625275171e+01   3.1761609497e+01    0.5784903    0.3410449  65.03  0.002929544    1.687    0.407
         8  -9.5500    141.9939     15.9120   3.6427594107e+01   4.7257254113e+01    0.4137474    0.2103496 -11.77  0.001706131    2.489    0.598
         9  -9.1390    115.7936     12.4172   3.9795830917e+01   5.4145162078e+01    0.3116781    0.2207825  48.65   0.00164892    1.327    0.246
        10 -10.5953    120.2947      9.2308   3.7648738803e+01   5.3357905436e+01    0.5630332     0.401536  64.94  0.001675957    1.334    0.250
        11  -8.9008    182.2408      4.5970   2.7720924312e+01   3.8166247734e+01    0.2782103    0.1662345 -24.17   0.00139874    1.742    0.426
        12 -10.6008    246.1304      2.8998   2.2521021059e+01   2.3556013049e+01    0.4977165    0.2293333  60.71  0.002249948    2.417    0.586
        13  -8.9140    199.1282     22.2973   3.1073301833e+01   3.2208274361e+01    0.3448929    0.1784963 -41.63 0.0005587084    1.761    0.432
        14  -9.9209    247.8781    195.7562   6.4241242634e+01  -1.4296624691e+00    0.3431995    0.2006393  41.87  0.001613389    1.853    0.460
        15  -9.3393    242.8105    194.1620   6.4746555730e+01  -5.2062728205e-01    0.1911972    0.1349838   3.89 0.0008481113    1.264    0.209
        16  -7.5917    149.4771    203.4323   8.2960217938e+01   1.2863056977e+01    0.1255719    0.1081182  37.79 4.494795e-05    1.016    0.016
        17  -9.0383    193.6872    197.2322   7.3576490549e+01   6.6157626508e+00    0.4418299    0.2472549 -55.77  0.002050534    3.120    0.679
        18  -8.2651    189.9733    190.2534   7.3057501392e+01   8.2495760769e+00    0.6999721    0.4263435 -70.50  0.002293925    6.624    0.849
        19  -9.2606     25.1233    199.6719   1.0820593849e+02   3.0765902312e+01    0.1858277    0.1608376  68.42 0.0004255118    1.188    0.158
        20  -9.3933    232.4048    195.3697   6.6612867596e+01   8.4952511376e-01    0.2180215    0.1934066   6.08  0.001036597    1.203    0.169
        21  -7.7262     91.5525    191.4198   9.3352410828e+01   2.4145282466e+01    0.1252175    0.1090699  58.66 6.613906e-05    1.023    0.023
        22  -8.7319     27.8884    184.0255   1.0655473461e+02   3.3670606874e+01     0.166183    0.1354322  73.17 0.0002635837    1.047    0.044
        23  -7.9229    156.3437    180.2263   7.7844200029e+01   1.5648360832e+01    0.3297903    0.2019295  71.48  0.001317553    3.388    0.705
        24  -9.3557    236.6268    175.1545   6.2255583542e+01   2.7982331613e+00     0.202067    0.1689634  68.17  0.001257857    1.968    0.492
        25  -9.8021    224.3900    173.6208   6.3953876479e+01   4.9584305997e+00    0.3623101    0.1758803 -29.89   0.00178758    2.025    0.506
        26  -7.3967    124.2693    174.7073   8.3740323320e+01   2.2245839145e+01    0.1296737   0.09981547  73.42 0.0001757078    1.512    0.338
        27  -9.1129    230.2330    166.7160   6.1662984227e+01   4.9581772605e+00    0.2196106    0.1823982 -46.53 0.0008663914    1.534    0.348
        28  -8.4949    250.2951    159.1095   5.7055915371e+01   2.7617857135e+00    0.1799587    0.1400093  -3.26 0.0006062801    1.128    0.113
        29  -9.6061    184.0337    242.6013   8.2097865239e+01   2.0287235935e+00     0.239153    0.2130975  76.26  0.001201367    1.733    0.423
        30  -8.9712    203.7089    151.8214   6.3177484404e+01   1.1797885903e+01    0.5222524    0.3188478 -69.55  0.001754275    5.116    0.805
        31 -12.3767    249.6450     43.3922   3.1570464978e+01   1.8379319852e+01      0.50227    0.2641003 -26.43   0.00104972    1.803    0.445
        32  -8.7196    177.4897    150.9967   6.7953542785e+01   1.6900620688e+01    0.2016102     0.134453 -36.12  0.000385258    1.523    0.344
        33  -8.5074    115.6608    149.8413   8.1357261371e+01   2.8833198868e+01    0.2125745    0.1832546  31.56 0.0004597032    1.229    0.186
        34 -10.2521    204.5288    236.9038   7.7841043719e+01  -1.6150193868e-01    0.2002059    0.1648932  16.17 0.0003853423    1.095    0.087
        35  -8.7199    134.0000    148.0515   7.6683586796e+01   2.5839279930e+01     0.339799    0.1711394 -59.39  0.001341491    2.523    0.604
        36 -10.6344     67.5062    142.7122   9.2351305148e+01   3.8130956318e+01    0.9980814    0.6370719 -72.62  0.004973614    1.537    0.349
        37 -11.0769     66.1903    129.1487   9.0471906034e+01   4.1476510716e+01     1.056843    0.8914512  -5.88  0.006012014    1.592    0.372
        38 -11.7605     48.6780    137.6936   9.6674151250e+01   4.1727436122e+01    0.8791185    0.7492825 -62.97  0.003836707    1.189    0.159
        39 -10.8771     56.3864    136.5672   9.4402785524e+01   4.1041818187e+01    0.5972995    0.3559156 -71.86  0.001607695    1.591    0.372
        40  -7.6792    144.3492    146.6874   7.4053157891e+01   2.4136833521e+01    0.1458692     0.112472  80.58 0.0007046126    1.720    0.418
        41  -9.1305    171.5527    236.3959   8.3453451074e+01   4.6015493769e+00     0.214518    0.1645696  43.08 0.0002744652    1.245    0.197
        42  -8.9200    176.8434    144.1579   6.6628606882e+01   1.8234952518e+01    0.1971159    0.1623334   0.66 0.0005287187    1.341    0.254
        43  -8.1617    202.1232    141.8723   6.1344239039e+01   1.3693354617e+01    0.1875805    0.1525146   3.32 0.0003981389    1.281    0.219
        44  -8.2176    193.9995    141.8015   6.2811513897e+01   1.5275224528e+01    0.2192401    0.1680741  83.03  0.001003809    2.048    0.512
        45  -7.4741     78.8526    139.1365   8.8746625114e+01   3.7312592866e+01    0.1671125    0.1595037 -19.96 0.0002564481    1.258    0.205
        46  -9.6571    209.5669    137.5258   5.9084767583e+01   1.2964983020e+01    0.3680611    0.2374151  43.82  0.001341996    1.595    0.373
        47  -8.7077    230.1191    135.2281   5.5204262849e+01   9.4828503677e+00    0.2319928    0.1581308 -53.97  0.001040001    1.934    0.483
        48  -9.1656    221.3136    134.2622   5.6398540001e+01   1.1249432187e+01    0.3821527     0.221076 -41.38  0.001553856    1.720    0.418
        49 -10.1239    198.3167    133.8092   6.0249859611e+01   1.5759585176e+01    0.4313743    0.3327049 -43.72  0.002339902    1.337    0.252
        50  -9.2902    196.7446    129.1042   5.9468206520e+01   1.6858956685e+01    0.2712376    0.2017324  41.90  0.001136807    1.373    0.272
        51 -10.0575    186.8580    127.2869   6.0886207628e+01   1.9186356821e+01    0.6382339    0.3775083 -61.55  0.002537591    2.761    0.638
        52 -10.3906     40.4594    140.4987   9.9271946100e+01   4.2012536509e+01    0.3329417    0.2926489  27.75 0.0009774893    1.371    0.271
        53  -9.3340    161.1635    128.9791   6.6466153467e+01   2.4210175329e+01    0.2675262    0.2151683  46.52  0.001393213    1.246    0.198
        54  -9.4093    173.2552    232.1386   8.2581541006e+01   4.9162247046e+00    0.2274463    0.2226638 -54.91 0.0002046267    1.364    0.267
        55  -7.8333    122.0082    124.2771   7.4459981509e+01   3.3126984875e+01    0.1994274    0.1862496  54.18 0.0002559232    1.068    0.064
        56  -7.6527     93.6852    124.2752   8.1884538289e+01   3.8335579361e+01    0.1436056    0.1080041  75.47 0.0001978379    1.563    0.360
        57  -8.0336    216.7503    117.9261   5.3456683876e+01   1.4650577028e+01    0.1910345     0.166835 -29.25 0.0004363909    1.065    0.061
        58 -11.8069      8.4800    150.0358   1.0848780544e+02   4.2850289459e+01    0.8161443    0.5321472  87.90   0.00438806    1.264    0.209
        59  -8.1872     65.1825    116.8206   8.8490794035e+01   4.4524476063e+01    0.1957906    0.1710984  88.61 0.0002858657    1.114    0.102
        60 -11.9662    121.8107    104.8235   6.9741590339e+01   3.7312032176e+01      1.30053    0.9332694  47.97  0.006264933    1.419    0.295
        61 -10.8403     13.9733    148.4638   1.0699670039e+02   4.2750763395e+01    0.6967087    0.2673746 -88.60  0.002994635    2.676    0.626
        62  -8.9609    179.4231    107.8590   5.7599268312e+01   2.4188232459e+01    0.3484424    0.2518058 -14.53  0.001010883    1.660    0.397
        63 -12.0041    134.7295    103.0952   6.6053130253e+01   3.4944713234e+01     1.463519    0.5750938 -40.33   0.00511611    2.596    0.615
        64  -7.6479     99.2772    108.3040   7.6698764613e+01   4.0955666959e+01    0.1416887    0.1150022 -18.27 0.0006961359    1.546    0.353
        65  -9.5820    147.6999    106.5170   6.3907723441e+01   3.1442457887e+01    0.2792007    0.2619215  10.41 0.0007758911    1.134    0.118
        66 -13.2918    245.8827     64.7894   3.6941972725e+01   1.6443810320e+01    0.8421308    0.5581685 -58.85  0.001895887    1.614    0.380
        67 -10.3880     83.9222     99.1308   7.8899716989e+01   4.5738808189e+01    0.2318555    0.2181045 -62.13  0.001331172    1.003    0.003
        68  -9.1025    206.7999    110.1942   5.3262694691e+01   1.7906220882e+01    0.3496072    0.2746496  28.54  0.001234112    1.396    0.284
        69  -8.6108    174.0691    227.1044   8.1743041487e+01   5.4738801697e+00    0.1731722      0.13955  24.90 0.0003319666    1.052    0.049
        70 -10.1130    133.3355     81.1646   6.0185272883e+01   3.9571987040e+01    0.5693614    0.1807755 -43.64   0.00179117    3.110    0.678
        71 -12.6855    250.3030     54.6711   3.4127866983e+01   1.6853433555e+01    0.8013354    0.2704701 -26.06  0.001512852    3.056    0.673
        72  -8.9984    152.9661     78.8296   5.5033745314e+01   3.5439909830e+01    0.2674847    0.2085632 -38.05  0.000418552    1.255    0.204
        73  -9.1144    141.1637     74.1536   5.6219194213e+01   3.9056552415e+01    0.2894531    0.1848767 -28.35  0.001261373    1.699    0.411
        74  -9.3808    158.4608     69.3965   5.1090163033e+01   3.5748075987e+01    0.2693685    0.2323811  47.72 0.0006676813    1.189    0.159
        75  -9.3725    136.2762     66.7086   5.5004571198e+01   4.1524883277e+01    0.2905531     0.172669 -45.91  0.001245244    1.714    0.417
        76 -10.9104    141.6162     98.0863   6.3060629503e+01   3.4438064538e+01    0.5934426    0.3773699  56.10  0.002036721    1.686    0.407
        77 -10.3186    151.8188     63.9153   5.0747902295e+01   3.8265278728e+01    0.4140992    0.2930811  11.12  0.001813864    2.019    0.505
        78  -8.2776    140.5284     65.4702   5.3646052438e+01   4.0728259985e+01     0.147791    0.1456856 -51.44 5.131753e-05    1.004    0.004
        79 -10.8935      4.1366     52.4937   9.7019998994e+01   6.5671758241e+01    0.4547876     0.337676 -27.61  0.003001165    1.412    0.292
        80 -10.0911      4.4115     45.4027   9.5153898208e+01   6.7201201352e+01    0.3458682    0.2258727  66.64   0.00196417    2.224    0.550
        81 -10.7941      2.7308     61.0619   9.9470434731e+01   6.3842325551e+01    0.4050242     0.318804 -73.63  0.002734868    1.142    0.124
        82  -9.6915    186.1940     62.7891   4.4219362139e+01   3.0070474931e+01    0.4438427    0.2413592 -22.24  0.001829443    2.126    0.530
        83  -9.8863    163.0612     62.5125   4.8119934552e+01   3.5745366107e+01    0.4549865     0.190561 -33.72  0.001686696    2.321    0.569
        84  -9.2231    208.1213     56.2058   3.9254430376e+01   2.5821471317e+01     0.439775    0.2004496 -33.59  0.001239827    1.981    0.495
        85 -10.1474     11.1272     55.8947   9.4689370016e+01   6.4470270964e+01    0.2414161    0.1780578   3.05   0.00153076    1.622    0.383
        86  -9.8661    172.2212    154.0423   6.9639676702e+01   1.7374057883e+01    0.2490833    0.2238867 -17.43 0.0002090664    1.122    0.109
        87  -9.5850    156.6833     53.9325   4.6655901019e+01   3.8645905523e+01    0.2097281    0.1928053 -41.76  0.000524907    1.072    0.068
        88  -8.9996    149.0702     51.6783   4.7397043675e+01   4.0872917702e+01    0.2571914     0.229322   1.23 0.0001311883    1.239    0.193
        89 -10.6246    152.9090     46.9176   4.5110325684e+01   4.0623082811e+01    0.5069863    0.3798478 -29.02  0.001547049    1.354    0.262
        90 -12.1287    244.8046     52.5795   3.4176088013e+01   1.8237633000e+01     0.497421    0.3480984 -38.14 0.0002936984    1.215    0.177
        91  -8.8711    188.1402     46.2218   3.9191600051e+01   3.1954889521e+01    0.5142729    0.2163063 -49.23  0.001917283    2.610    0.617
        92  -9.9192    138.2721     44.5202   4.7181067410e+01   4.4606454912e+01    0.4811777    0.1880388  51.39  0.001765482    2.456    0.593
        93  -9.0031    117.9748     43.8200   5.1507053242e+01   4.9607179837e+01    0.2306003    0.2031978 -29.31 0.0003055277    1.134    0.118
        94  -9.5985    141.6228     39.6786   4.4839229623e+01   4.4464346047e+01    0.4036103    0.1904488 -46.23  0.001572107    2.317    0.568
        95  -9.4442    195.6924     34.6778   3.4918209237e+01   3.1596130649e+01    0.5197973    0.2595551  68.11  0.001949875    2.029    0.507
        96  -9.7021    195.0161     37.7378   3.5863131162e+01   3.1380628297e+01     0.328604    0.2736634 -82.81 0.0005033113    1.211    0.175
        97  -7.5538    201.8401    225.1894   7.6587921077e+01   1.6252447801e+00    0.1513737    0.1101053  12.98  0.000252132    1.250    0.200
        98 -10.2166    141.1129    220.4942   8.6964543966e+01   1.1442618140e+01    0.2028534    0.1916246  37.52 -0.0001671886    1.133    0.117
        99  -8.9473    200.5989     29.4981   3.2907097192e+01   3.1029824707e+01    0.2401793    0.1878595 -32.16 0.0004544999    1.251    0.201
       100  -9.2207    202.1252     26.1367   3.1817198514e+01   3.1052140693e+01    0.2427599    0.2117425  -2.83 0.0003684567    1.347    0.258
       101  -7.7476    112.7344     29.0045   4.7120731187e+01   5.2948416848e+01    0.1780621    0.1218428 -27.49 0.0005295091    1.482    0.325
       102  -7.7369    160.8042     25.1265   3.6675146636e+01   4.1460700338e+01    0.1898531    0.1617358  27.92 0.0005327618    1.318    0.241
       103  -8.2969    134.4981     20.5325   3.9367946432e+01   4.8649397717e+01    0.1385599    0.1334081  81.05  0.000809527    1.036    0.034
       104  -8.3399     92.9285    214.6519   9.5731757108e+01   1.9568221090e+01    0.1667477    0.1553491 -77.87 0.0004345786    1.249    0.200
       105  -7.9986    163.0035     13.6399   3.2650044057e+01   4.2143835536e+01     0.184764    0.1606698  77.97 0.0004219317    1.093    0.085
       106  -8.6122    164.0279    206.7483   8.0636718749e+01   9.9860987592e+00    0.1764094    0.1638873  14.69 0.0003089406    1.104    0.094
       107 -10.8061    248.3382    202.8766   6.5400752833e+01  -2.3162172314e+00     0.434299    0.2703364 -17.62  0.002808045    1.467    0.318
       108 -11.7477    247.2509    184.2403   6.2281282764e+01   4.0523572425e-02    0.9428833    0.4094828 -30.50  0.004863409    2.144    0.534
       109 -11.2113    240.6553    199.0068   6.5929983123e+01  -7.9201546064e-01     0.497182    0.4595298 -62.86  0.003570014    1.861    0.463
