#   1 NUMBER                 Running object number                                     
#   2 MAG_AUTO               Kron-like elliptical aperture magnitude                    [mag]
#   3 X_IMAGE                Object position along x                                    [pixel]
#   4 Y_IMAGE                Object position along y                                    [pixel]
#   5 X_WORLD                Barycenter position along world x axis                     [deg]
#   6 Y_WORLD                Barycenter position along world y axis                     [deg]
#   7 A_WORLD                Profile RMS along major axis (world units)                 [deg]
#   8 B_WORLD                Profile RMS along minor axis (world units)                 [deg]
#   9 THETA_WORLD            Position angle (CCW/world-x)                               [deg]
#  10 FWHM_WORLD             FWHM assuming a gaussian core                              [deg]
#  11 ELONGATION             A_IMAGE/B_IMAGE                                           
#  12 ELLIPTICITY            1 - B_IMAGE/A_IMAGE                                       
         1 -15.6374    248.7140    106.4837   4.8660217125e+01   1.0499727648e+01      3.60062    0.8658001 -33.17  0.007705957    9.378    0.893
         2 -18.6608    237.4391     52.9997   3.8720859536e+01   2.1005968042e+01     7.901559     4.611267 -33.75   0.04247697    1.771    0.435
         3 -14.4720    117.2290     21.6800   4.7847030223e+01   5.2602013313e+01    0.7283199    0.3162003 -31.64  0.003256979    2.471    0.595
         4 -15.5104    125.7823     21.4959   4.6044379276e+01   5.0629142326e+01      1.05879     0.936132  10.28  0.006619631    1.279    0.218
         5 -14.4003    143.9960     25.9974   4.4151321018e+01   4.5814015692e+01     1.083099    0.4709294 -30.72  0.004749729    2.479    0.597
         6 -16.3167    141.7966     38.3066   4.8311440282e+01   4.4855626945e+01     4.534594     2.407145 -51.41   0.01998541    2.237    0.553
         7 -12.5693    166.8078     35.6723   4.3286658560e+01   3.9182508999e+01    0.6513731    0.2448359 -30.48  0.002562492    2.921    0.658
         8 -13.2232    158.4484     33.5522   4.3990536236e+01   4.1452786197e+01    0.8744435    0.5399851 -17.62  0.003084713    2.149    0.535
         9  99.0000    221.0266     15.2855   3.2250964890e+01   2.9239929075e+01    0.3027204    0.1924448 -80.21  0.001827288    1.401    0.286
        10 -12.1266    155.5768     13.2165   3.8633317793e+01   4.4387282842e+01    0.4110221    0.2446509  -7.16  0.001750905    2.536    0.606
        11 -10.1026    180.5197      5.5338   3.3677829959e+01   3.9271614386e+01    0.1230241    0.1041422  78.39 0.0003655363    1.113    0.101
        12 -11.1297    208.1213      4.3891   3.0947838630e+01   3.3183624498e+01    0.1555835    0.1121848  57.47 0.0005676467    1.595    0.373
        13 -13.2638      4.1586    156.5175   1.1812486485e+02   4.1055181607e+01     1.006535    0.4559455  88.52  0.004608138    2.175    0.540
        14 -13.6875    191.1348    151.1309   6.8091793376e+01   1.3099059899e+01    0.7886207    0.3931752 -59.96  0.002621001    3.475    0.712
        15 -13.2295     48.2419    151.8042   1.0541127355e+02   3.8162448544e+01    0.3842506    0.3199481   4.82 0.0009424269    1.493    0.330
        16 -15.5400     60.1914    146.1649   1.0101717180e+02   3.8142029856e+01     1.968792     1.372087   1.89  0.006109673    2.015    0.504
        17 -10.7768    202.6156    150.2951   6.5631596386e+01   1.1072086357e+01    0.1434562    0.1154547 -84.39 0.0007017139    1.766    0.434
        18 -12.1168    172.8559    149.8862   7.1695694246e+01   1.6962448137e+01     0.240901    0.2078405 -14.81 0.0007514969    1.228    0.186
        19 -11.8601    133.8680    146.4235   8.0256002645e+01   2.5593045637e+01    0.7953091    0.2302981 -54.20  0.002081364    4.284    0.767
        20 -11.2253    143.6958    146.5408   7.7790561518e+01   2.3598762694e+01    0.2866599    0.1974456 -68.77  0.001199076    1.872    0.466
        21 -14.3564    179.5534    133.2964   6.6421193986e+01   1.9095427483e+01    0.7322232    0.5435181 -20.60  0.003426892    1.578    0.366
        22 -13.9719    183.9323    124.3759   6.3394065416e+01   2.0007615829e+01    0.7643663    0.4054939 -43.40  0.003158387    1.768    0.434
        23 -14.1613    190.1633    138.4539   6.5434165805e+01   1.5861691879e+01    0.7556416    0.4606657  39.50  0.002170393    1.795    0.443
        24 -13.0679    191.0453    132.3555   6.3850509958e+01   1.6914282430e+01    0.5631138    0.3583236  70.34  0.002299157    2.466    0.595
        25 -14.3591    212.4574    134.3465   6.0282265857e+01   1.2276283666e+01    0.8278964    0.5541259 -43.37  0.003222034    1.346    0.257
        26 -12.4796    201.4776    135.6303   6.2582844841e+01   1.4166267736e+01    0.3244192    0.2433894 -54.50 0.0007493331    1.380    0.275
        27 -11.8491    136.0000    129.4581   7.5707807831e+01   2.9123635500e+01    0.8123065    0.1219019 -47.80   0.00165494    6.687    0.850
        28 -11.8296    134.9871    121.3452   7.3943349261e+01   3.1192295535e+01     0.783061    0.2134367 -48.81  0.001945343    3.784    0.736
        29 -13.1773    201.8684    128.4031   6.0860296573e+01   1.5498724413e+01    0.4751151     0.255233 -37.82  0.001742912    1.749    0.428
        30 -13.4160    161.1304    128.4398   6.9313670395e+01   2.4024518758e+01      0.61387    0.4765669  43.20  0.002949256    1.338    0.253
        31 -12.9756    162.6811    120.7186   6.7051609869e+01   2.5346468526e+01    0.4029835     0.321525 -52.98 0.0007121006    1.250    0.200
        32 -12.9283    167.7345    114.5545   6.4380556679e+01   2.5528223246e+01    0.5405889    0.4531457   3.44  0.001514478    1.472    0.320
        33 -12.8987    241.0413    173.3944   6.3529959566e+01   3.2167976511e-01    0.4284006    0.2302138 -22.80  0.001997572    2.094    0.522
        34 -13.5805    185.9766    119.5000   6.1811202570e+01   2.0554166905e+01    0.6185575    0.4450095 -88.88  0.002731175    2.049    0.512
        35 -11.9664    135.0000    110.9382   7.1232001172e+01   3.3514900723e+01    0.7223491    0.2058684 -41.99  0.002029342    3.612    0.723
        36 -12.7024    134.4890    104.4772   6.9623474694e+01   3.5029062228e+01     0.991084    0.2993071 -46.24   0.00292826    3.317    0.698
        37 -11.9232    132.9738     99.7835   6.8722249262e+01   3.6360076594e+01    0.5321012     0.277028 -50.39  0.001325295    2.023    0.506
        38 -11.7525    192.5150    125.9376   6.2061868140e+01   1.7894871225e+01    0.2190515    0.2092696  47.74 0.0005893987    1.129    0.115
        39 -12.3921    126.7354    112.0840   7.3724847282e+01   3.5030223388e+01    0.4741598    0.3003082 -49.18  0.001057649    1.567    0.362
        40 -13.4689    126.8926    105.2038   7.1827758164e+01   3.6520765523e+01    0.8390813    0.4603848  60.66  0.003034618    2.551    0.608
        41 -14.9169     20.9469    164.4821   1.1450590669e+02   3.7731639856e+01    0.9113384    0.7582276 -88.29  0.003659494    1.017    0.016
        42 -12.3334    112.1300    104.4982   7.5767285516e+01   3.9764463512e+01    0.3673199    0.2352208 -55.94  0.001328791    1.687    0.407
        43 -11.3704    145.8266    104.3044   6.6737550847e+01   3.2550240169e+01    0.3016713    0.2626426  25.42 0.0006250246    1.269    0.212
        44 -10.5182    209.9849    170.2362   6.8449310916e+01   5.9150495027e+00    0.1870235    0.1709006  -6.48 0.0002103845    1.062    0.059
        45 -12.4447    194.7115     93.8584   5.3919061738e+01   2.3547093917e+01     0.477189     0.275632 -61.67  0.001383464    2.165    0.538
        46 -11.8602    139.0286     94.6489   6.5748548556e+01   3.6070118738e+01    0.3281964    0.2912574  78.50 0.0006901199    1.234    0.190
        47 -12.7884    113.2392     94.5439   7.2638362847e+01   4.1715722541e+01    0.3020585    0.2835133 -43.30 0.0007848923    1.059    0.055
        48 -12.6470    152.5226     91.2157   6.1591877207e+01   3.3667536540e+01    0.3468941    0.2655921 -42.03 0.0005003288    1.289    0.224
        49 -10.6571    131.3912     92.2465   6.7003584524e+01   3.8271537732e+01    0.2142793    0.1430726 -52.22 0.0003920087    1.585    0.369
        50 -14.6296      5.1976    172.1450   1.1915802048e+02   3.7154960295e+01     1.393253    0.7216222  89.22  0.007174402    1.723    0.420
        51 -12.2318    175.8316     89.6674   5.6304299843e+01   2.8574519576e+01    0.2899291    0.2651472  19.36 0.0004244583    1.278    0.217
        52 -14.8214    135.3923     63.1504   5.7338000873e+01   4.2728490850e+01     1.373585    0.6574481  38.42  0.005130785    2.600    0.615
        53 -12.5868    224.0057    204.6105   7.2526976059e+01  -2.3692710800e+00    0.3535579    0.2341479   0.42  0.001386797    1.649    0.394
        54 -13.5941    192.5381    194.4299   7.6739014085e+01   4.3339102920e+00     1.104802    0.5689648 -63.89  0.003045411    6.678    0.850
        55 -10.2691    247.1730    192.8675   6.6251333916e+01  -3.7506484048e+00    0.1695818    0.1222225 -12.60 0.0003093133    1.259    0.206
        56 -12.3788    202.8053    191.3909   7.4080734958e+01   3.1989209272e+00    0.3915322    0.1667018  30.87  0.001544351    2.684    0.627
        57 -14.1405    166.2521     80.9989   5.5872422091e+01   3.2374178227e+01    0.9412177    0.5930209 -28.46  0.001873908    1.836    0.455
        58 -13.0848    192.2612     47.8627   4.2840520925e+01   3.1548130352e+01    0.3766915    0.3059196 -15.22 0.0008036866    1.606    0.377
        59 -12.4375    199.2642    162.8170   6.8986929119e+01   9.2406556195e+00    0.6525751    0.3597661 -67.84  0.001801902    6.016    0.834
        60 -13.0757    204.6651     27.3818   3.6434144921e+01   3.1395478783e+01    0.3229591    0.2440847 -43.45  0.001304833    1.322    0.244
        61 -10.2843    197.5580     25.2882   3.6693102377e+01   3.3247907937e+01     0.147279    0.1242699 -26.25 0.0004674811    1.456    0.313
        62 -13.4730    215.2838     28.5120   3.5627200567e+01   2.8916182020e+01    0.4686804    0.3122905 -77.20  0.001795635    1.391    0.281
        63 -10.3887     78.8143     19.8178   5.7058893009e+01   6.1143662583e+01    0.1526041    0.1508589  84.90 0.0003001539    1.291    0.226
        64 -15.5968    201.8361     76.3130   4.8471987234e+01   2.5006812573e+01     2.599343     1.194385  38.13  0.008723197    4.184    0.761
        65 -10.5845    202.0115    248.2078   8.4169721965e+01  -6.0791359639e+00    0.1673153    0.1331868  11.03 0.0003732295    1.025    0.024
        66 -12.1967    191.9056     38.2446   4.0496377951e+01   3.2932892381e+01    0.5498517      0.33143 -48.70   0.00286665    1.574    0.364
        67 -12.2583    245.3497    164.7608   6.1111813075e+01   1.1275351211e+00    0.2726974    0.1965708  -2.95  0.001538173    1.589    0.371
        68 -11.8202    181.4556    211.2044   8.2134711050e+01   3.0432866881e+00    0.4491987    0.2751441  61.31  0.001836301    3.182    0.686
