#   1 NUMBER                 Running object number                                     
#   2 MAG_AUTO               Kron-like elliptical aperture magnitude                    [mag]
#   3 X_IMAGE                Object position along x                                    [pixel]
#   4 Y_IMAGE                Object position along y                                    [pixel]
#   5 X_WORLD                Barycenter position along world x axis                     [deg]
#   6 Y_WORLD                Barycenter position along world y axis                     [deg]
#   7 A_WORLD                Profile RMS along major axis (world units)                 [deg]
#   8 B_WORLD                Profile RMS along minor axis (world units)                 [deg]
#   9 THETA_WORLD            Position angle (CCW/world-x)                               [deg]
#  10 FWHM_WORLD             FWHM assuming a gaussian core                              [deg]
#  11 ELONGATION             A_IMAGE/B_IMAGE                                           
#  12 ELLIPTICITY            1 - B_IMAGE/A_IMAGE                                       
         1 -12.9462    202.7585     33.5833   6.0630869596e+01   3.1089770099e+01    0.9743132    0.7957485 -73.03  0.006201954    1.088    0.081
         2 -12.7200      2.4959     17.1048   1.0864556450e+02   7.0235206217e+01     1.348422    0.2018092 -46.47  0.004395581    7.236    0.862
         3 -12.5146      3.4794      4.8193   1.0299819572e+02   7.1722730332e+01    0.5925081    0.4254673 -11.98  0.004746737    1.098    0.089
         4 -13.4931    220.2635     15.6404   5.5129013416e+01   2.9457337458e+01     0.886144    0.7611986  59.57  0.004155905    1.491    0.329
         5  -9.6588    245.3211    241.6609   9.6854630974e+01  -1.2981870353e+01     0.102549   0.09856664 -69.16 0.0007050295    1.715    0.417
         6 -11.0657    184.9347    249.9320   1.0984362085e+02  -5.6741328006e+00    0.3782321    0.1920013  27.09  0.001775193    2.010    0.502
         7 -10.0658    175.4945    250.4997   1.1185105961e+02  -4.2944575048e+00     0.204604    0.1136023  26.49  0.000987593    1.823    0.451
         8 -10.6074    169.0924    249.1547   1.1295359071e+02  -3.0443399522e+00    0.2758331    0.2295263   4.35  0.000681143    1.241    0.194
         9 -11.2419    170.9740    244.0044   1.1175263689e+02  -2.4354172871e+00    0.3385109    0.2026647  48.19  0.001489667    1.781    0.438
        10 -11.1167    164.9414    242.2920   1.1273721564e+02  -1.1423827578e+00    0.3708332    0.2560959  67.61  0.001726664    2.215    0.549
        11 -10.3911    162.5523    250.2832   1.1447664018e+02  -2.1938886814e+00    0.2594626    0.1671728  38.09 0.0006228208    1.381    0.276
        12 -11.0292    142.7586    249.2921   1.1844863116e+02   1.1998874022e+00    0.4024189    0.2232914  58.68  0.001788563    2.405    0.584
        13 -11.9450    118.7544    236.9014   1.2179485692e+02   7.5923756691e+00     0.896503    0.5551533 -27.43  0.003881553    2.820    0.645
        14 -12.2020    135.0825    234.9311   1.1796960014e+02   5.2687209969e+00     1.978764    0.5607011 -57.28  0.006189572    4.576    0.781
        15 -10.2137    115.9241    250.2898   1.2419277810e+02   5.3571102023e+00    0.5953317    0.1937383  38.93  0.002300641    2.684    0.627
        16 -12.9672    124.3851    245.2788   1.2175137982e+02   4.9754810090e+00    0.9899258    0.8233836  52.69  0.004440311    1.095    0.087
        17 -11.7548    100.2347    247.7611   1.2713824397e+02   8.3404868451e+00     1.039526    0.4597994  38.15  0.004681143    2.064    0.516
        18 -12.3692    102.6098    238.6349   1.2549980111e+02   9.8491167857e+00    0.8517398    0.6019595 -88.21 0.0009783548    1.620    0.383
        19 -10.7092     97.1302    239.3200   1.2675382565e+02   1.0570172982e+01    0.3945261    0.2374514  71.79  0.001790551    2.056    0.514
        20 -10.4829     84.3590    229.9935   1.2833630938e+02   1.4558049027e+01     0.309799    0.2273451 -51.80  0.001712445    1.559    0.359
        21 -11.2049     86.7452    247.9484   1.2993971902e+02   1.0368692794e+01    0.4848519    0.4023733  85.40 0.0009394697    1.158    0.136
        22 -10.0427     81.4938    247.9590   1.3101134874e+02   1.1149440608e+01    0.4878168    0.2213722 -63.27   0.00230451    2.296    0.565
        23 -10.7713     91.2899    241.6150   1.2826629910e+02   1.0993466525e+01    0.5096526    0.2819165  30.91   0.00242948    2.036    0.509
        24 -12.3498     87.6028    236.9712   1.2848841905e+02   1.2544099191e+01    0.8059881    0.6408546  28.87  0.004241393    1.461    0.315
        25 -11.1793     60.0407    245.9155   1.3510722143e+02   1.4629991929e+01     0.494946    0.3319211  46.28  0.002054794    1.360    0.264
        26 -10.7749     68.0110    245.1279   1.3344006829e+02   1.3688843904e+01    0.3728982    0.2417426  63.42  0.001258348    1.401    0.286
        27 -12.3029     11.3522    206.1834   1.4139833782e+02   2.9244455126e+01     2.019739    0.8543804  15.15  0.007382468    5.831    0.828
        28 -13.1263     40.4349    244.1755   1.3876879886e+02   1.7558069395e+01     1.289509    0.9443966  73.23  0.004610481    1.106    0.096
        29 -13.8898      7.1273    244.1933   1.4489321887e+02   2.1352002836e+01     1.855339     1.046043 -79.80   0.01166669    1.498    0.332
        30 -11.8518     21.8210    219.7891   1.4039300405e+02   2.5069829706e+01    0.2946523    0.2346128  64.93 0.0004712084    1.161    0.139
        31 -12.7340     24.1943    225.2609   1.4036933312e+02   2.3584570722e+01    0.3830581    0.3499022 -39.31 0.0007930121    1.600    0.375
        32 -14.2150     30.3403    218.6792   1.3857050946e+02   2.4372703588e+01     1.580931     1.363557  16.00   0.01036088    1.670    0.401
        33 -13.0112      6.7347    214.9894   1.4300653047e+02   2.7690716959e+01     2.338984     1.355134   7.28   0.01137924    3.750    0.733
        34 -12.8601     26.2852    247.2417   1.4165595966e+02   1.8617191239e+01     1.095558    0.8376585 -71.84  0.007529037    1.398    0.285
        35 -10.9235    129.8220    235.0700   1.1913239744e+02   6.1260030783e+00    0.3157084    0.2023323 -55.31  0.001597654    1.695    0.410
        36  -9.3003     54.6093    235.3032   1.3517115523e+02   1.7638223664e+01     0.216432    0.1265025  69.63  0.001127087    1.691    0.409
        37  -9.8596    156.6390    233.1378   1.1302979896e+02   1.9707813479e+00    0.2586451     0.132525 -59.58  0.001083748    2.573    0.611
        38 -11.1252    105.2339    228.6808   1.2360387751e+02   1.1555681055e+01    0.3554114    0.2989131  13.91  0.001998525    1.500    0.333
        39 -11.0694    110.0498    232.9459   1.2313572551e+02   9.8519804470e+00    0.4672523    0.2731802 -85.54  0.001993108    2.604    0.616
        40 -10.8709    113.3832    231.2374   1.2216853823e+02   9.6682733003e+00    0.3100916     0.292837 -89.48  0.001089289    1.096    0.088
        41  -8.5277     56.4863    250.5237   1.3623055967e+02   1.4151781758e+01    0.1245696    0.1011615  70.64 1.366874e-05    1.025    0.025
        42 -10.3395    249.6776    229.1618   9.3878504933e+01  -1.1661930250e+01    0.2441828   0.09976859 -45.04  0.001100554    2.649    0.623
        43  -9.7460     56.8261    228.5676   1.3403602951e+02   1.8830665399e+01    0.2762093    0.1647056 -74.97 0.0003508527    1.592    0.372
        44  -8.2176     53.3171    230.2792   1.3493900868e+02   1.8917396026e+01    0.1129739    0.1002117 -38.96 0.0006985029    1.575    0.365
        45 -10.7497     79.3976    225.7455   1.2889308695e+02   1.6253479959e+01     0.426057    0.2704771 -72.89  0.001635752    1.585    0.369
        46  -9.4751     77.1427    220.8090   1.2877961784e+02   1.7709705277e+01    0.2449148    0.1722607  89.20 0.0003807928    1.450    0.310
        47 -10.6242    136.1514    224.8655   1.1617731739e+02   7.1631528452e+00    0.4200202    0.1934697 -50.97  0.001167092    2.293    0.564
        48  -9.1191     92.5055    226.4604   1.2611025655e+02   1.4081786999e+01    0.1397557    0.1199903  68.58  0.000118732    1.049    0.047
        49  -9.9611    117.4581    224.3632   1.2026920141e+02   1.0469204407e+01    0.2563253    0.2369135 -31.91 0.0007657611    1.261    0.207
        50  -9.3370     65.4147    223.7593   1.3169141729e+02   1.8733101195e+01     0.430887    0.1622747 -50.36  0.001643028    3.327    0.699
        51  -8.4069     51.5817    225.7051   1.3483866312e+02   2.0170207434e+01    0.1215214   0.09948842 -29.68 0.0006580141    1.862    0.463
        52  -9.2426     53.7580    240.9746   1.3588581666e+02   1.6524497233e+01    0.1755619    0.1403288  85.71 0.0005362266    1.097    0.088
        53  -8.4789    164.3714    224.1396   1.0986151185e+02   2.4133452217e+00    0.1803418    0.1332996 -61.88 0.0004314893    1.629    0.386
        54 -10.8810     98.7570    222.9039   1.2424428519e+02   1.3880631990e+01     0.342842    0.2707149  63.39  0.001146751    1.205    0.170
        55  -9.6857     87.3664    223.3716   1.2684240609e+02   1.5575342615e+01    0.2487058    0.1943373  69.84 0.0006891649    1.215    0.177
        56 -10.2453     70.5030    218.9846   1.3002301155e+02   1.9101462519e+01    0.4305531    0.3101246 -80.26   0.00214248    1.326    0.246
        57 -10.5059    142.0835    219.8464   1.1403999331e+02   7.1880734810e+00    0.4289868    0.3510108 -83.68  0.001985337    1.462    0.316
        58  -9.5618     90.3433    219.4967   1.2566522943e+02   1.5990313406e+01    0.3016034    0.1649575  64.71  0.001128288    2.271    0.560
        59  -9.4332    246.3235    219.3216   9.2694685083e+01  -9.6668501412e+00    0.1312699   0.08480787  -8.58 0.0004734266    1.678    0.404
        60  -8.5020     99.2968    218.3151   1.2347968215e+02   1.4828506662e+01    0.1328542    0.1114817 -22.34 0.0002733066    1.605    0.377
        61  -9.8486    117.6048    215.3461   1.1885914793e+02   1.2437766322e+01    0.3204919    0.2666665   5.15  0.001112079    1.544    0.352
        62  -9.2757    111.8058    215.1785   1.2016242729e+02   1.3464403160e+01    0.2083541    0.1808586  69.56 0.0003555421    1.120    0.107
        63  -9.5279     87.7680    212.5515   1.2529949417e+02   1.7997689703e+01    0.3395464    0.2147565  77.90  0.001081838    1.930    0.482
        64 -10.4980     56.3270    209.2593   1.3201946009e+02   2.3347271939e+01    0.7218744    0.3794697  84.96   0.00264883    2.399    0.583
        65 -10.1136     63.1016    208.7529   1.3043302225e+02   2.2545054344e+01    0.3578576    0.3351998 -29.84  0.001534341    1.397    0.284
        66  -9.9743     63.8327    205.1665   1.2982002142e+02   2.3298679229e+01    0.3711022    0.1834592 -66.37  0.001319845    1.894    0.472
        67  -8.8349    112.4349    208.4621   1.1896814563e+02   1.4893183734e+01    0.1448233    0.1337799  72.57 8.617804e-05    1.024    0.024
        68  -8.4525     74.4342    208.4547   1.2780777590e+02   2.0992686226e+01    0.1392417    0.1224937  82.42 0.0002499628    1.005    0.005
        69 -10.8852    109.7395    247.6423   1.2514417878e+02   6.8673599445e+00    0.5622737     0.354879 -80.40  0.002835018    2.027    0.507
        70 -11.1117    198.5657    245.8352   1.0643970537e+02  -7.0821085728e+00    0.2641398    0.2342485   3.98  0.001334588    1.054    0.051
        71 -10.7987    106.8666    203.5945   1.1950087899e+02   1.6980158884e+01    0.2721333    0.2288604 -74.42 0.0003544781    1.188    0.158
        72 -10.8110      2.4476    192.9009   1.4216644747e+02   3.3132132506e+01    0.5060964     0.275482  67.42  0.002789524    1.790    0.441
        73 -10.5413      3.3003    186.7451   1.4146722808e+02   3.4498724547e+01    0.3587667    0.2883112 -79.02  0.001906663    1.108    0.098
        74  -9.0953      1.4968    182.5197   1.4149495893e+02   3.5641728995e+01    0.2393075    0.0923481 -70.78 0.0006448809    1.993    0.498
        75 -10.2827      3.6839    179.0779   1.4070169079e+02   3.6276888357e+01    0.3017494    0.2177806   9.11  0.001839082    2.035    0.509
        76  -9.5729      2.6995    201.3634   1.4278663053e+02   3.1155294650e+01    0.3007327    0.1037237 -72.25  0.001383909    2.269    0.559
        77 -10.0404      3.4445    198.0089   1.4237011560e+02   3.1861407560e+01    0.2720912    0.1940724  65.69 0.0007601776    1.289    0.224
        78 -10.0933     74.9423    200.1044   1.2655575697e+02   2.2921249451e+01    0.2225414    0.1865441 -77.91 0.0003223148    1.107    0.096
        79  -9.1002    250.4895    200.4888   8.8465185356e+01  -7.1324872401e+00    0.1306271    0.1058746 -20.17 9.715071e-05    1.048    0.046
        80 -11.7187     54.1965    193.7291   1.3061473243e+02   2.7371148926e+01    0.5037335    0.3567339 -54.64  0.001137987    1.454    0.312
        81  -9.2534     83.7708    201.5676   1.2467229958e+02   2.1227729475e+01    0.2206189    0.1722453  85.42 0.0002686666    1.283    0.221
        82  -9.4989    249.5907    194.0776   8.7402066057e+01  -5.9058760450e+00     0.255965    0.1665357  13.12  0.001348994    1.930    0.482
        83  -9.5617     33.9516    192.3987   1.3517253892e+02   3.0147277209e+01    0.3309152    0.2087605  79.34 0.0008597989    1.577    0.366
        84  -9.2763     30.5443    193.4363   1.3606114588e+02   3.0273459927e+01    0.1812646    0.1030524 -63.60 -3.357255e-05    1.560    0.359
        85  -9.2403     25.9734    192.7060   1.3701626515e+02   3.0938557005e+01    0.2287961    0.1908916  54.71  0.001279139    1.266    0.210
        86  -9.3272     21.6459    192.7150   1.3798509856e+02   3.1382843338e+01    0.3185776    0.1774476  77.64  0.001046326    1.843    0.457
        87  -9.2135    191.7117    191.4795   9.7905257957e+01   4.1543815506e+00     0.253389    0.1857019 -42.94 0.0005874068    1.322    0.244
        88  -8.4942     14.9649    189.9953   1.3920420776e+02   3.2686282858e+01     0.152718    0.1194743 -86.36 0.0003862532    1.014    0.014
        89  -8.5835     40.3763    189.1429   1.3330853995e+02   3.0204045088e+01    0.2057724    0.1122244 -81.55 0.0009654292    1.788    0.441
        90  -8.9998     76.5303    187.5031   1.2433225738e+02   2.5777050556e+01    0.3223988    0.1377109 -65.84  0.001228866    2.352    0.575
        91 -11.5093     60.5963    185.7568   1.2800559163e+02   2.8488088747e+01    0.2977915    0.2438287 -52.73 0.0005268808    1.294    0.227
        92 -10.1910      9.6763    186.9160   1.4008604536e+02   3.3904862118e+01    0.3606234    0.1906471  83.51  0.001842841    1.856    0.461
        93  -9.9788     71.0713    187.0993   1.2562034472e+02   2.6683666830e+01    0.2978506    0.1871977  41.76 0.0003846768    1.618    0.382
        94  -9.3547    106.9867    185.5853   1.1643756636e+02   2.1289709119e+01     0.213278    0.1946305 -73.06 0.0003372185    1.060    0.057
        95  -8.4910     83.3223    186.7231   1.2252574922e+02   2.4930497079e+01    0.1496355    0.1052865  70.42   0.00069866    1.581    0.368
        96  -9.0101     24.5093    183.9342   1.3642671755e+02   3.3206714119e+01    0.1891742    0.1667423  68.67 0.0009338672    1.180    0.153
        97  -9.9456     37.0594    180.5138   1.3305652536e+02   3.2704868728e+01    0.3452225    0.1713097 -59.52  0.000598925    1.774    0.436
        98  -9.4686     27.0666    179.7286   1.3535964140e+02   3.3970361091e+01    0.2382267    0.1571694 -68.94 0.0001994233    1.279    0.218
        99  -8.6162     12.4890    178.4761   1.3864009389e+02   3.5669295988e+01    0.1279894    0.1019839 -80.00 8.296314e-05    1.037    0.036
       100 -10.6442     71.9893    173.6358   1.2329554587e+02   2.9923375492e+01    0.2667572    0.2533472 -64.20 0.0004094212    1.116    0.104
       101  -9.6766     18.5916    172.7536   1.3659941892e+02   3.6500079309e+01    0.3868592    0.2010752  81.38  0.001794913    2.213    0.548
       102 -11.8379    248.3889    171.8990   8.3298694674e+01  -1.7893459313e+00    0.6857831    0.3713933 -40.34  0.003403956    1.568    0.362
       103 -11.3163    245.1286    162.5161   8.1973150984e+01   4.5516001927e-01    0.4368021    0.2101123 -40.86  0.001996444    1.778    0.438
       104 -10.6015    249.1642    160.9298   8.0999946251e+01   8.6064727331e-02    0.3267761    0.2598163 -66.08  0.001501667    1.511    0.338
       105 -11.0228    246.8064    156.9810   8.0591069925e+01   1.2004576371e+00    0.6754615    0.3462911  63.24  0.002604794    3.868    0.741
       106 -10.2679     57.1958    173.4653   1.2707881256e+02   3.2017214057e+01    0.3311349    0.2287189  48.43  0.001165763    1.509    0.337
       107  -9.6227     12.5005    172.8686   1.3806226827e+02   3.7019536973e+01    0.3044905    0.1597638 -59.55  0.001597368    1.652    0.395
       108 -10.7112      2.5645    172.3774   1.4033142189e+02   3.7958779832e+01    0.4151303    0.2148701  87.94  0.002127186    1.852    0.460
       109 -12.0714     10.2058    157.3633   1.3691791097e+02   4.0964097931e+01     0.775457    0.3080355 -80.73  0.003236204    2.561    0.610
       110 -10.2429      4.8053    167.3553   1.3931565223e+02   3.8982909913e+01     0.265577    0.2062837  34.69  0.001226021    1.558    0.358
       111 -11.1967     12.3064    167.0877   1.3749056423e+02   3.8434863424e+01     0.450566    0.2572102  22.63  0.002087965    2.248    0.555
       112 -10.7572      8.9778    165.5268   1.3812702932e+02   3.9089269913e+01    0.3415102    0.1970694 -44.87    0.0015532    1.953    0.488
       113 -10.0674     27.5454    171.5804   1.3428641255e+02   3.5921796024e+01    0.3390589    0.2004805 -43.07 0.0005066401    2.003    0.501
       114  -9.2765     51.8020    171.0605   1.2810626326e+02   3.3313248000e+01    0.2200736    0.1971697  49.27 0.0005567342    1.219    0.180
       115  -8.6660     43.1782    161.3657   1.2892420753e+02   3.6782830951e+01     0.192591    0.1474762  79.47 0.0003349657    1.351    0.260
       116 -10.2900     44.4527    165.3260   1.2917018424e+02   3.5642346169e+01    0.4590313    0.2256065 -43.51  0.001942195    2.405    0.584
       117  -9.9128     38.9452    167.8508   1.3094574406e+02   3.5638376087e+01    0.2034992     0.170964 -82.22 0.0005701838    1.040    0.039
       118 -11.4246     80.0590    165.6829   1.1982037077e+02   3.0720421110e+01    0.5620068    0.4461097  21.54  0.001863516    1.509    0.337
       119 -10.0639     68.1611    166.2783   1.2308302075e+02   3.2334651924e+01    0.2537618    0.2176422  88.63 0.0003816027    1.139    0.122
       120  -9.8767     66.9502    161.4810   1.2259296013e+02   3.3720253286e+01    0.2659026    0.1925907 -58.78 0.0003327487    1.258    0.205
       121  -9.6310     24.0267    161.9889   1.3397947743e+02   3.8629209690e+01    0.1968032    0.1631146 -74.80 0.0003916448    1.019    0.019
       122  -9.5217     28.8751    161.0229   1.3261158625e+02   3.8397442861e+01    0.1972074    0.1625039 -72.41 0.0003655262    1.025    0.025
       123  -9.6503     81.8692    158.2353   1.1796572577e+02   3.2321385201e+01    0.4036302    0.2129161 -65.95  0.001060495    1.976    0.494
       124  -9.1558     46.3146    156.0722   1.2727875116e+02   3.7747754820e+01    0.1967459     0.155905 -67.61 0.0003211529    1.096    0.088
       125 -10.2653     26.9221    155.1830   1.3233511026e+02   4.0032728928e+01    0.3713605    0.1691373  49.41  0.001635604    2.595    0.615
       126  -8.3942    228.2675    155.3200   8.3365318770e+01   4.7340529067e+00    0.1381002    0.1042798 -17.04 0.0002748617    1.560    0.359
       127  -9.1585     32.5160    153.9102   1.3066975499e+02   3.9796150323e+01    0.2097439    0.1140829 -66.19 0.0006698046    1.543    0.352
       128 -11.6105     21.8967    149.6472   1.3291404108e+02   4.1860260677e+01    0.4789934    0.3024722  48.02  0.002610491    1.794    0.443
       129 -12.5699    248.5140    133.4553   7.5586084092e+01   5.2522347318e+00      1.34635    0.4744821 -39.54  0.005190965    2.576    0.612
       130 -11.5770    248.1408    112.7373   7.1452791419e+01   9.0790524961e+00    0.4661885    0.4326318  40.40  0.002996176    1.370    0.270
       131 -10.7571    240.9999    150.3685   8.0194448641e+01   3.4215851656e+00    0.2939799    0.2350876 -11.32  0.001645343    1.499    0.333
       132  -9.9787     94.0662    150.1790   1.1302628466e+02   3.2348555096e+01    0.3171929    0.2901295  59.98 0.0008934141    1.137    0.121
       133  -9.0762     86.9222    151.0984   1.1518649476e+02   3.3310550987e+01    0.2215047    0.1923038  89.48            0    1.211    0.174
       134  -9.5109     82.2224    148.9963   1.1607106607e+02   3.4592659870e+01     0.232275     0.216553  54.51 0.0004944699    1.132    0.116
       135 -11.6399     68.2140    144.1721   1.1907743225e+02   3.7905539723e+01    0.7378801    0.5097588  84.39  0.002890782    1.899    0.473
       136 -10.2557     59.4770    146.7161   1.2204243174e+02   3.8463017215e+01    0.4142024    0.2148799 -32.11  0.001547663    3.000    0.667
       137 -12.7640    247.7670    101.7422   6.9287730560e+01   1.1090343218e+01     1.007247    0.5968915 -35.25  0.005083728    1.780    0.438
       138 -12.0107      3.4884    144.3754   1.3711798823e+02   4.4589847623e+01    0.5574651    0.3467153  74.62  0.003098922    1.803    0.445
       139 -12.1503      9.4236    142.7258   1.3533886579e+02   4.4560572960e+01    0.5452715    0.1836749 -65.08  0.002358161    2.206    0.547
       140 -11.8141      5.8207    141.8318   1.3618997179e+02   4.5035662995e+01    0.3489711    0.2789041 -75.19  0.001117754    1.048    0.046
       141  -9.3020    235.8832    145.8774   8.0110412572e+01   5.1771030093e+00    0.2075756    0.1763248 -21.97 0.0004477889    1.260    0.206
       142  -8.7074     97.5002    146.4288   1.1128748915e+02   3.2688434767e+01    0.1520211    0.1451692 -53.48 6.323394e-05    1.037    0.036
       143  -9.8761    133.1684    141.0200   1.0053528757e+02   2.7175528036e+01    0.3426808    0.2459219 -59.39 0.0008477411    1.449    0.310
       144 -11.0484     16.6606    140.1526   1.3302203789e+02   4.4620515281e+01    0.2708884    0.2348107  79.74 0.0003757894    1.223    0.182
       145  -9.8755    249.8196    117.7877   7.2237675973e+01   7.8671126476e+00    0.2857935    0.2054837 -41.94 0.0005088832    1.236    0.191
       146  -9.4427    107.5397    135.6413   1.0609583150e+02   3.3510651237e+01    0.3979327    0.2330911 -24.43  0.001389101    2.915    0.657
       147  -9.0673     94.0525    133.1398   1.0931153876e+02   3.6551099100e+01    0.2219744    0.1950377 -21.16 0.0002970849    1.250    0.200
       148 -13.1281      3.4021    124.6770   1.3458408151e+02   4.9261416982e+01     1.163669    0.3033741 -61.51  0.004783509    2.551    0.608
       149  -9.9156     44.2225    129.9248   1.2337251383e+02   4.4475060217e+01    0.2068264    0.1739426 -80.17 0.0005607999    1.218    0.179
       150  -9.0904     52.7079    146.3037   1.2388377033e+02   3.9429307567e+01    0.1811498    0.1235899  28.27 0.0002298238    1.685    0.407
       151 -10.3115     33.1111    127.3631   1.2623904350e+02   4.6256371482e+01    0.3311899    0.1873469  80.48  0.001353236    3.018    0.669
       152 -11.0069    243.6127    120.9156   7.3758858160e+01   8.4373141918e+00    0.4298654    0.1881387 -54.68  0.001733338    2.452    0.592
       153 -10.2295    238.8528    121.5001   7.4584514479e+01   9.2185939554e+00    0.2801549    0.1716799 -28.90  0.001310885    1.982    0.495
       154 -11.4357     12.9790    126.9587   1.3214066718e+02   4.8070401517e+01    0.2983941     0.160714 -71.98  0.001246924    1.632    0.387
       155 -10.4453    232.0299    116.5318   7.4578989630e+01   1.1449552627e+01    0.2721063    0.1712703 -56.44 0.0006592005    1.522    0.343
       156 -12.4597     14.8073    100.7191   1.2706780694e+02   5.3999922751e+01    0.4626879    0.3113302 -42.00  0.001600929    1.280    0.219
       157 -11.5363     16.3966    122.1614   1.3037536013e+02   4.8949349136e+01    0.3951944    0.2210186  60.42  0.001880323    2.606    0.616
       158  -8.6280     59.9913    108.0038   1.1375200961e+02   4.7741417611e+01    0.1698168    0.1476938 -43.66 0.0003497667    1.034    0.033
       159  -9.4432    168.0623    113.1429   8.5465500337e+01   2.5795549280e+01    0.3414105    0.2300455 -89.76  0.001368652    2.276    0.561
       160 -11.1711      2.3266    103.3426   1.3161894916e+02   5.4215787725e+01    0.3613828   0.08023295 -63.76   0.00135533    3.184    0.686
       161  -8.5219     71.7182    100.2806   1.0802705201e+02   4.7798167562e+01    0.1303657     0.112259  83.71 0.0002148333    1.512    0.339
       162 -12.6644      8.9455    112.7848   1.3111000550e+02   5.1666096782e+01    0.5609378    0.2820933 -59.49   0.00144706    1.526    0.345
       163 -10.6687    249.5923    150.9272   7.8936001849e+01   1.8519483582e+00    0.4773766    0.2315768 -43.39  0.002218173    1.733    0.423
       164 -11.7032    247.8834    142.5066   7.7509039632e+01   3.6947154651e+00    0.5372716    0.4789202 -26.02   0.00335046    1.181    0.153
       165 -11.6683      2.4846     78.0495   1.2673825475e+02   5.9645025434e+01    0.5490924    0.1151061 -59.98  0.002091127    3.447    0.710
       166  -9.2041    160.7630     79.0316   7.8291308883e+01   3.3987776069e+01    0.1934097    0.1209116 -41.45 0.0004703378    1.629    0.386
       167  -8.4103    184.6888     77.6474   7.3460481217e+01   2.8686259112e+01    0.1390133    0.1146527  16.59 0.0007044773    1.725    0.420
       168 -11.6899      2.0067     61.3188   1.2301328937e+02   6.2981483743e+01    0.5884143    0.1303701 -59.41  0.002169288    4.163    0.760
       169 -12.0139    151.1731    246.8427   1.1632618382e+02   2.7883024612e-01    0.5082495    0.4789785 -87.10   0.00325456    1.224    0.183
       170 -10.7369     74.1132    244.0795   1.3209644758e+02   1.3037582218e+01    0.4141525    0.2619505 -58.59  0.001913015    1.723    0.420
       171 -12.1826    179.1896    243.2606   1.0993564326e+02  -3.6259728492e+00    0.6097882    0.2748755  35.37  0.002728171    2.043    0.510
