#   1 NUMBER                 Running object number                                     
#   2 MAG_AUTO               Kron-like elliptical aperture magnitude                    [mag]
#   3 X_IMAGE                Object position along x                                    [pixel]
#   4 Y_IMAGE                Object position along y                                    [pixel]
#   5 X_WORLD                Barycenter position along world x axis                     [deg]
#   6 Y_WORLD                Barycenter position along world y axis                     [deg]
#   7 A_WORLD                Profile RMS along major axis (world units)                 [deg]
#   8 B_WORLD                Profile RMS along minor axis (world units)                 [deg]
#   9 THETA_WORLD            Position angle (CCW/world-x)                               [deg]
#  10 FWHM_WORLD             FWHM assuming a gaussian core                              [deg]
#  11 ELONGATION             A_IMAGE/B_IMAGE                                           
#  12 ELLIPTICITY            1 - B_IMAGE/A_IMAGE                                       
         1 -13.4153    223.6254      3.5279   3.4739402851e+02   2.9990695290e+01    0.9724807    0.4188859  87.85  0.005235858    2.347    0.574
         2 -14.4288    246.8417      6.6561   3.4708253127e+02   2.5378548746e+01     1.783584    0.9337588 -39.59   0.01158216    1.429    0.300
         3 -12.6115    240.9643     17.9897   3.4964361595e+02   2.5255025022e+01    0.3203298    0.2097445 -54.08  0.001227005    1.137    0.120
         4 -11.2118      9.2487     27.4849   5.4195331676e+01   7.4133319254e+01    0.3880076    0.1658739 -43.83   0.00174887    2.101    0.524
         5 -12.0106      8.9721     15.8922   4.8727808322e+01   7.6556356001e+01    0.5616394    0.2705151  -8.50  0.002248762    3.250    0.692
         6 -11.3444      3.4140     10.3233   5.1013607654e+01   7.8147242480e+01    0.3680745    0.2071232 -10.33  0.001893435    1.949    0.487
         7 -11.9749      8.8661      7.6329   4.3642608046e+01   7.8120073899e+01    0.3296926    0.2087661 -25.79  0.001854514    1.565    0.361
         8 -10.6812     23.1000     13.6941   3.5167972995e+01   7.5207926359e+01    0.3390985    0.1953287  -2.84  0.001446662    2.852    0.649
         9 -10.8518      2.1788      3.7449   4.8111584012e+01   7.9498492084e+01    0.3240369    0.1995655 -48.03  0.001886341    1.576    0.365
        10 -10.2742     27.5135      3.4424   2.4405027268e+01   7.6019372582e+01    0.2903083    0.1648224   0.02  0.001263861    2.872    0.652
        11  -9.0068    109.3270      2.6962   3.5640614755e+02   5.6849987771e+01    0.1423945   0.09087161 -66.23 0.0003913882    1.646    0.392
        12 -10.9696    211.5148      8.0604   3.4899910080e+02   3.1958638428e+01     0.175566   0.09812373 -35.60 0.0007937195    1.556    0.357
        13 -12.2372    125.1501    240.0286   5.2741445977e+01   8.7532734010e+00    0.4677764    0.1993865  42.23  0.002212062    2.373    0.579
        14 -12.4898    201.7354    249.0747   3.8966549201e+01  -1.1845845853e+00     1.180583    0.4522895  12.45  0.004967428    3.999    0.750
        15 -13.9054    222.8084    242.7831   3.4559358193e+01  -2.5006507676e+00     1.278114    0.7155672  -3.95  0.008528526    1.599    0.375
        16 -12.8290    248.9986    244.0652   3.0689053324e+01  -5.0124741845e+00     1.099901     0.237291 -35.96  0.005141948    4.055    0.753
        17 -12.4211    242.9491    245.8784   3.1844666323e+01  -4.6868121599e+00    0.6191213    0.2792792 -18.88  0.003748164    1.998    0.499
        18 -11.3271    184.7240    250.1015   4.2131594202e+01   4.4207898515e-01    0.4121639    0.1346255  25.88  0.001981368    2.644    0.622
        19 -11.9081    192.6397    245.0710   4.0027627488e+01   2.5390701297e-01    0.5238233    0.2543605   2.11    0.0026722    2.631    0.620
        20 -10.9259    110.9817    249.9781   5.6864456538e+01   8.8211036581e+00    0.2537988     0.161745  27.17  0.001364162    1.227    0.185
        21 -12.2886    125.2316    249.7820   5.3819331226e+01   7.1855232128e+00    0.8504642    0.1846551  28.73  0.003082202    3.703    0.730
        22 -12.1485    116.4164    244.6045   5.5134626116e+01   9.0549538985e+00    0.4359142    0.2894643  56.08  0.002549992    1.983    0.496
        23 -12.9145    109.1582    241.8662   5.6424065683e+01   1.0380623757e+01    0.6447161    0.3710964  55.72  0.003360499    2.355    0.575
        24 -12.7734     99.2647    246.1805   5.9032973809e+01   1.0824033572e+01     0.798745    0.3990879  49.80  0.004069085    2.246    0.555
        25 -11.5598     83.6716    246.8579   6.2540149852e+01   1.2516379818e+01    0.4071213    0.2539415  28.46  0.001840735    1.273    0.214
        26 -11.7135     76.5901    248.2148   6.4223152747e+01   1.3081161013e+01    0.4970271    0.2477537  43.59  0.002715803    1.691    0.409
        27 -11.8785     72.7582    241.1882   6.4522192499e+01   1.4777483897e+01    0.4487564    0.2802269  60.02  0.002510621    1.759    0.431
        28 -11.2309     54.1533    240.6638   6.8719608491e+01   1.6927531110e+01    0.4646286    0.2565385  66.95  0.002528277    2.066    0.516
        29 -11.5445     65.1584    249.2281   6.6832882468e+01   1.4166001111e+01    0.5167719    0.1976596  34.34  0.002162521    1.882    0.469
        30 -10.5198     58.4798    247.7824   6.8216081909e+01   1.5146887397e+01    0.3819715    0.1535791  51.00  0.001742395    2.362    0.577
        31 -10.8172     50.9427    249.9822   7.0021695524e+01   1.5542668314e+01     0.442856    0.1570558  29.96  0.002129656    2.086    0.521
        32 -10.7553     45.7084    245.0437   7.0894318039e+01   1.6990329752e+01    0.4098378    0.2258777  49.61  0.001817616    1.520    0.342
        33 -10.9459     35.6329    248.5809   7.3309436280e+01   1.7344306169e+01    0.4620344      0.14498  46.41  0.002175009    2.359    0.576
        34  -9.4753     27.5294    250.4975   7.5156379294e+01   1.7769712993e+01    0.2121652   0.06450827  36.33  0.001019705    2.119    0.528
        35 -11.0220     21.2015    248.7678   7.6453284354e+01   1.8676431554e+01    0.3945517    0.1625541  42.48  0.002169732    1.701    0.412
        36  -9.8803     10.5349    248.8480   7.8736511116e+01   1.9610208927e+01     0.320715    0.0699486  54.00  0.001337849    3.337    0.700
        37 -10.5099     45.3748    237.1176   7.0504214885e+01   1.8531282797e+01     0.368045    0.2069254  61.64  0.002062246    1.778    0.438
        38 -11.1569    151.9286    249.7023   4.8344014239e+01   4.1078050644e+00    0.3496704    0.1739266  26.14  0.001912317    1.606    0.377
        39 -12.1643     83.3557    239.7353   6.1990646208e+01   1.3822412858e+01    0.5403739    0.2636553  44.72  0.002793297    1.834    0.455
        40 -11.3700     32.3259    232.5651   7.3262010734e+01   2.0743840775e+01    0.4640473    0.2461175  64.54  0.002541231    1.853    0.460
        41  -9.7438      1.3928    234.2796   8.0329095435e+01   2.3169494649e+01    0.1898373    0.1011837 -83.41  0.001113035    1.998    0.499
        42 -12.5959    234.2361    244.3935   3.2970642007e+01  -3.7495297617e+00     0.746084    0.3441887 -19.66  0.004645213    1.987    0.497
        43 -11.2107     63.3028    230.9037   6.5894567665e+01   1.7799963872e+01    0.4838857    0.2060608  64.30  0.001922868    3.610    0.723
        44 -10.3180     40.3553    230.5397   7.1278395338e+01   2.0345718890e+01    0.3546925    0.1819396  88.44  0.001835493    2.312    0.567
        45 -11.3508     21.6821    229.3833   7.5578770786e+01   2.2396132654e+01    0.5119548    0.2733256  47.88  0.002924634    1.463    0.316
        46 -10.1282     48.0114    229.6661   6.9419448696e+01   1.9722645282e+01    0.2384576    0.1410635  58.40  0.001329955    1.621    0.383
        47 -11.1093      5.8509    227.5645   7.9152519930e+01   2.4152490342e+01    0.4480207     0.222227  80.16  0.002476404    1.984    0.496
        48 -11.2635      2.4116    220.7239   7.9750360892e+01   2.5846465262e+01    0.4233977    0.2047421  83.58  0.001866655    2.028    0.507
        49 -11.6723     90.1344    247.7763   6.1190460321e+01   1.1614246908e+01     0.404154    0.2822518  56.41  0.002244599    1.588    0.370
        50 -10.6075     12.1267    226.6691   7.7684255308e+01   2.3804059236e+01    0.3543814    0.1324475  53.01  0.001542706    2.121    0.528
        51 -10.3861      6.8037    234.9945   7.9151771347e+01   2.2582024843e+01    0.2668483    0.1536568  60.51  0.001061613    1.444    0.308
        52 -13.8196    234.0745    232.4096   3.1276686155e+01  -2.3593298234e+00     2.535761    0.9047389 -18.72  0.009545123    5.429    0.816
        53 -11.8450     15.2148    218.8358   7.6665296865e+01   2.5169350180e+01    0.8554395     0.179626  47.53  0.003305937    3.165    0.684
        54  -9.9775     44.0326    220.9981   6.9800513198e+01   2.1918445031e+01    0.2227239    0.1163266  53.06  0.001140176    1.729    0.422
        55  -9.3084     33.6491    224.3192   7.2512499941e+01   2.2289875464e+01    0.1400991   0.06839868  51.51 0.0004456943    1.741    0.426
        56 -10.4826     35.0228    215.3100   7.1655206966e+01   2.4055642546e+01    0.4004966   0.07910944  42.44  0.001443184    3.257    0.693
        57 -10.6912     25.7737    210.6573   7.3696782714e+01   2.5973313302e+01    0.4441448    0.2121711  63.76  0.002153236    2.045    0.511
        58 -12.0252     12.9257    204.7776   7.6650084631e+01   2.8438804134e+01    0.7816709     0.353116  54.47  0.003857326    1.864    0.464
        59 -11.3723      3.1528    212.3353   7.9333779898e+01   2.7574816135e+01    0.4366136    0.2479048  57.08   0.00181048    1.431    0.301
        60 -10.9025      2.4259    206.1238   7.9321736591e+01   2.8994267779e+01    0.3698513    0.2207382  82.30  0.001681784    1.577    0.366
        61 -12.2751      5.6331    195.8882   7.8163037233e+01   3.1061848810e+01    0.6208679    0.4127551  74.42  0.002908786    1.352    0.260
        62 -11.9724      3.6675    188.6024   7.8408780660e+01   3.2916387361e+01    0.4354402    0.2915526  71.80  0.001854123    1.315    0.240
        63 -12.3050    242.0733    237.4328   3.0779000625e+01  -3.6780546241e+00    0.6066701    0.2619765 -20.99   0.00312107    2.141    0.533
        64 -12.6744    247.3546    226.5408   2.8395598831e+01  -2.9228443107e+00    0.9227988    0.2689644 -29.09  0.004452229    3.202    0.688
        65 -11.8149     18.5972    193.8067   7.4655637024e+01   3.0464953138e+01    0.9200673    0.2273362  53.77  0.003110586    3.788    0.736
        66 -10.4704     28.0188    187.1708   7.1688052521e+01   3.1173185928e+01    0.2531337    0.1071633  48.59  0.001094968    2.060    0.515
        67 -10.5719     16.1102    182.0482   7.4698719849e+01   3.3495563453e+01    0.4152004    0.2146385  68.16  0.001977975    1.861    0.463
        68 -12.0063     10.9856    165.5894   7.5263134148e+01   3.8022529609e+01    0.4597189    0.3337664   5.67  0.002516604    1.634    0.388
        69 -13.1717      6.5958    174.5541   7.7014810403e+01   3.6100306897e+01     1.020218     0.493165  87.89  0.004778471    1.981    0.495
        70 -11.1594      2.0114    165.2438   7.7932681437e+01   3.8759358222e+01    0.4435073    0.2975792  68.46  0.002451675    1.312    0.238
        71 -10.7531     31.0875    172.7696   6.9733707014e+01   3.4426842076e+01    0.5001252    0.1774007  88.70  0.001633282    3.862    0.741
        72 -11.2043     19.3788    172.6594   7.3193577115e+01   3.5541638231e+01    0.4975408    0.2820179  86.43  0.002419243    1.739    0.425
        73 -13.2588     10.4737    151.7231   7.4581826644e+01   4.1657848850e+01     1.460416    0.4800942  57.52  0.005131303    3.185    0.686
        74 -13.0600     10.0942    137.8262   7.3747398933e+01   4.5390884330e+01    0.8381921    0.3643963 -70.37  0.003542133    2.074    0.518
        75 -11.7899     20.3590    141.7756   7.0506071573e+01   4.3538495922e+01    0.5911689     0.267756  88.38   0.00232905    2.370    0.578
        76 -12.3372      5.3693    125.3776   7.4524390900e+01   4.9068470284e+01    0.7469306    0.3821268  74.64  0.003279261    1.972    0.493
        77 -11.2500     22.1564    122.2597   6.7835265647e+01   4.8721937052e+01    0.4241053    0.1973121 -85.05  0.001663685    2.247    0.555
        78 -11.7012     10.1727    113.2059   7.1600368742e+01   5.2104299771e+01    0.7117603    0.2918681  87.84  0.002636596    2.668    0.625
        79 -10.5368     21.7589    108.0394   6.6183565863e+01   5.2680084942e+01    0.4465964    0.1777759 -68.47  0.001710196    2.226    0.551
        80 -10.5315    247.9998    102.2476   6.3900196762e+00   1.3483421784e+01    0.1258358    0.1025552  56.83 0.0006508111    1.598    0.374
        81 -11.5590     13.8430     99.3886   6.8453266879e+01   5.5659140148e+01    0.5410341    0.2043945 -76.00  0.002015467    2.473    0.596
        82  -9.9616    229.8817     93.8557   6.6867457678e+00   1.7554638030e+01    0.1709721    0.1235589 -52.13 0.0005338031    1.299    0.230
        83 -11.7816      2.7428     95.3712   7.2989560116e+01   5.7393856738e+01     0.708465    0.2777841 -86.07  0.002711521    2.528    0.604
        84 -10.2576    247.6883     69.3252   3.5977355590e+02   1.7965855898e+01    0.1223018   0.06864668 -54.94 0.0005970048    1.660    0.397
        85  -9.4609    231.4924     58.5331   3.5891502774e+02   2.2159798189e+01    0.1218008   0.09605182 -47.70 7.029918e-05    1.013    0.013
        86 -11.4600      2.9176     51.9116   6.6462616285e+01   6.8798081482e+01    0.5806258    0.1709529 -55.14  0.002252964    2.557    0.609
        87 -10.8684     16.6904     53.4827   5.7907425921e+01   6.7512959211e+01    0.2587522    0.1180068 -64.45  0.001095197    2.082    0.520
        88 -11.7245     12.0387     41.0707   5.7186367230e+01   7.0854479541e+01    0.6079325    0.2310802 -45.20  0.002502016    2.357    0.576
        89 -10.8673      1.4854     39.0392   6.4386942543e+01   7.1996608818e+01    0.3519463    0.1193824 -70.35  0.001380348    2.799    0.643
        90 -11.9353    168.7813    248.7208   4.4931853579e+01   2.3511340337e+00    0.4672883    0.1962306  27.27  0.002513597    1.942    0.485
        91 -12.0797    143.3996    248.3819   4.9901958198e+01   5.2812410015e+00    0.4780261     0.226829  28.75  0.002630228    1.676    0.403
        92 -11.5685      3.9927    242.8356   7.9971983886e+01   2.1295553906e+01    0.5155611    0.2372697  61.97   0.00285575    1.833    0.454
        93 -11.4291    159.0431    245.0583   4.6356810439e+01   3.9623470703e+00    0.4058524    0.1300304  30.84  0.001864719    2.526    0.604
        94 -10.3125      1.8094     29.9797   6.1397133744e+01   7.4085060161e+01    0.2003285    0.1406578  71.53  0.001079271    1.954    0.488
        95  -9.2687    175.4895     18.4700   3.5413527117e+02   3.8772169530e+01    0.1331913    0.1078945 -66.53  0.000151585    1.037    0.036
        96 -11.4770    177.7118    243.0698   4.2498326485e+01   2.1332129746e+00     0.294442    0.1536387   3.08  0.001558333    2.252    0.556
        97 -11.6795    135.1013    243.6200   5.1049882891e+01   6.9821689009e+00    0.3587262    0.1710079  41.57  0.001838849    2.149    0.535
        98 -10.6357     29.3855    242.1292   7.4388753613e+01   1.9160925869e+01    0.4381334    0.1702451  41.84  0.002259785    1.835    0.455
        99 -11.1196     62.6383    241.5602   6.6850985035e+01   1.5839215361e+01    0.4126159    0.2110588  44.20  0.001904623    1.605    0.377
       100 -11.0089    202.6308    240.8857   3.7684652024e+01  -2.5799013324e-01    0.2971675    0.1589771  -7.14  0.001740995    1.983    0.496
       101 -10.6323     38.1021    241.0942   7.2384286681e+01   1.8506419516e+01    0.3456945    0.1644967  51.89   0.00183941    1.793    0.442
       102 -11.2812     16.9809    239.5326   7.7040716558e+01   2.0810252525e+01    0.6351235    0.1760878  41.69  0.002968809    2.292    0.564
