#   1 NUMBER                 Running object number                                     
#   2 MAG_AUTO               Kron-like elliptical aperture magnitude                    [mag]
#   3 X_IMAGE                Object position along x                                    [pixel]
#   4 Y_IMAGE                Object position along y                                    [pixel]
#   5 X_WORLD                Barycenter position along world x axis                     [deg]
#   6 Y_WORLD                Barycenter position along world y axis                     [deg]
#   7 A_WORLD                Profile RMS along major axis (world units)                 [deg]
#   8 B_WORLD                Profile RMS along minor axis (world units)                 [deg]
#   9 THETA_WORLD            Position angle (CCW/world-x)                               [deg]
#  10 FWHM_WORLD             FWHM assuming a gaussian core                              [deg]
#  11 ELONGATION             A_IMAGE/B_IMAGE                                           
#  12 ELLIPTICITY            1 - B_IMAGE/A_IMAGE                                       
         1 -19.1505    214.8523    177.6720   2.0744275493e+01   8.0042643878e+00     5.731035     4.212317 -24.96   0.03849808    1.082    0.076
         2 -11.7471    241.7348     12.7073   3.4520630134e+02   2.7183888246e+01    0.2350478     0.124519 -32.62  0.001511131    1.690    0.408
         3 -12.1052    240.2181      3.5968   3.4349001069e+02   2.8362615654e+01    0.2852319    0.2276143 -11.01  0.002164348    1.884    0.469
         4 -11.2918    248.3583      2.6587   3.4302193702e+02   2.7098523914e+01    0.2482855    0.1205985 -50.95  0.001685669    1.387    0.279
         5 -15.8978    207.6659    231.0073   3.0504306349e+01   9.4619222535e-01     3.212782     1.249505  31.15   0.01737532    2.606    0.616
         6 -10.0310    169.3359    249.4645   3.9917948358e+01   2.1511277533e+00    0.2800548    0.1287784  -0.80  0.001214987    3.475    0.712
         7 -15.6344    168.6467    206.2163   3.3850267895e+01   9.0185697587e+00     2.352771     1.114322  33.61   0.01180975    2.106    0.525
         8 -15.6111    226.2908    206.7838   2.3801201394e+01   2.4513365081e+00     1.391988    0.7139205   7.47  0.007707677    2.466    0.595
         9 -15.4636    182.3410    200.9426   3.0358250810e+01   8.2272090935e+00     1.751883     1.036984  57.69  0.006880426    5.069    0.803
        10 -15.4250    172.3568    170.7780   2.7016727500e+01   1.4831672275e+01      1.36832    0.8261962  41.09  0.007117087    1.872    0.466
        11 -14.8406    187.1335    193.2300   2.8185681907e+01   8.9139048122e+00    0.6680489     0.442387 -51.41  0.003487654    1.831    0.454
        12 -15.6273    241.4016    193.4745   1.9424057345e+01   2.7679647140e+00     1.652248     0.492932 -43.64  0.007355236    3.380    0.704
        13 -10.8264    156.6176    248.2930   4.2212357055e+01   3.6229291433e+00    0.2036033    0.1631917   0.81 0.0004551226    1.043    0.041
        14 -10.2716    119.1139    217.6907   4.6185343123e+01   1.3114711124e+01    0.2019756    0.1827379 -69.83 0.0008517142    1.375    0.273
        15  -9.9038     92.4244    218.2748   5.2561323199e+01   1.6271533293e+01     0.158783     0.128833 -85.16  0.000453887    1.526    0.345
        16 -15.6900    158.4318    152.1255   2.6226791745e+01   2.0551086226e+01     3.025874     1.716364 -24.98   0.01298528    2.290    0.563
        17 -10.9195     98.6742    212.8602   5.0393870241e+01   1.6617814641e+01    0.2564081     0.104846 -50.85  0.001092427    2.546    0.607
        18 -10.6877    176.6211    236.7110   3.6837663140e+01   3.2622813634e+00    0.2626457    0.2160043  57.28  0.001339595    2.217    0.549
        19 -10.4683    170.2640    234.9856   3.7801965321e+01   4.1924642772e+00    0.2811804    0.1968668 -47.16   0.00182123    1.723    0.419
        20 -10.1196     86.0000    207.9570   5.2938653310e+01   1.9224982490e+01    0.2083351   0.07749646 -62.53 0.0008059691    2.967    0.663
        21 -10.6180    125.4065    204.3606   4.2869172109e+01   1.4907458071e+01    0.2160569    0.2027312 -49.76  0.001372897    1.221    0.181
        22 -11.4254    129.5434    201.7979   4.1531811817e+01   1.4866626706e+01    0.3110611     0.231888 -34.83  0.001008441    1.347    0.257
        23 -12.1788     96.9094    203.8451   4.9678955172e+01   1.8736284882e+01    0.3403404    0.2965733 -46.51  0.001719771    1.226    0.184
        24  -9.6756     66.6737    201.6822   5.7229351268e+01   2.2962034678e+01    0.1379734    0.1014067 -23.17 0.0007045518    1.676    0.403
        25 -11.4985    123.5326    199.4796   4.2580717649e+01   1.6133795604e+01    0.3174031     0.227886 -35.74 0.0006181002    1.424    0.298
        26 -10.5262    120.5916    235.6557   4.8122030094e+01   9.6366291914e+00    0.3348421    0.1860104 -20.48 0.0009561516    2.431    0.589
        27 -10.5643    116.0585    193.3304   4.3441044870e+01   1.8424636605e+01    0.3186067     0.189286 -48.44  0.001194681    1.715    0.417
        28 -12.2728    118.2230    187.7165   4.2036180735e+01   1.9315731226e+01    0.4222557    0.2882375  39.00  0.001316556    1.462    0.316
        29 -11.1121    124.3975    192.7820   4.1345685119e+01   1.7385415354e+01    0.2432366    0.1658451 -40.28  0.001273055    1.482    0.325
        30 -11.0209    103.1177    191.1621   4.6347454351e+01   2.0674268822e+01    0.3333946    0.2017807 -52.00  0.001480489    1.702    0.412
        31 -10.4519    114.0752    234.4024   4.9413348019e+01   1.0609566175e+01    0.1951152    0.1829954 -59.34 0.0003715227    1.317    0.241
        32 -10.7008    107.1242    185.2813   4.4434089609e+01   2.1419848208e+01    0.2425126    0.1811909 -40.60 0.0006422964    1.381    0.276
        33 -11.9713     95.2947    183.7505   4.7287105168e+01   2.3427613619e+01    0.4421857    0.2571636 -52.39  0.002054035    1.752    0.429
        34 -11.0823    111.4124    184.2400   4.3179473483e+01   2.1040255223e+01    0.2705042    0.1275681 -50.49  0.001139783    2.121    0.529
        35 -12.4186    121.8701    181.2245   4.0081261759e+01   2.0183653173e+01    0.4521682    0.4050377 -51.75  0.002640875    1.185    0.156
        36 -12.0579    106.4302    175.7963   4.3092932975e+01   2.3660245640e+01    0.5953571    0.2650689 -60.57  0.002079448    2.544    0.607
        37 -11.4762    110.8414    171.3349   4.1185777668e+01   2.4020232890e+01    0.4026983    0.2134733  46.93  0.001679907    2.123    0.529
        38 -11.1126    122.3960    167.5954   3.7569082028e+01   2.3084145737e+01    0.3739108    0.2521343   6.44  0.001064244    1.898    0.473
        39 -10.1151    115.1573    166.3966   3.9192791112e+01   2.4482026904e+01    0.2430923    0.1729434 -58.79  0.001151954    1.491    0.329
        40 -10.3836    111.0013    162.8094   3.9627880500e+01   2.5956800010e+01    0.2418006    0.2000867 -46.65 0.0003842739    1.201    0.167
        41 -11.2611    124.0613    160.7461   3.5874861421e+01   2.4343367850e+01      0.24804    0.2112892 -37.17 0.0002405586    1.146    0.128
        42 -11.6454    129.8422    158.0398   3.3920361256e+01   2.4003952223e+01    0.5620081    0.2654033 -34.87  0.002063664    2.641    0.621
        43 -11.1683    128.5974    152.1946   3.3066553719e+01   2.5499591932e+01    0.3600085    0.1633095 -44.37  0.001412609    2.154    0.536
        44 -10.8855    158.6825    230.9132   3.9503196901e+01   6.0962102428e+00    0.2570452    0.2079063 -56.48  0.001261269    1.711    0.416
        45 -11.7931    146.4712    140.7346   2.6445818668e+01   2.4897669053e+01    0.4959325    0.3362069 -47.36  0.001162337    1.398    0.285
        46 -10.4205    140.9234    142.6258   2.8118034407e+01   2.5468862111e+01    0.3233391    0.2214359 -22.72 0.0008387922    1.769    0.435
        47  -9.9248    122.4143    149.7683   3.4131392465e+01   2.7086466514e+01     0.208375    0.1321687 -40.28 0.0007128748    1.592    0.372
        48 -12.0208    137.9933    148.8523   3.0112568385e+01   2.4640891469e+01    0.4301288    0.2675134 -39.33  0.000687245    1.577    0.366
        49  -9.4802    117.2850    144.3188   3.4343078628e+01   2.9213117197e+01    0.1509684    0.1141967 -19.13 0.0004328867    1.589    0.371
        50 -10.9985    155.3782    140.7402   2.4499881962e+01   2.3346879476e+01    0.4537659    0.2148145 -45.20  0.001198416    1.951    0.487
        51 -11.2890    153.2237    137.0009   2.4152760882e+01   2.4480871019e+01    0.2427253    0.1916963 -40.32  0.001302775    1.167    0.143
        52 -12.0187    155.2548    133.9733   2.3055637109e+01   2.4734575473e+01    0.2818903    0.2279352 -41.36 0.0003037285    1.135    0.119
        53 -16.3799    192.7886    158.5502   2.0907874925e+01   1.4066027829e+01     1.641103    0.9100296 -33.13   0.00849757    1.626    0.385
        54 -10.7226    118.1344    136.2499   3.2390067564e+01   3.0930340290e+01    0.2571164     0.193768 -40.61 0.0002874405    1.317    0.241
        55 -14.6328    249.3699    175.3124   1.5330539563e+01   4.4466247372e+00     1.145556    0.2255453 -36.68  0.004368063    4.025    0.752
        56 -11.9254    136.2192    127.1095   2.5771247651e+01   2.9648839534e+01    0.6647072    0.2853821 -37.44  0.002367964    2.654    0.623
        57 -11.8208    161.6163    117.3969   1.7987292736e+01   2.6849842320e+01     0.346719    0.2652281  26.32 0.0001471009    1.595    0.373
        58 -10.3841    149.7353    117.3993   2.0429177044e+01   2.9107465402e+01    0.1905202    0.1387435  33.13 0.0005604504    1.586    0.370
        59 -12.2889    170.1240    114.4216   1.5674994320e+01   2.5825246949e+01    0.6236743     0.323807  42.22  0.002805882    2.235    0.553
        60  -9.3743    116.6696    129.6951   3.1312359520e+01   3.2711527252e+01    0.1541001    0.1189537 -11.79 0.0007037014    1.656    0.396
        61 -11.4547    152.4580    112.0403   1.8565258111e+01   2.9651752060e+01     0.313345     0.256819  65.74 0.0009983636    1.402    0.287
        62  -9.5470    168.4877    110.4708   1.5053313949e+01   2.6868126292e+01    0.1401253    0.1248328 -45.31 0.0008098288    1.007    0.007
        63 -16.1272    216.2875    146.2407   1.4752080443e+01   1.2796154830e+01     1.159837    0.9213696  59.14  0.007541342    1.820    0.450
        64 -12.0568    158.1964    112.1821   1.7431600910e+01   2.8510535451e+01    0.2801486    0.2394465 -33.56 0.0002671278    1.138    0.121
        65  -9.9187    151.4819    229.8470   4.0812279377e+01   7.0832156722e+00    0.1788044    0.1512552  27.39 0.0005597267    1.286    0.223
        66 -10.6357    149.9778    107.0174   1.7848552138e+01   3.1133465287e+01     0.215652    0.1748015  -7.60 0.0004542956    1.570    0.363
        67 -10.3942    131.9818    243.9438   4.6673555713e+01   6.9460478458e+00    0.1780246    0.1341578  48.55 0.0008281749    1.695    0.410
        68 -10.3957    202.0495    242.9371   3.3154915043e+01  -1.2739398269e-01    0.1550778    0.1173039  -8.10 0.0003166661    1.068    0.064
        69 -12.0081    232.5285     99.2315   3.3511699735e+00   1.7689281054e+01    0.3370065    0.3010205  13.37  0.001952466    1.473    0.321
        70 -11.8076    160.1552    240.6234   4.0526634771e+01   4.4121692965e+00     0.287344    0.2345041   5.00  0.001118936    1.071    0.067
        71 -10.0772    245.9678    223.9902   2.3503236716e+01  -1.6331685873e+00    0.1494349    0.1065694 -15.65            0    1.068    0.064
        72 -11.5603    169.4564     97.4642   1.1758115762e+01   2.9058369704e+01    0.4206786    0.2890071  25.77  0.002022353    2.170    0.539
        73 -13.5987    132.9896    208.3032   4.1718175543e+01   1.3154652478e+01     0.773479    0.6733325  52.50  0.004816928    1.422    0.297
        74 -12.2508    245.9539     89.6085   6.5388369292e-02   1.7045201300e+01      0.44796     0.333274  21.02  0.002957261    2.178    0.541
        75 -11.2998    138.3452     90.9278   1.6152745204e+01   3.6693799657e+01     0.248974    0.2416272 -53.79 0.0002770459    1.065    0.061
        76 -12.1812    135.5092    217.5412   4.2486580715e+01   1.1114752699e+01    0.3876539    0.2670387 -41.28  0.002262371    1.489    0.329
        77 -10.7828    182.9736     88.6070   7.4203551740e+00   2.7944800024e+01    0.2317899    0.1731776 -27.98 0.0003321483    1.416    0.294
        78 -11.2285    175.4232     84.1031   7.4813512200e+00   3.0186881030e+01    0.4063949    0.1214839 -37.69  0.001059207    3.047    0.672
        79 -11.9041    137.6306    213.2551   4.1409900856e+01   1.1636875055e+01    0.3473881    0.2346086 -14.03  0.001842827    1.621    0.383
        80 -10.3241    114.8973    218.8154   4.7303551539e+01   1.3419518067e+01    0.1927171    0.1576634  -6.75 0.0005854637    1.214    0.177
        81 -12.1908    235.6661     66.4805   3.5639945472e+02   2.1795311133e+01    0.6107162    0.1165712 -36.01  0.002210457    3.904    0.744
        82  -9.3793    163.7213     68.6982   5.3569965200e+00   3.5157252156e+01     0.125201    0.1086973   5.08 0.0001813299    1.544    0.353
        83 -11.6297    206.0632     45.2000   3.5440599009e+02   2.9862948882e+01    0.3009771    0.2265986  10.81  0.001738531    2.326    0.570
        84 -11.4708    250.4819     18.0142   3.4584602197e+02   2.5184497111e+01     0.281272   0.07799354 -33.45  0.001372053    2.767    0.639
        85 -11.3657    134.5263    248.9767   4.6741532428e+01   5.8554468366e+00    0.4213285    0.2144616 -29.73  0.002219088    2.320    0.569
        86 -10.9076    130.5202    248.4826   4.7514768860e+01   6.3662105215e+00    0.3944448    0.2342756  61.52  0.001785613    3.950    0.747
