#   1 NUMBER                 Running object number                                     
#   2 MAG_AUTO               Kron-like elliptical aperture magnitude                    [mag]
#   3 X_IMAGE                Object position along x                                    [pixel]
#   4 Y_IMAGE                Object position along y                                    [pixel]
#   5 X_WORLD                Barycenter position along world x axis                     [deg]
#   6 Y_WORLD                Barycenter position along world y axis                     [deg]
#   7 A_WORLD                Profile RMS along major axis (world units)                 [deg]
#   8 B_WORLD                Profile RMS along minor axis (world units)                 [deg]
#   9 THETA_WORLD            Position angle (CCW/world-x)                               [deg]
#  10 FWHM_WORLD             FWHM assuming a gaussian core                              [deg]
#  11 ELONGATION             A_IMAGE/B_IMAGE                                           
#  12 ELLIPTICITY            1 - B_IMAGE/A_IMAGE                                       
         1 -15.0193     67.8061    149.0032   5.2741123788e+01   3.6313939626e+01     2.695859      1.41103 -87.59  0.001636819    2.659    0.624
         2 -14.0006    244.4122     44.1685   3.5195281812e+02   2.0469466417e+01     1.093771     0.777227 -22.00  0.003944241    1.414    0.293
         3 -13.8920    224.8818     55.7747   3.5638225785e+02   2.2831489473e+01     1.045665    0.7358494 -36.38  0.003929697    1.193    0.162
         4 -12.1189      2.5672     21.5639   5.5741578537e+01   7.5206060524e+01    0.4820156     0.189277 -59.34  0.002240686    2.052    0.513
         5 -11.4258      2.3138     11.4237   5.1702306928e+01   7.7440870659e+01    0.4528045    0.1503242 -57.08  0.001998808    2.403    0.584
         6 -11.7845      3.1785      3.4071   4.6355694179e+01   7.9023082687e+01    0.4373782    0.3234386  -6.09  0.002414442    1.323    0.244
         7  -9.9661     71.0709      7.5045   5.5439935751e+00   6.6559815492e+01    0.2124564    0.1292259  60.83 0.0006637734    1.575    0.365
         8 -11.1597    130.4795    236.0265   4.8583775406e+01   1.0414872172e+01     0.203748    0.1536612 -49.87  0.001412181    1.684    0.406
         9  -9.9934    216.2295    250.2067   3.4922036501e+01  -1.5724684729e+00    0.1308204   0.09849735  21.62  0.001061923    1.332    0.249
        10 -11.2460     74.8307    246.7686   6.0815178643e+01   1.5558197056e+01     0.475427    0.2038002 -56.20  0.002624116    2.981    0.664
        11 -16.6339     22.7118    171.0243   6.7814147114e+01   3.6247122213e+01     9.136315     3.370869  75.63    0.0356207    3.184    0.686
        12 -12.6994     84.8007    222.8508   5.6803074164e+01   1.8414292026e+01    0.6918433    0.2499088  33.60   0.00321775    2.155    0.536
        13 -14.7788     13.3809    181.2692   7.0798995846e+01   3.4752620878e+01     1.479756     1.079275 -35.37   0.00572609    1.971    0.493
        14 -10.9851    174.6936    223.2822   3.8445679590e+01   6.4876368905e+00    0.2344322    0.1307508  23.68 0.0007689983    1.559    0.359
        15  -9.6984    124.3228    204.0545   4.6006016724e+01   1.6418601443e+01    0.3398507    0.1266343 -59.41  0.001358766    3.794    0.736
        16 -11.1380    130.2770    200.1225   4.4170830317e+01   1.6243963915e+01    0.4855378    0.2329608 -62.84  0.002127916    3.220    0.689
        17  -9.8396    103.7874    203.5996   5.0544174930e+01   1.9412679529e+01    0.1800084   0.09876341  41.63 0.0002174164    1.549    0.354
        18  -9.8522    210.9109    198.9422   2.8332993177e+01   4.9734678816e+00    0.1750067    0.1372381   1.59 0.0004822994    1.017    0.016
        19 -10.5535    194.1441    196.4561   3.0844001671e+01   7.5658572357e+00    0.4174732    0.2184373 -51.98  0.001991337    3.217    0.689
        20 -10.1040    113.4701    195.4802   4.7304744906e+01   1.9549428152e+01    0.1298482    0.1129853  29.22 9.093441e-05    1.054    0.051
        21  -9.6447    206.9066    190.6319   2.7640343198e+01   6.6071103982e+00      0.16129    0.1303527  15.87 0.0007185382    1.126    0.112
        22 -11.8585    107.6469    189.4122   4.7850287890e+01   2.1568858434e+01    0.3050336    0.2347854   7.56   0.00164449    1.536    0.349
        23 -15.2913     11.4358    246.8373   7.3476002029e+01   2.2054711602e+01     2.520432    0.9396555  35.30   0.01478574    1.838    0.456
        24 -10.0091    119.4900    189.4947   4.5095297588e+01   1.9783585972e+01    0.1320043    0.1155913  33.76 0.0008105891    1.002    0.002
        25 -10.7393     82.1088    186.8515   5.3736450390e+01   2.5739848741e+01    0.3247811     0.200576  48.21  0.001239224    1.455    0.313
        26 -10.9307     78.3389    188.5188   5.4863539347e+01   2.5902480706e+01    0.2802961    0.2297095  87.59  0.001003695    1.308    0.236
        27  -9.8638     78.0553    184.4859   5.4479322234e+01   2.6792752176e+01    0.2522882    0.1908317  54.31 0.0003981672    1.207    0.172
        28 -11.4533    101.4508    185.2397   4.8774277938e+01   2.3313687330e+01     0.243534    0.2118354  28.81 0.0005389394    1.109    0.098
        29 -11.0251     98.7049    182.0018   4.9009819702e+01   2.4380245298e+01    0.2728403    0.2066609  53.22  0.000938711    1.274    0.215
        30 -10.0786     63.8017    182.7858   5.7927968094e+01   2.9031100909e+01    0.2459965    0.1610267  58.45 0.0004607267    1.445    0.308
        31 -15.0070     10.0344    238.4667   7.3534007259e+01   2.3629360704e+01     1.596353       1.2233 -21.69   0.01027429    2.184    0.542
        32 -11.1765    116.0154    182.0260   4.4823052066e+01   2.1754345060e+01    0.2106248    0.1867908  33.19  0.000649779    1.020    0.020
        33 -11.7932     58.2463    172.3708   5.8313909550e+01   3.2060047319e+01     0.763034     0.330161  85.23  0.001275746    3.969    0.748
        34 -10.1039     74.3092    174.0431   5.4216316329e+01   2.9578951120e+01    0.2439163    0.1706405  89.78 0.0005899476    1.606    0.377
        35 -10.2925     74.8829    170.1203   5.3580020719e+01   3.0379316847e+01    0.3137819    0.2013212  51.89 0.0009545769    1.463    0.316
        36 -11.4675     47.0219    138.3099   5.7665197250e+01   4.1669300384e+01    0.4068361    0.2582792  82.35  0.001068312    1.675    0.403
        37 -12.6788     78.7915    131.3917   4.6554664070e+01   3.8990116051e+01    0.6026812    0.4696061 -18.04  0.001909656    1.734    0.423
        38 -11.8575     89.3134    169.0163   4.9603711103e+01   2.8546903511e+01    0.7660825    0.4344822  78.01  0.001035998    2.926    0.658
        39 -11.1051     80.4773    166.9664   5.1667916046e+01   3.0300444732e+01    0.5789473    0.2764374 -59.65  0.002152747    2.192    0.544
        40 -13.4554     51.5787    144.3995   5.7012731398e+01   3.9586754751e+01    0.5867361    0.4123585  -0.07  0.001438023    2.023    0.506
        41 -11.7065     70.0955    162.7517   5.3948379253e+01   3.2728897102e+01    0.5821736    0.3117695  65.99  0.001798496    2.365    0.577
        42 -10.1889     97.0043    248.4849   5.6489535419e+01   1.2690553440e+01    0.1538475    0.1362904  45.87 0.0005510754    1.196    0.164
        43  -9.8756    101.4259    167.6849   4.6261708754e+01   2.6982466436e+01    0.1869291    0.1294154 -46.15 0.0009507426    1.618    0.382
        44  -9.6504    110.4828    167.0108   4.3856009395e+01   2.5684198574e+01     0.192211    0.1393065 -59.08 0.0003763559    1.516    0.340
        45 -10.6267    179.8362    165.8858   2.8176370560e+01   1.4347766985e+01    0.2047075    0.1642149  -3.86 0.0008810373    1.221    0.181
        46 -10.7940    163.2448    164.5437   3.1257025071e+01   1.7324251632e+01    0.2255742    0.1791786 -37.20   0.00049021    1.297    0.229
        47 -11.1802    236.2408    163.0359   1.8055580619e+01   6.2334233425e+00     0.190957    0.1558407  13.33 0.0006135606    1.197    0.164
        48 -11.9902     47.3089    160.7491   6.0140934543e+01   3.6102487223e+01    0.4231631    0.3275443  -7.80  0.001853813    1.784    0.440
        49 -12.0359     53.6737    156.7223   5.7873198340e+01   3.6305579643e+01    0.4502098    0.3161436  52.66  0.001132075    1.298    0.230
        50  -9.5510    158.2819    160.6641   3.1572985503e+01   1.8859530004e+01    0.1273496    0.1092805  85.63 0.0003193647    1.619    0.382
        51  -9.7610    134.0000    148.9967   3.4816948516e+01   2.5398354780e+01    0.2273368    0.0814388 -48.77 0.0006745472    2.916    0.657
        52  -9.1562    160.7048    146.0204   2.8154274726e+01   2.1109201363e+01    0.2121985    0.1096571 -62.14 0.0007012232    4.052    0.753
        53 -10.9996    108.7049    144.9272   4.0461511685e+01   3.0781937732e+01    0.4084524    0.2747081 -67.38  0.001918725    1.730    0.422
        54 -10.9438     34.7641    145.6323   6.2332115837e+01   4.1191221168e+01    0.3001796    0.2134475  36.78  0.000200082    1.354    0.261
        55 -10.9425     36.6337    142.7944   6.1462908467e+01   4.1706246748e+01    0.3879968    0.2350117  65.91  0.001450578    1.640    0.390
        56  -9.6762    133.0000    142.9848   3.3852241794e+01   2.6815808019e+01    0.2319885   0.08231573 -48.50 0.0005254789    2.918    0.657
        57 -11.1809     93.4008    133.3835   4.2531468245e+01   3.6097320789e+01    0.5133667    0.3649262   2.29  0.002257881    2.137    0.532
        58 -14.7771      3.2188    213.1708   7.4294169779e+01   2.8928685959e+01     1.374968    0.5944772  55.80  0.003708536    1.728    0.421
        59 -10.5586    105.5535    130.7786   3.8512389746e+01   3.4557349416e+01    0.3789882    0.2863419 -70.29  0.001121499    1.477    0.323
        60  -9.9486    105.1476    126.1472   3.7640743296e+01   3.5700810291e+01    0.2910823    0.2136797  20.49  0.001026762    1.652    0.395
        61 -10.8538     33.2735    130.7467   6.1231400316e+01   4.5123759672e+01    0.3476885    0.2610059 -69.47  0.001299071    1.283    0.221
        62 -15.1765     10.0203    206.7905   7.2598827142e+01   2.9622521571e+01     1.482156    0.7004949  38.05  0.006129918    1.624    0.384
        63 -12.1439    117.8732    230.7546   5.0561211630e+01   1.2847179970e+01     0.355635    0.1938389  42.85   0.00204148    1.588    0.370
        64 -10.6773     48.7997    123.1231   5.4955586002e+01   4.5345237127e+01    0.2336883    0.2113085  75.62 0.0003328181    1.021    0.021
        65 -11.0209     92.8852    120.3378   3.9993905131e+01   3.9305650721e+01     0.459198    0.3059255 -24.60   0.00190126    2.269    0.559
        66 -11.1580     43.0386    131.4057   5.8068408881e+01   4.3895744404e+01    0.3450598     0.258885  36.89  0.001034073    1.320    0.242
        67 -12.2674     61.3688    114.1669   4.9052309329e+01   4.5975809844e+01    0.9669608    0.4763219  76.47  0.002796259    4.664    0.786
        68 -10.3046     72.5472    231.2117   6.0148887725e+01   1.8432087948e+01    0.2211282    0.1700393 -20.90 0.0009435614    1.907    0.476
        69 -10.0663    103.3231    115.9918   3.5879459535e+01   3.8403219791e+01    0.2448608    0.2088803  42.69 0.0006241295    1.162    0.140
        70 -10.3427    243.4757    114.4833   7.4916807703e+00   1.1614352865e+01    0.1223902   0.09901588 -27.71 3.182744e-05    1.038    0.036
        71  -9.2645     90.1953    113.1596   3.9220640070e+01   4.1519509868e+01    0.1998019    0.1689374  77.18            0    1.267    0.211
        72  -9.0781     80.2968    111.6649   4.2079599813e+01   4.3625358360e+01    0.1572473    0.1145643  75.51 0.0004989592    1.649    0.393
        73  -9.1944    128.8321    110.1843   2.7417316112e+01   3.4564881018e+01    0.1938231    0.1746813  -3.64 0.0002275447    1.255    0.203
        74  -9.8383     19.7088    109.0762   6.3576228275e+01   5.2023414784e+01    0.2296389    0.1704797  45.56 0.0005689258    1.340    0.254
        75 -11.1508     24.2936    104.9328   6.1305983889e+01   5.2728472030e+01    0.3147473    0.2925771  -3.02 0.0009153882    1.259    0.206
        76 -11.0465     72.4007    226.6417   5.9825195772e+01   1.9255902103e+01    0.3541102    0.1997937  52.48  0.001483072    1.587    0.370
        77  -9.2221    144.6924    101.7232   2.1350210032e+01   3.2896751414e+01    0.1469342    0.1190452   8.64 0.0002760814    1.552    0.356
        78 -11.0040     10.9706     99.7286   6.5956185853e+01   5.5123690395e+01     0.274753    0.1989367  -0.14  0.001189651    1.693    0.409
        79 -11.7864      9.3720     94.9681   6.6103189188e+01   5.6476221739e+01    0.5188866    0.3207027  25.14  0.002707005    1.745    0.427
        80 -10.0102     22.0702     84.8966   5.9259720167e+01   5.8204382527e+01    0.2240057    0.1700631  64.55   0.00121008    1.369    0.270
        81 -12.0413    232.7691    167.4901   1.9390576833e+01   6.1313674411e+00    0.3463398     0.311851 -57.82   0.00166935    1.765    0.433
        82  -9.8888     32.9327     81.7903   5.3797132867e+01   5.7989545186e+01    0.2106954    0.1724194  69.21 0.0004281678    1.284    0.221
        83 -10.6358     68.7930     75.4936   3.6767745821e+01   5.4489229279e+01    0.5618373    0.3007966  70.69  0.001512584    5.423    0.816
        84 -10.4774     76.6156     67.3053   3.1048986400e+01   5.4925547357e+01    0.3413768    0.2495862  84.00  0.001509986    1.927    0.481
        85  -9.6213     93.5042    243.9189   5.6810193135e+01   1.3817305777e+01    0.1346635    0.1141947 -76.03 0.0005248201    1.512    0.339
        86 -13.2144    215.7154     61.2607   3.5869280360e+02   2.3975587742e+01    0.6764245    0.5976154  10.17  0.003560655    1.374    0.272
        87 -10.2987    176.9128    230.6796   3.9042397329e+01   5.2270874045e+00    0.1858341    0.1368906  -9.08   0.00119256    1.342    0.255
        88 -10.2770    140.0820     65.9140   1.1940439146e+01   4.0720986085e+01    0.4777797    0.2469475 -64.24  0.001537834    3.447    0.710
        89 -12.5932    233.5844     50.6603   3.5434523391e+02   2.1755265779e+01    0.4578238    0.4077659  -1.40  0.001211027    1.358    0.263
        90 -10.6905     13.5641     60.5616   5.8941292683e+01   6.5149330840e+01      0.24588    0.2066365 -86.87 0.0008090233    1.175    0.149
        91 -10.0930     63.3898     56.7231   3.2622642616e+01   5.9767291001e+01    0.2059805    0.1339868 -40.79 0.0009387936    1.560    0.359
        92 -11.9508    134.1275    229.8460   4.7150670506e+01   1.0867070572e+01    0.3110851    0.2113115  20.80  0.001981807    1.319    0.242
        93  -9.7848     45.8424     50.6024   3.8561546148e+01   6.4050550532e+01    0.1964319    0.1286266  45.88 0.0004017406    1.672    0.402
        94 -10.3347     21.5085     44.9479   5.0236804840e+01   6.8360646591e+01    0.2060326     0.122795 -62.38 0.0004891678    1.550    0.355
        95  -9.9635     32.7228     33.0854   3.8630880396e+01   6.9763328001e+01     0.279713    0.1858321 -22.75  0.001102729    1.769    0.435
        96 -12.1442    127.0883    229.8313   4.8572776822e+01   1.1790968753e+01    0.3764578    0.2259852  33.26  0.002285344    1.319    0.242
        97 -12.8793     97.1033    226.7907   5.4514302082e+01   1.6173229717e+01    0.6290566    0.2309716  38.06  0.003008155    2.060    0.515
        98 -10.2452     60.6403     21.5630   1.7634985846e+01   6.7020249629e+01    0.2438842    0.2359015  86.43 0.0007106295    1.166    0.143
        99 -10.1777    215.7232    237.5218   3.3306540060e+01  -1.8378797322e-01     0.168496   0.08249822 -32.83  0.001070538    2.129    0.530
       100 -11.3330     48.0179    237.4247   6.5732412850e+01   2.0104548240e+01    0.1935766    0.1581545  76.75 0.0002980632    1.298    0.230
