#   1 NUMBER                 Running object number                                     
#   2 MAG_AUTO               Kron-like elliptical aperture magnitude                    [mag]
#   3 X_IMAGE                Object position along x                                    [pixel]
#   4 Y_IMAGE                Object position along y                                    [pixel]
#   5 X_WORLD                Barycenter position along world x axis                     [deg]
#   6 Y_WORLD                Barycenter position along world y axis                     [deg]
#   7 A_WORLD                Profile RMS along major axis (world units)                 [deg]
#   8 B_WORLD                Profile RMS along minor axis (world units)                 [deg]
#   9 THETA_WORLD            Position angle (CCW/world-x)                               [deg]
#  10 FWHM_WORLD             FWHM assuming a gaussian core                              [deg]
#  11 ELONGATION             A_IMAGE/B_IMAGE                                           
#  12 ELLIPTICITY            1 - B_IMAGE/A_IMAGE                                       
         1 -14.0175    230.2426     25.6137   3.5899677246e+02   2.5519468963e+01     1.022237     0.894329  32.85  0.006494695    1.716    0.417
         2 -10.7670    227.3760      9.5754   3.5593293954e+02   2.7849018301e+01      0.22788    0.1655627 -65.74 0.0006891901    1.074    0.069
         3 -10.7454     60.5641     21.8613   2.7713672706e+01   6.4820931865e+01    0.2735881    0.2273057  -5.43   0.00102337    1.205    0.170
         4 -14.1661    120.6572    234.7093   6.3131007735e+01   8.9060789277e+00     5.266028     4.235599 -83.69   0.03112298    1.691    0.409
         5  -9.7772    210.9782    198.7412   3.8049760817e+01   1.8449589818e+00    0.2117063    0.1622928 -21.52 0.0004683081    1.137    0.121
         6 -10.6748     69.2977    194.5471   7.0454509805e+01   2.4855286388e+01    0.2636915    0.2013045  67.07 0.0005500124    1.353    0.261
         7  -9.4003     45.8924    189.7288   7.6065701346e+01   2.8968909645e+01     0.267766    0.1454892  73.44  0.001079249    2.236    0.553
         8  -9.3151     72.5153    186.8697   6.8592606638e+01   2.6249771449e+01    0.2284173    0.1692309  46.95 -0.0001760814    1.282    0.220
         9  -9.2276     75.0000    250.1044   7.5005697639e+01   1.2247442776e+01     0.164069   0.07083497 -66.38  0.000478054    2.738    0.635
        10 -11.4392     12.1579    250.7706   8.8118689723e+01   1.9205457505e+01    0.2152718   0.07981908  29.72 0.0008901329    2.437    0.590
        11  -9.0395     39.2989    182.2562   7.7040662604e+01   3.1544988438e+01    0.1257502    0.1023395 -33.14 0.0001679645    1.502    0.334
        12  -9.5348     63.2533    181.0970   7.0344177387e+01   2.8922869943e+01    0.1932068    0.1684402  80.22 0.0003854473    1.132    0.117
        13 -11.6132    172.5762    174.4104   4.1125949912e+01   1.2321431403e+01    0.6366239    0.4310844 -21.37   0.00146859    1.629    0.386
        14 -10.8871    177.4821    169.9873   3.9168960182e+01   1.2323210566e+01    0.2761347    0.2679535 -67.77   0.00109631    1.268    0.211
        15 -10.9623    180.8619    168.5413   3.8156295438e+01   1.2007801656e+01    0.7370279    0.3263703 -55.18  0.002479974    3.656    0.727
        16 -15.6508     66.7823    143.7797   6.3457114984e+01   3.7939543277e+01     4.080593     3.301506  89.82   0.02060436    1.363    0.267
        17 -10.2377     46.4750    236.6580   8.0125643103e+01   1.8377350021e+01     0.129774    0.1151495 -75.41 0.0004242852    1.282    0.220
        18 -12.0233    111.6884    169.8046   5.5134066383e+01   2.4194968998e+01    0.8035899    0.4437873 -68.43   0.00304289    2.545    0.607
        19 -11.1373    104.2382    171.9827   5.7559412633e+01   2.4950569834e+01    0.3698137     0.253273 -77.57  0.001626192    1.918    0.479
        20  -9.8949    231.3197    169.6597   2.8940682640e+01   3.6224966053e+00    0.1193263   0.09838261 -59.79  0.000704983    1.715    0.417
        21 -10.8233     56.2626    235.5874   7.7866555915e+01   1.7437395535e+01     0.189138    0.1576073  58.87 0.0007109514    1.062    0.058
        22  -9.7374    117.3324    159.0080   5.1486349571e+01   2.5740184358e+01    0.2159187     0.195303 -56.89 0.0009222387    1.155    0.134
        23  -9.3021     45.7978    158.4536   7.2328809027e+01   3.6843270548e+01    0.2330689    0.1536553 -63.42 0.0007467463    1.432    0.302
        24 -11.6090    133.6000    145.4608   4.4226615822e+01   2.5793590808e+01     1.162982    0.3140367 -53.02  0.002911594    4.932    0.797
        25 -11.1899    108.9147    145.3420   5.0954120056e+01   3.0554084371e+01    0.3441943    0.3193551 -49.46 0.0006771127    1.088    0.081
        26  -9.3976    109.3632    140.0350   4.9650127681e+01   3.1751295266e+01    0.2191195    0.1996752 -54.35  0.000516135    1.117    0.105
        27  -9.2521    127.9999    137.9848   4.3986167145e+01   2.8610125304e+01     0.238824    0.1944273 -89.30 0.0005940847    1.606    0.377
        28  -9.4120    168.4698    136.4849   3.3801463803e+01   2.0720838153e+01    0.2609795    0.1371517 -52.43  0.001000898    2.166    0.538
        29 -11.7725    105.1456    131.4825   4.8916497990e+01   3.4610807343e+01    0.6187933    0.4378752 -22.78  0.001427849    1.788    0.441
        30 -11.6691     91.9179    131.4574   5.2945368718e+01   3.7044858517e+01    0.2977482     0.280888  -0.86 0.0003460067    1.093    0.085
        31  -8.7083     53.2836    233.4356   7.8355229977e+01   1.8238957033e+01    0.1650675    0.1190824  16.42 0.0009491703    1.634    0.388
        32 -10.6154    135.7802    129.5724   3.9922437928e+01   2.8925597508e+01    0.4511448    0.1271373 -46.25   0.00128363    3.537    0.717
        33 -10.1703    161.9387    127.6211   3.3143837657e+01   2.3868496850e+01    0.3124963    0.2269335 -49.86  0.001476972    1.402    0.287
        34  -9.0910    184.2808    126.6411   2.8237837340e+01   1.9467238434e+01    0.1470404    0.1122489 -68.33 0.0004323096    1.668    0.400
        35 -11.1202    112.8138    125.7336   4.5275004360e+01   3.4489273455e+01     0.367479    0.2797256  22.84 0.0009010921    1.453    0.312
        36 -10.4337     44.4783    230.9809   8.0136396346e+01   1.9782893126e+01    0.1999277    0.1349481 -62.68  0.001175108    1.652    0.395
        37 -10.3045    100.0168    120.8866   4.7902449553e+01   3.8134211227e+01    0.3158521    0.2420935  17.07 0.0008292497    1.494    0.331
        38 -10.6466     76.4000    120.8287   5.5532019536e+01   4.2341274689e+01    0.2635583    0.2081273  44.26 0.0008481939    1.317    0.241
        39 -10.0240    123.4822    117.4507   4.0153748192e+01   3.4204522799e+01      0.15591    0.1531449   5.25 5.356608e-05    1.006    0.006
        40 -10.2261    108.3794    115.9309   4.4096039572e+01   3.7663029403e+01    0.2778868    0.2300682  29.39 0.0003850378    1.237    0.191
        41  99.0000     47.4669    229.4438   7.9342080738e+01   1.9760230543e+01    0.2227821    0.1688014  55.26  0.001109237    1.126    0.112
        42 -11.3696    115.8085    108.7915   4.0017284548e+01   3.7753195290e+01    0.3800485    0.2850268  60.71  0.001465696    1.547    0.353
        43 -11.9968     60.3466    107.6439   5.8065992578e+01   4.8107709803e+01    0.4573283    0.3515581  -8.85  0.002235649    1.511    0.338
        44 -10.6043    134.4943    105.0458   3.3918724835e+01   3.4503384665e+01    0.4245954    0.1524898 -43.55  0.001374156    2.780    0.640
        45 -11.1942    111.8883    104.7098   4.0037689158e+01   3.9482980342e+01    0.3602439     0.266885 -47.39  0.001519269    1.366    0.268
        46  -8.9529    152.5938    103.5275   2.9152646614e+01   3.0758964425e+01    0.1510115    0.1448876 -58.16 6.695373e-05    1.043    0.041
        47 -11.4818    158.7863    227.7428   5.3664807297e+01   4.5780734406e+00    0.4300489    0.2024617  33.48   0.00200742    1.865    0.464
        48  -8.8620     64.4462     91.5015   5.2307045893e+01   5.1385645323e+01    0.1467377    0.1412457 -25.26 0.0004442279    1.047    0.045
        49  -9.3066     71.5007    222.7977   7.3147506780e+01   1.8188063874e+01    0.1551216    0.1173181 -42.83 0.0004357707    1.615    0.381
        50 -10.4590     89.0525    221.5002   6.8819570914e+01   1.6070074406e+01    0.2972192    0.2262501  27.94 0.0008997149    1.238    0.193
        51 -11.5965     36.2505     87.4183   6.2621711337e+01   5.6121875019e+01    0.3713447    0.2161692 -33.17  0.001191669    1.799    0.444
        52 -11.9325     26.1804     87.1206   6.6854566050e+01   5.7194684506e+01     0.314008     0.278899  80.37 0.0004074238    1.338    0.252
        53  -9.7543     54.2255    222.1304   7.7160336717e+01   2.0519164271e+01    0.1302345    0.1022471 -70.46 0.0002834069    1.367    0.268
        54 -11.2117     55.2116     83.5315   5.3658338328e+01   5.4624777282e+01     0.789178    0.2925577  48.50  0.002257239    4.889    0.795
        55  -9.2745     86.9188     79.9899   4.0603650964e+01   4.9915281934e+01    0.2271149    0.1861072  80.11 0.0005140293    1.661    0.398
        56  -9.4204     90.8784     77.8907   3.8585974975e+01   4.9548486171e+01     0.245742    0.1928502  87.35   0.00113049    1.876    0.467
        57 -10.2594    184.5216     76.9519   1.6044963248e+01   2.8278592440e+01    0.2160859    0.1329232 -36.95 0.0007073053    1.580    0.367
        58 -12.1415     39.5457     70.5671   5.6502747601e+01   5.9637506970e+01    0.5749215    0.2582995 -56.55  0.002377803    2.277    0.561
        59 -10.3555     48.8813     72.9173   5.3096541067e+01   5.7900843699e+01    0.2857151    0.1925168  34.28 0.0006697309    1.536    0.349
        60  -9.7336     90.5460     69.2009   3.5809787506e+01   5.1315604673e+01    0.2973934    0.1923268  59.59  0.001282582    1.928    0.481
        61  -9.1343     72.1973     68.8299   4.2220471221e+01   5.4987512352e+01    0.1986165    0.1625648   0.28 0.0003783539    1.282    0.220
        62 -12.4299    182.8687     64.8976   1.3237184481e+01   3.0539794787e+01      0.45492    0.4109878 -56.78 0.0008155697    1.056    0.053
        63 -13.7480    199.7388     52.8349   7.9640713840e+00   2.8488705529e+01     1.134512     0.908836  44.16  0.003879447    1.543    0.352
        64 -12.5501    205.7408     47.7986   6.0831541846e+00   2.7860618358e+01    0.5098408     0.432572  72.57  0.001595414    1.231    0.188
        65 -11.4052    159.2178    222.9123   5.2812116489e+01   5.3598518176e+00    0.3526985    0.2011645  26.88  0.001762156    1.590    0.371
        66  -8.8370     67.3310     55.6998   3.9376739394e+01   5.8377499054e+01    0.1342183    0.1154621  77.41 0.0007032156    1.647    0.393
        67 -10.1785     40.1121     50.5349   4.9375124785e+01   6.3711278863e+01    0.2019577    0.1684036 -26.62 0.0009210197    1.111    0.100
        68 -11.7230     21.2493     47.6839   5.8021599826e+01   6.6474691672e+01    0.3012863    0.1946669 -34.63 0.0008529318    1.358    0.264
        69  -9.7339     60.1282     43.8998   3.7647175910e+01   6.1727969200e+01    0.1988774    0.1839875  46.26 0.0005359929    1.290    0.225
        70  99.0000     51.0641    245.2873   7.9776464008e+01   1.6111717043e+01    0.2592777   0.09403478  43.01  0.001203394    2.126    0.530
        71 -18.7691     12.7041    193.5505   8.4878821935e+01   3.1432725035e+01     13.18157     3.155847 -78.36   0.04505907    4.055    0.753
        72 -11.7872     34.4301     15.2673   3.6259760621e+01   7.0277373511e+01    0.4251327    0.1618309  44.48  0.001841518    2.771    0.639
        73 -11.3976     47.7580     19.2986   3.1846737780e+01   6.7532175330e+01    0.4069281    0.2086277  53.72  0.001486749    2.495    0.599
        74 -10.9526    152.5176    237.4146   5.6470510055e+01   3.8266903546e+00    0.2354175    0.1932301  14.86 0.0006449341    1.030    0.029
