#   1 NUMBER                 Running object number                                     
#   2 MAG_AUTO               Kron-like elliptical aperture magnitude                    [mag]
#   3 X_IMAGE                Object position along x                                    [pixel]
#   4 Y_IMAGE                Object position along y                                    [pixel]
#   5 X_WORLD                Barycenter position along world x axis                     [deg]
#   6 Y_WORLD                Barycenter position along world y axis                     [deg]
#   7 A_WORLD                Profile RMS along major axis (world units)                 [deg]
#   8 B_WORLD                Profile RMS along minor axis (world units)                 [deg]
#   9 THETA_WORLD            Position angle (CCW/world-x)                               [deg]
#  10 FWHM_WORLD             FWHM assuming a gaussian core                              [deg]
#  11 ELONGATION             A_IMAGE/B_IMAGE                                           
#  12 ELLIPTICITY            1 - B_IMAGE/A_IMAGE                                       
         1 -11.3653     59.0377     14.9638   8.8377321818e+01   6.6538973586e+01    0.2577798    0.1726637 -25.86 0.0003252004    1.360    0.265
         2 -11.4795      7.3824     17.1377   1.1737928830e+02   7.1842834004e+01    0.3535373    0.2184898 -45.81 0.0008031849    1.216    0.178
         3 -12.0594    113.2335     15.4541   6.9959292188e+01   5.5182811402e+01    0.4548274    0.3225299  63.47  0.001380129    1.498    0.332
         4 -11.5897     80.5787     14.7809   7.9594222467e+01   6.2589218571e+01    0.3147638     0.238055 -29.57   0.00173681    1.367    0.269
         5 -12.5717     25.8764     13.0925   1.0462104469e+02   7.1232731562e+01    0.2774162     0.241092   3.59 0.0004369594    1.259    0.206
         6 -12.8338    209.3141      5.9860   5.1460081348e+01   3.1232178299e+01     0.652359    0.2730019 -34.63  0.002827514    2.189    0.543
         7 -10.5356     66.7110     11.2959   8.3164299720e+01   6.5725956479e+01    0.1942917    0.1381132   6.58 0.0004409208    1.365    0.267
         8 -11.9863     49.7928      8.5760   8.9307829572e+01   6.8959875743e+01    0.5307225    0.3343902  35.59  0.002953288    1.624    0.384
         9 -10.4265     51.7920      5.9584   8.6880183165e+01   6.9018128031e+01    0.2026036     0.144967   0.45  0.000344567    1.280    0.219
        10 -10.9004      7.1324     10.2836   1.1488141154e+02   7.3207400730e+01    0.1961528    0.1681158  54.68 0.0004407658    1.774    0.436
        11 -10.2059      2.7526     10.7585   1.1787985360e+02   7.3343237090e+01    0.2469499     0.111652  24.40  0.001348491    2.606    0.616
        12 -11.5324     18.5057      7.7303   1.0646862708e+02   7.2872144732e+01    0.4657076    0.2263577   1.21  0.002044156    2.730    0.634
        13 -10.2365    165.8045      8.8090   5.7316289820e+01   4.2231057098e+01    0.2022509    0.1631358 -58.72  0.001053462    1.352    0.261
        14 -10.6263     74.6174      9.0418   7.8874063443e+01   6.4510619986e+01    0.2126758    0.1842955  43.79 0.0006081735    1.302    0.232
        15 -11.3118    175.1438      8.1271   5.5835779433e+01   3.9820605707e+01    0.2268085    0.1781316  40.95 0.0007003074    1.291    0.225
        16 -10.9166     87.7108      7.4174   7.3509935850e+01   6.1970692874e+01    0.2416564    0.1778943 -11.59 0.0005614464    1.326    0.246
        17 -11.2125     39.5593      4.7198   9.2411031072e+01   7.1017991340e+01     0.436485    0.2783165 -34.07  0.002161969    1.453    0.312
        18  -9.9817     35.6740      4.3011   9.4318201578e+01   7.1597964632e+01    0.2375469    0.1733685 -44.88    0.0013488    1.682    0.405
        19 -11.4716     24.6575      6.8437   1.0220100715e+02   7.2452961859e+01    0.2506776     0.174366 -44.55 0.0005721825    1.440    0.305
        20 -11.7019    191.0638      5.6509   5.3193108551e+01   3.5883697681e+01    0.3594731    0.1822949 -48.88  0.001012936    2.104    0.525
        21 -11.5322    195.0032      3.5106   5.2148341693e+01   3.5059481182e+01    0.3350728    0.2139648  65.14  0.001420176    1.462    0.316
        22 -10.2853     62.2192      6.1166   8.2257796072e+01   6.7220872340e+01    0.2571695    0.2099999 -18.24  0.001570783    1.202    0.168
        23 -11.9504    180.8387      2.9069   5.3490621685e+01   3.8780680160e+01    0.4480311     0.254745  61.35  0.001421628    1.594    0.373
        24 -11.2030    161.0536      3.3202   5.6110234976e+01   4.3972542465e+01    0.3320343    0.2084178 -47.27  0.001575817    1.768    0.435
        25 -11.5861     74.6521      2.8632   7.5583910163e+01   6.5221324597e+01    0.3746565     0.329221  52.16  0.002292587    1.365    0.267
        26 -10.6547     30.9227      3.4960   9.6593756425e+01   7.2313007162e+01    0.2423981    0.1554382 -32.14 0.0007617035    1.330    0.248
        27 -11.1540    218.1134      3.1403   4.9916872624e+01   2.9334862217e+01    0.2051585    0.1760239  38.50   0.00124566    1.314    0.239
        28 -10.7754     91.4278      2.7045   7.0020600774e+01   6.1632371998e+01    0.2252697    0.1927257  41.27 0.0002441109    1.128    0.113
        29 -10.7733     11.4741      2.4087   1.0837408815e+02   7.4387419189e+01    0.2311632    0.1997304  58.99  0.001178731    1.978    0.494
        30 -10.1777     64.4912      1.4391   7.8691418804e+01   6.7370265030e+01    0.1340468    0.1094713  11.40 6.416288e-05    1.009    0.009
        31 -11.1609     65.2576    242.8430   1.3162316883e+02   1.9117778168e+01     0.192245    0.1440678  56.31  0.001522252    1.042    0.041
        32 -11.3572    200.5737    249.5083   1.0798557493e+02  -6.4537109985e-02    0.2055865    0.1429111  21.52 0.0002948704    1.091    0.084
        33 -10.7766    199.6339    245.2364   1.0757970878e+02   5.2388754477e-01    0.2427013    0.1537746  12.54  0.001322931    1.517    0.341
        34 -10.1501    149.6371    250.7190   1.1714442219e+02   6.9774657844e+00    0.1857879   0.07409576  38.29            0    1.824    0.452
        35 -11.3463    116.3692    249.6290   1.2301991244e+02   1.1702158565e+01    0.3656808    0.1933456  42.28  0.002328068    1.386    0.278
        36 -11.4484    106.4876    248.5165   1.2469668388e+02   1.3168994741e+01    0.2894003    0.1726779  74.81  0.001771161    2.386    0.581
        37 -12.4783    109.5253    244.8730   1.2382568456e+02   1.3289098201e+01    0.3286072    0.2275592  65.58  0.002305024    1.570    0.363
        38 -10.3005    102.9954    250.5744   1.2549566355e+02   1.3331623812e+01    0.1693658   0.07836715  40.11 0.0005103754    1.579    0.367
        39 -10.5247     98.6143    249.7064   1.2620423300e+02   1.4019719678e+01    0.1842561    0.1062546  32.19 0.0005978428    1.578    0.366
        40 -10.2298     91.8980    250.4020   1.2745029376e+02   1.4770886870e+01    0.1476489     0.101583  42.69 0.0005125168    1.107    0.097
        41 -11.7269     44.3403    244.6812   1.3534902878e+02   2.1134101044e+01    0.5106345    0.2659641  77.95  0.003481223    1.938    0.484
        42 -13.1507     46.4388    219.2899   1.3356106302e+02   2.5083105707e+01    0.5510189    0.2967918 -56.04  0.002011561    2.412    0.585
        43 -12.1368     22.8531    228.3419   1.3827699152e+02   2.5904270835e+01    0.1992419    0.1364897  60.58 0.0002247897    1.058    0.055
        44 -12.8017     39.1454    204.1556   1.3401697373e+02   2.8551283285e+01    0.9538249    0.2152376 -69.54  0.002611305    4.042    0.753
        45 -12.8763     45.1663    200.0072   1.3254434877e+02   2.8695536046e+01    0.5768636    0.2801607  82.17  0.003152632    2.291    0.563
        46 -12.5938     46.4101    233.9298   1.3442154861e+02   2.2626025898e+01    0.4769738     0.278303 -66.21  0.002663281    2.011    0.503
        47 -13.7155     20.7586    237.2411   1.3899088775e+02   2.4645371027e+01    0.8201664    0.3715698  35.93  0.005509323    1.904    0.475
        48 -14.6491     33.5830    244.0346   1.3713000176e+02   2.2334446243e+01    0.7741159    0.6046337 -61.19  0.003297456    1.797    0.444
        49 -13.1269     28.3665    230.8115   1.3742890068e+02   2.4970343249e+01    0.4963502    0.2894076  24.43  0.003338209    2.190    0.543
        50 -13.9881     28.3278    218.3808   1.3685271251e+02   2.7078328266e+01    0.8051779    0.5766166 -25.61   0.00283154    2.812    0.644
        51 -11.6993     20.1154    216.1906   1.3823769504e+02   2.8228161447e+01    0.1795272     0.132716  64.69 0.0002571239    1.013    0.013
        52 -15.2861     13.7525    248.0482   1.4050858846e+02   2.3592152366e+01     1.103599    0.4191149  44.78  0.005270774    1.769    0.435
        53 -13.8393     11.3472    231.8274   1.4036549678e+02   2.6372311898e+01    0.4633879    0.4041378  19.10  0.004120981    1.713    0.416
        54 -12.6400     37.8133    224.9155   1.3546845267e+02   2.5018784212e+01    0.3064521    0.2223775 -61.49  0.001470579    1.766    0.434
        55 -13.1303     37.0519    218.8238   1.3527803865e+02   2.6140614593e+01    0.4123569    0.2923157 -52.23  0.001526769    1.992    0.498
        56 -10.9522     67.1871    239.0252   1.3103077896e+02   1.9490295649e+01     0.191382    0.1386261  31.55 0.0005926936    1.463    0.317
        57 -11.5454    183.3468    240.9970   1.0990368762e+02   3.3358172924e+00    0.3236071    0.1862545  21.42  0.001366284    1.637    0.389
        58 -11.8596    201.7287    240.2809   1.0653532509e+02   7.6734118054e-01    0.4805809    0.1534225  39.38   0.00226857    2.447    0.591
        59  -9.9225    221.2111    239.7190   1.0307697321e+02  -1.9174876901e+00    0.1656314     0.112349  36.54 0.0007265244    1.431    0.301
        60 -11.2217    168.2971    238.9873   1.1237820944e+02   5.7765303727e+00    0.2131884    0.2041723  66.71 0.0007680868    1.477    0.323
        61 -10.5554    116.0197    237.7912   1.2196049068e+02   1.3440574617e+01    0.2015432    0.1942392 -58.89  0.001271371    1.360    0.265
        62 -10.1351    109.5115    239.1046   1.2329809750e+02   1.4133797627e+01      0.13172    0.1106088 -73.02 0.0005238821    1.502    0.334
        63 -11.7626     83.6186    238.0756   1.2798597363e+02   1.7656480509e+01    0.2513387    0.1736605  51.92 0.0006829916    1.123    0.109
        64 -10.7895    156.8867    237.4357   1.1429092368e+02   7.6491717243e+00    0.2644018    0.1424407  41.91  0.001057234    1.474    0.321
        65 -10.8208    132.7954    232.8298   1.1827845361e+02   1.1798587906e+01    0.1857759    0.1451773  38.63 0.0004028525    1.018    0.018
        66 -11.4262    137.1272    236.8615   1.1791117124e+02   1.0600187437e+01    0.5504808    0.1277349  39.56  0.001246075    3.160    0.684
        67 -12.2263    128.8095    240.9987   1.1990628387e+02   1.1200995683e+01    0.3942133    0.1377392  41.63  0.001957574    2.126    0.530
        68 -10.9441    181.1265    235.3974   1.0956258417e+02   4.3326710121e+00    0.2096273    0.1551571  21.89  0.000303974    1.118    0.106
        69 -10.7803    178.6304    232.1723   1.0958535701e+02   5.1024941026e+00    0.5667313    0.1751391  31.58  0.002237199    3.290    0.696
        70 -10.2038     54.3809    238.3421   1.3326499042e+02   2.1051674830e+01   0.09965007   0.07486335  52.72 0.0001324262    1.061    0.057
        71 -10.7301    110.5196    235.0495   1.2272391757e+02   1.4603181814e+01    0.2312983    0.1347962  27.32 0.0008381394    1.794    0.443
        72 -10.3994    196.9256    233.1688   1.0639083014e+02   2.2678831014e+00    0.2012461    0.1463955  42.44 0.0005588825    1.468    0.319
        73 -11.7955    154.5941    232.6805   1.1413592728e+02   8.6233065372e+00     0.399187    0.1914981  43.62 0.0004052351    1.721    0.419
        74 -10.7146    152.0073    226.9223   1.1390568154e+02   9.8065149896e+00    0.1745363    0.1603153  -4.87 0.0003524236    1.290    0.225
        75 -10.4426    119.8520    233.4877   1.2080516685e+02   1.3545038228e+01    0.1879135    0.1402429  69.23 0.0007665514    1.564    0.360
        76 -11.9045     59.4907    232.1003   1.3196367162e+02   2.1486581708e+01    0.3390976    0.1726006  64.52  0.001265261    1.884    0.469
        77 -10.2823     55.7336    228.6503   1.3242725020e+02   2.2477832499e+01    0.1269481    0.1201917 -61.21 0.0004005718    1.481    0.325
        78 -11.1723    219.3222    231.3415   1.0216424046e+02  -7.7642812962e-01    0.2219506    0.1801398 -19.72 0.0006416517    1.508    0.337
        79 -11.5620    143.6982    232.2682   1.1614493456e+02   1.0290232617e+01    0.3132806    0.1521095  38.24 0.0006384779    1.576    0.365
        80 -10.4413     81.1753    231.7065   1.2793631232e+02   1.8967217935e+01    0.1632037    0.1246156  69.16  0.000327167    1.248    0.199
        81 -11.1416     78.8156    223.1437   1.2768851853e+02   2.0665926667e+01    0.2938998     0.168883 -78.74  0.001817955    2.068    0.516
        82 -10.3331     74.2864    231.3716   1.2919320319e+02   1.9868358621e+01    0.2175622    0.1442588  37.42  0.001379589    1.332    0.249
        83 -11.7236     73.5523    227.0615   1.2900289693e+02   2.0662812695e+01     0.464036    0.1579763  51.72  0.002037835    2.611    0.617
        84 -11.1015    236.1841    229.2890   9.8968640230e+01  -2.9306686578e+00    0.2798655    0.2111712  45.44  0.001806232    1.960    0.490
        85 -10.6403     95.9473    229.5404   1.2496557484e+02   1.7416416436e+01     0.264426    0.1779689  22.32  0.001283845    1.786    0.440
        86 -11.3504     94.2703    227.0088   1.2505589248e+02   1.8043246204e+01    0.1989129    0.1900187  40.01  0.001138501    1.276    0.216
        87 -10.5047    162.3962    234.8201   1.1294269374e+02   7.1807220552e+00    0.2238259    0.1030986 -34.10  0.001139836    3.112    0.679
        88 -11.5675    158.3380    225.1371   1.1246186307e+02   9.0978267371e+00    0.2444265    0.1985312 -58.11 0.0003847852    1.724    0.420
        89 -12.1408    111.4324    227.3544   1.2178447010e+02   1.5658577185e+01    0.2030693    0.1860107  52.55 0.0004781484    1.176    0.150
        90 -10.9515     90.1325    228.1517   1.2594922622e+02   1.8400282028e+01    0.1522845    0.1283153  42.67  0.000295326    1.153    0.133
        91  -9.8216    133.7904    227.3983   1.1746920611e+02   1.2449186706e+01    0.1647573   0.09252632  30.83 0.0002343097    1.592    0.372
        92  -9.4369    216.2604    226.6286   1.0198407440e+02   1.7840754184e-01   0.09678437     0.088954  39.06 0.0006978192    1.653    0.395
        93 -10.1591    164.3399    225.5485   1.1137004675e+02   8.1267595952e+00    0.1863551     0.134413  -3.83   0.00116417    1.719    0.418
        94 -10.0203    121.9337    225.1727   1.1951574360e+02   1.4509800491e+01    0.2365316    0.1010928  43.11  0.001213562    1.843    0.457
        95 -10.6054     99.1828    223.4882   1.2377556165e+02   1.7957421260e+01    0.2356182    0.1434414  80.95  0.001108338    2.288    0.563
        96  -9.9173    178.5516    224.2234   1.0849786704e+02   6.1295933853e+00    0.1501806    0.1072678 -14.41 0.0009035434    1.657    0.396
        97  -9.9624    143.4710    223.4418   1.1511612695e+02   1.1593687564e+01    0.1652633    0.1184485 -70.44 0.0007374531    2.105    0.525
        98 -10.1747    187.6246    223.1264   1.0664326812e+02   4.8808976437e+00    0.2226433    0.1266819 -10.87 0.0004789674    2.625    0.619
        99 -10.4286     85.0551    221.3694   1.2633035966e+02   2.0171997516e+01    0.1602443    0.1425156  51.48  0.000589214    1.157    0.136
       100 -11.0825    196.4856    220.4590   1.0460482934e+02   3.8580114165e+00    0.2519385     0.145857 -41.89  0.001450636    2.283    0.562
       101 -10.9227    194.5022    216.4890   1.0436558815e+02   4.6613933885e+00    0.1965604    0.1392755  47.94 0.0008321062    1.658    0.397
       102 -10.7106     63.1743    220.1837   1.3045588599e+02   2.3058688617e+01    0.2358669    0.1233209  59.76 0.0007156592    1.738    0.425
       103  -9.7222     54.4003    221.2276   1.3219158687e+02   2.3879917146e+01    0.1436262   0.08674051  81.69 0.0008588482    1.677    0.404
       104 -10.9556    133.3551    219.1575   1.1657262144e+02   1.3759917048e+01    0.3083136     0.161964  29.58 0.0004154251    1.834    0.455
       105 -10.1232      1.2604    218.2858   1.4163175757e+02   2.9485103438e+01     0.274229   0.06995063 -82.53    0.0013762    3.607    0.723
       106 -12.1899    222.3472    218.2495   9.9599734927e+01   2.2163052418e-01    0.2573843    0.1664737  24.91 0.0002643424    1.182    0.154
       107 -11.5884    217.9096    217.8499   1.0031921735e+02   9.2567008082e-01    0.2390341    0.1598699  25.45 0.0003188163    1.143    0.125
       108  -9.5435    203.6839    219.3178   1.0311028946e+02   2.8984374261e+00    0.1074994   0.08906187  48.97 0.0007038969    1.653    0.395
       109 -11.8249    237.7332    217.2411   9.6779507575e+01  -1.9016211761e+00    0.2895214    0.1644928  36.46 0.0006900669    1.579    0.367
       110 -12.4070    107.3886    215.6715   1.2135371861e+02   1.8109387697e+01    0.5362161    0.3832335 -38.94  0.002670596    1.914    0.478
       111 -10.3066    100.7067    217.6495   1.2289641209e+02   1.8711244425e+01    0.1974277    0.1430089  30.97 0.0007716834    1.347    0.258
       112 -11.5924    102.9445    214.0990   1.2207980402e+02   1.8996798320e+01    0.3023807    0.2543221 -43.64 0.0002846054    1.529    0.346
       113  -9.7871     89.2826    218.6135   1.2525301667e+02   2.0085862464e+01     0.120121   0.07225697  64.04 0.0007006098    1.738    0.425
       114 -10.5915     72.9853    217.3596   1.2834190583e+02   2.2371588526e+01    0.1712567    0.1619144  20.59 0.0004604459    1.384    0.278
       115 -11.2121     66.9017    206.8422   1.2868024221e+02   2.4972804203e+01     0.211019     0.171447 -71.24 0.0004202881    1.386    0.278
       116 -10.7634     71.1696    202.6676   1.2744779844e+02   2.5215891195e+01    0.4969585    0.2055695  48.51  0.002537416    2.050    0.512
       117 -11.6327     69.9947    212.7107   1.2854830066e+02   2.3548546675e+01    0.4034588    0.2176606 -61.16  0.001486434    2.113    0.527
       118 -10.6247     76.5359    216.4412   1.2756952174e+02   2.2090989995e+01    0.1972223    0.1408924  60.08 0.0005372401    1.207    0.172
       119 -11.2768     75.6023    212.7769   1.2743987339e+02   2.2846322310e+01     0.275537    0.1627643  44.09 0.0006463336    1.366    0.268
       120 -10.0459    141.8872    217.3106   1.1465023279e+02   1.2750546562e+01    0.1758233    0.1267167  34.08 0.0006298462    1.132    0.116
       121 -11.0561    126.0023    215.6558   1.1761368925e+02   1.5408619169e+01    0.2368408    0.1667943  35.03 0.0003758784    1.195    0.164
       122 -10.9988     84.4119    215.3983   1.2592040065e+02   2.1269635089e+01    0.3205187       0.2451  12.84 0.0009253493    1.797    0.444
       123 -10.0867     85.5394    211.4619   1.2532769365e+02   2.1806453148e+01    0.1539816    0.1386821  89.66 0.0005478575    1.229    0.187
       124 -10.5770     59.8680    214.9779   1.3071077429e+02   2.4346593106e+01    0.2695442    0.1594309 -43.04  0.001509477    2.796    0.642
       125 -11.0241    172.3403    214.9811   1.0835108936e+02   8.3397661010e+00    0.2104159    0.1456084  38.20 0.0004029839    1.211    0.174
       126  -9.9365    146.6198    214.7866   1.1337911295e+02   1.2404692022e+01     0.145992    0.1195582 -68.38 0.0009503653    1.674    0.403
       127 -10.3845    134.0872    214.7137   1.1587512208e+02   1.4341489896e+01    0.3300948    0.1256655  32.47  0.001011188    2.548    0.607
       128 -10.9774    218.2128    212.1464   9.9340603787e+01   1.5425193491e+00     0.295937    0.1753512  20.81  0.001731326    1.450    0.310
       129 -11.6979    214.2963    210.0545   9.9700091331e+01   2.3907441716e+00    0.4058687    0.3280784  87.24   0.00172382    3.320    0.699
       130 -11.1054    161.4333    213.0743   1.1020627294e+02   1.0336175457e+01     0.389555    0.1393564  40.73  0.001258309    2.266    0.559
       131 -10.7508     57.6603    211.7080   1.3090089642e+02   2.5178794075e+01    0.2489005    0.1655401 -46.84  0.001594563    2.162    0.538
       132 -13.2790      8.9672    213.8142   1.4013620718e+02   2.9621185591e+01     1.107062    0.4169201  71.87  0.003992193    2.412    0.585
       133  -9.6784    250.3779    212.2156   9.3827930061e+01  -3.1589657119e+00    0.1357565   0.09648509 -21.99 0.0002695356    1.531    0.347
       134 -10.3484    121.9384    212.3389   1.1803490917e+02   1.6549848510e+01    0.1800816    0.1340862  48.00 0.0003586639    1.160    0.138
       135 -11.1208    117.9291    212.0452   1.1881450098e+02   1.7191112949e+01    0.2658989    0.1408415  42.89 0.0004443117    1.533    0.348
       136 -10.5486     95.0736    210.2729   1.2327602953e+02   2.0739116652e+01    0.3011748    0.1263388 -49.42     0.001446    3.103    0.678
       137 -11.0066     31.1597    202.1267   1.3545673750e+02   2.9719536512e+01    0.2632976    0.1685513  68.20  0.001081322    1.295    0.228
       138 -11.7653     25.8081    196.8477   1.3620773175e+02   3.1211403752e+01    0.5160292    0.4236965  31.12  0.002185157    1.450    0.311
       139 -12.3408     19.3244    210.9560   1.3814846467e+02   2.9221802598e+01     0.240334    0.2363566 -65.73  0.000459323    1.498    0.332
       140 -11.1959     21.7805    192.5862   1.3677237557e+02   3.2384743169e+01    0.6290689    0.2024211 -61.10  0.003087913    3.326    0.699
       141 -12.1575     14.2846    205.2100   1.3882555265e+02   3.0697611511e+01    0.4552196    0.1856451 -84.95 0.0004810986    2.281    0.562
       142 -11.6216     18.1567    202.8692   1.3799369364e+02   3.0785641316e+01    0.2732903    0.1647181  81.63 0.0003128453    1.421    0.296
       143 -11.4833    200.9052    211.0922   1.0232469002e+02   4.3462120533e+00    0.3170961    0.1491961  37.78  0.000515349    1.744    0.427
       144 -10.1728    143.8462    211.1631   1.1344837776e+02   1.3392825108e+01    0.1694239    0.1285168  20.63 0.0005901846    1.324    0.245
       145 -11.4099     80.8089    208.6383   1.2602012877e+02   2.2918936648e+01    0.3130282    0.2169917 -80.25  0.002043771    1.600    0.375
       146  -9.8911     13.7541    211.0472   1.3916923748e+02   2.9698237818e+01     0.118238    0.1036467 -86.90 0.0005822629    1.354    0.261
       147 -10.2705    184.2671    198.9749   1.0352834421e+02   8.6658555638e+00    0.1698596    0.1451413   2.85 0.0003859613    1.160    0.138
       148 -10.4709    183.9943    210.0501   1.0535736526e+02   7.1657290346e+00    0.1839101    0.1437887  23.25 0.0003180503    1.029    0.028
       149 -12.4524    183.1590    204.7450   1.0468263002e+02   8.0327133581e+00    0.3868231    0.2825242   2.99 0.0009761304    1.448    0.309
       150 -11.3173    128.5312    208.0861   1.1616046702e+02   1.6253816465e+01    0.3131624    0.2625877 -10.57  0.001191057    1.510    0.338
       151 -10.7158    249.0206    202.3218   9.2345638278e+01  -1.9233688959e+00    0.2749533    0.1249297  39.57  0.001454557    2.084    0.520
       152 -11.8943    239.3445    206.3676   9.4676540723e+01  -9.5773260323e-01    0.6136267    0.2759439   8.88  0.002360159    4.099    0.756
       153 -12.9704    239.6941    198.7356   9.3282147854e+01  -1.5367363091e-01       0.4371     0.325487   1.22 0.0005398968    1.117    0.105
       154 -10.9366     52.3936    207.3570   1.3162170238e+02   2.6554756341e+01    0.2191569    0.1636832  50.23 0.0007138871    1.120    0.107
       155 -12.1064    198.5886    205.7753   1.0189479748e+02   5.3989144902e+00     0.461684    0.2471129  26.67  0.002427552    1.676    0.403
       156 -10.2645    152.7911    207.3630   1.1111404053e+02   1.2566918389e+01    0.1832658   0.09930412  31.36 0.0004596812    1.643    0.391
       157 -10.0736    117.1186    207.4645   1.1843373988e+02   1.8077348128e+01    0.1871956    0.1000724  40.28 0.0004935405    1.528    0.346
       158 -10.4700    145.0009    204.7400   1.1232691147e+02   1.4221982314e+01    0.3066879    0.1812816 -40.44  0.001539503    2.071    0.517
       159 -10.5449    133.9154    206.3152   1.1482192547e+02   1.5713940950e+01    0.2483506    0.1804627  49.62 0.0008495479    1.282    0.220
       160 -10.1198    132.3497    203.2796   1.1473949502e+02   1.6458195289e+01    0.2265644   0.09730494  38.74 0.0007212656    1.919    0.479
       161 -11.4516     98.7390    205.3136   1.2199542458e+02   2.1101758741e+01     0.216581     0.193724  30.00 0.0003556249    1.221    0.181
       162 -12.7403     95.4982    200.2530   1.2211752183e+02   2.2459980578e+01    0.4042915      0.24963  42.01 0.0007194302    1.357    0.263
       163 -12.6452      6.6907    224.4122   1.4090083296e+02   2.8000182546e+01    0.3992484    0.3829629  20.07  0.003738934    1.609    0.378
       164 -11.1446     59.5550    204.1528   1.2994670734e+02   2.6330548253e+01     0.200128    0.1413234  52.01 0.0003039034    1.155    0.134
       165  -9.5101     27.2631    205.3064   1.3638433057e+02   2.9507499964e+01   0.08869583   0.07725602 -60.32 0.0002572307    1.526    0.345
       166  -9.6658    118.7365    196.6391   1.1672815212e+02   1.9705467999e+01    0.1925396     0.111613  35.48 0.0006151589    1.515    0.340
       167 -11.1445    121.4545    203.3262   1.1701874884e+02   1.8129605147e+01    0.2290442    0.2081605  51.40 0.0004342088    1.109    0.098
       168 -10.5297    121.4939    199.1231   1.1646698314e+02   1.8847361569e+01    0.2158054     0.180056  42.18 0.0003368798    1.007    0.006
       169 -10.1585    137.9361    202.6372   1.1349047119e+02   1.5685367845e+01     0.205418    0.1352444  24.99  0.001142767    1.541    0.351
       170  -9.5742    105.2881    203.3813   1.2041123443e+02   2.0513449208e+01    0.1145225   0.09296834  -9.89 0.0003486381    1.739    0.425
       171 -10.9949     52.7799    201.7899   1.3113557795e+02   2.7536045029e+01    0.2557357     0.180892 -59.09  0.000984804    1.682    0.405
       172  -9.8887    171.4857    201.8780   1.0652904382e+02   1.0357668935e+01    0.1614018    0.1261497 -33.93 0.0003930572    1.498    0.333
       173  -9.9879    166.7433    202.0757   1.0751040013e+02   1.1108304719e+01    0.1694137    0.1450193  15.08 0.0003689172    1.117    0.105
       174 -10.3762    232.9312    200.7933   9.4811625917e+01   6.3135802156e-01    0.2062801    0.1213877  39.87  0.001181369    1.673    0.402
       175 -11.2974    207.5010    199.5046   9.9170348353e+01   4.7830026464e+00    0.2505067    0.2307025 -33.38  0.001001259    1.531    0.347
       176  -9.4211    187.3055    186.6879   1.0082073995e+02   9.9390234276e+00    0.2188237    0.1698566  40.38 0.0006390632    1.277    0.217
       177 -10.8433    190.6007    200.7441   1.0258795599e+02   7.3718945385e+00    0.1912834    0.1596442 -37.52 0.0005925276    1.519    0.342
       178 -12.0495    188.6752    196.1938   1.0219931613e+02   8.3279970042e+00    0.2490707    0.2022602  26.03 0.0002941523    1.059    0.055
       179 -10.4548    193.0021    194.2723   1.0102763231e+02   7.8759002011e+00    0.2570337    0.1814409  21.02 0.0004102029    1.235    0.190
       180 -11.3247    188.2215    190.7687   1.0135681816e+02   9.1834719403e+00    0.5836162    0.3396111   3.09  0.002633955    2.593    0.614
       181 -11.5084    192.0244    190.7415   1.0060427363e+02   8.5415037805e+00    0.5304605    0.3190753   3.44  0.001913228    2.237    0.553
       182 -10.8644    149.9873    200.8649   1.1074161856e+02   1.4037710604e+01    0.1837028    0.1708243  21.58 0.0002803261    1.138    0.122
       183 -10.0412     86.6313    201.2753   1.2409519451e+02   2.3483876423e+01    0.1470624     0.108205 -57.18 0.0009385444    1.591    0.371
       184 -12.1613    228.3647    196.1961   9.4799426614e+01   1.8788820213e+00    0.4501754    0.2545312  -4.96  0.001600822    2.016    0.504
       185  -9.7268    177.5088    199.3737   1.0492858873e+02   9.7299721443e+00    0.1299345    0.1024112  28.43 0.0001184356    1.036    0.034
       186 -11.8639    109.7833    197.7747   1.1878822650e+02   2.0852852464e+01    0.2463847    0.1899524  45.85 0.0002709946    1.098    0.089
       187 -10.3223    102.9285    198.5283   1.2034238562e+02   2.1719249957e+01    0.1708166    0.1571185  23.79 0.0003167721    1.226    0.184
       188 -11.5828    105.9825    194.4590   1.1919435501e+02   2.2013883217e+01    0.3267832     0.242351  10.01 0.0005633687    1.825    0.452
       189  -9.8945    169.8168    197.7725   1.0621170007e+02   1.1248558217e+01    0.2635741   0.09278049 -36.94  0.001036168    3.615    0.723
       190 -10.3748      9.6609    196.4059   1.3931721887e+02   3.2702921608e+01    0.2105128    0.1368517 -70.31 0.0008659727    1.624    0.384
       191 -10.0183     13.2013    193.6400   1.3851268593e+02   3.2927365132e+01    0.1226417    0.1122291  80.39 0.0004832517    1.292    0.226
       192  -9.9367    161.7549    198.0143   1.0788963009e+02   1.2553317162e+01    0.1704182    0.1516775  21.73 0.0003041351    1.095    0.086
       193 -12.3794    217.1114    193.3846   9.6321345513e+01   4.0173524910e+00    0.3838179    0.3476117  22.27  0.002616882    1.353    0.261
       194 -10.7231     70.2777    195.6286   1.2698911830e+02   2.6640912750e+01    0.2550625    0.2055528 -20.84            0    1.892    0.472
       195 -12.6320     66.1604    191.1491   1.2744863447e+02   2.8002102158e+01     0.347008    0.2114553  41.32 0.0006654185    1.433    0.302
       196 -11.7264     60.9570    187.8468   1.2826681080e+02   2.9265636878e+01    0.3374013    0.1716762 -57.56  0.001557617    2.165    0.538
       197 -10.2436     62.7935    196.0717   1.2860771693e+02   2.7462270844e+01    0.1751998    0.1241579  63.21 0.0004561738    1.240    0.193
       198 -11.5611      4.4891    195.5222   1.4026243748e+02   3.3282314126e+01    0.1754975    0.1358382  69.38 7.922313e-05    1.057    0.054
       199 -11.9444      1.9131    192.6925   1.4064185807e+02   3.4008804435e+01    0.2033995    0.1292146 -87.22 0.0004258874    1.368    0.269
       200 -10.6682    199.3960    194.9646   9.9915301717e+01   6.7142620161e+00    0.2288688    0.1613623  45.65  0.001143878    1.559    0.359
       201 -10.7048    139.9817    194.6056   1.1191114156e+02   1.6694776292e+01    0.1970197    0.1855737  89.41  0.001312737    1.282    0.220
       202 -10.9474     95.4416    195.0369   1.2154031063e+02   2.3424308766e+01    0.2214109    0.1553072  38.76 0.0003600021    1.259    0.206
       203 -10.6735    250.1097    193.9414   9.0668072415e+01  -1.1638012995e+00    0.1843487    0.1374008  10.55 0.0006546135    1.026    0.026
       204 -12.5908     52.8772    192.9082   1.3042459965e+02   2.9206312941e+01    0.2896059    0.1965653  49.84 0.0004436201    1.243    0.195
       205 -10.8058    163.5075    192.4187   1.0663649266e+02   1.3137564645e+01    0.3224883    0.2059701 -21.96  0.001067409    2.039    0.509
       206 -11.3043    210.5524    191.5122   9.7197816813e+01   5.3323900128e+00     0.238646    0.2023143  85.30  0.001363132    2.388    0.581
       207 -10.0951    148.4585    192.4986   1.0979694696e+02   1.5652334374e+01    0.2335938    0.1101928  29.83  0.001000842    2.197    0.545
       208 -11.2606     82.0489    189.4113   1.2382250383e+02   2.6320073582e+01    0.6672907    0.2509697  33.30  0.002961793    2.541    0.606
       209 -11.9784    246.6698    190.4732   9.0607824894e+01  -2.6031633277e-01    0.3828435    0.1761013  25.52 0.0008987957    2.087    0.521
       210  -9.2649     16.2717    191.3034   1.3779843394e+02   3.3110385589e+01   0.09173585   0.07554982 -60.37 0.0001955448    1.535    0.349
       211 -10.7961     91.7355    188.9555   1.2164149747e+02   2.5087542313e+01    0.2427786    0.1858874 -75.65  0.001221283    1.429    0.300
       212 -11.2017    130.2742    188.6473   1.1312101767e+02   1.9304181743e+01    0.2619816    0.1820826  58.70 0.0008864381    1.604    0.377
       213 -10.0763     17.1861    187.6244   1.3742862776e+02   3.3737851270e+01    0.1316287    0.1213117 -75.89  0.001073002    1.359    0.264
       214 -12.1015     15.8015    183.0189   1.3746794296e+02   3.4750212837e+01    0.3681654    0.2880139 -83.35  0.001818081    1.238    0.192
       215 -10.8703    104.8728    187.1455   1.1850991276e+02   2.3535716058e+01    0.1934541    0.1535683  58.05  0.000384546    1.194    0.163
       216 -10.2575    220.9644    186.2998   9.4328037120e+01   4.2997057323e+00    0.2175462    0.1424165  39.40 0.0008379774    1.490    0.329
       217 -11.1917    225.3870    184.0490   9.3108771481e+01   3.8638808515e+00    0.2686982    0.1759792   9.72 0.0005736026    1.442    0.307
       218 -10.3429    132.9870    185.9944   1.1213156976e+02   1.9333812343e+01     0.153593    0.1372564  37.58 0.0003318032    1.036    0.034
       219 -10.4540     67.3290    184.7083   1.2657369566e+02   2.9119361860e+01     0.261185    0.1518608  72.46  0.001413549    1.925    0.481
       220 -11.1093     33.1418    185.5206   1.3402316883e+02   3.2698455004e+01    0.2386327    0.2028238  28.49  0.001196926    1.426    0.299
       221 -10.9520     29.6681    183.4916   1.3461847536e+02   3.3428887699e+01     0.331638    0.1642034 -80.69  0.001350448    1.889    0.471
       222 -10.7720     27.0179    180.2370   1.3496740329e+02   3.4320334927e+01    0.2298492    0.1786738  45.31  0.001566398    1.256    0.204
       223 -11.9971    230.4335    181.3157   9.1692707946e+01   3.3871101751e+00    0.4379271    0.3228483 -58.74   0.00225036    2.944    0.660
       224 -11.0693    176.8896    183.3554   1.0233571541e+02   1.2257402787e+01    0.3443178    0.2346906  29.53  0.001076545    1.277    0.217
       225 -10.4307      6.4725    175.4360   1.3900660433e+02   3.6986889038e+01    0.3895735    0.1203394 -71.40   0.00195961    2.776    0.640
       226 -11.5517      7.7434    182.1341   1.3906045092e+02   3.5573094922e+01    0.3438782    0.1857753  76.12  0.001976459    1.554    0.356
       227 -11.2330      4.3677    182.9950   1.3977473142e+02   3.5665302689e+01    0.2725751    0.1119585 -88.80  0.001153725    2.139    0.533
       228 -11.3829    121.0476    189.7078   1.1528864543e+02   2.0585871968e+01    0.2802888     0.243257  12.17 0.0007671531    1.296    0.228
       229 -10.4254     45.2764    183.6507   1.3130199880e+02   3.1843730325e+01    0.2932509    0.1198593  48.79  0.001506678    2.105    0.525
       230 -10.3464     47.9362    181.5426   1.3055200970e+02   3.1981731464e+01    0.1785742    0.1553772  22.20 0.0005872342    1.427    0.299
       231 -10.8378    122.2685    182.6176   1.1400015257e+02   2.1689931749e+01    0.3652061    0.1900435  52.93  0.001386551    2.096    0.523
       232 -11.3041    103.6281    183.1133   1.1825923820e+02   2.4488033097e+01    0.2362887    0.1491897  47.73 0.0007039767    1.420    0.296
       233  -9.5042     88.2812    183.6146   1.2177900476e+02   2.6599777384e+01    0.1310827   0.08483127  68.61 0.0007005527    1.732    0.423
       234 -11.5361     58.0997    181.2623   1.2828635117e+02   3.0905155577e+01    0.4457655    0.3297226  25.14  0.002846995    1.567    0.362
       235 -10.4389     54.4550    180.9089   1.2906203828e+02   3.1391833421e+01    0.2754039    0.1597468  68.40 0.0006528966    1.743    0.426
       236 -10.0916     82.4334    196.0816   1.2444708796e+02   2.5002185272e+01    0.1591823     0.113887 -73.63 0.0004171838    1.520    0.342
       237 -10.6603     91.9668    180.0861   1.2051254439e+02   2.6776180170e+01    0.2655883    0.1789982 -66.96 0.0008434636    1.616    0.381
       238 -10.6764    153.9831    180.0189   1.0658697492e+02   1.6818018956e+01    0.2006343    0.1583335  65.88 0.0007521376    1.642    0.391
       239 -10.5515    132.0633    180.3540   1.1146576655e+02   2.0503770385e+01    0.1920619    0.1524954  41.32 0.0005264658    1.108    0.097
       240  -9.8035    126.9417    180.4616   1.1262865376e+02   2.1330424758e+01    0.2027708    0.1155967  39.42 0.0004252516    1.531    0.347
       241 -10.4091     83.0950    179.2345   1.2243355275e+02   2.8175942381e+01    0.3196038    0.2359344  67.21  0.001937181    1.343    0.256
       242 -11.9552     72.6400    177.9697   1.2467650268e+02   2.9804244003e+01    0.4216075    0.2770068  19.55  0.002330836    1.956    0.489
       243 -12.1065     78.6732    174.5958   1.2290163424e+02   2.9704885471e+01    0.4767817    0.2173306  40.85  0.002318496    1.930    0.482
       244  -9.9911    100.9850    170.4439   1.1712029169e+02   2.7377599253e+01    0.5801962    0.3636303 -17.97  0.002439688    3.328    0.700
       245 -11.1569    104.2124    178.4004   1.1748885134e+02   2.5311872486e+01    0.2247739    0.1889553 -60.27 0.0003311363    1.315    0.240
       246 -10.7352    101.0110    176.0045   1.1789619137e+02   2.6263837724e+01    0.1869123    0.1624563  54.48            0    1.042    0.041
       247 -10.2901    237.4493    178.0109   8.9832784128e+01   2.6631400710e+00    0.1866059    0.1403084  19.49 0.0003308316    1.112    0.101
       248 -10.2022     39.9961    178.2598   1.3202633409e+02   3.3471001727e+01    0.1557101    0.1275478  65.80 0.0002441423    1.032    0.031
       249 -11.3683    136.4959    176.5070   1.0985595139e+02   2.0459856723e+01    0.2344379    0.2149709 -17.13  0.000937297    1.214    0.177
       250 -11.5235    137.3247    172.1726   1.0894622027e+02   2.1115026035e+01    0.4244311    0.3169586  79.63  0.001349239    1.954    0.488
       251 -10.2790    119.4505    177.5262   1.1387635463e+02   2.3098833710e+01     0.245995    0.1201619  27.76  0.001036246    2.409    0.585
       252 -11.1514     31.7630    176.3791   1.3368577402e+02   3.4656033928e+01    0.2406772    0.1694698  48.23 0.0006374779    1.278    0.218
       253 -10.8453    131.4912    174.8377   1.1071344633e+02   2.1617008306e+01    0.3557133    0.2071922 -24.47  0.001004861    2.968    0.663
       254  -9.7568    249.8214    175.1563   8.7187828779e+01   1.0439179403e+00    0.1735226    0.1155187  11.92 0.0004303473    1.300    0.231
       255  -9.8439    218.9785    175.2222   9.2590526059e+01   6.0983845363e+00    0.1672467   0.09495566  37.63 0.0003398569    1.593    0.372
       256 -10.7919    188.9045    173.9608   9.8158117837e+01   1.1579968143e+01     0.390117    0.2083306  52.53  0.001698223    2.433    0.589
       257 -11.2622    157.5050    173.4412   1.0467104475e+02   1.7329037442e+01    0.3284107    0.2156471  35.03  0.001281452    1.347    0.258
       258 -10.2235     93.9897    174.0013   1.1925707266e+02   2.7697889958e+01    0.1902162     0.167978  58.44 0.0003334916    1.027    0.027
       259 -11.7298     86.9635    171.2684   1.2054651657e+02   2.9253938333e+01    0.4226354     0.194516 -71.90  0.001832937    2.774    0.639
       260 -11.4617    173.8357    172.9399   1.0107531954e+02   1.4467420935e+01    0.4233173    0.1656873  31.49  0.001544611    2.894    0.654
       261 -10.6691    106.9916    172.7327   1.1604026824e+02   2.6000297303e+01     0.189412    0.1684088  47.62  0.001181462    1.010    0.010
       262 -11.4260     63.4315    170.5600   1.2599897311e+02   3.2465876225e+01    0.3256455    0.2244439  26.95  0.001315615    1.615    0.381
       263 -11.3122     12.8306    170.1809   1.3739399698e+02   3.7552443059e+01    0.1774905    0.1599785  73.56 0.0002647646    1.197    0.165
       264 -11.8093     49.9926    165.3719   1.2862369363e+02   3.5093417720e+01    0.5088909    0.2812578 -43.17  0.002497665    2.539    0.606
       265 -11.0478     31.4447    169.5189   1.3325499742e+02   3.6091683774e+01    0.2035516    0.1755339 -81.65 0.0008318712    1.185    0.156
       266  -9.7575    144.1541    169.1790   1.0687928907e+02   2.0470167758e+01    0.1817903    0.1519484  55.02 0.0003754668    1.276    0.216
       267 -11.4114    114.8386    168.6474   1.1357727849e+02   2.5565500894e+01    0.2635024     0.209367  41.80 0.0001942145    1.137    0.120
       268  -9.9966    108.9327    169.2513   1.1506514532e+02   2.6389044057e+01    0.1855876    0.1592791  43.14 0.0004257272    1.059    0.056
       269  -9.8072      5.7305    169.0289   1.3885177685e+02   3.8324826307e+01    0.1440008    0.1103687  77.96  0.000451401    1.021    0.020
       270 -10.0498      1.7510    169.0697   1.3969497547e+02   3.8602235542e+01    0.1423216    0.1064783  87.00 0.0002661245    1.109    0.098
       271 -10.2317    195.0643    168.3393   9.5830403011e+01   1.1325849089e+01     0.192809    0.1512959  29.16 0.0004082441    1.122    0.109
       272 -11.1466     81.8140    165.8090   1.2106350597e+02   3.1096722218e+01    0.3023076      0.21188  27.54  0.001699521    1.546    0.353
       273 -10.4762     74.0404    165.3468   1.2287875389e+02   3.2230923658e+01    0.3196597    0.1765519 -42.38  0.001457246    2.451    0.592
       274  -9.7275     40.5196    166.4620   1.3093812506e+02   3.5852364617e+01    0.1169144   0.09901091  75.04 0.0002404658    1.014    0.013
       275 -10.7590    159.1925    164.4725   1.0264288526e+02   1.8593715508e+01    0.2252603    0.1910336 -35.12 0.0002727085    1.292    0.226
       276 -10.3148    124.0996    165.0990   1.1081251655e+02   2.4729661434e+01    0.2082066    0.1813278   1.93  0.001034437    1.309    0.236
       277 -10.1399     61.2008    164.8882   1.2590968580e+02   3.3923697416e+01    0.1857795    0.1476134  67.28 0.0004324063    1.148    0.129
       278 -10.2315    203.1257    162.6102   9.3087790234e+01   1.0716331549e+01    0.3074465    0.1716631 -40.73   0.00145934    2.043    0.510
       279  -9.7658    147.4573    163.4886   1.0509716077e+02   2.0923786220e+01    0.1401754    0.1255381  28.80 0.0001092898    1.007    0.007
       280 -10.1962    100.8187    163.3976   1.1612051746e+02   2.8838997962e+01    0.1862836    0.1224571  26.99  0.000517107    1.652    0.395
       281  -9.6105     26.5064    163.4642   1.3392409643e+02   3.7802100574e+01    0.1135479   0.09469405  79.18 -2.751832e-05    1.031    0.030
       282 -10.5771     18.9578    162.5399   1.3557691566e+02   3.8636199995e+01     0.235194    0.1447141 -88.31 0.0008770768    1.405    0.288
       283 -10.0136     10.7635    162.9846   1.3743810063e+02   3.9186735324e+01    0.2458677   0.07817144  49.81  0.001197655    2.686    0.628
       284  -9.6406     91.2661    162.7021   1.1834364807e+02   3.0412223040e+01    0.1294048    0.0934881  68.94            0    1.516    0.340
       285 -12.0540    107.3941    158.1582   1.1368697091e+02   2.8889396638e+01    0.2422389    0.2301723  68.10 0.0002879346    1.053    0.050
       286 -10.9766     52.8186    158.0129   1.2719007628e+02   3.6358126705e+01    0.2422376    0.1585385 -73.89 0.0005665261    1.454    0.312
       287 -10.7980     47.6758    158.5016   1.2849486842e+02   3.6810140502e+01    0.2396807    0.1639363 -47.18  0.001000528    1.754    0.430
       288 -11.9229     34.0249    157.8961   1.3172354673e+02   3.8302330608e+01     0.521076    0.1720342  46.92  0.001224277    2.743    0.635
       289 -11.6334     24.7346    158.0216   1.3392830378e+02   3.9106937763e+01    0.2759306    0.1568314  29.05  0.001643764    1.903    0.474
       290 -10.7343    145.6904    158.0569   1.0448016505e+02   2.2260283325e+01    0.1939478    0.1771209  21.30 0.0008247024    1.041    0.040
       291  -9.7321     66.3173    158.3331   1.2390299836e+02   3.4707011268e+01    0.1225607   0.09567386 -32.31 0.0007047827    1.692    0.409
       292  -9.7109      5.1955    158.1404   1.3840703690e+02   4.0595495510e+01    0.1450938   0.09903614  65.77 0.0005835092    1.233    0.189
       293 -10.8019    190.6283    157.1365   9.4459295302e+01   1.3907809677e+01    0.2274458    0.1768063  42.13 0.0005791224    1.297    0.229
       294 -10.7247    162.7396    156.7028   1.0033526794e+02   1.9311255744e+01    0.3699815    0.2201069  17.68  0.001481875    2.290    0.563
       295 -12.1468    138.0619    154.8668   1.0566075558e+02   2.4270506614e+01    0.5337595    0.3980644 -79.10  0.002629594    1.958    0.489
       296 -10.6938    184.0009    156.0818   9.5611361858e+01   1.5346186985e+01    0.2108654    0.1858982  19.36  0.000349766    1.033    0.032
       297 -11.6968    124.4172    155.9200   1.0913509874e+02   2.6496733575e+01    0.2466751    0.2050898  40.82  0.000337666    1.111    0.100
       298 -10.7079    113.3965    154.2633   1.1154601175e+02   2.8713098922e+01    0.2746564    0.2335175 -82.79 0.0009213855    1.333    0.250
       299 -10.5894     36.0999    153.0641   1.3079137265e+02   3.9151655407e+01    0.2751732    0.1519214  89.10  0.001359878    1.802    0.445
       300 -11.5614    225.1117    151.1886   8.6566407283e+01   8.3414281214e+00    0.3140583    0.3010714 -40.81  0.001975368    1.451    0.311
       301  -9.8014     89.9988    152.9906   1.1721651246e+02   3.2659424016e+01    0.1571613    0.1463477  64.10  0.000972853    1.002    0.002
       302 -10.7425     11.9640    153.7752   1.3661022689e+02   4.1027061616e+01    0.1312881   0.08894021  30.30 0.0003293907    1.641    0.391
       303 -10.8114     20.5822    150.6644   1.3435766932e+02   4.1029704254e+01    0.3240144    0.1541255 -47.27  0.001639708    2.715    0.632
       304  -9.6983      4.6903    152.3160   1.3820141015e+02   4.1850108744e+01    0.1176728   0.06379596  64.09 0.0003243219    1.634    0.388
       305 -10.6836    249.1613    150.9230   8.2397720964e+01   4.1462214648e+00    0.1854072     0.160431 -15.08 0.0004053455    1.250    0.200
       306  -9.3432    123.4845    150.4918   1.0836671709e+02   2.7758977368e+01     0.140435    0.1309113  41.43 2.636921e-05    1.014    0.014
       307 -10.3233     98.3292    148.9401   1.1443829443e+02   3.2270192609e+01    0.1799468    0.1744915  88.19 0.0006248896    1.052    0.050
       308  -9.9189     92.1297    147.8201   1.1585148742e+02   3.3461592351e+01    0.1778855    0.1582246 -12.74 0.0003930703    1.351    0.260
       309  -9.5873    147.6612    147.6893   1.0196279018e+02   2.3862189213e+01    0.1492624    0.1100762   5.60 0.0005459923    1.689    0.408
       310 -10.9424     25.1840    145.4126   1.3280882381e+02   4.1798519504e+01    0.2349177     0.141534 -78.99  0.001401437    1.449    0.310
       311 -10.3481    236.9468    144.8585   8.3133586504e+01   7.0739130372e+00    0.2069693     0.151675   8.90  0.000367372    1.256    0.204
       312 -10.1217    164.2934    145.3771   9.7632484397e+01   2.1053457241e+01    0.1524394    0.1091074   1.19 0.0001339557    1.742    0.426
       313 -10.2074    167.4846    144.0037   9.6618018831e+01   2.0668537013e+01    0.2043846    0.1234884 -13.77  0.000809637    2.484    0.597
       314 -10.4329     52.8569    144.1314   1.2559168902e+02   3.9411945929e+01    0.1892251    0.1495435  77.30 0.0004465661    1.202    0.168
       315 -10.6332    242.0528    142.4360   8.1751706739e+01   6.4876973790e+00    0.1969205    0.1570229 -10.90 0.0003385755    1.096    0.087
       316 -12.6270    132.3651    140.6466   1.0422169689e+02   2.8153573209e+01    0.2742379    0.2639762  50.81 0.0003586517    1.078    0.072
       317 -10.6835     91.5710    142.1982   1.1506210170e+02   3.4776360329e+01    0.4219036    0.1961225  27.38  0.001687645    2.624    0.619
       318  -9.4073    192.9939    140.9998   9.0488216201e+01   1.6066696174e+01    0.1695859    0.1444262  24.06            0    1.070    0.066
       319 -10.5557    224.0987    139.5943   8.4216954373e+01   1.0185819591e+01    0.2098016    0.1754349 -22.20 0.0003886709    1.200    0.167
       320 -10.0090     62.7732    140.0228   1.2242580290e+02   3.9190121653e+01    0.1712577    0.1571135 -87.19  0.000302352    1.030    0.029
       321 -10.3219     13.3018    146.2890   1.3579469717e+02   4.2533917800e+01    0.1908788   0.08323139 -68.61 0.0005226015    1.968    0.492
       322 -11.0842     49.4105    136.8191   1.2560223743e+02   4.1436752691e+01    0.3447345    0.1711124 -50.14  0.001480331    2.145    0.534
       323 -10.9644     34.8406    137.2501   1.2955120604e+02   4.2776989045e+01    0.3506734     0.174117  54.33  0.001177931    2.089    0.521
       324 -10.4924    106.9628    136.8900   1.1001212740e+02   3.3477477786e+01    0.2035676    0.1996192  49.74 0.0004522572    1.017    0.017
       325  -9.4691      7.2820    137.3303   1.3665451603e+02   4.4900246657e+01    0.1112928   0.07320374 -55.35 0.0007004356    1.607    0.378
       326 -10.1538    122.0400    135.9495   1.0587161213e+02   3.1033525409e+01    0.2096243    0.2012859  36.30 0.0003042659    1.009    0.009
       327 -10.8835     45.0147    135.6580   1.2664742286e+02   4.2158217906e+01    0.1976058    0.1520202  89.20 0.0003888116    1.210    0.174
       328  -9.7521    114.3875    135.5318   1.0778220179e+02   3.2492332917e+01    0.1384784    0.1356871  59.41 7.110539e-05    1.032    0.031
       329 -11.9781    195.9182    133.4600   8.8173552942e+01   1.6709503780e+01    0.2538287    0.2226023  -9.33 0.0002764651    1.087    0.080
       330 -10.8903     40.7006    132.8411   1.2748236633e+02   4.3228246944e+01    0.2947913    0.1794657 -75.16  0.001636452    1.494    0.331
       331 -12.9043     26.1528    129.9818   1.3112787180e+02   4.5170278836e+01     0.281194     0.237941  58.23 0.0005856411    1.190    0.159
       332  -9.8714     20.4004    126.1794   1.3231962991e+02   4.6479950265e+01    0.1955713    0.1412497  65.57 0.0009598917    1.337    0.252
       333 -10.1136      3.6365    132.2527   1.3722917394e+02   4.6242762172e+01    0.1660668   0.08231718 -70.61 0.0009478925    1.676    0.403
       334 -10.4418     61.7606    130.9846   1.2139500851e+02   4.1372738934e+01    0.1917606    0.1613087  79.95 0.0002176289    1.169    0.145
       335 -11.3514     62.4767    127.5468   1.2066538617e+02   4.2078303074e+01    0.2879912    0.2181032 -88.23 0.0007656803    1.360    0.265
       336 -10.3212     48.3193    130.8931   1.2513832964e+02   4.2907084121e+01    0.1759121    0.1483576 -73.66 0.0004940829    1.087    0.080
       337 -12.8258    156.5725    128.7546   9.5685578600e+01   2.5721308266e+01    0.3048604    0.2790343  38.10 0.0004737981    1.092    0.085
       338 -10.2447     36.4816    128.4483   1.2812599800e+02   4.4631272889e+01    0.1230341    0.1071548 -87.16 9.464136e-05    1.005    0.005
       339  -9.3972      1.2665    128.6311   1.3759450029e+02   4.7179045564e+01    0.1198893    0.0669663  69.70 0.0006990471    1.660    0.397
       340 -10.7038     91.8919    126.5543   1.1212567550e+02   3.8218066383e+01     0.240154    0.1914911 -54.00  0.000491387    1.247    0.198
       341 -11.3931     56.0480    124.5171   1.2204338774e+02   4.3536106644e+01    0.3117794    0.1265581  29.94  0.001109238    2.609    0.617
       342  -9.6759    108.4974    123.5139   1.0686082642e+02   3.6136883162e+01    0.1421539    0.1399489  22.82 -5.857489e-06    1.013    0.012
       343 -10.5267     63.3226    121.9880   1.1952448727e+02   4.3263409268e+01    0.1905689    0.1637501 -72.80 0.0008121085    1.090    0.083
       344 -10.7105     14.3552    121.5232   1.3354728641e+02   4.7964152450e+01    0.2411919    0.1147606 -51.23 0.0006897674    2.146    0.534
       345 -12.2391     22.2619    117.7397   1.3093947969e+02   4.8274443946e+01    0.4561882     0.318952  -7.99  0.002195326    1.988    0.497
       346 -11.8538     19.9857    109.6383   1.3071179648e+02   5.0312118531e+01    0.3074097    0.2156312 -75.87 0.0005883492    1.197    0.164
       347 -10.3818     83.3891    120.0497   1.1329181734e+02   4.0993073295e+01    0.3696535    0.2312848  80.84  0.001546514    2.580    0.612
       348  -9.9951     72.1412    118.4559   1.1630235434e+02   4.2950475643e+01    0.1913221    0.1341011  32.09 0.0005501095    1.507    0.336
       349  -9.9587     54.9659    117.6969   1.2129568591e+02   4.5248792125e+01    0.1712192    0.1632854  70.71 0.0004563568    1.087    0.080
       350 -11.6962      3.2477    112.0986   1.3584663652e+02   5.0768639185e+01    0.3634805    0.2222392 -77.82  0.001383914    1.312    0.238
       351 -10.7305     33.6113    114.1552   1.2717731908e+02   4.8199101178e+01    0.3083347    0.1708764 -86.38  0.001556244    1.875    0.467
       352 -10.8124      1.6354    116.3204   1.3662935421e+02   4.9900990573e+01    0.4012976    0.1609993  68.11  0.001865128    2.821    0.646
       353  -9.4234     51.2523    114.6147   1.2191955483e+02   4.6380890729e+01    0.1345103    0.0924085  78.93 0.0003393234    1.667    0.400
       354  -9.6854    120.4969    112.4641   1.0099244704e+02   3.6320249108e+01    0.1488308    0.1432437   8.92 2.485072e-05    1.020    0.019
       355 -10.6260     74.8409    111.9150   1.1423094954e+02   4.4100547397e+01    0.2224637    0.1950796  31.36 0.0004268377    1.208    0.172
       356 -10.1680     85.3673    109.4441   1.1050315082e+02   4.3128883753e+01     0.182862    0.1333521  46.08 0.0009249387    1.433    0.302
       357 -10.8273     36.9772    108.5680   1.2537706269e+02   4.9213052271e+01    0.2313027    0.1647831 -81.63 0.0005008297    1.318    0.241
       358 -10.4418    152.7775    106.8246   9.1129578095e+01   3.0749895462e+01    0.4218336    0.1575469 -46.55  0.001359403    3.062    0.673
       359 -10.3812     44.5515    106.7995   1.2273342386e+02   4.8914673060e+01    0.2283745    0.1765389  30.04  0.001359935    1.438    0.305
       360 -10.0613     63.8969    106.1512   1.1649153186e+02   4.6896045308e+01     0.200134    0.1715222  84.41 0.0004660016    1.242    0.195
       361 -10.4193    100.8881    103.5781   1.0444002376e+02   4.1894248300e+01    0.2975236     0.197785 -68.93  0.001310569    1.951    0.487
       362  -9.8530     87.4608    104.5066   1.0875022868e+02   4.3932310967e+01    0.1409159    0.1363634 -58.61 -4.053357e-05    1.022    0.022
       363 -10.5898     29.0609    103.4424   1.2712854997e+02   5.1085796615e+01    0.1813054    0.1478237 -73.69 0.0003753663    1.051    0.049
       364 -11.0370     75.1323    102.2107   1.1209960108e+02   4.6313732186e+01    0.3540878    0.2542177 -64.14  0.001654027    1.393    0.282
       365 -10.5488     70.8831    101.5958   1.1332518001e+02   4.7047886513e+01    0.3270298    0.1691848 -42.59  0.001418159    2.037    0.509
       366 -10.6453     50.9925    102.6629   1.1996492473e+02   4.9223863281e+01    0.1711349    0.1670649  36.73 0.0004136419    1.137    0.121
       367 -11.8128     92.9726    118.4599   1.1017861194e+02   3.9877180281e+01    0.5042204     0.227125 -59.97   0.00196193    2.435    0.589
       368 -10.7323    135.4368    101.5173   9.4116751154e+01   3.5561479724e+01    0.2610798    0.2536927   6.54 0.0007346388    1.034    0.033
       369 -11.3886     84.8404     99.9182   1.0849110070e+02   4.5392740232e+01    0.4737458    0.3053913 -26.51  0.001698103    2.029    0.507
       370 -12.6962     55.4192     96.9435   1.1741897061e+02   5.0079579710e+01     0.359037    0.2683559 -67.97  0.000348235    1.268    0.211
       371 -10.2222     43.9129    100.5035   1.2188506036e+02   5.0463971066e+01    0.1803692    0.1275655  31.09  0.001017194    1.563    0.360
       372 -10.3724      9.3197     99.8240   1.3289456194e+02   5.3251625789e+01    0.2191759    0.1425708  41.11 0.0005805839    1.711    0.415
       373 -10.3203      4.8049     98.4632   1.3415891405e+02   5.3802581693e+01    0.2269873    0.1337197 -75.86 0.0007957584    1.359    0.264
       374 -12.6003    106.4679     97.7538   1.0127876662e+02   4.2166920666e+01    0.3101406    0.2855377  23.90 0.0004436703    1.093    0.085
       375  -9.9652    125.0073     97.7544   9.5922334368e+01   3.8521419862e+01    0.2063439    0.1936886  16.77            0    1.039    0.038
       376 -11.0071     24.2773     96.4612   1.2769126553e+02   5.3087201224e+01    0.2358307    0.1480901  81.82 0.0008013293    1.746    0.427
       377 -10.7058     22.4672     93.5083   1.2787111810e+02   5.3908227135e+01    0.1905022   0.09191162 -60.78 7.557021e-05    1.676    0.403
       378 -10.9318     62.8545     96.0840   1.1476241578e+02   4.9387295579e+01    0.2016599    0.1956021  32.44 0.0003581433    1.118    0.105
       379  -9.6098     40.0381     96.5276   1.2247777873e+02   5.1773664973e+01    0.1675762   0.09467254  54.76 0.0006212651    2.179    0.541
       380 -10.3237     32.3931     96.1735   1.2496640694e+02   5.2527846245e+01    0.1882261    0.1089059 -81.68 0.0009523319    1.763    0.433
       381 -11.4651    113.9469     91.0381   9.7217703033e+01   4.2168771176e+01    0.4540047    0.2360771  39.59 0.0005491932    1.944    0.486
       382 -11.1123     74.9968     90.6493   1.0944389076e+02   4.9002403288e+01    0.3631869      0.16669  45.93 0.0009866277    2.552    0.608
       383 -11.3982     77.9362     87.8864   1.0775905729e+02   4.9197642432e+01    0.3715724    0.2309629 -34.44 0.0003476839    1.771    0.435
       384 -10.9358      6.5568     89.6545   1.3266374084e+02   5.5747481229e+01    0.3561702    0.1694487  46.12  0.001859241    2.415    0.586
       385 -12.4147      9.4640     85.7697   1.3122055405e+02   5.6501063462e+01    0.2252899    0.2001669 -67.92   0.00030353    1.103    0.093
       386 -10.2045    171.9982     90.0690   8.2061888874e+01   2.9421603870e+01    0.2215036    0.2076235  11.90  0.001169337    1.007    0.007
       387 -11.0112     88.8607     88.4296   1.0428402155e+02   4.7338284668e+01    0.3773309    0.3067172  -5.20  0.001192527    1.417    0.294
       388  -9.5104     13.2884     89.3195   1.3037738569e+02   5.5467621883e+01    0.1255796   0.07349024 -48.65  0.000225264    1.598    0.374
       389 -12.2907     63.1567     87.0434   1.1261244588e+02   5.1455450543e+01    0.2846196    0.2658443  67.61 0.0003435523    1.190    0.160
       390 -10.7512    154.0460     86.5294   8.5147200876e+01   3.4281441363e+01    0.2978907    0.2185436 -12.01  0.001060692    1.574    0.365
       391 -11.4295     28.5728     85.6058   1.2453676972e+02   5.5320395377e+01    0.4564374    0.3280019  21.47  0.001945576    1.629    0.386
       392  -9.9175    105.7822     91.5587   9.9809349365e+01   4.3639152534e+01    0.2021927    0.1420542  50.89 0.0004069022    1.570    0.363
       393  -9.9599     48.4367     85.5053   1.1745032933e+02   5.3537231809e+01      0.23344    0.1710805 -51.93 0.0001029133    1.208    0.172
       394 -11.5888     51.8093     82.4200   1.1555670453e+02   5.3891226216e+01    0.4092197    0.2434711  26.56  0.001914553    1.876    0.467
       395 -10.7012    132.5758     82.5933   8.9450490328e+01   3.9944190468e+01    0.2705044     0.255106  53.67 0.0005535019    1.145    0.127
       396 -11.1516     42.5089     79.5054   1.1830514027e+02   5.5542496409e+01    0.3459803    0.2378701 -73.90 0.0007184264    1.488    0.328
       397 -10.8913     20.1951     82.0404   1.2693146848e+02   5.6747943695e+01    0.2079215    0.1765841  27.70 0.0004330964    1.395    0.283
       398 -10.2322    149.1357     80.0386   8.4396823580e+01   3.6617381278e+01    0.3951606    0.1996225 -55.82  0.001263994    3.353    0.702
       399 -10.9089     77.2588     80.9599   1.0614363553e+02   5.0863511038e+01    0.2227131    0.2049201  15.34 0.0005602233    1.135    0.119
       400 -10.7575    154.0732     79.2456   8.2962341452e+01   3.5588083572e+01    0.2801278    0.2281382 -41.89   0.00052426    1.286    0.223
       401  -9.6753     82.1464     80.1664   1.0423931082e+02   5.0274228072e+01    0.1796353    0.1671679  85.63            0    1.253    0.202
       402 -10.0562     68.2729     78.7327   1.0870217498e+02   5.2676746451e+01     0.192574    0.1526371 -24.90  0.001037183    1.325    0.245
       403 -10.9876     96.9355     76.8158   9.8301887660e+01   4.8442781281e+01     0.388373    0.2645653  19.41  0.001562519    1.769    0.435
       404 -11.4411     58.7887     74.2389   1.1096875647e+02   5.4949673909e+01    0.4186693    0.3188268  65.58  0.001201467    1.751    0.429
       405 -11.6552     52.2893     74.6001   1.1350077302e+02   5.5644745602e+01    0.3743951    0.2942053   7.42  0.002142849    1.450    0.311
       406 -10.6519    128.3451     85.9013   9.1604040304e+01   4.0225202502e+01    0.3197452     0.226596  35.91  0.001466856    1.420    0.296
       407 -10.0458      3.4815     77.0555   1.3221194585e+02   5.8797586802e+01    0.2581444    0.0966709 -59.13  0.001273356    1.982    0.495
       408  -9.8843     81.5360     75.5052   1.0309974432e+02   5.1397626520e+01    0.2471589    0.1365895 -60.56 0.0007437554    2.222    0.550
       409 -10.0659    131.0249     75.3119   8.7610853313e+01   4.1686048663e+01    0.2162519     0.186947  42.35 0.0003241788    1.154    0.134
       410 -10.0356     18.3915     74.2762   1.2631464779e+02   5.8672385431e+01    0.2558226   0.08819822 -63.46  0.001004852    2.179    0.541
       411 -10.2652    115.9018     72.7780   9.1106001094e+01   4.5493379991e+01    0.2352748    0.1973278   9.59 0.0007170271    1.260    0.206
       412  -9.7685     69.1640     72.8432   1.0674270078e+02   5.3872561408e+01    0.3115109    0.1038688 -57.49 0.0009991203    3.505    0.715
       413 -11.0440     37.1014     72.1852   1.1873228808e+02   5.7749845942e+01     0.325181    0.2228685  39.70  0.001832719    1.695    0.410
       414 -11.5085     87.9658     69.8515   9.9133808893e+01   5.1525826635e+01    0.3934854    0.2664725 -57.18  0.001563749    1.686    0.407
       415 -10.1058     42.1091     71.0499   1.1652491199e+02   5.7541269432e+01    0.1979174    0.1483027 -39.83  0.001142172    1.237    0.192
       416 -10.5737    189.0997     68.4421   7.2374856500e+01   2.8784245787e+01    0.4194433    0.2491985  23.03  0.001476258    2.344    0.573
       417 -11.0126     79.7436     69.5668   1.0193009147e+02   5.2973958404e+01    0.2674787    0.2047489  58.24 0.0009920857    1.679    0.404
       418  -9.8960     75.4529     66.5247   1.0253001271e+02   5.4310237772e+01    0.2277167    0.1385449  34.66 0.0007561929    1.736    0.424
       419 -11.1819     53.0999     69.6611   1.1190607005e+02   5.6676670296e+01    0.3208095    0.1719395 -55.42 0.0005765263    1.668    0.400
       420 -10.9788     52.8212     62.1363   1.0990233424e+02   5.8394263492e+01    0.2345138    0.1750936 -40.25 0.0004438114    1.191    0.160
       421  -9.5880    130.4505     68.4299   8.5540951356e+01   4.3095264585e+01    0.1544994    0.1459166  11.19 8.875332e-05    1.006    0.006
       422 -11.5956      3.0718     67.0225   1.3101304697e+02   6.1119584230e+01    0.3511932    0.2326276  34.96  0.002218014    1.837    0.456
       423 -11.2488    213.0134     66.9017   6.7933623350e+01   2.3227711935e+01    0.2278449    0.1991509 -23.12 0.0002998378    1.090    0.082
       424  -9.6283     26.5760     67.5440   1.2185670154e+02   5.9681894856e+01    0.1282346    0.1040064 -53.28 0.0001396471    1.033    0.032
       425  -9.6466    127.2917     66.6761   8.5825174299e+01   4.4138962767e+01    0.1506391    0.1246807 -73.27 0.0004202937    1.614    0.380
       426  -9.3082    106.4675     66.4806   9.1916667379e+01   4.8692521447e+01    0.1521585    0.1408011  -3.97   0.00080937    1.022    0.022
       427 -11.5362     16.8262     64.3836   1.2513572233e+02   6.1053661628e+01    0.3408712    0.1821112 -14.44  0.001733521    2.451    0.592
       428  -9.7927    102.2370     62.7599   9.1999006069e+01   5.0274703182e+01    0.2435907    0.1166137 -30.38 0.0008842744    2.443    0.591
       429 -10.8677      9.4965     62.8304   1.2781496189e+02   6.1799771143e+01    0.2231934    0.1822488  33.09 0.0008711653    1.499    0.333
       430 -12.3271      4.9615     59.9135   1.2916447374e+02   6.2667244640e+01    0.5084793    0.3266503 -45.11  0.003185909    1.377    0.274
       431  -9.9932    131.7581     62.0866   8.3063059974e+01   4.3924502087e+01    0.2108643    0.1900017 -13.88 0.0003547246    1.092    0.084
       432  -9.7527    128.0065     62.0073   8.4049644300e+01   4.4813916689e+01     0.189097    0.1678097 -22.18 0.0004132469    1.114    0.103
       433 -11.5673     16.1084     60.8132   1.2473233934e+02   6.1913552502e+01    0.3119913    0.2191927  77.86  0.001456664    1.759    0.431
       434 -11.5111     78.5294     58.9748   9.8908541603e+01   5.5395918634e+01    0.6838468     0.388736 -27.87  0.002928638    2.049    0.512
       435 -10.6735     66.2554     61.2023   1.0430386533e+02   5.6831538532e+01    0.3228344    0.1848049  40.72  0.000958611    1.952    0.488
       436 -10.6142     38.8018     59.4255   1.1489841405e+02   6.0503363457e+01     0.244763    0.1969237 -84.30 0.0008803169    1.508    0.337
       437 -10.6135     31.6344     59.2294   1.1786321060e+02   6.1186758083e+01    0.2178131    0.1869885  79.91 0.0006340854    1.428    0.300
       438 -12.0476     27.4972     55.0513   1.1858114017e+02   6.2458297520e+01    0.4051591    0.2593372 -56.93  0.001650821    1.297    0.229
       439 -10.1818     21.6376     56.9146   1.2156460824e+02   6.2458052151e+01    0.2122833     0.178413  24.02 0.0008171087    1.416    0.294
       440 -12.0261     93.2763     54.3298   9.1987928487e+01   5.3658846546e+01    0.3088539     0.261788  -8.45 0.0002152705    1.156    0.135
       441 -10.0549     58.2719     56.9217   1.0609112245e+02   5.8846742799e+01    0.1891225     0.152782 -37.59            0    1.094    0.086
       442  -9.5519    181.4011     56.1474   7.0097602536e+01   3.2515180993e+01    0.2103291    0.1349595 -39.94 0.0005968626    1.589    0.371
       443 -10.2665     45.5208     54.9338   1.1076950120e+02   6.0811525916e+01    0.3406042    0.1867297 -23.72  0.001525226    2.348    0.574
       444 -10.8026    118.9570     54.0462   8.3787929363e+01   4.8283594854e+01    0.2493491    0.1799438   9.66  0.000871435    1.659    0.397
       445  -9.4408    136.3127     53.3429   7.8854552661e+01   4.4303582778e+01     0.164488    0.1156071  16.47 0.0003770099    1.704    0.413
       446 -10.2208     82.9512     51.4376   9.4583685370e+01   5.6132111474e+01    0.3320592    0.1774043 -47.18   0.00142565    1.943    0.485
       447 -11.0814     41.7681     51.9272   1.1146788353e+02   6.1865620197e+01    0.3154755    0.1665147 -55.27  0.001234279    1.686    0.407
       448 -10.9478     72.9063     52.1521   9.8634285586e+01   5.7697102463e+01    0.2035983    0.1911839 -57.49 0.0004789176    1.264    0.209
       449  -9.8394    124.6822     51.6731   8.1319013011e+01   4.7361160660e+01     0.161949    0.1146767  14.96 0.0004158251    1.678    0.404
       450 -10.2441    107.2513     50.6819   8.6055420108e+01   5.1463423765e+01    0.3966686    0.1588159  38.03  0.001220249    2.773    0.639
       451 -10.8150     19.0180     49.5343   1.2096722899e+02   6.4286313292e+01     0.242122    0.1888344 -29.91 0.0007024072    1.240    0.193
       452 -11.8976     14.1869     49.4603   1.2313772689e+02   6.4589051096e+01     0.866057    0.2954761 -27.91  0.003159096    4.427    0.774
       453 -11.1148     12.1500     45.7969   1.2322090707e+02   6.5514093448e+01    0.2863016    0.1796094 -71.77 0.0006050128    1.506    0.336
       454 -10.0371     46.4076     48.1553   1.0822440220e+02   6.2170561305e+01    0.1826344    0.1195363 -61.67 0.0009372414    1.687    0.407
       455 -10.2589     94.0934     46.8439   8.8886585908e+01   5.4875966462e+01    0.2074075     0.200137 -51.24 0.0004649924    1.239    0.193
       456 -12.0737    164.1466     43.1521   6.9176969432e+01   3.8764993288e+01    0.4021578    0.3252045 -34.79  0.001162349    1.270    0.213
       457 -11.1489    141.3653     43.0831   7.3980063355e+01   4.4621153536e+01    0.4236726    0.2631974 -18.74  0.001824475    1.765    0.434
       458 -10.4402    122.6420     45.9493   7.9769569744e+01   4.8770122730e+01    0.2580292    0.1960088  34.53 0.0004739393    1.282    0.220
       459 -12.1317     61.7250     44.8187   1.0043264601e+02   6.0869928158e+01    0.2550653    0.2196624 -25.52 0.0002780892    1.023    0.023
       460 -10.6873     35.0836     44.9944   1.1230266866e+02   6.4021887784e+01    0.1905169    0.1838727  49.43            0    1.311    0.237
       461  -9.9517     80.5325     43.9279   9.2602103889e+01   5.7978676715e+01    0.2182164    0.1322993 -36.58  0.001020494    1.564    0.361
       462 -10.1168     70.0325     41.5399   9.5739422155e+01   6.0222590513e+01    0.2096737    0.1689657 -29.13 0.0003288313    1.128    0.113
       463  -9.9031    126.6611     40.9789   7.6823343851e+01   4.8572416423e+01    0.2124251    0.1928333  -1.78 0.0004938529    1.074    0.069
       464  -9.9889     92.4739     41.4690   8.7316163133e+01   5.6139796073e+01    0.1471842    0.1321481   0.47 3.343046e-05    1.004    0.004
       465 -10.3926     56.4775     41.3395   1.0135130888e+02   6.2300142597e+01     0.215678    0.1243366  30.56 0.0006784856    1.851    0.460
       466 -10.3388     38.9023     40.3126   1.0895419636e+02   6.4631420654e+01    0.3300585    0.1848868   3.08  0.001450411    2.380    0.580
       467 -11.6875      9.5890     39.8884   1.2301234510e+02   6.6944768770e+01    0.3203161    0.2168414 -39.10  0.001568643    1.269    0.212
       468  -9.8832     16.6617     41.6762   1.2004400326e+02   6.6165928758e+01    0.2034138    0.1140204 -45.61 0.0007143075    1.424    0.298
       469 -10.8280     14.0106     39.7429   1.2081336490e+02   6.6743181182e+01    0.1919509    0.1726077 -19.25 0.0003939753    1.213    0.176
       470 -10.7198     24.3426     39.8938   1.1580404032e+02   6.6026795632e+01    0.2136481     0.174614 -34.97 0.0004028092    1.065    0.061
       471 -10.3055     22.5188     36.5068   1.1564913169e+02   6.6884960560e+01    0.2064889    0.1642051 -47.19 0.0006530986    1.070    0.066
       472 -10.0990    103.6021     38.7713   8.2560494764e+01   5.4248813514e+01    0.2060575    0.1333094 -41.33   0.00094148    1.662    0.398
       473  -9.8858    166.0328     38.0141   6.7112383087e+01   3.8953734295e+01    0.1787189    0.1722569   8.87 0.0003575395    1.039    0.038
       474  -9.8174     31.6591     37.9564   1.1160783732e+02   6.5827403422e+01    0.1729075    0.1326561 -46.53 0.0003461753    1.126    0.112
       475 -10.2420     41.2014     36.3463   1.0641950051e+02   6.5195253178e+01    0.2249692    0.1649902 -74.60  0.001193484    2.071    0.517
       476 -10.2659      3.1989     37.6096   1.2560268641e+02   6.7720939759e+01    0.1587354   0.09715088 -19.46 0.0009596661    1.748    0.428
       477  -9.9677    239.2486     36.5803   5.6578706795e+01   2.0972210215e+01    0.1802516    0.1185075  53.61 0.0009476342    1.626    0.385
       478 -10.9155     59.8144     34.6740   9.7217016106e+01   6.3097358216e+01    0.3883644    0.2580942  -4.78  0.001737909    1.772    0.436
       479 -10.0839     55.3600     33.7236   9.8792471313e+01   6.3920625632e+01    0.2250113     0.205404  79.42 0.0007305245    1.632    0.387
       480  -9.6966     97.2281     35.4002   8.3221090594e+01   5.6155837607e+01    0.1961371    0.1396962  56.14 0.0008923514    1.631    0.387
       481 -12.0256     78.1670     33.2150   8.9061344487e+01   6.0294087545e+01    0.4275655    0.3246932  78.03  0.002010752    2.463    0.594
       482 -11.9178     81.7728     32.3534   8.7325499871e+01   5.9761835122e+01    0.6437396    0.3194076  23.82   0.00238255    2.980    0.664
       483  -9.9482     35.8511     34.7079   1.0839751255e+02   6.6093808986e+01     0.165484    0.1431877  -9.53 0.0005297256    1.147    0.128
       484 -11.2484    143.1160     32.3777   6.9696181344e+01   4.5638751468e+01    0.4279068    0.2435898 -24.95   0.00142718    1.819    0.450
       485 -10.8993    120.5867     33.6536   7.5584477151e+01   5.1101929624e+01    0.2870058    0.2513637  59.27 0.0009889809    1.234    0.190
       486 -10.2878     91.8745     33.8210   8.4350812528e+01   5.7523663157e+01    0.2205126    0.1782418   9.55 0.0004646625    1.202    0.168
       487 -10.1983     28.8948     34.1341   1.1165127868e+02   6.6867699443e+01    0.1773991    0.1662573 -70.54  0.001203594    1.347    0.258
       488 -11.3270    105.6055     31.9006   7.9116559387e+01   5.4852456197e+01    0.4250854    0.2526635  30.84  0.001862166    1.801    0.445
       489  -9.9251     87.2976     33.6521   8.5876738933e+01   5.8475389312e+01    0.1363558    0.1152828 -65.23 0.0007035118    1.680    0.405
       490  -9.6765    232.7137     32.3142   5.6166365588e+01   2.2935212243e+01     0.139269   0.09122989 -55.10 0.0001964912    1.583    0.368
       491 -11.2358    206.4226     31.6675   5.8991009992e+01   2.9321493620e+01    0.2449948    0.2325058  76.59 0.0002661739    1.057    0.054
       492 -11.2329    159.1657     30.5646   6.5849223973e+01   4.1684168979e+01    0.2976868    0.2422711  -4.54  0.000582898    1.311    0.238
       493  -9.6451    134.9855     32.4809   7.1551987057e+01   4.7700631854e+01    0.2160163    0.1436141  56.56 3.838048e-05    1.459    0.315
       494 -11.0139     24.5514     31.0732   1.1279230349e+02   6.7863160975e+01    0.2476189    0.1670452  12.93 0.0003734289    1.638    0.389
       495 -11.0701     35.8057     29.7938   1.0652902620e+02   6.7080090042e+01    0.3635905    0.2029748  28.75  0.001172792    1.973    0.493
       496 -10.8609    100.7749     27.0938   7.8547383595e+01   5.6623353694e+01     0.322006    0.1903196  44.26 0.0008871374    1.598    0.374
       497  -9.4935     17.4520     27.4799   1.1530165559e+02   6.9130017343e+01    0.1262684   0.09436195 -38.24 0.0005555152    1.059    0.055
       498  -9.6021     37.4516     26.4762   1.0432964688e+02   6.7545929041e+01    0.1289716    0.1063734 -26.68 6.088558e-05    1.031    0.030
       499 -11.1226      9.8717     23.0456   1.1798887817e+02   7.0508551937e+01    0.2345485    0.1503664 -51.31 0.0009050101    1.223    0.183
       500 -12.2175      2.0691     25.6836   1.2316978224e+02   7.0324276280e+01    0.2312731    0.1473982 -53.95  0.000350738    1.182    0.154
       501 -11.3256      5.9018     23.2288   1.2029853392e+02   7.0673352979e+01    0.2547583     0.219751 -38.87 0.0008002377    1.142    0.124
       502 -11.1035    131.9376     24.6375   6.9235359314e+01   4.9462856842e+01    0.3378273    0.2054259 -29.73 0.0009213749    1.692    0.409
       503  -9.8937    233.6353     24.2777   5.4014977959e+01   2.3596042799e+01    0.1399604    0.0894828 -61.45 0.0007009974    1.674    0.403
       504  -9.8428     89.9597     24.3050   8.0818990754e+01   5.9355408973e+01    0.1999127    0.1702717  26.35  0.000428804    1.093    0.085
       505 -12.2585     16.5308     22.4854   1.1401886481e+02   7.0209004564e+01    0.3036643    0.2239113  39.10  0.000501317    1.829    0.453
       506 -11.3040    118.6128     22.5328   7.1586107086e+01   5.3043233007e+01    0.5271947    0.2386681  44.33  0.001397069    2.058    0.514
       507 -10.4498     78.5185     23.0306   8.4329441649e+01   6.1843394576e+01    0.2387796    0.1755484  12.06  0.001262894    1.358    0.263
       508 -11.7966     36.9657     20.6334   1.0200896634e+02   6.8690616003e+01    0.4623949    0.2832281  38.12  0.002527341    2.008    0.502
       509 -11.3463    190.2390     20.4135   5.7738677563e+01   3.4670574980e+01    0.2403856    0.2383856   8.06 0.0002695057    1.049    0.046
       510 -10.6796    182.3828     18.6628   5.8233720682e+01   3.6897345841e+01    0.2606133    0.2274095  40.94 0.0006439811    1.158    0.137
       511 -10.4265     92.7295     18.9379   7.7436457629e+01   5.9495871469e+01    0.2507117    0.1841004 -38.31 0.0008022463    1.531    0.347
       512  -9.9766     99.7208     17.9167   7.4792352581e+01   5.8072145117e+01    0.1893291    0.1698822  -1.08 0.0002208409    1.090    0.082
       513  -9.9842     61.0205     18.0000   8.9033513996e+01   6.5748312975e+01    0.2533487    0.1495456  28.17 0.0008998638    1.720    0.419
       514 -11.9027    206.8764    246.5929   1.0650571321e+02  -6.3562153811e-01    0.3539499    0.2105729  37.61 0.0009168056    1.412    0.292
       515 -10.0859    169.4379    249.0191   1.1340371647e+02   4.3845849980e+00    0.1336351    0.1108069 -30.63 0.0004837114    1.582    0.368
       516  -9.4746    158.2653     17.3160   6.1395863999e+01   4.3407221693e+01    0.1494485    0.1034477  30.58 0.0002528834    1.548    0.354
       517 -11.1597    129.4272    247.8704   1.2049350325e+02   1.0167053693e+01    0.2162686     0.169656  10.91 0.0007118607    1.565    0.361
       518 -10.7131    136.5288    248.0291   1.1922235417e+02   9.1606791477e+00      0.25178    0.1332182 -35.25  0.001426334    3.027    0.670
       519 -10.6270     43.8581     16.6486   9.6521195876e+01   6.8537569664e+01    0.3026576    0.2294507  73.83  0.001462391    3.235    0.691
       520 -10.7483    132.8261     16.1740   6.5717747969e+01   5.0194194185e+01    0.2146902     0.158001  28.87 0.0004257178    1.359    0.264
       521  -9.7714    153.5259     15.4836   6.1542756502e+01   4.4849449534e+01    0.1485992    0.1330477  42.66 0.0008093241    1.053    0.050
       522 -11.5065    141.3583    247.5645   1.1829782257e+02   8.5461859485e+00    0.2112982    0.1574347  39.68 0.0007510011    1.053    0.050
       523 -12.0807    145.5029    244.3997   1.1719860809e+02   8.3764682482e+00    0.4157614    0.2413263  42.81  0.002649947    1.349    0.258
       524 -10.5686    173.1738     13.8617   5.7960132626e+01   3.9802027150e+01    0.2000325    0.1603721  32.31  0.000476952    1.308    0.235
       525 -10.2836     86.1908     13.8909   7.7200066277e+01   6.1540013242e+01     0.194912    0.1437856  16.36 0.0003779146    1.297    0.229
       526 -10.5142     64.2165     13.4424   8.5328815860e+01   6.5876600098e+01     0.257774    0.2172237  45.42  0.001071406    1.450    0.310
       527  -7.9758     72.3995    243.7467   1.3042027309e+02   1.8144122423e+01    0.1921456   0.08920494  59.56 0.0005585349    2.062    0.515
       528 -10.4482     13.0721     14.4966   1.1291320555e+02   7.2022158861e+01    0.1592806     0.109649   5.78 0.0006601163    1.548    0.354
       529 -11.6192     76.6198    246.3493   1.2985263097e+02   1.7245531343e+01    0.2907552    0.1625054  39.96  0.001723421    1.387    0.279
       530 -12.6127     75.8056    241.1225   1.2962972205e+02   1.8141293938e+01    0.3878792     0.182553  52.30  0.001170042    1.719    0.418
       531  -9.3470    157.3215    247.2621   1.1537363522e+02   6.3246521836e+00    0.1101337   0.07130364  20.47 0.0002197021    1.553    0.356
       532 -11.4109     95.9237    246.5876   1.2643228647e+02   1.4816568975e+01    0.3463419     0.208896  34.88  0.001752578    1.417    0.294
       533 -10.5607     87.9118    231.2089   1.2663264045e+02   1.8195814698e+01    0.3298163   0.09064556  43.17 0.0002814122    2.614    0.617
       534 -11.2051    100.0080    241.9889   1.2530791332e+02   1.4967649687e+01     0.168099    0.1442526  65.25 0.0003641938    1.216    0.178
       535 -11.5628    105.8664    233.6805   1.2346951121e+02   1.5443680173e+01    0.3432069    0.1760444 -65.47  0.001437046    2.551    0.608
       536 -10.4496    105.7296    228.2255   1.2297022443e+02   1.6309184794e+01    0.3735065    0.1357722  35.56 0.0009719676    2.305    0.566
       537 -10.3896    102.4494    234.0363   1.2414644266e+02   1.5848513521e+01    0.2538969    0.2035668 -87.06  0.001763167    1.488    0.328
       538 -10.5498    100.0247    237.7387   1.2493389648e+02   1.5604314463e+01    0.2209211    0.1333228  37.39 0.0002023153    1.340    0.254
       539 -12.5964     94.3937    237.1143   1.2592348253e+02   1.6435557602e+01    0.4146406    0.3025275  65.13  0.001959952    1.338    0.253
       540 -12.1200     85.3909    245.0301   1.2819826383e+02   1.6374295021e+01    0.2037924    0.1795808  69.55 0.0004584591    1.241    0.195
       541 -10.8771     89.4361    244.4937   1.2743136638e+02   1.5949486408e+01    0.1970081    0.1538724  54.78 0.0007350026    1.091    0.083
       542 -11.8491    164.1041    244.2519   1.1379141906e+02   5.7279325084e+00    0.3309711    0.2436367  16.23  0.001498317    1.345    0.256
       543 -11.5647    121.3188    243.9229   1.2158144157e+02   1.1828880575e+01    0.2569941     0.119032 -49.16   0.00100704    2.883    0.653
       544 -10.5677    216.1953    244.8977   1.0467201149e+02  -1.7515405784e+00    0.1536222    0.1160925  23.74 0.0003052405    1.162    0.139
       545 -10.6225    188.0026    245.1208   1.0961164510e+02   2.1889291519e+00    0.2249675    0.1174539  33.99 0.0006918136    1.407    0.289
       546 -10.5128    115.5361    243.3864   1.2259004399e+02   1.2694337189e+01    0.2102796    0.1363194  44.09 0.0009637378    1.165    0.142
       547  -9.4055    227.2839    243.3409   1.0257301417e+02  -3.1102380367e+00    0.1141855   0.06486631  11.67  0.000281447    1.634    0.388
       548  -9.3921    192.2748    243.6912   1.0866699543e+02   1.7397429085e+00   0.09992183   0.07813946  45.90 0.0001861085    1.551    0.355
       549 -10.3799    191.1663    240.3249   1.0841338126e+02   2.2812082034e+00       0.1888    0.1295454  15.07  0.001273585    1.324    0.245
       550  -9.1472     63.4300    238.4973   1.3166805465e+02   2.0008425430e+01    0.1055492   0.07851507  54.68  0.000112744    1.010    0.010
