#   1 NUMBER                 Running object number                                     
#   2 MAG_AUTO               Kron-like elliptical aperture magnitude                    [mag]
#   3 X_IMAGE                Object position along x                                    [pixel]
#   4 Y_IMAGE                Object position along y                                    [pixel]
#   5 X_WORLD                Barycenter position along world x axis                     [deg]
#   6 Y_WORLD                Barycenter position along world y axis                     [deg]
#   7 A_WORLD                Profile RMS along major axis (world units)                 [deg]
#   8 B_WORLD                Profile RMS along minor axis (world units)                 [deg]
#   9 THETA_WORLD            Position angle (CCW/world-x)                               [deg]
#  10 FWHM_WORLD             FWHM assuming a gaussian core                              [deg]
#  11 ELONGATION             A_IMAGE/B_IMAGE                                           
#  12 ELLIPTICITY            1 - B_IMAGE/A_IMAGE                                       
         1 -12.1589     21.2716     52.0505   1.2331690284e+02   6.3677890876e+01    0.7306648    0.4449633 -80.43  0.003658756    2.694    0.629
         2 -12.4246     43.4808     20.2459   1.0173167784e+02   6.7004786952e+01    0.6294169    0.3763666  25.17   0.00198703    1.713    0.416
         3 -12.6554    217.1669     16.0107   6.1574597847e+01   2.8854643411e+01    0.7735056    0.4890139  64.31  0.003083135    1.548    0.354
         4 -13.5385    188.9117      7.6151   6.2263450039e+01   3.6643769054e+01    0.8295149    0.5934008 -79.79  0.004560827    1.387    0.279
         5 -11.7160     56.9398      7.4734   9.0097522842e+01   6.6650716119e+01    0.5253588    0.3828897 -38.28  0.003253083    1.666    0.400
         6 -11.5627     43.3830      8.6681   9.6169097175e+01   6.8600260962e+01    0.3216422    0.2366525  40.72  0.001451716    1.607    0.378
         7 -11.0475    170.1512      1.8543   6.2751172151e+01   4.1873645284e+01    0.2655577    0.1770108  55.27 0.0009467925    1.407    0.289
         8 -11.6769    165.5685      2.1285   6.3393699865e+01   4.3000212342e+01    0.3703413    0.2248993  75.21  0.001879846    1.522    0.343
         9 -11.0641    227.2456    217.9846   1.0642731472e+02  -3.8147865398e+00    0.1505978   0.09727011 -29.19 0.0008312777    1.609    0.378
        10 -11.5552    221.0570    249.2349   1.1250822703e+02  -6.6959778489e+00    0.4189013    0.1834972  48.76  0.001987074    3.022    0.669
        11  -9.8215     15.6607    250.3128   1.4829463507e+02   2.1950516283e+01    0.1112187    0.0494037  63.54 0.0007046409    1.695    0.410
        12 -10.1366    211.3820    218.1694   1.0927944510e+02  -1.3195925674e+00    0.1617492    0.1150843 -45.00 0.0009061002    1.789    0.441
        13  -9.6970    185.5206    223.4626   1.1490410322e+02   2.1761068410e+00    0.1264396    0.1050074  27.42 0.0001633856    1.024    0.023
        14 -10.0738    239.0000    212.5286   1.0344432818e+02  -4.9244405173e+00    0.2519534   0.06425935 -35.02 0.0009441396    4.011    0.751
        15 -10.4484    232.6731    211.3323   1.0432114383e+02  -3.7923350446e+00     0.106988    0.1005399  77.64 0.0007051395    1.713    0.416
        16 -10.5401    115.9661    209.7655   1.2656967564e+02   1.6165765790e+01    0.2281395    0.1640023 -86.69  0.001290624    1.639    0.390
        17 -10.3679     48.7416    201.5147   1.3930226226e+02   2.7423394735e+01    0.2578976    0.1254839 -89.80  0.001295786    2.213    0.548
        18 -11.3167      5.0294    199.4194   1.4754433103e+02   3.2417280203e+01     0.272346     0.140592  51.97 0.0009572575    1.650    0.394
        19 -10.2395    112.6532    197.9813   1.2564866983e+02   1.8990926915e+01    0.2105981    0.1065833 -82.62  0.000704993    4.460    0.776
        20  -9.8931     12.1313    197.1683   1.4608885566e+02   3.2223062079e+01    0.1594802   0.09720991  67.96 0.0006151926    1.321    0.243
        21 -12.3333    160.1510    192.0098   1.1470389375e+02   1.1800121414e+01    0.6281441    0.4798335 -85.69  0.002694795    1.873    0.466
        22  -9.6157    133.3067    195.6747   1.2093318434e+02   1.5935417387e+01    0.1369958   0.09940037  72.77 0.0003891207    1.648    0.393
        23 -10.1936     34.0000    187.0076   1.4102141331e+02   3.2143100624e+01     0.190825   0.05766714 -72.50   0.00080126    2.934    0.659
        24 -10.3500    183.5345    183.1996   1.0831932335e+02   9.0192545132e+00    0.3345752    0.1348928 -39.40  0.001315098    2.678    0.627
        25 -10.1797    223.9943    183.7504   1.0071407508e+02   1.5410982652e+00    0.1725525    0.1051161  39.09 0.0006905809    1.582    0.368
        26  -9.4894    210.3253    182.3239   1.0294475973e+02   4.1983853443e+00    0.1413341   0.09791886   6.73 0.0005104396    1.688    0.408
        27  -9.7053     12.3417    176.6659   1.4466594499e+02   3.6483370973e+01    0.1255105   0.06505335  68.03 0.0007050938    1.756    0.431
        28 -11.4715     34.6723    173.6980   1.3966853070e+02   3.4956492862e+01    0.3476258    0.1656231  71.30  0.001662264    2.360    0.576
        29 -10.5243     44.7918    172.1988   1.3727673595e+02   3.4170584519e+01    0.2238709     0.101416  68.36 0.0009520764    2.815    0.645
        30 -11.4223    121.3458    166.4827   1.1868566961e+02   2.4041739797e+01    0.7425383    0.2417365 -48.90  0.002566135    3.182    0.686
        31  -9.9669     44.3281    168.3356   1.3696154527e+02   3.5087478371e+01    0.1205999   0.08956248 -44.96 0.0007051892    1.725    0.420
        32 -10.3497     79.1621    163.0144   1.2810439631e+02   3.1762622196e+01    0.2345392    0.1431877  83.26  0.001082482    2.061    0.515
        33 -11.5353    105.9403    157.7854   1.2077322472e+02   2.8678277450e+01    0.5274953    0.3389774  85.39  0.002296794    2.236    0.553
        34  -9.7848     88.3827    168.1898   1.2669824203e+02   2.9205628471e+01    0.1988571    0.1215152 -76.45 0.0009490359    1.796    0.443
        35 -10.5726     22.1625    159.0253   1.4106056592e+02   3.9467923292e+01    0.2928882    0.1315523  64.55  0.001397543    2.477    0.596
        36 -10.7050    167.4611    157.4649   1.0649549546e+02   1.6959222465e+01    0.3311834    0.2325706  87.35  0.001388654    2.447    0.591
        37 -10.9936    120.1893    157.1824   1.1723385237e+02   2.6278923941e+01    0.4805131     0.245921  51.11  0.001993242    2.046    0.511
        38 -11.2532     28.7539    156.7041   1.3930623810e+02   3.9366042710e+01    0.3354909    0.1674951  88.30  0.001316708    2.067    0.516
        39 -10.2619    218.0000    156.0043   9.6083715128e+01   7.0670608513e+00    0.2315656   0.07604267 -37.22 0.0008039513    2.953    0.661
        40  -9.9833      6.7553    155.9843   1.4427694743e+02   4.1459770645e+01    0.1551901   0.07800645 -77.76 0.0006236357    1.567    0.362
        41  -9.9774     81.3136    154.6565   1.2627623914e+02   3.3360428025e+01    0.1456366   0.09836969  76.48 0.0004077881    1.708    0.414
        42  -9.9656     23.2758    153.4467   1.4025613219e+02   4.0624750539e+01    0.1544212   0.09998195  52.56   0.00051787    1.546    0.353
        43 -10.8877    242.9967    151.4932   9.0765346936e+01   3.1009850240e+00    0.1704465    0.1240126  77.80 0.0008103864    2.538    0.606
        44 -10.2192    189.8898    150.7576   1.0034102541e+02   1.3629561370e+01    0.2764916    0.1958515 -67.74  0.001137237    2.091    0.522
        45  -9.8160     40.5451    152.9695   1.3607679557e+02   3.9007385613e+01     0.186919    0.1072704 -73.29    0.0004407    1.505    0.336
        46 -10.7486    106.8179    145.0808   1.1816275845e+02   3.1404649717e+01    0.4287472    0.2616874  88.86  0.001638971    2.839    0.648
        47 -10.4797     55.8168    145.9955   1.3134701891e+02   3.8864407219e+01    0.2292039    0.1356336  81.89  0.001084335    2.042    0.510
        48 -11.2783     55.6932    168.1036   1.3432844799e+02   3.3785496200e+01    0.3843357     0.230575 -84.92  0.001996625    1.646    0.392
        49 -10.6340     12.2289    148.1210   1.4233866079e+02   4.2782848249e+01    0.2449196    0.1225534 -65.49 0.0008605133    1.656    0.396
        50 -10.2186     22.7995    138.1840   1.3872595236e+02   4.4165216766e+01    0.2176311   0.09949919  67.88 0.0009507633    2.863    0.651
        51 -11.1837     83.3225    132.4229   1.2179293687e+02   3.8249391212e+01    0.3866935    0.2387192 -83.06  0.001680634    2.163    0.538
        52 -11.8134     98.4462    127.8102   1.1676793600e+02   3.6849207493e+01    0.7675892     0.439126 -85.16   0.00257029    3.713    0.731
        53 -10.6751     59.2503    124.6393   1.2695077067e+02   4.3482378016e+01    0.4191566    0.2191353  89.96  0.001547066    3.387    0.705
        54 -11.1239     43.7090    122.8617   1.3101396738e+02   4.5723299897e+01    0.7185837    0.3476998  85.87  0.002577401    3.888    0.743
        55 -11.1998     27.2724    121.3240   1.3538079713e+02   4.7696739963e+01    0.6156285    0.2628557  85.72  0.002088365    4.575    0.781
        56 -10.8577     13.8098    121.2516   1.3907457924e+02   4.8808609393e+01    0.3594484    0.1788972 -43.89  0.001849511    2.292    0.564
        57 -11.9494    193.5959    119.2503   9.2178793980e+01   1.8702829612e+01    0.6160804    0.4187236 -58.53  0.002735187    1.804    0.446
        58 -10.4381     71.4518    120.4863   1.2270380222e+02   4.2828159129e+01    0.3205234    0.1986151  75.33  0.001382675    2.416    0.586
        59 -11.3535    140.6347    116.5631   1.0315566729e+02   3.1101791023e+01    0.5929064    0.2270377 -50.01  0.001942112    2.820    0.645
        60 -10.6732      2.4967    116.3904   1.4158351559e+02   5.0692352007e+01    0.3884742    0.1535204 -89.31   0.00168948    2.865    0.651
        61 -10.3654    108.3470    112.3737   1.1047653741e+02   3.8594389495e+01    0.5564479    0.1397243 -54.09  0.001371989    5.204    0.808
        62 -10.7044     78.6026    112.3585   1.1890604466e+02   4.3685177023e+01    0.4366965    0.2410819 -80.47  0.001555794    3.344    0.701
        63 -10.5003     91.7772    110.8199   1.1473865653e+02   4.1920512907e+01    0.5347101    0.1919919 -58.82  0.001704858    3.347    0.701
        64 -10.7676    174.2982    110.9660   9.3999346038e+01   2.4671781441e+01    0.3715051    0.2581901 -45.42  0.000926706    1.435    0.303
        65 -12.0608    160.1248    110.9693   9.7105414439e+01   2.7925254534e+01       0.6299    0.4144363 -56.07  0.002701227    1.732    0.423
        66 -11.4571     14.9149    110.0918   1.3731262460e+02   5.1305224117e+01    0.6068368     0.340366  86.39  0.003208905    1.959    0.490
        67 -10.0426     60.0119    109.9559   1.2388461827e+02   4.6854859948e+01    0.2075944    0.1820259 -57.44 0.0005957493    1.042    0.040
        68 -12.5566    141.5356    105.2370   9.9954622135e+01   3.3288236594e+01    0.5490341    0.3078563  59.83  0.002107617    2.226    0.551
        69 -12.0399     44.4186    101.0088   1.2682763650e+02   5.0783693095e+01    0.6979952    0.3910413  86.73  0.002878604    3.064    0.674
        70 -11.8902    127.8343    100.7702   1.0219449512e+02   3.7207771963e+01    0.5400187    0.2841148 -57.03  0.002001255    2.374    0.579
        71 -12.6060    109.8984     99.9489   1.0680612730e+02   4.1052832410e+01     1.009314    0.5478323  66.24  0.003278415    3.758    0.734
        72 -10.3322     81.6716    100.5702   1.1518918800e+02   4.5926157157e+01    0.2402385    0.1721799 -74.71 0.0008556713    1.681    0.405
        73 -10.3993     19.8337     97.4211   1.3389452861e+02   5.3861124206e+01    0.3330005    0.1318367 -80.14  0.001276568    3.360    0.702
        74 -10.0498     94.6734     97.3393   1.1046677968e+02   4.4465346685e+01    0.2326631    0.1795928  87.60  0.001116438    1.749    0.428
        75 -10.9621     62.6695     95.3388   1.1979166610e+02   4.9898707930e+01    0.4603764    0.2196683 -75.78  0.001356309    5.159    0.806
        76 -13.0803    170.2673     90.7894   8.9394333633e+01   2.9453547393e+01    0.4185978    0.3689821 -83.69 0.0008461919    1.271    0.213
        77 -10.7134     34.3393     89.1110   1.2762388963e+02   5.4537031925e+01    0.4554458    0.1868836 -72.89  0.001733537    3.207    0.688
        78 -11.1292     86.7719     87.3079   1.1008100125e+02   4.8037208620e+01    0.4023445    0.2606871  70.62  0.001651883    2.694    0.629
        79 -11.4299     42.1229     87.7667   1.2472757031e+02   5.4069368385e+01    0.3709817    0.2291498   4.93  0.001764683    2.334    0.572
        80 -10.7551     45.4820     81.9367   1.2220141552e+02   5.5017868899e+01    0.7701376    0.4318819  78.74  0.002469673    5.730    0.825
        81 -10.8092     47.6253     78.0238   1.2046223430e+02   5.5642061525e+01    0.2550085     0.204053 -27.76 0.0004186959    1.269    0.212
        82 -10.8923    104.7216     83.6734   1.0362478806e+02   4.5525728755e+01    0.4389893    0.3190061 -82.32  0.001937554    2.142    0.533
        83  -9.7023    140.6595     83.3226   9.3916288529e+01   3.7874872832e+01    0.1590838    0.1227741 -79.09   0.00070507    1.723    0.420
        84 -10.7669     24.2465     80.5885   1.2925878283e+02   5.7337287782e+01    0.4329987    0.2080809 -83.99  0.001681649    3.695    0.729
        85 -10.8692     62.5924     70.2022   1.1300123432e+02   5.5421932359e+01    0.3516817    0.1674033 -46.51  0.001446249    1.849    0.459
        86 -10.9666     82.2990     73.2354   1.0730027886e+02   5.1759298378e+01    0.3494779    0.2384667 -80.59  0.001471211    2.724    0.633
        87 -10.3711     23.5313     72.0218   1.2761649355e+02   5.9286497473e+01    0.2900721    0.1578745  67.83  0.001174599    4.109    0.757
        88 -11.4943    223.2158     71.1417   7.4867429019e+01   2.0088104214e+01     0.316572    0.2693918 -77.23  0.000574563    1.235    0.190
        89 -11.0289    171.6042     83.3552   8.7015853840e+01   3.0483165187e+01    0.2685833    0.2634673  43.79 0.0004913606    1.038    0.036
        90 -10.7251     51.9393     70.1612   1.1676615953e+02   5.6826580134e+01    0.2799138    0.1839148 -60.07 0.0006889437    1.549    0.354
        91 -11.3311     39.6035     52.6456   1.1604881115e+02   6.1835135268e+01    0.4846291    0.2302486 -38.19  0.001551966    1.915    0.478
        92 -13.4719     30.6988     59.7185   1.2173051355e+02   6.1296433122e+01     1.239133    0.8216719  30.28  0.007194311    1.775    0.437
        93 -12.3009     24.2136    241.3712   1.4649428543e+02   2.2601066842e+01    0.4325585    0.1651727  63.51    0.0024242    2.231    0.552
        94 -11.0972    231.9917     60.4909   7.1031030392e+01   1.9657926511e+01    0.2083539    0.1362033  65.97  0.001044909    1.626    0.385
        95 -11.3712     12.9939     59.4859   1.2863908920e+02   6.2739279955e+01    0.2623916    0.1312443  29.81  0.001447873    2.411    0.585
        96 -11.3192      8.4848     57.9915   1.3006450492e+02   6.3335543161e+01    0.6062059    0.2145273 -69.86  0.002501958    3.209    0.688
        97 -10.3323     47.7056     57.6518   1.1451189883e+02   5.9914506115e+01    0.2320263    0.1745651 -25.80 0.0008694239    1.260    0.207
        98  -9.9095    119.3387     56.6736   9.0767201165e+01   4.7541721234e+01    0.1487805     0.117304 -74.83 0.0007051558    1.728    0.421
        99 -10.0906     62.5322     53.5078   1.0755226186e+02   5.8745994852e+01     0.234837    0.1201434 -53.59 0.0007130337    2.259    0.557
       100 -10.4938     53.4831     52.0171   1.1041446214e+02   6.0286334292e+01    0.4208061    0.1166567 -48.25  0.001494412    3.301    0.697
       101 -10.0790    162.1696     53.3532   7.9938948656e+01   3.7798912903e+01     0.214796    0.1400705  70.86 0.0006655261    1.703    0.413
       102 -11.7067    149.6030     52.6166   8.2241141824e+01   4.1039446521e+01    0.4594272    0.2779505  68.10  0.001372591    1.889    0.471
       103 -10.1745    105.4882     50.9336   9.2549542752e+01   5.1493485943e+01    0.2191763    0.1372578 -32.99 0.0006895803    1.573    0.364
       104 -10.2599    173.1003     49.5252   7.6755423430e+01   3.5609108655e+01    0.2115594     0.193217 -34.86 0.0003816693    1.117    0.105
       105 -10.4307     91.5876     48.9001   9.5965155245e+01   5.4629048295e+01    0.3390369    0.1157356 -45.03  0.001148902    3.335    0.700
       106  -9.7151    191.4761     46.4972   7.2887435914e+01   3.1402519821e+01    0.1423339    0.1375069 -85.52 0.0008100075    1.031    0.030
       107 -10.4320    156.8920     44.9660   7.8309428754e+01   4.0348730385e+01    0.2560715    0.2040815  59.73 0.0005460813    1.218    0.179
       108 -11.8239     71.8414     42.6991   1.0017661846e+02   5.9215413974e+01     0.617239    0.2964635  50.02  0.002653894    2.683    0.627
       109 -10.7294     69.7037     37.9843   9.9073239987e+01   6.0344168986e+01      0.26345    0.2036941 -15.38 0.0003425961    1.207    0.171
       110 -10.6563      5.4906     42.5006   1.2732145692e+02   6.6673300195e+01    0.2749732    0.2075439 -84.98  0.001821985    1.772    0.436
       111  -9.2093    114.5207     42.5311   8.7009110197e+01   5.0849612619e+01    0.1421853    0.1335145  15.62 2.557264e-05    1.003    0.003
       112 -12.0856     41.5472     38.3188   1.1017688522e+02   6.4303894800e+01    0.6198444    0.3712558  26.57  0.001757417    1.816    0.449
       113 -10.8116    119.8079     34.0352   8.2544134919e+01   5.0841044041e+01    0.3085508     0.285822  54.22  0.001050834    1.113    0.102
       114 -10.4331     49.2897     34.9327   1.0564417776e+02   6.3909577503e+01    0.3204938     0.171247  23.58  0.001604177    2.155    0.536
       115  -9.8777     10.0097     44.0000   1.2576534898e+02   6.6100715711e+01    0.1929656    0.1291464  21.94  0.001059095    1.795    0.443
       116 -11.3480    103.9186     30.3224   8.5202565593e+01   5.4883076661e+01    0.5193367    0.3289462  66.77   0.00209162    2.033    0.508
       117 -12.5601    203.2990     21.3451   6.4399257572e+01   3.1623869978e+01    0.5277256    0.2865103 -78.38  0.002291373    2.276    0.561
       118 -11.0033      3.1330    239.1426   1.4977246875e+02   2.5120996672e+01    0.2051068    0.1818969 -53.77  0.001757891    1.910    0.476
       119 -10.5368    239.8022     20.6275   6.0621866739e+01   2.3081197584e+01    0.2278113    0.1839901 -56.56  0.000473266    1.076    0.070
       120 -11.6743     30.3094    233.9578   1.4506402989e+02   2.3266976067e+01    0.5968685    0.2056064  67.02  0.002779941    3.181    0.686
       121 -10.1901    219.9355     65.9317   7.3998835103e+01   2.1641780842e+01    0.2630992    0.2068285  -3.66  0.001347889    1.603    0.376
       122 -11.0101     12.4519    227.0355   1.4770403924e+02   2.6399081306e+01    0.2135376    0.1403956  79.81 0.0005413997    1.143    0.125
       123 -11.2666     96.4530    225.2556   1.3229120574e+02   1.6314428011e+01    0.3236677    0.1186583  45.32  0.001487575    2.237    0.553
       124 -10.0006     76.9697    225.4904   1.3602705142e+02   1.9058254709e+01    0.1772541   0.09794194  44.70 0.0006409834    1.547    0.354
       125 -10.6892    150.0102    223.8323   1.2173011751e+02   8.0509062672e+00    0.2171268    0.1290579  59.95  0.001091798    2.037    0.509
