#   1 NUMBER                 Running object number                                     
#   2 MAG_AUTO               Kron-like elliptical aperture magnitude                    [mag]
#   3 X_IMAGE                Object position along x                                    [pixel]
#   4 Y_IMAGE                Object position along y                                    [pixel]
#   5 X_WORLD                Barycenter position along world x axis                     [deg]
#   6 Y_WORLD                Barycenter position along world y axis                     [deg]
#   7 A_WORLD                Profile RMS along major axis (world units)                 [deg]
#   8 B_WORLD                Profile RMS along minor axis (world units)                 [deg]
#   9 THETA_WORLD            Position angle (CCW/world-x)                               [deg]
#  10 FWHM_WORLD             FWHM assuming a gaussian core                              [deg]
#  11 ELONGATION             A_IMAGE/B_IMAGE                                           
#  12 ELLIPTICITY            1 - B_IMAGE/A_IMAGE                                       
         1 -14.5045    106.7458    104.4327   6.1671154969e+01   4.0350149286e+01     1.519448    0.9859994 -46.53  0.007008337    1.485    0.327
         2 -14.7944     24.4136     93.6128   8.4035169345e+01   5.3918183282e+01     1.421678     1.009698 -20.27  0.008706224    1.798    0.444
         3 -14.9635      6.2023     70.3425   8.5744229590e+01   6.0254133048e+01    0.9660473    0.6035499 -60.93  0.005482867    1.210    0.174
         4 -13.1317      7.9468      2.6420   6.4417410370e+01   7.2726883245e+01    0.4605844    0.3094398  30.66  0.003306522    1.930    0.482
         5 -15.9071     10.6715     24.1258   7.1825355469e+01   6.9066780012e+01     1.726499    0.8020806 -35.79   0.01003645    1.753    0.429
         6 -14.8107     27.4463     10.6423   5.8345968752e+01   6.9782857206e+01    0.8801457    0.5242121 -14.72  0.002664462    1.621    0.383
         7 -13.5143     42.6528     36.8170   6.2449353861e+01   6.3924782974e+01     1.037285    0.5525846 -33.80  0.005566802    1.685    0.407
         8 -13.1452    148.2825     29.8068   2.8019757335e+01   4.4528848883e+01    0.6698969    0.5193939  -8.41  0.002418418    1.494    0.331
         9 -13.1072    189.7323     26.5860   2.0139153839e+01   3.4309477475e+01    0.5257647    0.2320184 -52.44  0.002004042    2.651    0.623
        10 -14.9882     98.6627     11.2109   3.2511024520e+01   5.8222903933e+01     1.326301    0.8185385  53.51  0.004195278    1.539    0.350
        11 -12.1980     60.1899     15.2722   4.6593153898e+01   6.4860331327e+01    0.4268455    0.2710041  13.95  0.002409742    1.666    0.400
        12 -11.8030     46.5299     12.6947   5.0827756538e+01   6.7195934824e+01    0.2354399    0.2046037  -4.68  0.001685297    1.179    0.152
        13 -13.0090    214.2564     10.2000   1.2849517345e+01   3.0030497819e+01    0.4415717       0.3253  66.83  0.002061323    1.304    0.233
        14 -11.5482     75.8222      9.2892   3.8414259150e+01   6.2928419155e+01    0.3010508    0.1626553 -30.99  0.001584319    1.876    0.467
        15 -11.5197    188.2250      9.4062   1.5523084113e+01   3.6659468889e+01    0.2014317    0.1199408  85.03 0.0009531301    1.682    0.406
        16 -13.7617     41.9806      3.9317   4.8562226425e+01   6.8935436915e+01    0.5509968    0.4093694  15.84  0.003200614    1.200    0.167
        17 -12.8387     85.7700     13.7372   3.7236849048e+01   6.0556607047e+01    0.5127523     0.295578 -41.45  0.002597894    2.098    0.523
        18 -11.1725    124.1135     11.3355   2.6502043460e+01   5.2517394526e+01    0.1993232    0.1531524  57.92  0.001116472    1.202    0.168
        19 -11.7663     74.8120      3.0318   3.5904676049e+01   6.3771096031e+01    0.2572023    0.1520195  35.86 0.0007247984    1.510    0.338
        20 -11.1253     61.8789      1.3934   3.9493621213e+01   6.6210700912e+01    0.2094622    0.1091242  49.50 0.0009479611    2.040    0.510
        21 -10.8220    152.6142      8.5923   2.0270661228e+01   4.5816553820e+01    0.2887882   0.07117726  53.27 0.0009594558    3.198    0.687
        22 -15.7701      7.0718    181.9925   9.8023401327e+01   3.5600607571e+01     1.935861     1.082824 -86.02   0.01246776    1.380    0.275
        23 -12.2921     51.0325    248.8673   9.4651073831e+01   1.7845326799e+01    0.3037966    0.2194054  76.64  0.002305448    1.120    0.108
        24 -12.5340      3.1760    249.4204   1.0211626437e+02   2.3150212421e+01     0.373337    0.2031247  61.17  0.002258164    1.268    0.211
        25 -13.6892      9.7504    245.7486   1.0098297888e+02   2.3113169930e+01    0.7066737    0.2672419  58.56  0.003806473    1.884    0.469
        26 -14.7578     15.3009    174.7202   9.5884834862e+01   3.6395171923e+01     1.162183    0.4864701  68.04  0.005774782    2.458    0.593
        27 -13.0410     36.9882    194.4861   9.3156641766e+01   2.9953440543e+01    0.3678325    0.1929399 -88.45  0.002070377    1.717    0.417
        28 -12.4174    247.9171    194.6417   5.0914819686e+01  -5.5813066996e+00    0.2451486    0.1783832 -31.68  0.001483576    1.412    0.292
        29 -10.9859    200.5084    191.5105   5.8980298886e+01   3.2717750432e+00    0.1353794    0.1228625  30.19 0.0002242992    1.052    0.050
        30 -11.5504    206.4069    190.2539   5.7608747902e+01   2.3714551263e+00    0.1791505    0.1288296 -47.72 0.0008353811    1.637    0.389
        31 -12.3027    249.6928    182.6890   4.8302688611e+01  -4.2053183052e+00    0.3055497     0.145254 -33.97   0.00146074    2.029    0.507
        32 -11.0182    122.4990    181.9634   7.3564708491e+01   1.9952209708e+01    0.1963996    0.1181009 -85.42 0.0008093118    2.536    0.606
        33 -11.2962     49.3081    181.3507   8.9443895650e+01   3.1303895943e+01    0.1160012   0.08955465 -49.17 0.0007043501    1.712    0.416
        34 -12.6139    124.3090    166.9574   7.0611632180e+01   2.2828915181e+01     0.584116    0.3718974 -71.67   0.00267164    1.872    0.466
        35 -11.4252    177.9913    167.4832   5.8843482672e+01   1.1993060222e+01    0.2333103    0.1374772  45.31  0.001038161    1.609    0.378
        36 -11.3121    206.3322    162.6542   5.2098974052e+01   7.0666658232e+00    0.1426049    0.1160447 -84.54 0.0007049808    1.762    0.433
        37 -11.8570     76.8623    156.8246   8.0126635064e+01   3.3137336591e+01    0.3233755    0.2690638  37.21  0.001205569    1.384    0.277
        38 -12.9694     73.4967    153.2049   8.0389701485e+01   3.4467021367e+01    0.5882319    0.4045846  35.33  0.003001073    1.647    0.393
        39 -12.2896    188.9983    156.0001   5.4147548781e+01   1.1884579228e+01    0.2326044    0.2249412  31.79  0.001311695    1.020    0.020
        40 -12.4557    246.3790    149.7207   4.2060540434e+01   1.3695246314e+00     0.407644    0.3429282 -66.03  0.002315195    1.597    0.374
        41 -11.1659    103.2060    149.9646   7.2547717833e+01   3.0484388033e+01    0.2315235    0.1598744 -34.77  0.001025547    1.946    0.486
        42 -12.5961      6.5742    147.5660   9.5533291506e+01   4.3070748587e+01    0.4148516    0.2089531 -82.08  0.002387331    1.570    0.363
        43 -11.8364     60.1534    147.5046   8.2812297003e+01   3.7619819115e+01    0.2820334    0.2238737 -12.94  0.001572889    1.972    0.493
        44 -12.2458     41.3990    137.7402   8.6123449213e+01   4.2124384613e+01    0.4194716     0.207969  66.36  0.001869769    2.638    0.621
        45 -11.8911    110.3309    154.5528   7.1655252141e+01   2.8168463034e+01    0.3746194    0.2163431 -86.34  0.001394255    2.931    0.659
        46 -12.3192    134.8209    126.2310   5.9657686406e+01   2.9793744700e+01    0.3240776    0.2185372 -38.79  0.001436421    1.602    0.376
        47 -12.8466    109.4591    249.0253   8.4692386871e+01   9.6004954009e+00    0.2846125    0.1940838  78.54  0.001833619    1.549    0.355
        48 -12.9830     28.5738    121.8201   8.7266755867e+01   4.7096969927e+01    0.3185284     0.308296  35.40  0.002304606    1.310    0.237
        49 -12.1728      4.8568    119.2764   9.3195374990e+01   4.9519176262e+01    0.3857275     0.219815  16.89  0.002309845    2.450    0.592
        50 -11.5628     86.6953    114.8373   6.9793209169e+01   4.1485316713e+01    0.2854775    0.2255464  -7.91  0.001078939    1.765    0.433
        51 -12.6060     81.4899    114.8209   7.1257081596e+01   4.2313804986e+01    0.3839203    0.3050752  80.81  0.002046353    1.421    0.296
        52 -12.2842     78.7303    110.3657   7.1066962112e+01   4.3777975982e+01    0.3597808    0.2616609 -83.42  0.001455229    1.610    0.379
        53 -12.1553     19.0508     86.0169   8.4364228971e+01   5.6026050296e+01    0.2807486    0.2073652  -9.78 0.0003712849    1.732    0.423
        54 -12.7491     28.6232    245.0724   9.8028441841e+01   2.1188838528e+01    0.3348659    0.1587001  51.06  0.002193628    1.601    0.376
        55 -12.3769      7.2249    112.4026   9.1780975422e+01   5.0910224998e+01    0.5712449    0.2414343  84.09  0.002420788    3.306    0.697
        56 -11.7219    121.8488    112.1672   5.9544793473e+01   3.5634972033e+01    0.2320469    0.2073659 -88.41 0.0005511795    1.186    0.157
        57 -11.5398     63.4379    110.9845   7.5624763102e+01   4.5798817915e+01    0.2942975    0.1502279  52.47  0.001278381    2.444    0.591
        58 -11.5601     41.1383    106.2644   8.1247716399e+01   4.9501747417e+01    0.2555931    0.1961839  72.66  0.001527875    1.466    0.318
        59 -12.3674    136.9309    103.2673   5.3329764827e+01   3.4363772465e+01    0.6470115    0.2771569  52.98  0.002219776    2.588    0.614
        60 -12.0921     61.5701     98.2316   7.3454939882e+01   4.8999264524e+01    0.5613992    0.3353053  79.70  0.002267189    3.142    0.682
        61 -11.9732     46.6286     99.2827   7.8261803670e+01   5.0534679872e+01    0.4277339    0.2839521  75.56  0.002202203    2.026    0.507
        62 -11.6476     52.7888     97.6514   7.6029155611e+01   5.0213641760e+01    0.3191944    0.2186781 -16.57  0.001403989    2.072    0.517
        63 -10.9463    163.5122     97.4735   4.5398740959e+01   2.9383196059e+01    0.1561478    0.1537273 -84.54 0.0001142607    1.001    0.001
        64 -12.8376    136.7211     94.8093   5.1062227363e+01   3.6194210200e+01    0.4985584    0.3351097  55.97  0.002198571    1.577    0.366
        65 -12.0509     48.9642     93.1416   7.6247903051e+01   5.1680357827e+01    0.3015671    0.2364119  75.90   0.00175855    1.542    0.352
        66 -12.4891     36.6094     92.8814   8.0087703569e+01   5.3017365699e+01    0.3716081     0.238764  13.89   0.00148068    2.061    0.515
        67 -12.3835     42.4922     90.6662   7.7767195097e+01   5.2935916366e+01    0.3137016    0.2253291 -72.98 0.0005926585    1.368    0.269
        68 -13.2942      2.2358     96.8390   9.1206162424e+01   5.4693822154e+01    0.6331854    0.2579678 -75.71  0.003149696    2.047    0.511
        69 -12.3710    188.1731     84.0348   3.6564663205e+01   2.5866583234e+01    0.3840252    0.1943047  40.43  0.001401952    2.403    0.584
        70 -13.1680    163.8707     71.8190   3.8003783460e+01   3.4143919258e+01    0.5295811    0.4230089 -33.76  0.002520542    1.286    0.223
        71 -13.4297    162.4112     79.3423   4.0525094397e+01   3.3142367152e+01    0.8511107     0.425524  34.88  0.002868654    2.903    0.655
        72 -13.5376    169.4991     77.1396   3.8369166213e+01   3.1782422300e+01    0.7559414    0.4467158  34.70  0.002560846    2.171    0.539
        73 -13.3313     91.7475     57.9215   5.2370455300e+01   5.2788085872e+01    0.4959102    0.4006835 -38.14  0.002747458    1.192    0.161
        74 -13.7215     54.3753     67.2797   6.7936535213e+01   5.6692540299e+01      1.06274    0.7890713 -21.93  0.006144974    1.435    0.303
        75 -13.6539     87.1974     65.2057   5.6227669055e+01   5.2225070274e+01    0.9445674    0.5829167   5.94  0.003785856    2.890    0.654
        76 -13.1075     71.1013     75.0889   6.4492585401e+01   5.2803799041e+01     0.507156    0.3517147   1.13  0.001312076    1.998    0.500
        77 -12.1281     77.2185     73.4907   6.2021230288e+01   5.2209519338e+01    0.5849589     0.285924 -35.45  0.001940731    2.275    0.560
        78 -12.4788     54.8796     81.5208   7.1605794303e+01   5.3589810423e+01    0.5487081    0.3662944 -54.99  0.003008746    1.311    0.237
        79 -14.2421     18.2240    111.6417   8.8674745746e+01   5.0301507008e+01     0.660046     0.550969 -44.04  0.003444536    1.340    0.254
        80 -12.2892    135.6987     79.5981   4.6905071770e+01   3.9495165205e+01    0.6774427    0.2916257  49.18  0.002448035    2.323    0.570
        81 -11.8260    113.9076     79.6417   5.2738629103e+01   4.4252624258e+01    0.3769217    0.3254478 -56.65  0.001761967    1.208    0.172
        82 -13.0445    170.6557    241.9660   7.2790098264e+01   7.6719305874e-01    0.2730986    0.1961334 -69.56  0.001640021    2.089    0.521
        83 -14.3191      4.4754     63.4420   8.5013530748e+01   6.1804028330e+01    0.6569356    0.5521132 -30.17  0.003660945    1.271    0.213
        84 -13.3921    106.5168    124.0025   6.6422269664e+01   3.5915552047e+01     1.341619    0.7424973  51.84  0.005660019    1.962    0.490
        85 -13.2822     65.1565     50.1050   5.8620653581e+01   5.8612529729e+01    0.9465056    0.5326418 -35.58  0.004753441    1.652    0.395
        86 -14.1453     11.1350    103.7660   8.9581404250e+01   5.2597635791e+01    0.6704996    0.5015053  52.67  0.004541517    1.555    0.357
        87 -13.7811    111.5976    116.2505   6.3271448446e+01   3.6744154412e+01    0.4779281    0.4111409  48.84   0.00163599    1.194    0.163
        88 -12.4616    199.8957     69.1706   3.0393466802e+01   2.5498620229e+01    0.4136742    0.2524567  49.66  0.001678617    1.698    0.411
        89 -11.0323    117.5763     72.2346   4.9435769395e+01   4.4946735819e+01    0.2302604    0.1789885  39.56 0.0005696242    1.313    0.238
        90 -13.8639     61.1971     75.4411   6.7890560517e+01   5.4108218698e+01    0.7370743     0.454191 -34.16  0.003697697    1.688    0.408
        91 -12.2543    134.6545     66.4306   4.3102169536e+01   4.2207873090e+01    0.5075436    0.2852324  48.13  0.001896938    1.755    0.430
        92 -10.8589     99.6685     65.1857   5.2349332883e+01   4.9938357538e+01    0.1946854    0.1875658  57.77 0.0009671464    1.153    0.132
        93 -11.5464    158.0387     83.4980   4.2703565302e+01   3.3435263300e+01    0.2815628    0.2511871  61.20 0.0006775443    1.125    0.111
        94 -12.9803     78.9538     60.1556   5.7263902863e+01   5.4594297056e+01    0.5149469    0.4011006 -42.25  0.002881383    1.213    0.176
        95 -12.0099     34.9651     59.5841   7.2800302481e+01   6.0386053258e+01    0.4199491    0.1072607 -48.54  0.001635948    2.924    0.658
        96 -11.1727     38.8125     59.9791   7.1475774825e+01   5.9930007216e+01    0.1970618     0.141751 -82.44   0.00108821    2.033    0.508
        97 -11.5742     24.8388     59.1865   7.6499690008e+01   6.1350621757e+01    0.3805069    0.1680233 -52.79   0.00196552    1.742    0.426
        98 -11.6796    110.9788     58.8224   4.6923697235e+01   4.8831871545e+01    0.2602301     0.207352 -20.55 0.0003825497    1.306    0.235
        99 -14.2145    120.1541     54.6555   4.2988988792e+01   4.7570507981e+01    0.7543234    0.5549861  33.40  0.003740979    1.419    0.295
       100 -11.4496     17.7600     55.6108   7.8278745856e+01   6.2612154616e+01    0.2808243    0.1331524 -61.07   0.00149311    1.807    0.447
       101 -13.0113    178.1788     58.3750   3.1194989987e+01   3.2780364600e+01    0.5894705    0.4888541 -43.18  0.002081746    1.213    0.175
       102 -13.5022    103.3643     50.4401   4.6234154070e+01   5.1855739924e+01    0.9679993    0.5258294 -57.81  0.002605061    3.147    0.682
       103 -13.2112     97.9601     50.0237   4.7700932969e+01   5.3004032433e+01     0.560298    0.3771332 -41.28   0.00204522    1.494    0.331
       104 -11.3416    136.0256     49.7200   3.7327840938e+01   4.4708050786e+01    0.2490354    0.2186891 -22.57 0.0006507408    1.179    0.152
       105 -10.3850     23.6457     49.7467   7.4391222596e+01   6.3346669265e+01    0.1200393   0.07381851 -28.16 0.0003073562    1.603    0.376
       106 -12.6840    204.7575     40.0686   2.1757784849e+01   2.8697099955e+01    0.5355355    0.2892198 -87.28  0.002071168    2.606    0.616
       107 -12.5713    212.6822     43.1801   2.1502187605e+01   2.6269182877e+01    0.5212847    0.2692266  55.77  0.001883185    1.935    0.483
       108 -12.8910    219.9999     41.8227   2.0198535890e+01   2.4646689469e+01    0.8756245     0.447551 -85.56  0.003273944    2.952    0.661
       109 -13.2517      5.9511     42.9022   7.9701556855e+01   6.5881743721e+01    0.7411136    0.3526751  16.61  0.004321482    2.534    0.605
       110 -13.5021     99.6140    239.1458   8.5472284672e+01   1.2762748635e+01    0.7310644    0.2981266  44.14    0.0036757    1.981    0.495
       111 -14.0357     92.6239    230.2857   8.5866711236e+01   1.5392253602e+01    0.5408198    0.4746361  66.62  0.003867843    1.193    0.162
       112 -12.7988     23.8973    216.7204   9.7169280760e+01   2.6934570967e+01    0.6670378     0.309227  57.43  0.004037743    1.720    0.419
       113 -11.6936    159.0135     43.1311   3.0218208078e+01   4.0008929367e+01    0.3639607    0.2122369  60.38  0.001594768    1.642    0.391
       114 -11.8382    109.5942     41.9166   4.1398549171e+01   5.1926582075e+01    0.3695907    0.1967821  53.43 0.0008635838    1.942    0.485
       115 -11.4927    134.4011     39.3654   3.4206893010e+01   4.6651737632e+01    0.4038613    0.2549442  81.16  0.001681098    2.355    0.575
       116 -13.7660    122.2642     36.1472   3.5982298357e+01   4.9958843869e+01    0.8596137    0.5135947  32.22  0.003854161    1.900    0.474
       117 -12.5814    113.9163     37.7182   3.8696595931e+01   5.1613676119e+01    0.3382598    0.3139624  24.29  0.001189268    1.012    0.012
       118 -12.5948    131.7127     33.0511   3.2636286299e+01   4.8167934868e+01    0.4677755    0.3055024  36.70  0.001615994    1.588    0.370
       119 -10.8565     35.0567     34.7269   6.4820083077e+01   6.5120040225e+01    0.1989516    0.1601263   0.61 0.0007216848    1.241    0.194
       120 -13.8325     26.4623    225.8660   9.7287691088e+01   2.4913121533e+01    0.6204832    0.3211071 -60.71  0.003803117    2.355    0.575
       121 -12.5035     33.0832     40.4097   6.7640806453e+01   6.4294933191e+01    0.2994071    0.2210147  -8.30 0.0009737242    1.382    0.276
       122 -12.8028    243.0156     36.5476   1.6262145293e+01   1.9881649025e+01     0.587832    0.2646056  75.62  0.002277828    2.455    0.593
       123 -12.1230     75.9633     36.9966   4.9973146614e+01   5.9158602694e+01    0.3594923    0.2030135  40.70 0.0009639559    1.816    0.449
       124 -11.3332     70.6155     36.0836   5.1487207433e+01   6.0186187662e+01    0.2242829    0.1838621  51.04 0.0006477268    1.539    0.350
       125 -13.8815    166.1580     30.0702   2.4821988222e+01   3.9951746378e+01    0.9261268    0.5088475  67.25  0.003895832    1.767    0.434
       126 -12.5785    139.2565     21.4621   2.6992090640e+01   4.7779517185e+01     1.129428    0.3864429  68.01  0.003159004    3.745    0.733
       127 -12.4394    152.4082     31.2263   2.7684450276e+01   4.3310014969e+01    0.3620808    0.3238884  38.82  0.001369635    1.125    0.111
       128 -14.1174     20.7487    224.1253   9.8147505614e+01   2.5861568654e+01    0.6247419    0.4010418  56.48  0.004544319    1.286    0.222
       129 -12.7533    142.9962     30.0076   2.9148398723e+01   4.5819355386e+01    0.4904247    0.3896451 -82.96  0.002032236    1.501    0.334
       130 -13.8859     65.2118    223.4781   9.0282413528e+01   2.0596161138e+01     0.912998     0.560937  58.99   0.00572987    1.305    0.234
       131 -12.1885     62.4777     25.6877   5.0253385981e+01   6.3061416675e+01    0.4020274    0.2544343   6.23  0.002127513    1.880    0.468
       132 -12.2696    120.5154     26.0967   3.2761909300e+01   5.1693247591e+01    0.4782081    0.2908679  59.26  0.002171425    1.636    0.389
       133 -11.9803     30.4680     25.6461   6.3354359516e+01   6.7139124417e+01    0.3024109    0.1794962   4.28  0.001745739    1.966    0.491
       134 -11.4298     36.2406     23.2590   5.9858397844e+01   6.6915162775e+01    0.2690052    0.1395798 -36.51  0.001506939    1.630    0.387
       135 -14.2532     64.1678    214.0502   8.9638395130e+01   2.2565322403e+01    0.5356166    0.3143367  67.82  0.003141559    1.510    0.338
       136 -11.2122     51.2470     20.4102   5.2353985816e+01   6.5471232167e+01     0.229612    0.1142125  37.70  0.001083074    2.107    0.525
       137 -11.5354     46.6871     20.1653   5.4107403881e+01   6.6121587309e+01    0.3183599    0.2073472  13.70  0.001903254    1.588    0.370
       138 -11.6018     71.0850     16.4322   4.3171670346e+01   6.2923668974e+01     0.229642     0.169665 -29.43 0.0006334901    1.366    0.268
       139 -13.3392     59.4784    212.9580   9.0426899121e+01   2.3408465488e+01    0.3543721     0.217659 -60.91  0.001372416    1.834    0.455
       140 -12.3042    248.9440    215.9005   5.4629956708e+01  -8.5155810939e+00    0.2676327    0.1886799  44.12  0.001664183    1.610    0.379
       141 -11.2972    156.6791    214.6745   7.1541654578e+01   7.4802303196e+00      0.12841   0.09960206  12.17    0.0004763    1.682    0.405
       142 -12.2126      4.3065    212.4460   1.0028222974e+02   2.9740159420e+01     0.333962    0.1495511 -79.92  0.002072113    1.817    0.450
       143 -12.7951     72.2773    207.1188   8.7403342730e+01   2.2827786627e+01    0.3495969    0.2356145  86.05  0.002035693    1.375    0.273
       144 -11.4130    248.6630    226.3242   5.6482102026e+01  -9.7324391421e+00    0.1011222   0.09407258  57.50 0.0007051143    1.718    0.418
       145 -11.7692    185.4880    203.0452   6.3983655153e+01   4.1753821399e+00    0.1911772    0.1339603 -40.63  0.001037985    1.606    0.377
       146 -10.8379     40.5145     12.5473   5.3314101540e+01   6.8003314681e+01    0.1174374   0.09390984  -9.49 -8.053747e-06    1.030    0.029
       147 -13.2553     17.1410    195.5113   9.7017372458e+01   3.1857176462e+01    0.5542906    0.1620427 -63.19  0.002579783    3.162    0.684
       148 -13.0566     55.9033     26.8657   5.3251266523e+01   6.3857128982e+01    0.5690206    0.3037652  38.91  0.002050793    2.005    0.501
       149 -13.4189     21.8455    165.9118   9.3797871041e+01   3.7694259356e+01    0.3766201    0.3020934 -17.31  0.001532334    2.104    0.525
       150 -13.5872     29.7838    169.3846   9.2417059265e+01   3.6139021604e+01     0.996425    0.5467364 -43.71  0.005047599    2.860    0.650
