#   1 NUMBER                 Running object number                                     
#   2 MAG_AUTO               Kron-like elliptical aperture magnitude                    [mag]
#   3 X_IMAGE                Object position along x                                    [pixel]
#   4 Y_IMAGE                Object position along y                                    [pixel]
#   5 X_WORLD                Barycenter position along world x axis                     [deg]
#   6 Y_WORLD                Barycenter position along world y axis                     [deg]
#   7 A_WORLD                Profile RMS along major axis (world units)                 [deg]
#   8 B_WORLD                Profile RMS along minor axis (world units)                 [deg]
#   9 THETA_WORLD            Position angle (CCW/world-x)                               [deg]
#  10 FWHM_WORLD             FWHM assuming a gaussian core                              [deg]
#  11 ELONGATION             A_IMAGE/B_IMAGE                                           
#  12 ELLIPTICITY            1 - B_IMAGE/A_IMAGE                                       
         1 -14.4485     16.7825     67.5563   8.1455258238e+01   6.0196275530e+01    0.6948007    0.4174615 -68.42  0.001376564    1.518    0.341
         2 -12.7572      3.4303     63.7603   8.5452907671e+01   6.1791584397e+01     1.105734    0.3610147 -66.68  0.005113643    2.467    0.595
         3 -11.1289      8.1607     31.7069   7.5514287491e+01   6.7872268231e+01    0.6845703     0.438893  86.89  0.003436494    3.801    0.737
         4 -10.2546     16.8888     31.8671   7.1672601510e+01   6.7247942532e+01    0.7925212     0.515581 -54.09  0.005157763    1.447    0.309
         5 -11.5390      3.3003     16.2071   7.2504177135e+01   7.0898307768e+01    0.3107927    0.2578107  84.66  0.001839161    2.177    0.541
         6 -11.3495     58.1833     21.4561   5.0081314983e+01   6.4323558843e+01    0.4918044      0.26628  25.27  0.002336176    2.020    0.505
         7 -11.4583     60.5314     13.9031   4.5847343697e+01   6.4983241403e+01    0.4399364    0.3218494  12.52  0.002113682    1.259    0.205
         8 -10.3609     74.3267      2.2579   3.5703373024e+01   6.3937004237e+01    0.3645369    0.2358403 -33.61    0.0021047    1.733    0.423
         9 -11.4482     77.1666     10.0605   3.8323409954e+01   6.2596481119e+01    0.6826854     0.265938  47.68  0.002729133    2.387    0.581
        10 -11.1341     76.5001     15.6379   4.0992104111e+01   6.2067927725e+01    0.2894102    0.2171776  30.43 0.0002632131    1.220    0.180
        11 -11.3618    130.0247     11.6800   2.5405897492e+01   5.1078268996e+01    0.5151656    0.3773081 -47.75  0.002789361    1.592    0.372
        12 -11.5378     30.9590     13.0787   5.7822538076e+01   6.9051742484e+01    0.3333655    0.1701713 -38.27 0.0004744002    1.707    0.414
        13 -12.3224    238.0897     17.5871   1.2334702774e+01   2.3444535043e+01    0.2792648    0.2215862 -50.57 0.0002759975    1.168    0.144
        14 -10.4087     18.9165     15.8755   6.4709099434e+01   6.9805047670e+01    0.3131905    0.2173406  -2.30  0.002181655    1.385    0.278
        15 -11.4869      9.3331      8.0170   6.6119199872e+01   7.1811698159e+01    0.3078502     0.272458  10.99  0.001245988    1.467    0.319
        16 -11.3517     10.6678      3.1138   6.3196993408e+01   7.2441778710e+01    0.2012571     0.178322 -13.26 0.0007747224    1.382    0.276
        17 -11.0863     11.1459     14.6648   6.8001951644e+01   7.0625097399e+01    0.2940243      0.14009 -25.85  0.001667112    2.026    0.506
        18 -10.1907     15.1473     13.6279   6.5598175082e+01   7.0478794878e+01    0.2045608    0.1328977  -0.06 0.0007092113    1.538    0.350
        19 -11.2738    106.0559     12.4332   3.1091915210e+01   5.6508347492e+01    0.3696133    0.2192637  30.64 0.0004620973    1.745    0.427
        20 -10.7570     70.7693     13.9644   4.2191700828e+01   6.3283777980e+01    0.4151811    0.2522252 -37.24  0.002288892    1.794    0.443
        21  -9.8796    138.3645     11.3785   2.3680858360e+01   4.9085590715e+01    0.2735634    0.1348033 -46.31  0.001159116    2.478    0.596
        22 -11.1546    176.7383     10.5515   1.7319062355e+01   3.9477131299e+01    0.3461806    0.2319238  48.76 0.0006598603    1.509    0.337
        23 -11.4475    145.6898      7.8368   2.1168776248e+01   4.7622644757e+01    0.4962881    0.3132674 -23.13  0.002532682    1.760    0.432
        24 -11.6055    241.0411      9.0241   1.0123939266e+01   2.3763603153e+01    0.2046174    0.1601434 -70.83 0.0004936985    1.075    0.070
        25 -12.4035    231.2814      5.8787   1.0226182514e+01   2.6394552904e+01    0.5762773    0.2783179 -89.09  0.001337938    2.194    0.544
        26 -11.2556    214.1112      6.6075   1.1968358291e+01   3.0457954502e+01    0.4038063    0.2905829 -30.91  0.002281208    1.520    0.342
        27  -8.8943    160.2668      8.6816   1.9103461533e+01   4.3872613571e+01    0.1361789   0.09839198 -64.57 0.0002463098    1.555    0.357
        28  -9.6486    118.2540      7.9416   2.6492247670e+01   5.4216523485e+01    0.1774659    0.1646054  14.38 0.0004804644    1.101    0.092
        29 -10.8407     36.6276      7.3475   5.2575917336e+01   6.9191488466e+01    0.2955736    0.2239819  44.73  0.001809004    1.906    0.475
        30 -11.3607    243.9530      3.7902   8.7270657242e+00   2.3684710024e+01    0.2566027    0.1411145 -87.98  0.001324907    1.755    0.430
        31  -9.6170     91.7933      7.1191   3.2669564377e+01   6.0066140792e+01     0.177094    0.1265751  26.57  0.000430105    1.294    0.227
        32 -10.4312    222.8251      5.5532   1.0893358002e+01   2.8449280907e+01    0.2148035    0.1676684 -42.91 0.0001033544    1.293    0.226
        33  -9.7230     68.6088      5.7297   3.9194720683e+01   6.4603805305e+01     0.151373    0.1065958 -27.07 0.0003213846    1.451    0.311
        34 -10.4216     18.4581      4.1059   5.9654783971e+01   7.1613562806e+01     0.303593    0.2574779  59.77  0.002111861    2.450    0.592
        35  -9.7024    171.8244      4.9110   1.6315555990e+01   4.1296715401e+01    0.1892221    0.1462795 -63.87 0.0005802396    1.353    0.261
        36  -9.9940    164.4645      4.7029   1.7258161642e+01   4.3190068895e+01    0.2255307    0.1262231 -32.42 0.0006998538    1.906    0.475
        37 -10.5558    155.2635      9.2040   2.0044210086e+01   4.5088501221e+01    0.3036476    0.2148052 -58.59  0.001117187    1.612    0.380
        38  -9.9965    201.3756      3.7292   1.2516584243e+01   3.3920354270e+01    0.2240532    0.1375697  54.30 0.0006379596    1.660    0.397
        39 -10.5006    179.0156      3.9455   1.5112431709e+01   3.9556872240e+01    0.2031393    0.1782997  77.48 0.0003063045    1.019    0.018
        40 -10.3757    126.1534      3.0393   2.3042403062e+01   5.2816863263e+01     0.218525    0.1969159 -31.00 0.0008307393    1.250    0.200
        41 -11.8907     27.5011      3.1644   5.4749729098e+01   7.0812922287e+01    0.2237421    0.2041563  -6.42 0.0008907392    1.445    0.308
        42 -11.5522    237.7073      1.7609   8.7605743945e+00   2.5340480574e+01    0.3643137    0.1626754  78.20  0.001713029    2.101    0.524
        43 -10.0857    168.1091      1.8613   1.5899340868e+01   4.2528395360e+01    0.1960447    0.1629853 -82.72 0.0002802805    1.184    0.156
        44  -9.9618     90.9815      2.0792   3.0737127727e+01   6.0714491931e+01    0.1838521    0.1535772  19.88 0.0003067892    1.060    0.057
        45 -10.5586     34.8298      1.5614   5.0530439758e+01   7.0153642901e+01     0.313385    0.1295908  40.04  0.001628177    2.672    0.626
        46  -9.6384     22.1771      1.7639   5.6646830287e+01   7.1568675430e+01    0.1572402   0.09952887 -11.05 0.0004977369    1.389    0.280
        47 -10.0028    238.7701    200.7825   5.3651080510e+01  -4.9195276508e+00    0.1537889    0.1487602  10.78 0.0006012067    1.326    0.246
        48 -12.1033    232.2303    245.8927   6.2448453252e+01  -9.5483339339e+00    0.5339902    0.1853347  29.78  0.002254135    3.187    0.686
        49 -12.6147      7.1254    245.2740   1.0135875428e+02   2.3463752430e+01    0.5852464    0.3079438  76.50  0.003034729    1.383    0.277
        50 -12.2896     21.6450    248.4244   9.9291188010e+01   2.1385468636e+01    0.5309476    0.1666954  50.93  0.003032532    2.203    0.546
        51 -11.8064     14.4117    244.7530   1.0022773067e+02   2.2800108359e+01    0.3293068    0.1433022 -84.34  0.001641044    1.983    0.496
        52 -10.2443    169.4949    212.0447   6.8614012410e+01   5.6131210866e+00    0.1824911    0.1331288 -45.48   0.00103384    1.593    0.372
        53  -9.5688    215.5530    194.2365   5.6630191236e+01   6.1906046252e-02    0.1759467     0.121872 -19.65 0.0009390346    1.582    0.368
        54 -11.7144     15.5683    193.0575   9.7146644400e+01   3.2515234627e+01    0.2781788    0.2147004  56.19   0.00113352    1.318    0.241
        55 -10.4932    244.6753    188.0204   5.0203255463e+01  -4.1197103043e+00    0.1824369    0.1511248  -9.18 0.0004897953    1.094    0.086
        56  -9.5428    163.3231    188.6782   6.5945482066e+01   1.0904762177e+01    0.1415486    0.1070935  75.70 0.0007046303    1.678    0.404
        57  -9.9459     61.8770    184.3986   8.7111828416e+01   2.9031702684e+01    0.2243491    0.1491249 -85.78  0.001298175    1.365    0.267
        58 -10.9557     22.3091    179.6154   9.4854117433e+01   3.4671983792e+01    0.3714339    0.1373314  61.75  0.001366187    2.864    0.651
        59 -11.1878     19.2440    181.6078   9.5621538225e+01   3.4549257096e+01    0.2490423    0.2129778  83.27  0.001176247    1.222    0.182
        60 -12.2044     15.4966    180.9947   9.6315995285e+01   3.5039350304e+01    0.4222839     0.191152  84.15  0.002145881    2.050    0.512
        61 -10.6194    244.2493    178.4191   4.8388301858e+01  -2.6555981014e+00    0.2504476    0.1478211 -21.18  0.001255411    1.776    0.437
        62  -9.3921      1.5051    179.9943   9.8961029244e+01   3.6497271988e+01    0.1466496   0.06539036 -59.59 0.0008080175    2.374    0.579
        63  -9.4376    118.6815    176.6796   7.3553527359e+01   2.1762529016e+01    0.1331114    0.1140996  -8.12 0.0007042608    1.664    0.399
        64 -11.1060     18.0705    172.4339   9.5140240927e+01   3.6628920662e+01    0.3213747    0.1566068  64.65  0.001770226    1.942    0.485
        65  -9.8463    177.0110    168.9521   5.9345907489e+01   1.1913523999e+01    0.1738442    0.1676493  34.19 0.0004674155    1.024    0.024
        66 -10.1533     25.7681    169.4234   9.3276068184e+01   3.6538407567e+01    0.1371033     0.117773  18.62 0.0009501566    1.712    0.416
        67 -10.3709     35.9631    160.9205   9.0215556793e+01   3.7378843221e+01    0.2512419    0.2120218  12.15 0.0009449743    1.756    0.430
        68 -11.2220     37.0268    165.8556   9.0496400789e+01   3.6154885378e+01     0.323102    0.1990936  85.22 0.0004422508    1.466    0.318
        69  -9.7742     33.3354    166.2845   9.1350080040e+01   3.6455374785e+01    0.1776657    0.1263323 -81.76 0.0002303519    1.149    0.130
        70 -11.1942      5.6484    167.9090   9.7335930242e+01   3.8705764482e+01    0.1654846    0.1499012  87.73 0.0009422438    1.327    0.247
        71  -9.2102    210.5565    166.4535   5.2079985567e+01   5.5544580673e+00    0.1409593    0.1298664  10.69 0.0001654719    1.016    0.016
        72  -8.8826     93.2998    166.7109   7.7757731948e+01   2.8326622862e+01    0.1413448   0.09705094  74.20 0.0002928398    1.560    0.359
        73 -11.3696     51.4986    162.2244   8.6832768062e+01   3.5305276477e+01    0.6338289    0.3094155 -79.08  0.002922051    2.019    0.505
        74  -9.8524     67.2226    165.3810   8.3615859857e+01   3.2544286352e+01    0.1900019    0.1063372  51.21  0.000950788    1.733    0.423
        75  -9.7897    186.3394    164.6577   5.6527337191e+01   1.0805628262e+01    0.1483902    0.1169497  87.85 -0.0002768748    1.772    0.436
        76  -9.9297     10.0369    162.4473   9.6013468271e+01   3.9518545102e+01    0.1453589    0.1084341  41.32 0.0005349679    1.563    0.360
        77  -9.6224    221.2950    161.3046   4.8969724799e+01   4.3059125367e+00    0.1419099    0.1047102   6.01 0.0003201716    1.580    0.367
        78  -8.7590    132.3189    161.3185   6.7724665416e+01   2.2524944635e+01    0.1427777    0.1190554  -4.12 0.0007041573    1.661    0.398
        79 -11.4319     21.5229    156.7895   9.3031153558e+01   3.9748645743e+01    0.3692177    0.2933005 -28.97  0.001934603    1.928    0.481
        80 -10.6550    235.8727    153.1311   4.4591776540e+01   2.8190177396e+00    0.2602482    0.1529441 -41.57  0.001234829    1.707    0.414
        81  -9.9884    216.2599    154.5930   4.8468256460e+01   6.4635499523e+00    0.1940783    0.1304189  34.89 0.0003294729    1.521    0.342
        82 -10.7159     10.9808    153.0642   9.5029433948e+01   4.1501564076e+01    0.2630168    0.1839627  44.00  0.001786386    1.582    0.368
        83  -9.4043    222.7231    151.3809   4.6566187886e+01   5.7088353364e+00    0.1411253    0.1113972 -66.24 0.0007003392    1.710    0.415
        84  -9.4191    176.7261    150.0204   5.5422656121e+01   1.5673922228e+01    0.1859342    0.1330607 -43.74 0.0005214448    1.438    0.304
        85  -9.9461     21.1620    147.8647   9.2233466483e+01   4.1788049030e+01    0.1578528    0.1181057 -63.86 0.0003792273    1.302    0.232
        86 -10.0928    216.7889    145.1946   4.6294628111e+01   8.0045102126e+00    0.2036074    0.1670124   5.13 0.0006824009    1.337    0.252
        87 -10.0940    187.7312    144.0461   5.1765202230e+01   1.4455093175e+01    0.2554555    0.2084133  43.60 0.0005096792    1.206    0.171
        88 -10.4497    240.0967    140.1565   4.1023555237e+01   4.1272520140e+00    0.2129391    0.1790028   1.04 0.0004568953    1.223    0.182
        89 -11.2306      9.3236    137.5669   9.3981051049e+01   4.5090818483e+01    0.3454684    0.1051981 -72.98  0.001534747    2.512    0.602
        90 -10.9989      2.8143    135.5334   9.5327292151e+01   4.6018834603e+01    0.4084089   0.09915219 -69.67  0.001745942    2.823    0.646
        91 -10.1865    236.6577    137.6753   4.1053790798e+01   5.2241077043e+00    0.1474615    0.1063092   7.15 0.0003042784    1.733    0.423
        92  -9.9587    144.0933    137.1524   5.9927199423e+01   2.5416283971e+01    0.2239744    0.2112496   1.22 0.0004562424    1.200    0.167
        93 -11.4715    241.4135    134.1829   3.9469503862e+01   4.8537752059e+00     0.274628    0.2345608 -24.78 0.0005190583    1.081    0.075
        94 -10.3671     21.1394    134.6949   9.0813030141e+01   4.4786228377e+01    0.2625209    0.1501491  79.64  0.001263403    1.798    0.444
        95 -10.4702     53.2248    132.7556   8.2347233268e+01   4.1948947282e+01    0.2970151    0.2299121  21.35  0.001355799    1.683    0.406
        96 -10.5920     59.1625    131.8290   8.0633918628e+01   4.1434912997e+01    0.2664584    0.2121758   6.13  0.001228259    1.789    0.441
        97 -11.6012     36.5744    130.9130   8.6421464688e+01   4.4219220424e+01    0.4308907    0.2226741 -57.74  0.001281409    1.689    0.408
        98 -11.2666     73.4488    128.8999   7.6306637785e+01   4.0195005921e+01     0.297198    0.2682853  88.38  0.001160196    1.063    0.059
        99 -10.0040     22.1303    125.8745   8.9502702557e+01   4.6724365223e+01    0.1799078    0.1351358  88.13 0.0002980825    1.193    0.162
       100 -11.0467     15.3260    125.3300   9.1190501737e+01   4.7400087081e+01    0.3204321    0.1936657  33.47  0.001948773    1.963    0.491
       101 -11.3751     10.5798    122.3146   9.2060577597e+01   4.8439978758e+01    0.2916572    0.1929781  87.86  0.001841828    1.354    0.261
       102 -10.8356    243.8042    122.1397   3.6350197189e+01   6.3690541379e+00    0.2133109     0.181646 -47.77 0.0006013263    1.189    0.159
       103 -10.4383     20.0081    121.1089   8.9452840252e+01   4.7993999777e+01    0.3017192    0.1331685 -63.74  0.001323879    1.756    0.430
       104 -10.1674    219.5723    124.2075   4.0943998574e+01   1.1146133653e+01     0.207088    0.1381533 -24.39 0.0009380362    1.631    0.387
       105 -11.9927     54.7956    108.7878   7.7706958323e+01   4.7398415418e+01    0.4843755    0.3020616 -52.16  0.001845455    1.433    0.302
       106 -10.8910     55.9649    119.3154   7.9348264449e+01   4.4787074967e+01    0.3243903    0.1722798 -69.12  0.001529153    1.775    0.437
       107 -11.2967     52.5221    115.2324   7.9580242005e+01   4.6159401981e+01    0.4077639    0.2239631 -74.26 0.0009019034    1.872    0.466
       108 -10.7957     24.3487    118.4556   8.7937734129e+01   4.8243986610e+01     0.318489    0.2000096 -72.64  0.001204374    1.288    0.224
       109 -11.4189     31.0316    116.9335   8.5892629617e+01   4.8005408776e+01    0.3812738    0.2066251  -2.45   0.00163303    3.979    0.749
       110  -9.7467     45.0008    118.2489   8.2224490326e+01   4.6300693525e+01    0.1625114    0.1500092 -82.36 0.0002426105    1.113    0.101
       111 -10.3867    249.5246    117.5147   3.4398518252e+01   5.9703693475e+00    0.1397007    0.1257336 -33.85 2.881683e-05    1.025    0.024
       112 -10.5159     72.1829    116.2305   7.4188071116e+01   4.3368546255e+01     0.303946    0.1877698 -71.27  0.001280345    1.688    0.408
       113 -11.2366    182.0292    114.6155   4.5891656080e+01   2.1552407079e+01    0.5120428    0.3079236  33.97  0.001386705    2.042    0.510
       114  -9.5820     86.4460    116.4934   7.0228319632e+01   4.1138557484e+01    0.1445337    0.1304315 -76.21 5.465012e-05    1.055    0.052
       115 -10.3906     30.9348    106.3447   8.4253999895e+01   5.0461852168e+01    0.2406229    0.1745682 -52.35   0.00117194    1.263    0.208
       116 -10.8760     18.9308    110.5505   8.8325870444e+01   5.0496388238e+01    0.3767117    0.1966545 -84.46  0.001945265    1.927    0.481
       117 -11.5035     23.7946    106.8301   8.6399492414e+01   5.0961688407e+01    0.4596892    0.2841671 -11.49  0.002458218    2.588    0.614
       118 -11.1262     15.9360    115.0999   8.9765762353e+01   4.9686026784e+01    0.2467383    0.1814309 -70.71 0.0004673828    1.071    0.066
       119 -11.8004     14.5351    110.1676   8.9497018233e+01   5.0911934554e+01    0.3839632    0.3081695 -87.33  0.002111616    1.141    0.123
       120 -10.4842      1.3985    118.5824   9.4010139017e+01   4.9895829806e+01    0.2125601   0.08568331 -73.25 0.0002488153    1.859    0.462
       121 -10.6469     94.2805    112.2150   6.7065753516e+01   4.0828657744e+01     0.314663    0.2925515  72.11  0.001783287    1.110    0.099
       122 -11.1468    249.4949    111.7622   3.3088160991e+01   6.9158908286e+00    0.2578834    0.2366942 -35.74 0.0006158975    1.026    0.025
       123  -9.8923      2.6846    104.7078   9.2085509614e+01   5.2917936412e+01    0.1880891     0.118287  76.21 0.0009288683    1.696    0.410
       124  -9.8304     41.8724    108.4630   8.1427566763e+01   4.8916247852e+01    0.1668221    0.1289165  32.80  0.000531777    1.529    0.346
       125 -10.1869    111.7370    105.8668   6.0660248131e+01   3.9067746435e+01    0.2394091    0.1968367  35.47  0.001210607    1.307    0.235
       126  -9.7490    119.3326    104.3187   5.8198177393e+01   3.7893736080e+01    0.1545419     0.122718  -4.90 0.0007048401    1.693    0.409
       127 -10.6575      1.3649    108.4856   9.2900333245e+01   5.2152814566e+01    0.3326833    0.2187699 -56.35  0.002209106    1.353    0.261
       128 -11.1376     36.1556    100.6175   8.1705540456e+01   5.1295974954e+01    0.5983202    0.3195567  80.98  0.002484941    3.279    0.695
       129 -11.8941     62.2491     99.3335   7.3494425160e+01   4.8658356841e+01    0.5090562    0.3307599 -35.91  0.002206625    1.725    0.420
       130  -9.9956    144.4930     99.1339   5.0323791836e+01   3.3527076141e+01    0.2392217    0.1533177 -44.09  0.001018034    1.549    0.355
       131 -10.7727     21.3771     98.5205   8.5794334790e+01   5.3046686266e+01    0.2346777    0.1668215 -59.82 0.0005982702    1.143    0.125
       132  -9.7130      9.7066     99.0473   8.9332167129e+01   5.3752058768e+01    0.1640375    0.1171158 -73.03 0.0004074363    1.109    0.099
       133 -10.6689     41.2689     97.0007   7.9453002979e+01   5.1621393782e+01    0.2082636    0.1817529  83.92  0.001314367    1.240    0.193
       134 -10.4556     15.1228     96.7317   8.7384406707e+01   5.3909286890e+01    0.1957532    0.1580299   7.83  0.001022795    1.620    0.383
       135  -9.2695     47.7231    100.2990   7.8132733898e+01   5.0181043186e+01     0.125601   0.09455116  84.37 0.0002135416    1.536    0.349
       136 -10.6615    102.5691     95.3820   6.0474245703e+01   4.3150394667e+01    0.2945341    0.1938629  38.43  0.001289751    1.622    0.383
       137 -11.7833    159.4442     90.0873   4.4265857322e+01   3.1821828141e+01    0.6645475    0.5131293  89.50  0.003008156    1.638    0.390
       138 -10.6643    227.4888     92.9485   3.2019431606e+01   1.4835185732e+01    0.2597143    0.2200468  61.41 0.0004124486    1.251    0.201
       139  -9.9154      1.3992     92.7485   9.0899150485e+01   5.5644248668e+01    0.1672478   0.07812858 -62.35 0.0005697507    1.562    0.360
       140 -10.2718     56.4003     90.7904   7.3363059124e+01   5.1341844800e+01    0.1957269    0.1063523 -48.95 0.0005008841    1.611    0.379
       141 -10.9922     38.4375     88.3443   7.8575098372e+01   5.3864912153e+01    0.4687482    0.1440303 -53.59  0.001916673    2.486    0.598
       142 -10.9434     83.8967     89.0400   6.4306570677e+01   4.7814959452e+01    0.3375034     0.296453  63.11  0.001906413    1.292    0.226
       143  -9.8700     97.4292     89.2145   6.0281366586e+01   4.5445199535e+01     0.203491    0.1355619 -58.40 0.0005062731    1.589    0.371
       144  -9.3100     74.0392     89.0390   6.7359731110e+01   4.9347971345e+01    0.1667426    0.1438677 -49.88 0.0009541509    1.047    0.045
       145  -9.7697     10.8656     90.5613   8.7710258423e+01   5.5572148508e+01    0.1386895    0.1186614  15.55 0.0005808247    1.503    0.335
       146 -10.2442     62.7179     82.5670   6.9296282756e+01   5.2366184779e+01    0.2134755    0.1544135  67.83   0.00109466    1.944    0.486
       147 -10.8295     65.6574     87.3113   6.9566069347e+01   5.0924246017e+01    0.2950249    0.2647597 -67.75 0.0008234381    1.131    0.116
       148  -9.8043     68.2572     83.0067   6.7613425470e+01   5.1512710439e+01    0.3494599     0.215592  -8.10  0.001450391    2.935    0.659
       149  -9.9208     47.5191     88.0680   7.5582353948e+01   5.2985838976e+01    0.1786024    0.1580639 -52.62  0.000346468    1.043    0.042
       150 -10.4984     22.2678     86.9447   8.3502658776e+01   5.5580635038e+01    0.1833048    0.1672903 -53.87  0.000735848    1.150    0.130
       151  -9.8722      9.9560     86.1987   8.7291044753e+01   5.6594838081e+01     0.187457    0.1143189  61.77  0.001073583    2.152    0.535
       152 -11.7562    166.7532     83.5990   4.0805554437e+01   3.1275662915e+01    0.7937792    0.3654221  57.35  0.002854157    2.293    0.564
       153 -11.3660     30.4387     81.7156   7.9792756831e+01   5.6076210793e+01    0.2934885    0.2181706 -50.40 0.0005660696    1.130    0.115
       154 -10.3468    107.2627     84.7840   5.6152555456e+01   4.4530920880e+01    0.2251323    0.1997451  59.03 0.0003723863    1.220    0.180
       155  -9.4884    116.6804     83.6857   5.3172115901e+01   4.2852636401e+01    0.1528482    0.1196651  -0.25 0.0002633229    1.653    0.395
       156 -10.9072     76.1085     82.3971   6.4930343411e+01   5.0492912290e+01    0.3915794     0.265739  41.64  0.001530419    1.622    0.383
       157 -10.5986     42.7173     82.5550   7.5893580786e+01   5.4726046469e+01     0.211785    0.1473768 -81.17 0.0007491182    1.719    0.418
       158 -10.0051    102.9534     81.9737   5.6580195495e+01   4.5954082227e+01    0.2262235    0.1805278 -82.33 0.0005266783    1.639    0.390
       159 -10.4120      7.3409     81.2173   8.7298879531e+01   5.7843971695e+01    0.2964531    0.1537402 -48.17   0.00140608    1.638    0.389
       160 -10.6348     88.2242     77.9829   5.9851186713e+01   4.9465387738e+01     0.409894    0.2318498 -42.43  0.001858663    1.668    0.401
       161  -9.7585    113.4502     77.7323   5.2288307103e+01   4.4731693086e+01    0.3278764     0.179014  33.78  0.001305201    2.192    0.544
       162  -9.3938    160.4888    249.4836   7.5615816217e+01   1.3682707658e+00    0.1212046   0.09494077  40.56  0.000122382    1.055    0.052
       163 -10.9817     11.0235     61.7517   8.2270919394e+01   6.1787055382e+01    0.3428041    0.1653263 -57.51  0.001479029    1.547    0.354
       164 -12.4598     12.4004     47.2559   7.8216982163e+01   6.4644530458e+01    0.6411818    0.3008396 -61.52  0.001425231    1.876    0.467
       165 -11.7211      7.3388     73.2978   8.5904963113e+01   5.9558530038e+01    0.5060333    0.2660584  16.79  0.002967801    2.430    0.588
       166 -11.4025     28.2834    245.1277   9.8085167731e+01   2.1217680150e+01    0.3281126    0.1548157 -87.85    0.0019949    1.893    0.472
       167 -10.9987      7.1249     42.4881   7.9102796156e+01   6.5896142605e+01    0.6492584    0.1492749 -59.81  0.002625631    3.382    0.704
       168 -11.6627      3.4441     48.5743   8.2148843228e+01   6.4897605621e+01    0.4249073    0.3258939 -69.36  0.003066692    1.312    0.238
       169 -10.9119     99.7853     76.5573   5.5896671319e+01   4.7673140770e+01    0.2744029    0.2439011 -42.43 0.0004563651    1.081    0.075
       170 -11.4701     44.7184     74.8315   7.3346339357e+01   5.6202970131e+01    0.2731216    0.2270112  82.86 0.0005185572    1.525    0.344
       171  -9.2525    184.4276     76.5131   3.5203279313e+01   2.8142385193e+01    0.1551139    0.1459019 -71.14 0.0001566543    1.050    0.048
       172 -11.6922    167.7287     73.4220   3.7660470580e+01   3.2892723863e+01    0.2973002    0.2593179 -48.64 0.0002862249    1.152    0.132
       173  -9.5172    167.5464     69.5267   3.6555328350e+01   3.3623932636e+01    0.2105998    0.1443838  45.68 0.0001074746    1.490    0.329
       174 -10.0168    107.2480     74.0022   5.2913224004e+01   4.6736155717e+01    0.1998019    0.1217301 -42.20 0.0008868379    1.590    0.371
       175  -9.2573     81.7796     73.9643   6.0689739671e+01   5.1381251171e+01    0.1833148    0.1067238 -45.96 0.0003271576    1.586    0.369
       176  -9.6969     91.4427     73.4198   5.7477447400e+01   4.9842359174e+01    0.1401101     0.132742 -34.44 0.0001111747    1.033    0.032
       177  -8.9156     61.6628     73.3184   6.7141900832e+01   5.4497368211e+01    0.1296158     0.104401  84.98 0.0004024589    1.704    0.413
       178 -10.0030    102.6740     72.6985   5.3848115432e+01   4.7896086160e+01    0.1478805    0.1134546  -0.91 0.0004804096    1.639    0.390
       179 -12.4113     50.8967     69.1184   6.9678885060e+01   5.6726735157e+01    0.4707073    0.3465706 -77.94  0.002036531    1.787    0.440
       180  -9.4187    152.6046     71.7207   4.0456325358e+01   3.6952579715e+01    0.1629696     0.118069  24.32 0.0006994611    1.753    0.430
       181 -10.5132     77.8843     69.8097   6.0692410461e+01   5.2860584994e+01    0.2088302    0.1726281 -22.64 0.0004605427    1.213    0.175
       182  -9.2478    195.3247     69.3344   3.1222245080e+01   2.6621535053e+01    0.1553391    0.1193513  21.44 0.0002584688    1.713    0.416
       183 -11.3249    122.7671     67.2493   4.6441543200e+01   4.4760900046e+01    0.2796668    0.2482091 -39.55 0.0003099809    1.125    0.111
       184 -10.9757    139.7883     66.0450   4.1716152159e+01   4.1067659775e+01    0.3318709    0.2157872  52.29  0.001145076    1.522    0.343
       185 -11.9598    156.0212     63.5522   3.7205265000e+01   3.7543307774e+01    0.2873892    0.2819799  -9.30 0.0003236404    1.059    0.056
       186  -9.4770    131.1405     64.8218   4.3475926294e+01   4.3311720374e+01    0.2022098    0.1745636  10.57 0.0002996511    1.282    0.220
       187  -9.6866    106.2464     63.9537   4.9993459715e+01   4.8872214593e+01    0.1834859    0.1198576 -40.50 0.0002943863    1.495    0.331
       188  -9.4284     84.4545     63.9580   5.6704950441e+01   5.2941286311e+01     0.187267    0.1202778 -65.95 0.0008065863    2.384    0.580
       189 -11.0427     31.8760     63.6472   7.5040083301e+01   5.9832880095e+01    0.2937817    0.1806933  27.04  0.001317902    1.909    0.476
       190 -11.1005     28.1950     60.7070   7.5635955148e+01   6.0762048567e+01    0.5049805    0.2554874  16.19  0.002260531    2.510    0.602
       191 -10.9665    202.0543     62.4874   2.8224885234e+01   2.6040169763e+01    0.2621495    0.2124148 -35.28  0.001338671    1.251    0.201
       192 -10.7724     76.7856     62.2302   5.8666301823e+01   5.4544407268e+01     0.234979    0.2028447 -16.82 0.0002119254    1.123    0.110
       193 -10.4335     51.6925     62.3394   6.7444427225e+01   5.8030991695e+01    0.2784868     0.161464 -25.15    0.0013454    2.108    0.526
       194  -9.6657    168.7243     61.8812   3.4047961358e+01   3.4624290455e+01    0.3108126    0.1417826 -27.99  0.001093896    2.601    0.615
       195 -10.5022     81.4075     61.7394   5.6974248240e+01   5.3884719890e+01    0.2007939    0.1206705 -34.26 0.0008351811    1.639    0.390
       196 -10.4029     69.5454     61.7960   6.0980985603e+01   5.5744494852e+01    0.2477135    0.1257445 -51.20 0.0007241857    1.953    0.488
       197  -9.7962    113.7476     60.8535   4.6823076791e+01   4.7883821662e+01    0.1938583    0.1705647 -66.74 0.0005148625    1.328    0.247
       198 -10.5525     98.1345     60.1405   5.1144413392e+01   5.1178497318e+01    0.2289271     0.213771  -0.45 0.0003675056    1.035    0.034
       199 -11.0904     46.2713     60.3017   6.8811659854e+01   5.9072227287e+01    0.3752767    0.2109328 -45.61 0.0008535386    1.497    0.332
       200  -9.9432     46.8001     55.3620   6.7115809133e+01   5.9997477379e+01    0.2295266    0.1406611  -8.81  0.000977875    2.245    0.555
       201  -9.9391    137.7623     59.6200   4.0158816904e+01   4.2669654935e+01    0.3746357     0.207162 -56.22 0.0009873097    2.493    0.599
       202  -9.7157    134.2958     57.7062   4.0382240597e+01   4.3815161836e+01    0.2190821    0.1844606 -46.00 0.0004530712    1.236    0.191
       203 -10.1070    120.1779     60.4391   4.4919585880e+01   4.6565052528e+01     0.264843    0.1850124  53.33  0.001259855    1.480    0.324
       204  -9.1343     93.4514     60.4497   5.2690043363e+01   5.2005817279e+01    0.1407479    0.1301953 -14.23 0.0001170917    1.014    0.013
       205 -11.2809     58.5428     58.8936   6.3920605412e+01   5.7857628588e+01    0.3123478    0.2676809  13.77 0.0009946316    1.247    0.198
       206  -9.9828    127.2538     58.6929   4.2478124599e+01   4.5281258414e+01    0.2456925    0.1792269  38.94 0.0001804441    1.392    0.282
       207 -10.5779     80.8886     55.6451   5.5103048911e+01   5.5120846765e+01    0.4167392    0.2524267 -12.06  0.001769756    2.543    0.607
       208  -9.9479    115.7271     56.4073   4.4781819874e+01   4.8242560291e+01    0.2789557    0.1419708  54.06  0.001128515    2.117    0.528
       209 -10.6176     74.9859     55.8635   5.7162834361e+01   5.6047140991e+01    0.2568277    0.1763389 -26.93 0.0009471001    1.463    0.316
       210  -9.5704    182.3649     54.7830   2.9394024357e+01   3.2272040124e+01     0.191613    0.1453784 -20.71  0.000226483    1.512    0.339
       211 -12.8791    105.2719     52.2707   4.6318502318e+01   5.1156572736e+01     0.502285    0.4065239 -61.96 0.0004873886    1.544    0.352
       212 -10.0479    100.0682     55.4893   4.8976340867e+01   5.1642534192e+01    0.2139353    0.1375174  42.17 0.0008411277    1.576    0.366
       213 -11.5691    224.5854    248.5007   6.4152944823e+01  -8.7029050299e+00    0.3550429    0.1771479 -29.51  0.002017695    2.354    0.575
       214 -11.6254     37.7127    242.9933   9.6452308287e+01   2.0500092722e+01     0.348199    0.1898173  83.44  0.001542692    1.575    0.365
       215 -11.2335     35.5175     41.7192   6.7087981250e+01   6.3811960776e+01    0.6108633    0.2894629 -18.23  0.002430581    3.843    0.740
       216 -10.6068     27.5352     51.2356   7.3280684007e+01   6.2731665553e+01    0.7878836     0.354984 -64.35  0.003605688    2.676    0.626
       217 -11.0742     44.5396     43.3995   6.4048251950e+01   6.2529085908e+01    0.3933655    0.2601421 -65.58  0.001473913    2.239    0.553
       218 -11.7634     44.8290     38.1021   6.2043074820e+01   6.3446126898e+01    0.2217192     0.213118  26.15            0    1.354    0.261
       219 -10.7528     24.0001     41.6086   7.1798501589e+01   6.4889064801e+01    0.4465592     0.339399  30.49  0.001873916    1.620    0.383
       220 -12.9526     27.5519     37.7528   6.9047095991e+01   6.5300321982e+01    0.2943429    0.2314017 -44.59 0.0003956298    1.171    0.146
       221 -11.2048     24.4907     34.5495   6.9259842046e+01   6.6151610777e+01    0.2283788    0.1625159 -25.35  0.001026444    1.223    0.182
       222 -10.1267     89.8074     54.6153   5.1849034571e+01   5.3743765200e+01    0.1893793     0.131163  53.79 0.0005554231    1.723    0.420
       223  -9.7784     62.0308     53.2388   6.0818333674e+01   5.8475310378e+01    0.2276344    0.1206857 -44.46 0.0009093162    1.694    0.410
       224 -10.5408    154.3528     52.4923   3.4121384711e+01   3.9774332770e+01    0.2510601    0.2351053  47.08 0.0001842372    1.052    0.050
       225 -11.8086    132.5291     49.9996   3.8260836081e+01   4.5494485122e+01    0.5864214    0.4160006 -81.34  0.002085387    2.141    0.533
       226 -11.4621    128.9280     50.1012   3.9181310827e+01   4.6322171411e+01    0.4974436    0.3270465 -12.35  0.001570139    1.963    0.490
       227 -10.1763     78.4891     47.4493   5.3023512628e+01   5.6993782563e+01    0.2223354    0.1231179 -38.52 2.015332e-05    1.697    0.411
       228 -10.3698     57.3459     50.4095   6.1570681360e+01   5.9644935592e+01    0.3014952    0.2226007  11.58  0.001563101    1.488    0.328
       229 -11.6976     51.9310     46.7343   6.2340430762e+01   6.1027302898e+01     0.545204    0.2381082 -47.00  0.001689454    2.055    0.513
       230  -9.8767     88.7765     50.3809   5.0690593584e+01   5.4680407821e+01    0.1891546    0.1250079  31.19 0.0004070212    1.597    0.374
       231 -11.0549     82.9261     47.2185   5.1456388853e+01   5.6272478829e+01    0.3103663    0.2028617  36.70  0.001605503    1.568    0.362
       232 -10.7541     69.0691     48.0292   5.6494060877e+01   5.8403926049e+01    0.1953158    0.1713085 -15.82   0.00036811    1.017    0.016
       233  -9.9350    151.7431     45.6327   3.2485347394e+01   4.1478222559e+01    0.2237816    0.1692369  45.74 0.0004480096    1.298    0.230
       234  -9.5849    143.1779     45.7925   3.4382817703e+01   4.3579193887e+01    0.2014833    0.1679788  20.59 0.0005958138    1.324    0.244
       235 -10.0530    120.3666     45.8680   3.9907040897e+01   4.8950344034e+01    0.2910494    0.1972458  23.11 0.0006574769    1.786    0.440
       236 -10.6878    112.4962     45.3998   4.1848341201e+01   5.0761276469e+01     0.254802    0.2240271  12.49  0.001426858    1.134    0.118
       237  -9.2516    171.2012     44.9352   2.8479891942e+01   3.6627432393e+01     0.183341    0.1170914 -34.20            0    1.613    0.380
       238  -9.6716    163.8151     45.1755   2.9927929779e+01   3.8487401275e+01     0.208095    0.1690889  35.90 0.0005925036    1.326    0.246
       239 -11.3572     95.3433     42.6833   4.5837665583e+01   5.4724020206e+01     0.474506    0.2874662  45.38  0.001219937    1.661    0.398
       240 -11.2152     89.2090     41.4027   4.7273347783e+01   5.6099818790e+01    0.2531053    0.2184792   7.45   0.00149493    1.103    0.093
       241 -11.2857     72.7931     42.8347   5.3290078896e+01   5.8723557055e+01    0.3202795     0.284215  41.59            0    1.313    0.238
       242 -11.1404     67.1247     41.8281   5.4927691313e+01   5.9784140750e+01    0.5222669    0.1665696 -39.05 0.0006909288    2.939    0.660
       243 -12.5068     75.0885     35.3019   4.9614924634e+01   5.9573210885e+01    0.5535764    0.3617673  24.78 0.0009176437    1.619    0.382
       244 -10.2069     71.6251     28.7396   4.8198455358e+01   6.1149336509e+01    0.2488433    0.1577219 -45.96 0.0003433225    1.869    0.465
       245  -9.8525     71.8568     25.1711   4.6643224241e+01   6.1624994165e+01    0.3022725    0.1423194  30.49  0.001345588    2.426    0.588
       246  -9.0997    157.7816     41.9959   3.0101028714e+01   4.0485030585e+01    0.1784188    0.1217043 -31.07            0    1.540    0.351
       247  -9.7709    130.6229     41.1735   3.5714232589e+01   4.7290566389e+01    0.2090503    0.1382389 -15.65 0.0009540136    1.789    0.441
       248 -10.9040    236.0560     39.6068   1.7739536562e+01   2.1087356699e+01    0.2361038    0.1933714 -29.66 0.0003855858    1.336    0.252
       249  -9.7866    226.5001     40.4818   1.9060403425e+01   2.3247805937e+01     0.143102    0.1227426 -69.33 3.978394e-05    1.053    0.050
       250 -10.8412     53.9700     36.9733   5.8015997513e+01   6.2492269696e+01    0.3561532    0.2394487 -57.31  0.001105358    2.027    0.507
       251 -12.0890     57.6173     33.9229   5.5434430343e+01   6.2499178028e+01    0.3085882     0.223099 -31.60 0.0005542061    1.230    0.187
       252 -10.2177    148.0852     38.8749   3.1050893328e+01   4.3368189282e+01    0.2202837    0.1938283 -84.45 0.0004288528    1.244    0.196
       253 -11.8408     82.2388     38.4831   4.8428049440e+01   5.7835081400e+01    0.7998031    0.3937492 -19.99  0.003141676    2.948    0.661
       254 -10.5684    193.8639     35.7999   2.2134626285e+01   3.2058255783e+01     0.357265    0.1979649 -45.85 0.0009159117    1.808    0.447
       255 -10.1228    134.7981     35.5785   3.2814624365e+01   4.7085772061e+01     0.317256    0.2148217 -20.46  0.001529892    1.635    0.388
       256  -9.8874     91.1817     36.8410   4.4925120825e+01   5.6437408316e+01    0.2877283    0.1756544  10.91  0.001262444    2.363    0.577
       257  -9.7945      1.4549     37.0160   8.0020996398e+01   6.7252275565e+01    0.1687358   0.08186608 -55.43  0.001006366    1.537    0.349
       258 -10.6875    248.1273     36.1788   1.5652380778e+01   1.8763600686e+01    0.1850641    0.1767233 -81.69 0.0004373425    1.185    0.156
       259 -10.2179    128.8136     35.9204   3.4314780925e+01   4.8465708407e+01    0.2133527    0.1832276  24.06 0.0003699764    1.179    0.152
       260 -11.4260    111.3014     34.8242   3.8332124610e+01   5.2601182391e+01    0.3172166    0.2846228  72.43  0.001165287    1.305    0.234
       261  -9.7939    101.5606     36.2339   4.1575441685e+01   5.4464670131e+01    0.1836282     0.128014 -15.08  0.000449163    1.547    0.354
       262  -9.9094    177.5227     34.0381   2.4132128074e+01   3.6507103474e+01    0.2107349    0.1460525 -27.69  0.001019598    1.568    0.362
       263 -10.3863    140.0584     33.9126   3.1087331563e+01   4.6032604706e+01     0.209645    0.1953753  45.97 0.0003077161    1.012    0.012
       264 -10.2622    121.9520     33.3957   3.5071035471e+01   5.0410864636e+01    0.3213703    0.1302906  55.15  0.001237145    2.359    0.576
       265 -10.1783     34.2312     33.4478   6.4699365692e+01   6.5429189383e+01    0.2549618    0.1514606  47.93  0.001348362    2.748    0.636
       266 -11.0636    221.6752     31.7051   1.7436756542e+01   2.5603329978e+01    0.2427641    0.2011156 -63.09 0.0002539146    1.102    0.092
       267 -10.5427    207.1928     31.2584   1.9083315443e+01   2.9263531744e+01    0.2607427    0.1929812   9.90  0.001276507    1.988    0.497
       268 -11.4020    101.4707     28.8976   3.8797630197e+01   5.5514860819e+01    0.3700456    0.3185022 -37.89  0.001340483    1.284    0.221
       269 -10.5516     49.5133     28.9927   5.6649979978e+01   6.4395704523e+01    0.3587584    0.1839201 -32.22   0.00126509    1.780    0.438
       270  -9.6149    144.8397     30.1618   2.8824639448e+01   4.5342552178e+01    0.1895489     0.157255  30.34 0.0002577353    1.259    0.206
       271 -11.4619    238.2239     27.9537   1.4739063118e+01   2.2124237011e+01    0.2304076    0.2061122 -60.75 0.0003026988    1.096    0.087
       272 -11.0243    197.7056     28.0755   1.9464622641e+01   3.2079572441e+01    0.3184127    0.1978069  73.31 0.0005395559    1.544    0.352
       273 -10.3586    156.8294     28.1242   2.5855441676e+01   4.2582262996e+01    0.2325826    0.1867441  64.63 0.0003104103    1.165    0.142
       274 -11.0710    112.2196     27.1887   3.5235598690e+01   5.3428573143e+01    0.3432666    0.2650091  -6.23 0.0008749645    1.376    0.273
       275 -11.2694    245.8027     27.2932   1.3845366609e+01   2.0456674711e+01    0.3384107    0.1567961  78.76  0.001498227    2.327    0.570
       276 -10.9875     79.5102     28.4531   4.5380075489e+01   5.9831627902e+01    0.3237359    0.2188642 -16.13 0.0009292609    1.499    0.333
       277 -10.8021    215.3927     25.3881   1.6564197948e+01   2.7960017981e+01    0.4040389    0.1875902  55.13  0.001579291    2.185    0.542
       278  -9.5665    123.2743     26.6138   3.2294845614e+01   5.0990352158e+01    0.1404156    0.1055031 -60.78 0.0006996737    1.717    0.418
       279 -12.8124     38.1472     49.8219   6.8687986674e+01   6.2013738637e+01    0.7133038    0.5847176  10.97  0.004782624    1.335    0.251
       280 -10.3078     12.6911     23.3683   7.0604645469e+01   6.9056180099e+01    0.5239499     0.227258  -7.61  0.002271027    4.111    0.757
       281 -11.3824      3.2200     24.3533   7.5409632645e+01   6.9492208287e+01    0.3777261    0.2822276 -21.85  0.002864383    1.214    0.176
       282 -10.0638    110.0049    249.5388   8.4646922765e+01   9.4334771319e+00    0.1741323    0.1449901  76.63  0.001261598    1.196    0.164
       283 -10.6149     22.1785     24.2435   6.6534775107e+01   6.8151344956e+01    0.2337498    0.1534067 -14.89  0.000817309    1.460    0.315
       284  -9.8447    159.4610     23.5064   2.3915881633e+01   4.2471745603e+01    0.2328957    0.1724698  18.09 0.0007413694    1.678    0.404
       285  -9.9896    161.6699     20.6916   2.2653382888e+01   4.2235095736e+01    0.2124162    0.1506142 -18.24 0.0005851889    1.626    0.385
       286 -10.0613    226.1782     23.1493   1.4823297646e+01   2.5596707282e+01    0.1878826    0.1749929  87.04 0.0003671142    1.142    0.124
       287  -9.8833    124.9965    245.7417   8.1574576287e+01   7.6953122482e+00    0.1564433   0.08346516  44.74 0.0004933159    1.486    0.327
       288 -10.7802     73.2047    244.5934   9.0623210981e+01   1.5656540570e+01    0.2664424    0.1671841  43.44  0.001268226    1.499    0.333
       289 -10.7157     67.1276     20.9087   4.6516353226e+01   6.3000958623e+01    0.3268634    0.1915635  51.59  0.001688888    2.163    0.538
       290 -10.1790     63.6918     19.3584   4.7096964107e+01   6.3765775991e+01    0.2068208    0.1121832 -40.26  0.001063148    1.983    0.496
       291  -9.3392    186.5648     22.5523   1.9437673267e+01   3.5614384157e+01    0.1410557    0.1274351  88.45 0.0001175444    1.013    0.013
       292 -10.4452     94.1031     22.1377   3.8243391909e+01   5.7903156241e+01    0.2697862    0.1830843  52.34 0.0007623194    1.514    0.340
       293 -10.4680     83.0880     21.8200   4.1482115184e+01   6.0082136510e+01    0.2222186    0.2064218  34.56 0.0007635736    1.215    0.177
       294 -10.2552    207.0143     21.0313   1.6412215986e+01   3.0586040866e+01    0.2077049    0.1804596 -80.01 0.0003342748    1.033    0.032
       295  -9.3295    155.9637     21.7374   2.3957405829e+01   4.3568657722e+01     0.178791    0.1138974  62.20 0.0004135639    1.431    0.301
       296 -12.9056     75.7224    238.4232   8.9675405312e+01   1.6390259765e+01    0.5158415    0.4515598  83.26  0.003426368    1.289    0.224
       297  -9.8457     74.4281     21.1875   4.4075463499e+01   6.1729308107e+01    0.4060853    0.1575745 -39.33  0.001725117    2.742    0.635
       298 -11.5941     18.6433    236.8183   9.9178373381e+01   2.3753771200e+01    0.4690421     0.138627  54.89  0.002489469    2.469    0.595
       299 -12.0848     88.9437    249.2526   8.8299959565e+01   1.2630295013e+01    0.4629185    0.1872956  46.62  0.001209137    1.891    0.471
       300  -9.7077    181.5198     19.8667   1.9371348023e+01   3.7227740641e+01    0.1897322     0.139907 -30.13 0.0004895824    1.470    0.320
       301 -12.2788    132.8947     18.9730   2.7419132307e+01   4.9611773619e+01    0.3253392    0.2406602  42.23 0.0003880798    1.273    0.214
       302 -11.5178     29.8417    233.8307   9.7196628641e+01   2.3060098234e+01    0.3662794    0.1627084  76.34  0.002094353    2.065    0.516
       303  -9.4337     99.3296     20.1738   3.5962335696e+01   5.7072980940e+01    0.1756811    0.1147486 -35.63 0.0009135993    1.641    0.391
       304 -10.7136     42.0937     19.1810   5.5607137811e+01   6.6853150322e+01    0.3335212    0.2025103  33.56  0.001341966    1.770    0.435
       305 -10.4231     28.7268     19.4792   6.1629375897e+01   6.8312760906e+01    0.2515775    0.1491554 -13.76  0.001121554    1.767    0.434
       306  -9.7607     24.0047    232.0500   9.8055352755e+01   2.4037543756e+01     0.169435    0.1260067  53.47 0.0006283254    1.358    0.264
       307  -9.1789     35.5093     14.4613   5.6387326690e+01   6.8337308108e+01    0.2172321    0.1303052   7.63  0.001155156    1.839    0.456
       308  -9.7918     24.1940     20.2370   6.4022283135e+01   6.8631626807e+01     0.141855    0.1208761 -40.15  0.000278065    1.344    0.256
       309 -10.0192    248.3303     19.6751   1.1893032426e+01   2.0836653483e+01    0.1427059   0.08026941 -63.43 0.0005265027    1.703    0.413
       310 -10.5725    160.0163    235.5112   7.3877159511e+01   3.5155031245e+00    0.1944828    0.1022315  41.73 0.0004802037    1.551    0.355
       311 -11.4745    233.1160     15.2952   1.2259646154e+01   2.4886592490e+01    0.2782143    0.2096888 -49.69  0.001383694    1.224    0.183
       312 -10.4614    194.1145     16.8423   1.6850519472e+01   3.4344636165e+01    0.3229391    0.2002609  64.89 0.0006143524    1.473    0.321
       313 -10.3275     88.6382    241.1660   8.7631991565e+01   1.4053327240e+01    0.1452927    0.1018936 -60.73 0.0009481054    1.750    0.428
       314  -9.6860    166.5295    232.5068   7.2244643287e+01   2.8655609256e+00    0.1265253    0.1035864  39.18  0.000224823    1.041    0.040
       315 -10.4948    184.0099    230.0086   6.8615668013e+01   2.4513479047e-01    0.2034446    0.1421746  12.51  0.001145645    1.773    0.436
       316  -9.9250    151.8829    228.3306   7.4431621288e+01   6.0418939192e+00    0.1848487    0.1392806  44.18 0.0008899368    1.101    0.092
       317 -10.8518      3.8982    226.1086   1.0101119365e+02   2.7208102486e+01    0.2396009    0.1125416 -77.92  0.001569035    1.819    0.450
       318 -10.8148    103.1938     16.9964   3.3645336223e+01   5.6627948191e+01    0.2057576    0.1733199  43.29 0.0002690845    1.119    0.106
       319 -10.1113    120.2512     16.0499   2.9098306113e+01   5.2926137153e+01    0.2709678    0.1594751  37.56  0.001018822    1.685    0.407
       320 -10.2199     50.7046     14.9043   5.0127829392e+01   6.6319312905e+01    0.2230456    0.1666991  33.89  0.001092587    1.436    0.304
       321 -10.1470    108.2815     17.9543   3.2702740291e+01   5.5415968909e+01    0.2777252     0.189808  -2.43  0.001446165    1.649    0.393
       322  -9.7376    185.6794     14.4052   1.7244982691e+01   3.6774131652e+01    0.1888248    0.1174288  61.07 0.0008719219    1.468    0.319
       323  -9.4905    155.4143     13.7629   2.1484108893e+01   4.4586706334e+01     0.174328    0.1346063   1.96 0.0003053473    1.563    0.360
       324 -10.1149     99.5314     13.9318   3.3388969932e+01   5.7747981966e+01    0.1820643    0.1253965 -20.65 0.0004301412    1.491    0.329
       325  -9.7125    190.9963    226.9558   6.6849989544e+01  -5.0643316725e-01    0.1884182    0.1492161  67.21   0.00113585    1.677    0.404
       326  -9.7092    120.5055    225.9915   8.0132733411e+01   1.1753021453e+01    0.1683967     0.100265  86.30 0.0008096244    2.474    0.596
       327 -10.0071     79.6523    222.6880   8.7533645910e+01   1.8721634161e+01    0.1034744    0.0973382  -3.48 0.0004776976    1.714    0.417
       328 -11.1361     15.3194    221.9002   9.8932406733e+01   2.6850774072e+01    0.2666941    0.1111766  47.45  0.001428529    1.951    0.487
       329  -9.3084    142.3229    220.6890   7.5224698962e+01   8.9808132198e+00      0.13183   0.08990076  67.59 0.0004811111    1.653    0.395
       330 -10.0540    195.3522    238.5620   6.7813933265e+01  -2.8567834525e+00    0.2042391    0.1498205 -29.64  0.001173818    1.625    0.385
       331 -10.0904     21.5309    219.9569   9.7772977885e+01   2.6567389710e+01     0.157131   0.08537487 -82.85   0.00065324    1.553    0.356
       332  -9.8123    211.7570    219.0007   6.1731253201e+01  -2.9138579884e+00    0.1725427    0.1506842   7.10 0.0008495473    1.113    0.101
       333  -9.5222    120.7766    219.4207   7.9268909443e+01   1.2889682162e+01    0.1708987    0.1101744  36.58 0.0006064353    1.576    0.365
       334  -9.6299    176.3320    218.7018   6.8334433960e+01   3.3037717153e+00    0.1272398   0.09512218  65.78 0.0004382217    1.645    0.392
       335 -10.2490     50.8546    218.1891   9.2468030722e+01   2.3494858994e+01    0.1462924    0.1306205  87.50  0.000959791    1.352    0.260
       336 -11.5850      8.6821    216.3833   9.9749356204e+01   2.8565154466e+01    0.3225738    0.1113761  55.84   0.00178433    2.253    0.556
       337 -11.9635     11.6476    209.3707   9.8860579564e+01   2.9628177776e+01    0.4799685    0.1854618  88.23  0.002523178    2.364    0.577
       338  -9.8618    136.1829    216.0036   7.5784570261e+01   1.0875470331e+01    0.1889077    0.1359381  28.44 0.0006713074    1.614    0.380
       339  -9.6860     38.0057    217.0000   9.4699906236e+01   2.5291290036e+01    0.1704991    0.0559191  38.26  0.000800955    2.932    0.659
       340 -11.0067     29.2910    215.5187   9.6147203652e+01   2.6576322000e+01    0.2206456     0.161126  74.03  0.001080982    1.027    0.026
       341 -10.6168     24.2438    215.9864   9.7063213320e+01   2.7039105885e+01    0.1567899    0.1093133  83.02  0.000448719    1.098    0.090
       342 -12.6285      5.5229    208.6797   9.9879851017e+01   3.0353637253e+01    0.5551991     0.230378 -74.18  0.002924403    2.028    0.507
       343 -11.1040      1.5833    206.2336   1.0042781539e+02   3.1195808047e+01    0.2149363    0.1156256 -75.11 0.0008578858    1.620    0.383
       344 -10.1186    106.8486    211.8238   8.1073486207e+01   1.6617730233e+01    0.2581868    0.1286595  49.73  0.001271764    1.721    0.419
       345 -10.9527    237.0749    209.1025   5.5466462719e+01  -5.7698530427e+00    0.1969529     0.143034   8.47 0.0006175809    1.310    0.236
       346  -9.4685    184.6627    208.6988   6.5106379590e+01   3.4048496625e+00    0.1344328   0.09650207  14.58 0.0004847709    1.664    0.399
       347 -10.1990    247.5163    205.5392   5.3012443205e+01  -6.9747581552e+00    0.2067584    0.1082583 -42.65   0.00103897    2.370    0.578
       348 -11.2011     19.9546    200.5266   9.6832371937e+01   3.0552936742e+01     0.463985    0.1230003 -68.81  0.002126791    3.084    0.676
       349 -10.8852    175.3864    202.3257   6.5854709847e+01   6.1716375373e+00    0.2477538    0.2112877  40.24 0.0004787348    1.033    0.032
       350 -10.0726     68.1527    201.3974   8.7635197457e+01   2.4573441863e+01    0.2060486    0.1337735 -83.59  0.001209575    1.441    0.306
       351  -8.9561     53.2673    202.3111   9.0662323326e+01   2.6364587247e+01    0.1039505   0.08827794 -59.64 0.0002583658    1.542    0.352
