#   1 NUMBER                 Running object number                                     
#   2 MAG_AUTO               Kron-like elliptical aperture magnitude                    [mag]
#   3 X_IMAGE                Object position along x                                    [pixel]
#   4 Y_IMAGE                Object position along y                                    [pixel]
#   5 X_WORLD                Barycenter position along world x axis                     [deg]
#   6 Y_WORLD                Barycenter position along world y axis                     [deg]
#   7 A_WORLD                Profile RMS along major axis (world units)                 [deg]
#   8 B_WORLD                Profile RMS along minor axis (world units)                 [deg]
#   9 THETA_WORLD            Position angle (CCW/world-x)                               [deg]
#  10 FWHM_WORLD             FWHM assuming a gaussian core                              [deg]
#  11 ELONGATION             A_IMAGE/B_IMAGE                                           
#  12 ELLIPTICITY            1 - B_IMAGE/A_IMAGE                                       
         1 -10.1788    220.1948     12.2950   6.2443583124e+01   2.9049038864e+01    0.4804074    0.4132701  65.78  0.002131764    1.249    0.199
         2  -9.5007    233.2380     10.2679   6.0746101190e+01   2.6238372507e+01    0.3421887    0.2116324 -43.74  0.001156215    1.561    0.359
         3  -7.5311    205.5540      5.2567   6.2306861974e+01   3.3294698396e+01    0.1470573    0.1292687  -8.10 0.0005933483    1.513    0.339
         4  -8.0463      5.6732    248.3260   1.5195685106e+02   2.2979681055e+01    0.1125086   0.05078084  68.95 0.0007049812    1.697    0.411
         5  -7.9533    118.4752    242.0298   1.3236612304e+02   8.8675178182e+00    0.1675738    0.1204075 -67.32 0.0006318878    1.554    0.357
         6  -7.8858    231.9635    240.2844   1.1092111825e+02  -1.0147876954e+01    0.2221063    0.1178566   1.73 0.0009077071    3.593    0.722
         7  -7.6522    123.5191    236.4508   1.3073602643e+02   9.0266053971e+00      0.12901    0.1057032  59.49 7.444243e-05    1.004    0.004
         8  -6.9759     43.2974    236.3538   1.4525370914e+02   2.0947545187e+01   0.09872897   0.08277143 -61.21 0.0007035012    1.694    0.410
         9  -9.0300     28.6698    230.0193   1.4725187184e+02   2.3911493129e+01    0.2183802    0.1617287 -90.00 0.0003940242    1.164    0.141
        10 -10.0357     23.9537    228.9904   1.4796706655e+02   2.4641222292e+01     0.272178    0.2173366 -71.06 0.0006874829    1.526    0.345
        11 -11.1551     29.2600    223.0751   1.4665558859e+02   2.5207106944e+01    0.6554995    0.4660172  80.49  0.003994526    1.029    0.028
        12  -7.3432     56.1040    219.8548   1.4160444043e+02   2.2564488994e+01    0.1404593    0.1216714 -89.75            0    1.253    0.202
        13  -7.0418    100.9826    214.9784   1.3241020694e+02   1.6927659777e+01    0.1527515     0.123962  62.59 0.0009252622    1.066    0.062
        14  -7.9237     56.0065    215.0454   1.4116818883e+02   2.3562539862e+01    0.1762867    0.1363377  79.49 -0.001877172    1.006    0.006
        15  -8.0796     41.6119    212.2405   1.4358838783e+02   2.5958016336e+01    0.1604952   0.09206202 -67.46 0.0009489441    1.636    0.389
        16  -9.0693      9.5112    207.6388   1.4897931503e+02   3.0387243517e+01    0.3796454    0.2474135  10.85  0.002187894    3.529    0.717
        17  -7.7316     48.0854    207.5321   1.4194730302e+02   2.6145622857e+01    0.1689822    0.1065739  47.08 0.0009010289    1.556    0.357
        18 -10.0485    173.7023    204.0620   1.1579931594e+02   5.8660372905e+00    0.2393939    0.2216834  48.77 0.0003201514    1.040    0.038
        19  -7.6269    138.9728    198.9938   1.2218490165e+02   1.3513625398e+01    0.1840151    0.1649954   1.44 -0.003769674    1.434    0.303
        20  -8.6772     53.1691    196.4221   1.3983580061e+02   2.7881148927e+01    0.2275815     0.166878 -73.28  0.000559786    1.249    0.199
        21  -7.7912    247.2986    189.6998   9.8837001996e+01  -5.4008473131e+00     0.117875    0.1064661 -71.25 0.0002641015    1.579    0.367
        22  -7.3616    174.4835    189.4264   1.1293927652e+02   8.4953466717e+00    0.1440313    0.1338468  40.73 0.0001094363    1.017    0.017
        23  -8.8220     60.4112    188.1272   1.3741461381e+02   2.8763297437e+01     0.231734    0.1905562 -82.89 0.0004339388    1.094    0.086
        24  -8.2724    223.0273    188.0101   1.0293883204e+02  -7.5999749778e-01    0.1960064    0.1803691   6.51  0.001173388    1.016    0.016
        25  -7.5104     71.9545    175.5083   1.3327539150e+02   3.0027640614e+01    0.1786436    0.1258887  46.23 0.0003799097    1.459    0.315
        26  -9.9255     57.8757    173.2587   1.3611353976e+02   3.2454760615e+01    0.4859675    0.2441744 -47.30  0.001657862    2.488    0.598
        27  -8.2226     78.4806    168.2146   1.3071551101e+02   3.0760962894e+01    0.2377015    0.1904485  52.97 0.0009845042    1.267    0.211
        28  -7.1105     49.4511    166.4780   1.3712101221e+02   3.5057931079e+01    0.1281898     0.106357 -77.10 0.0008068184    1.085    0.078
        29  -8.2619      2.7321    155.5688   1.4617822547e+02   4.2037485987e+01    0.1714857    0.1247478  57.86 0.0005727243    1.455    0.313
        30  -6.8550    189.5061    153.4839   1.0227793002e+02   1.2525450949e+01    0.1503409    0.1479298   9.65 0.0008103803    1.017    0.017
        31  -8.9887     82.0695    150.2474   1.2688262011e+02   3.4434218290e+01    0.2913934    0.2287782 -49.79 0.0007425821    1.312    0.238
        32  -9.0232    120.0099    149.0115   1.1722801808e+02   2.8178215855e+01    0.2161042    0.2037549 -86.07            0    1.003    0.003
        33  -7.7417      4.6359    149.2079   1.4515874711e+02   4.3293947232e+01    0.1681772   0.07771111 -66.01 0.0006091114    1.643    0.391
        34  -8.6872     66.1693    143.0428   1.2961636223e+02   3.8413409759e+01    0.5203369    0.2960874  64.21  0.002349773    2.301    0.565
        35  -8.3003    185.1376    141.0014   1.0033369050e+02   1.6042466236e+01    0.2186174    0.2151764 -65.84 0.0002871291    1.015    0.014
        36 -10.4652    231.4083    133.9261   8.9692298637e+01   7.2191694958e+00     0.270998    0.2581986  61.98 0.0002741504    1.136    0.120
        37  -8.7213    117.8976    133.9686   1.1448918899e+02   3.2064172337e+01    0.2166791    0.2065541 -71.64 0.0002793591    1.010    0.010
        38  -7.3371     93.5974    134.2190   1.2083644243e+02   3.6379469915e+01    0.1968457    0.1267206 -46.96 0.0003272048    1.528    0.345
        39  -7.1126    160.5249    124.5383   1.0180015031e+02   2.5110312048e+01    0.1563846    0.1528959 -82.76 9.466504e-05    1.006    0.006
        40  -7.7022     11.6684    120.6595   1.4016266050e+02   4.9130028348e+01    0.1241219   0.06951586 -46.84  0.000705152    1.746    0.427
        41  -7.7647    178.0507    118.3905   9.6342062099e+01   2.2332787279e+01    0.2169659    0.1906413  51.88 0.0004029259    1.147    0.128
        42  -7.4089     42.4717    117.4933   1.3139508489e+02   4.7179499422e+01    0.1295617    0.1074389 -64.22 1.287618e-05    1.007    0.007
        43  -7.9970    235.0817    115.1266   8.4723111587e+01   9.8466072906e+00    0.2911847    0.1774939 -61.01  0.001238061    2.071    0.517
        44  -8.8376    249.3425    115.0474   8.2434272285e+01   6.8385577140e+00    0.2240382    0.2062594  56.21 0.0002311661    1.200    0.166
        45  -7.5800    181.9901    113.6837   9.4307886394e+01   2.2357283472e+01    0.2127273    0.1966992  63.93 0.0003464631    1.091    0.084
        46  -7.6671     20.9613    112.8491   1.3654095897e+02   5.0178201886e+01    0.1851714    0.1267131  80.56 0.0007769656    1.701    0.412
        47  -7.7976    202.9577     93.1398   8.4918910747e+01   2.1261867086e+01    0.2249685    0.1953522 -76.84 0.0004062296    1.191    0.161
        48  -7.9689      5.9819     89.7799   1.3702832758e+02   5.6215586431e+01    0.1232269   0.09522855  10.58 0.0006026129    1.668    0.400
        49  -7.8255    149.8578     73.8710   9.0458900806e+01   3.7689777956e+01    0.2132871    0.1984919  18.49 0.0002615209    1.133    0.118
        50  -7.1409     11.2760     73.6558   1.3226385747e+02   5.9243014941e+01    0.1064064   0.08168101 -87.66  0.000538965    1.625    0.385
        51  -8.8698    187.0352     71.0317   8.2007952964e+01   2.9064398710e+01    0.2178572    0.2061635 -89.69            0    1.007    0.007
        52  -6.7670     36.6715     71.6901   1.2321461321e+02   5.7657760013e+01    0.1287144   0.07818445 -29.53  0.000321368    1.663    0.399
        53  -7.2073    147.5248     65.0173   8.8350866349e+01   3.9762490693e+01    0.2085248    0.1332434  -4.81 0.0008085047    2.560    0.609
        54  -9.7848    242.6024     58.9590   7.0584468442e+01   1.7593601963e+01    0.2479309    0.2319246  78.90 0.0004212765    1.178    0.151
        55  -8.2121    246.8799     54.8458   6.9145851100e+01   1.7247554179e+01    0.2347868    0.2016802  17.04 0.0004116853    1.686    0.407
        56  -8.5694    128.0763     58.1565   9.0849860899e+01   4.5356582505e+01    0.2223735    0.2006913 -19.24 0.0003025272    1.125    0.111
        57  -7.8790    171.9413     50.1100   7.8949587572e+01   3.6120803835e+01    0.2066629     0.178706 -79.06  0.001115548    1.210    0.173
        58  -7.6025    243.1940     48.5896   6.8174820294e+01   1.8995401230e+01    0.1906627    0.1160125  56.53 0.0009568738    1.768    0.434
        59  -7.8750    184.4016     44.6510   7.5264318418e+01   3.3785227835e+01    0.2240533    0.1524426  45.73 0.0002972913    1.553    0.356
        60  -8.0078    156.6566     36.4122   7.7769906678e+01   4.1773443247e+01    0.2920813     0.181824  28.05  0.001190361    2.113    0.527
        61 -10.4280    138.8381     34.9275   8.0880333370e+01   4.6226555421e+01    0.2360869    0.2208347   6.96  0.001419111    1.116    0.104
        62  -7.7304    173.8446     33.8446   7.3988667489e+01   3.7858616326e+01    0.1881705    0.1529839 -79.47  0.001024534    1.297    0.229
        63  -7.4625    149.7832     30.4553   7.7259441651e+01   4.4178974728e+01     0.198098    0.1138879  48.74 0.0009291133    1.599    0.375
        64  -7.1856    221.9900     22.0295   6.4493044037e+01   2.7486171758e+01    0.1595774     0.131714 -89.57  0.000319469    1.047    0.045
        65  -8.0910     15.0259     18.0244   1.1445918770e+02   6.8868198645e+01    0.1585024    0.1125074 -19.64  0.001177673    1.054    0.051
        66  -8.1468    222.1957    249.6041   1.1419674518e+02  -9.8157566962e+00    0.1777084   0.09329518  31.39 0.0009526063    1.666    0.400
        67  -7.8507     75.5374    249.4846   1.4083839845e+02   1.4170382647e+01     0.118173   0.08941965  68.73 5.330797e-05    1.014    0.014
