#   1 NUMBER                 Running object number                                     
#   2 MAG_AUTO               Kron-like elliptical aperture magnitude                    [mag]
#   3 X_IMAGE                Object position along x                                    [pixel]
#   4 Y_IMAGE                Object position along y                                    [pixel]
#   5 X_WORLD                Barycenter position along world x axis                     [deg]
#   6 Y_WORLD                Barycenter position along world y axis                     [deg]
#   7 A_WORLD                Profile RMS along major axis (world units)                 [deg]
#   8 B_WORLD                Profile RMS along minor axis (world units)                 [deg]
#   9 THETA_WORLD            Position angle (CCW/world-x)                               [deg]
#  10 FWHM_WORLD             FWHM assuming a gaussian core                              [deg]
#  11 ELONGATION             A_IMAGE/B_IMAGE                                           
#  12 ELLIPTICITY            1 - B_IMAGE/A_IMAGE                                       
         1 -13.3749    177.3577     57.6151   4.7772642886e+01   3.3704600346e+01     1.542006    0.9625996  33.37  0.004612155    2.300    0.565
         2 -13.6033    192.9167     44.8835   4.2168772765e+01   3.1886788831e+01    0.9690382    0.9150229  70.70  0.003753732    1.167    0.143
         3 -13.7343    219.0857     15.0604   3.2444249134e+01   2.9715783519e+01    0.8721136    0.7767601 -64.11  0.003776838    1.189    0.159
         4 -10.0432    189.7602     14.5792   3.5100337793e+01   3.6282668793e+01    0.2163829    0.1717634 -41.98 0.0008633367    1.337    0.252
         5 -11.0492     62.0346      2.8493   5.5927932348e+01   6.6125901495e+01     0.289321    0.1547374  27.56  0.001544563    1.816    0.449
         6 -10.0595     60.1725     21.1195   6.4971371818e+01   6.4508924736e+01    0.1963095    0.1464373  14.12  0.000512039    1.206    0.171
         7 -12.2059    242.8153    247.0680   7.6473943410e+01  -1.0643231988e+01    0.4137718    0.2611361 -19.84  0.002653955    1.366    0.268
         8 -10.8248    248.5181    249.5225   7.5879345084e+01  -1.1608657638e+01     0.278242    0.1943263  18.22  0.001357486    1.285    0.222
         9 -19.5202     18.6526    144.7160   1.1335320880e+02   4.2785355984e+01     19.90855     5.615363 -75.48   0.06818876    3.459    0.711
        10 -11.2952     40.8846    206.0719   1.1389701893e+02   2.5697945719e+01    0.1784786    0.1556863  86.28            0    1.083    0.076
        11  -9.8422     64.5535    204.8879   1.0828782453e+02   2.3086519392e+01     0.224661    0.1379697 -88.47  0.001107793    1.790    0.441
        12 -11.8631     32.8091    202.6417   1.1543166192e+02   2.7368393833e+01    0.2417314    0.1609692  57.19 0.0006614304    1.356    0.262
        13 -10.6520    162.3298    202.1975   8.4774942720e+01   8.2804835300e+00    0.4687107    0.1937732  29.80  0.001726674    2.696    0.629
        14 -10.3695     39.2232    199.7977   1.1370957973e+02   2.7331579849e+01    0.1862789      0.14034  61.22  0.000506634    1.195    0.163
        15 -10.5481    192.9605    194.9073   7.6819309517e+01   4.5174152726e+00    0.8055195    0.4116006 -62.47  0.002384712    5.803    0.828
        16 -11.1821     61.2946    198.7283   1.0837274969e+02   2.4941046803e+01    0.2461968    0.1986569 -57.33 0.0004462248    1.331    0.249
        17  -9.8779     76.8139    230.6717   1.0826728103e+02   1.5790162356e+01    0.3832903     0.183512 -55.39   0.00183936    2.315    0.568
        18  -9.7826     83.3777    194.6227   1.0244943978e+02   2.2874520953e+01    0.3344169    0.1917478  32.52  0.001536165    1.751    0.429
        19  -8.8961     90.9816    230.2354   1.0511117072e+02   1.3903564792e+01    0.1661881   0.09759784  37.21 0.0003665756    1.514    0.339
        20  -9.3559     66.1248    194.4539   1.0669499209e+02   2.5319599760e+01    0.1983069    0.1244821  39.46 0.0007617701    1.526    0.345
        21 -11.7690     56.3338    190.0434   1.0858913539e+02   2.7632459980e+01    0.4344457    0.3172219 -24.82  0.001270646    1.987    0.497
        22  -9.1787     77.4914    185.9987   1.0273882682e+02   2.5782518191e+01    0.3704065    0.2074537  88.16  0.001329798    2.591    0.614
        23 -10.4856     79.6477    182.6506   1.0170704839e+02   2.6284358521e+01    0.3941281    0.2959496  65.40  0.001489525    1.388    0.280
        24 -11.0240    145.2830    183.1257   8.5221004073e+01   1.5245457702e+01    0.3074978    0.2664955 -74.44 0.0007352749    1.361    0.265
        25  -9.6384     89.8726    180.8523   9.8782229991e+01   2.5193625726e+01     0.218593    0.2041966  70.19 0.0003432014    1.024    0.023
        26 -10.0691     92.5440    178.4937   9.7710848888e+01   2.5351783782e+01    0.2601406    0.2054239 -67.68 0.0007159562    1.276    0.216
        27  -9.1091    183.4591    177.7320   7.5458581092e+01   9.4547252770e+00    0.2593783    0.1384206 -47.53 0.0007777252    1.936    0.484
        28 -12.4665    237.3933    173.2638   6.4131663105e+01   1.2123265020e+00    0.3957452    0.3521859   8.80  0.002550979    1.176    0.149
        29 -10.0093    179.9332    174.3485   7.5533432871e+01   1.0771244708e+01    0.2655506    0.2085395 -60.43 0.0008044477    1.549    0.355
        30  -6.9847     62.1223    237.0195   1.1201335379e+02   1.6413516656e+01    0.1728065    0.1344421 -37.89  0.001045569    1.815    0.449
        31  -9.4887    167.0262    224.7961   8.7578680720e+01   3.2494360094e+00    0.2138122    0.1843881 -28.55 0.0005639888    1.222    0.182
        32 -11.3432    136.9462    173.0358   8.5313230638e+01   1.9015744357e+01    0.3436034    0.2201237  32.28  0.001526815    1.591    0.371
        33 -11.9676    245.9259    168.8851   6.1836138228e+01   6.5027145333e-01    0.5055951    0.3286653  -6.29  0.002647545    1.882    0.469
        34 -10.8366    230.2114    166.4009   6.4006155256e+01   3.5263099267e+00    0.2414547    0.1607513 -46.75 0.0008409333    1.540    0.351
        35  -9.8508    186.4795    167.5148   7.2710876503e+01   1.0944925664e+01    0.2792027    0.1379805 -47.05  0.000913002    2.049    0.512
        36  -9.5115    186.5262    164.5041   7.2066869309e+01   1.1540741232e+01    0.2561375      0.17935 -35.35  0.001243332    1.377    0.274
        37  -9.9733    191.7066    166.3309   7.1364625755e+01   1.0218506013e+01    0.2697432    0.2325074 -14.08 0.0006108636    1.124    0.110
        38  -9.9087    120.2682    165.3525   8.8062424167e+01   2.3849068922e+01    0.3171355    0.2534855  78.81 0.0008967438    1.534    0.348
        39 -11.0341     88.8323    154.6871   9.4595864306e+01   3.1840007603e+01    0.2856881    0.2625972 -45.66 0.0004091517    1.109    0.098
        40 -11.0407    134.5741    148.7907   8.0863133627e+01   2.5075891646e+01    0.6491702    0.3026771 -55.36  0.002317525    2.382    0.580
        41 -11.1211    133.5817    143.4520   7.9924080280e+01   2.6518121711e+01    0.9339005    0.3125473 -56.57  0.002480844    4.340    0.770
        42 -10.2266    112.2007    150.3863   8.7195906620e+01   2.8923691298e+01    0.4953066    0.3140683  78.16  0.001790442    2.850    0.649
        43 -11.9953     95.0540    148.2765   9.1582973258e+01   3.2435499940e+01     0.713501    0.5466255 -35.28  0.003442073    1.432    0.302
        44  -9.6332    174.6266    148.7153   7.1203913417e+01   1.7093784070e+01     0.274328    0.1932617 -53.17 0.0008632966    1.510    0.338
        45  -9.1700    179.5262    141.5185   6.8499520869e+01   1.7611477668e+01    0.1504793     0.143589 -34.83 0.0001026394    1.032    0.031
        46 -11.2374    180.7303    137.6752   6.7356046078e+01   1.8160326648e+01    0.5176396    0.3450602  64.00  0.001900717    2.032    0.508
        47  -9.5451    136.7512    138.7347   7.8012089351e+01   2.6981018436e+01     0.252764    0.1303324 -58.88  0.000891327    2.408    0.585
        48 -11.3606    106.6816    135.6611   8.5546143627e+01   3.3529363989e+01    0.4746912    0.4109319 -12.84  0.001466734    1.304    0.233
        49 -10.4957    105.7592    130.5685   8.4645711695e+01   3.4939559892e+01    0.4093432    0.3450396 -67.08  0.001179999    1.256    0.204
        50 -11.6405     94.8482    134.9634   8.8853620234e+01   3.5793197193e+01    0.2958721    0.2707353 -36.74 0.0003505968    1.101    0.092
        51  -9.1702    150.0672    134.8271   7.3722082605e+01   2.5136432461e+01    0.2241569    0.2065723 -86.12 0.0003447448    1.212    0.175
        52  -9.9328    117.8964    134.4043   8.2077163049e+01   3.1728443751e+01    0.3637944    0.2598647  67.08  0.001557606    1.846    0.458
        53  -9.6070    133.2594    134.5878   7.7949826044e+01   2.8646632904e+01    0.2136778    0.1522073  30.44  0.000939662    1.521    0.342
        54 -10.1867    136.1164    129.3273   7.5933573586e+01   2.9273879478e+01    0.5101652   0.09410624 -45.42  0.001162985    5.345    0.813
        55  -9.6553     87.9373    131.0339   9.0071128282e+01   3.7928897995e+01    0.2236645    0.2134287 -77.69 0.0003496812    1.067    0.063
        56 -10.6525    113.3651    127.8163   8.1797553443e+01   3.4174563567e+01    0.4770673    0.2644049  34.20  0.001890927    1.927    0.481
        57 -10.0344    101.9466    123.1900   8.4023104567e+01   3.7424956246e+01    0.3168711     0.254918   6.77  0.001509254    1.481    0.325
        58  -9.6278    119.5058    122.5253   7.8759875114e+01   3.4222825159e+01    0.1564365    0.1520159 -22.22 0.0002192933    1.023    0.023
        59 -10.4010    135.1327    118.2322   7.3417466204e+01   3.1988016958e+01    0.5968924    0.1202883 -43.69   0.00140811    5.063    0.802
        60  -9.4889    109.8263    117.3368   8.0235696120e+01   3.7337038287e+01    0.2454709    0.2078899 -59.97 0.0003334413    1.228    0.186
        61 -11.9225    117.7403    109.0453   7.5779768542e+01   3.7670411831e+01    0.6549927     0.490263 -78.75  0.002577865    1.849    0.459
        62  -9.0766    167.2334    111.9801   6.4055081056e+01   2.6325618284e+01    0.2054841    0.1250772 -42.48 0.0005491928    1.593    0.372
        63  -9.8437    205.4505    110.3533   5.6139726131e+01   1.8384409138e+01    0.2791746     0.244693  34.56 0.0008413812    1.287    0.223
        64  -9.5241    162.7850    110.2041   6.4591992429e+01   2.7673872357e+01    0.2258056    0.2047236 -72.11  0.001165831    1.177    0.150
        65 -10.4907    134.4826    105.6816   7.0284325216e+01   3.4876033460e+01    0.5002836    0.1524522 -44.60  0.001487941    3.253    0.693
        66 -11.3520     45.4389    222.0182   1.1426829707e+02   2.1618501697e+01    0.3888771    0.2258359 -78.42  0.001852704    1.681    0.405
        67  99.0000     50.6864    216.6417   1.1265195324e+02   2.2173292040e+01    0.2210583    0.1707863 -47.22 0.0006479683    1.622    0.384
        68  -9.8512     50.1761    213.3742   1.1246518268e+02   2.2962124080e+01    0.1785108     0.138633  86.60  8.66722e-05    1.183    0.155
        69  -8.7974    155.6482     83.7235   5.9099503760e+01   3.4467666150e+01    0.1520644    0.1175795  20.81 0.0003116129    1.643    0.391
        70 -10.5819     58.7229     78.0507   8.6595089372e+01   5.4877030831e+01    0.2711932     0.207277  26.10 0.0007587645    1.357    0.263
        71  -9.2121    184.5165     76.9921   5.1618410233e+01   2.8933653333e+01    0.1914045    0.1304471  -7.53 0.0007641618    2.401    0.584
        72 -12.0253    249.6503    233.3243   7.3016219281e+01  -9.6302889764e+00    0.6415933    0.1405643 -36.32  0.002420458    4.165    0.760
        73 -12.1072     52.8888    245.6585   1.1461491221e+02   1.5825899162e+01    0.2077263    0.1515173 -81.32 0.0007038948    1.393    0.282
        74 -11.7918     45.3329    245.0609   1.1607452653e+02   1.6846305311e+01    0.2182864    0.1264262 -67.29 0.0009243452    1.828    0.453
        75 -12.6779    198.1125     39.0791   4.0075873852e+01   3.1468078343e+01    0.4883342     0.473552 -89.54   0.00134345    1.192    0.161
        76  -9.1573     75.2475    209.2741   1.0627130437e+02   2.0647647964e+01    0.2884183    0.1669695 -86.65  0.001335522    2.109    0.526
        77 -11.2031     54.1918    239.5833   1.1387278458e+02   1.6881682436e+01     0.196214    0.1507544  73.71 0.0003836712    1.160    0.138
        78 -11.9896     47.9036    239.0345   1.1511291615e+02   1.7751845355e+01    0.2125526    0.1570965  85.21 0.0008492507    1.264    0.209
        79 -10.7703     57.0373    210.7225   1.1065391133e+02   2.2717286686e+01     0.260524    0.2056261  68.95  0.001478345    1.138    0.122
        80  -8.0546     83.2736    239.2773   1.0775745135e+02   1.3155396213e+01    0.1101346   0.09774306  -8.05 0.0002882904    1.492    0.330
