#   1 NUMBER                 Running object number                                     
#   2 MAG_AUTO               Kron-like elliptical aperture magnitude                    [mag]
#   3 X_IMAGE                Object position along x                                    [pixel]
#   4 Y_IMAGE                Object position along y                                    [pixel]
#   5 X_WORLD                Barycenter position along world x axis                     [deg]
#   6 Y_WORLD                Barycenter position along world y axis                     [deg]
#   7 A_WORLD                Profile RMS along major axis (world units)                 [deg]
#   8 B_WORLD                Profile RMS along minor axis (world units)                 [deg]
#   9 THETA_WORLD            Position angle (CCW/world-x)                               [deg]
#  10 FWHM_WORLD             FWHM assuming a gaussian core                              [deg]
#  11 ELONGATION             A_IMAGE/B_IMAGE                                           
#  12 ELLIPTICITY            1 - B_IMAGE/A_IMAGE                                       
         1 -11.9967     42.4328     81.8404   1.2845979751e+02   5.5172778499e+01     1.147248    0.9939291 -40.57  0.005824796    1.137    0.120
         2 -10.2687      3.9932     39.5887   1.3701445314e+02   6.8235735814e+01    0.6817013    0.4349626 -55.65  0.003036095    1.234    0.190
         3  -8.9934     39.0064      7.4529   1.0222085078e+02   7.1754155489e+01    0.4549385    0.2791587 -16.16  0.002319926    1.732    0.423
         4 -10.5142     38.9846     29.3452   1.1379030224e+02   6.7704861936e+01    0.9177254    0.4479704 -57.15  0.003959747    2.354    0.575
         5 -11.8036     43.9309     21.2415   1.0721977885e+02   6.8623320410e+01     1.461584     1.137876 -73.61  0.007646059    2.152    0.535
         6 -13.9159    163.0041     11.0123   6.7791137474e+01   4.2616269964e+01     3.493756     2.102214  67.68   0.01662068    1.608    0.378
         7 -10.7414    121.0865      3.8228   7.1547681362e+01   5.4208157223e+01    0.6657917    0.5345517  78.36  0.002572386    1.310    0.237
         8 -10.3589     71.2664      5.4810   8.5704576428e+01   6.6050115528e+01    0.6832471    0.4639709  44.44  0.002947353    1.394    0.283
         9 -10.9668     77.0292     19.1552   9.0983380960e+01   6.3018256674e+01     1.400293    0.7273185 -27.55  0.006155163    1.910    0.476
        10  -9.8352     79.1236     12.1302   8.6546053255e+01   6.3528196898e+01    0.5047359    0.3653488  33.46  0.001823353    1.310    0.237
        11 -11.3365     84.4497      3.6390   8.0229008434e+01   6.3304378563e+01      1.24537    0.6762804  30.85   0.00554085    1.951    0.487
        12  -9.9480    116.9820     16.5016   7.7907216944e+01   5.3983596690e+01    0.7642003    0.3191952 -19.64  0.002835487    2.617    0.618
        13 -10.0939    112.0314     15.6603   7.8695527881e+01   5.5323721817e+01    0.5670272    0.2897127  43.88  0.002281186    1.888    0.470
        14  -9.5713     93.6870     17.5962   8.4561720795e+01   5.9532099721e+01    0.4677982    0.3972063 -48.71  0.001944911    1.384    0.278
        15 -11.4464    129.0944     15.4836   7.4911662328e+01   5.0997408999e+01      1.18917    0.7708169 -28.67  0.005161494    1.559    0.358
        16  -8.8747     64.3637     16.5762   9.4736350676e+01   6.5950778229e+01    0.2907183    0.2695831 -68.83  0.001109895    1.475    0.322
        17  -7.8163     19.4755     15.0335   1.1902581170e+02   7.2743395668e+01    0.4741321    0.2156806 -28.35  0.002083626    2.506    0.601
        18 -10.1477    244.6860      1.8736   5.8132696036e+01   2.4238848740e+01    0.5123892    0.1837884  63.33  0.002378441    2.929    0.659
        19 -11.0802    249.1461     14.4267   6.0830749089e+01   2.2198643240e+01    0.9650801    0.2939501 -40.82  0.004218149    2.513    0.602
        20  -9.8458    249.6173      4.2922   5.8424523519e+01   2.3031031089e+01    0.5416114    0.2682234 -28.10  0.002944029    1.691    0.409
        21  -9.4447    226.6362     14.1786   6.2366298518e+01   2.6938268205e+01     0.431266    0.1936723 -61.94  0.001848374    2.720    0.632
        22  -9.9213    103.5938     11.6831   7.8961173434e+01   5.7861628515e+01    0.5109505    0.4134891  -2.62  0.002600222    1.245    0.197
        23  -9.0288     60.0410      9.3165   9.2540475465e+01   6.7841383689e+01    0.3880662    0.2813267  68.15  0.001945768    2.159    0.537
        24  -8.5542     55.1857      7.8851   9.3922336256e+01   6.8958569412e+01     0.347225    0.1966467  57.98  0.001514535    2.581    0.612
        25 -11.5719    109.1971      4.0575   7.4057900400e+01   5.7231828723e+01     2.100549    0.4824691  65.58  0.006022413    4.359    0.771
        26 -10.1591    203.8941      5.1851   6.1746700046e+01   3.2954214932e+01    0.5334316    0.2069739 -19.77  0.002192688    2.585    0.613
        27 -10.7739    131.5229      3.3080   6.9500772899e+01   5.1536027026e+01    0.9096892    0.3829155  65.74  0.002873454    2.179    0.541
        28  -8.1617     48.8127      6.6098   9.6292009377e+01   7.0286551997e+01    0.2216554    0.1675365  41.45  0.001265109    1.440    0.306
        29  -9.7465    229.6931      6.0635   6.0074345709e+01   2.7022193937e+01    0.2292083    0.1786609  68.26  0.001437668    1.394    0.283
        30 -11.1522    214.5639      4.2795   6.0671048607e+01   3.0550054861e+01    0.7452165     0.361946  66.75  0.003627418    2.076    0.518
        31  -9.6684     61.0276      1.8979   8.7616626409e+01   6.8608954114e+01    0.6695597    0.2436033  49.33  0.002686169    2.600    0.615
        32  -8.1192     52.3231      1.8986   9.1543139269e+01   7.0303637383e+01    0.3089254    0.1873623  39.21  0.001408225    1.585    0.369
        33  -8.4914     26.4357      2.6805   1.0718211902e+02   7.4297041457e+01    0.2929084    0.1614618 -39.44  0.001545254    1.622    0.384
        34  -8.5209     16.7896      1.7097   1.1361262638e+02   7.5572732828e+01    0.2175424    0.1585753  28.11  0.001313977    1.568    0.362
        35  -8.2535     40.2741      1.3981   9.7560463825e+01   7.2484098320e+01     0.240958    0.1146058  36.07  0.001127137    2.113    0.527
        36  -9.0233     80.3455     37.7846   9.8554017436e+01   5.9300433777e+01    0.6299697    0.2867435 -22.95  0.002039277    3.548    0.718
        37  -9.6848     82.5177     47.5834   1.0182465301e+02   5.7044766982e+01    0.4985955    0.3960342 -21.96  0.002076379    1.244    0.196
        38  -9.7167     82.1499     41.6158   9.9515413770e+01   5.8245626327e+01    0.5660563    0.3770124 -10.63  0.002523491    1.902    0.474
        39  -7.8000     34.9378     52.4721   1.2432988333e+02   6.3030962709e+01    0.1895643    0.1341662  18.39  0.001026407    1.576    0.366
        40  -7.9389     22.8512     51.8297   1.3006393551e+02   6.4235909853e+01    0.1712961    0.1509485  81.54  0.001062253    1.315    0.240
        41  -7.5407    203.3320     48.6832   7.4185218703e+01   2.8417694029e+01    0.1470869    0.0998826 -57.38 0.0007047192    1.687    0.407
        42  -8.5513    110.9866     45.5351   9.1565075192e+01   5.1337520835e+01    0.2952437    0.2115495 -12.60  0.001028065    1.565    0.361
        43  -9.8653    173.1882    243.0414   1.2057653788e+02   5.5102082627e+00    0.2299191    0.1816945 -66.12  0.001612129    2.436    0.589
        44  -9.0265     12.1577     34.0888   1.3095878887e+02   6.9121941412e+01    0.4618021    0.2450438 -64.40  0.002292368    1.629    0.386
        45  -9.5294    162.7147    244.0047   1.2257571362e+02   6.7271719573e+00    0.1528885    0.1194315  21.07   0.00058593    1.079    0.073
        46 -10.5519    205.5773    226.9546   1.1269929732e+02   3.1929207155e+00    0.3380619    0.1638636  36.83  0.001979527    1.823    0.451
        47  -9.8955     50.6495     35.2165   1.1032565240e+02   6.4929163668e+01     0.452335    0.4325243 -71.60  0.002171658    1.317    0.241
        48  -9.1505    123.9977    206.0292   1.2551144019e+02   1.7299062259e+01    0.1720121    0.1416864  33.50  0.001157194    1.017    0.016
        49  -8.8640     69.6041     37.2566   1.0260980049e+02   6.1433631628e+01    0.3707315    0.2446172 -34.24  0.001812014    1.433    0.302
        50  -9.7212     66.3595     30.3642   1.0085460217e+02   6.3287861883e+01    0.6125174    0.2791264 -37.55  0.002313081    2.087    0.521
        51  -8.3964     27.7462     35.7982   1.2260219825e+02   6.7545818495e+01     0.237513    0.1975138 -32.59  0.001396303    1.063    0.059
        52 -10.3722    225.1570     29.1574   6.6389866224e+01   2.5753411090e+01    0.4062732    0.3844977  45.02  0.001567937    1.182    0.154
        53  -9.4692    239.6099    203.2171   1.0325966593e+02   1.3969351591e+00     0.201093    0.1213286 -12.62  0.001298376    1.452    0.311
        54 -12.6435    240.8353    133.3288   8.9720109323e+01   9.6019718794e+00     1.373872    0.9276415  36.43  0.005026444    1.553    0.356
        55  -9.2044     86.2730     31.2069   9.3436303666e+01   5.9206317948e+01    0.2540357    0.2171667  37.99   0.00137809    1.174    0.148
        56  -8.7108    125.6763     28.9159   8.1091271240e+01   5.0268102695e+01    0.3174519    0.2683946 -15.13  0.001667456    1.190    0.159
        57  -8.8239     97.4270     27.9290   8.8243460578e+01   5.7242138514e+01    0.5234125    0.2921189  -6.00  0.001975623    2.676    0.626
        58 -11.5833      9.6822    139.6465   1.4641491983e+02   4.3798325840e+01     0.665328    0.4693644  33.98  0.004301833    1.472    0.321
        59 -10.5783     11.0908    127.6957   1.4522105484e+02   4.6471213141e+01      0.37578    0.1820336 -84.53  0.001925203    1.827    0.453
        60  -9.1823     41.1560    143.1127   1.3808422939e+02   4.0417807895e+01    0.1926681    0.1689892 -54.06  0.001244801    1.250    0.200
        61  -8.9897     59.1597    124.1625   1.3038423773e+02   4.2935668348e+01    0.1953372    0.1531652  70.32 0.0007263757    1.340    0.254
        62  -9.2719    104.5015     26.1998   8.5367856396e+01   5.5834099506e+01    0.4507698    0.4002236  67.58  0.002452458    1.270    0.213
        63  -8.0914     90.5039     27.9265   9.0472966368e+01   5.8803670849e+01     0.231224    0.1396391 -29.69  0.001045834    1.628    0.386
        64  -8.2197     28.8264     26.6988   1.1840966637e+02   6.9417152369e+01    0.3100784    0.2074745  65.87  0.001432657    2.934    0.659
        65  -8.9296     10.2881     25.8984   1.2953612996e+02   7.1095624492e+01    0.3191002    0.1314222 -43.42  0.001505091    1.974    0.493
        66  -8.8200    119.9753     23.7869   8.0317239578e+01   5.2359957174e+01    0.3393722     0.232919 -69.37  0.001224512    2.093    0.522
        67 -10.9758     11.3465    118.2267   1.4441828609e+02   4.8698648808e+01      0.45399    0.3147146  48.78   0.00270882    1.442    0.307
        68  -8.6674     23.9799    117.0000   1.4039061070e+02   4.8117570809e+01    0.1858869   0.07256217  20.91 0.0005606814    2.880    0.653
        69  -8.9004    108.5846     38.6365   8.9499153528e+01   5.3020986119e+01    0.3850195    0.2378822 -11.40  0.001229457    2.040    0.510
        70 -10.3603     16.8081    104.6912   1.4140488698e+02   5.1629324719e+01    0.4339644    0.2576274  38.98  0.001966411    1.768    0.434
        71  -9.9883     29.8994    102.2839   1.3664732115e+02   5.1255275629e+01    0.4231699    0.2273168 -43.20  0.002035795    2.015    0.504
        72  -9.2122     46.4738     99.3069   1.3037964679e+02   5.0431606430e+01    0.3205228     0.187536 -39.37  0.001508875    1.909    0.476
        73  -7.4989      8.4849     18.0320   1.2791586912e+02   7.2940371197e+01    0.1627122    0.1038249  88.10 0.0008080052    2.503    0.601
        74  -9.0401     56.1773     97.1930   1.2655389137e+02   4.9849874600e+01    0.3574875    0.1515787  51.06  0.001280185    3.275    0.695
        75  -7.9659     13.3861     16.3174   1.2380993460e+02   7.2981257242e+01    0.2528883   0.09178811 -53.17  0.001127851    2.141    0.533
        76  -9.2380      2.1792     89.1067   1.4493181638e+02   5.6249050408e+01    0.4171423    0.2008192 -82.30  0.002098778    1.767    0.434
        77 -10.0049    184.4358    246.4601   1.1901144367e+02   3.7059125978e+00    0.3137771    0.1373707  43.28  0.001695193    2.511    0.602
        78 -11.5436     13.5743     73.5142   1.3862278501e+02   5.9533807686e+01    0.9650168    0.7324924 -84.95  0.005842209    1.234    0.190
        79  -9.2099    227.7383     78.7540   7.8905582023e+01   1.9233273375e+01    0.3418253    0.2391124  10.88  0.001788544    1.669    0.401
        80  -7.6980    204.2720     76.6408   8.1789409262e+01   2.4439694185e+01    0.1450631    0.1024218 -52.30 0.0005387408    1.650    0.394
        81  -7.6727     69.6058     13.8996   9.1086255483e+01   6.5305679972e+01    0.2770778    0.2007503  70.88  0.001349163    2.100    0.524
        82 -10.3609     74.7989     69.0540   1.1242347870e+02   5.3901271534e+01    0.5357932    0.4835801  49.22  0.002973339    1.236    0.191
        83  -9.6101     16.4356     63.9363   1.3576012730e+02   6.1729252401e+01    0.3523752    0.1918878 -85.64  0.001685362    2.003    0.501
        84  -9.1343     49.1772     61.8242   1.2059600632e+02   5.9253343670e+01    0.3484869    0.3213989 -24.58  0.001758421    1.076    0.070
        85  -8.0614    101.3360     83.6469   1.0772441727e+02   4.5923963684e+01    0.1549479    0.1225747  88.55 0.0001281872    1.793    0.442
        86  -9.9898     24.4469     65.5936   1.3250957692e+02   6.0779005065e+01    0.7134417    0.2533205 -58.56  0.002552743    2.173    0.540
        87  -8.3178     33.6780     69.0080   1.2922120447e+02   5.9177077673e+01    0.2863034    0.2344539  23.08    0.0016886    1.373    0.272
        88  -7.7859     20.4684     59.5269   1.3302302817e+02   6.2547594815e+01    0.1320727    0.1118497 -57.96 0.0004742553    1.008    0.008
        89  -7.9531     15.8857     58.1453   1.3487951326e+02   6.3179432528e+01    0.1845043    0.1307372 -40.87  0.001065173    1.323    0.244
        90 -10.7792      3.9963     76.1564   1.4288741772e+02   5.9351832780e+01    0.7178001    0.4500669  58.24  0.003750315    1.772    0.436
        91  -8.2949      9.8026     56.1254   1.3736916609e+02   6.4004862797e+01    0.1959511    0.1644686 -84.07  0.001250947    1.190    0.160
        92  -8.5957    198.5063     54.6867   7.6563911621e+01   2.8760663952e+01    0.2557374    0.1958061   3.51 0.0007380064    1.462    0.316
        93  -9.9672     88.5188     50.5428   1.0080095112e+02   5.5293425683e+01    0.5606834    0.4795828  77.75  0.002886205    1.563    0.360
