#   1 NUMBER                 Running object number                                     
#   2 MAG_AUTO               Kron-like elliptical aperture magnitude                    [mag]
#   3 X_IMAGE                Object position along x                                    [pixel]
#   4 Y_IMAGE                Object position along y                                    [pixel]
#   5 X_WORLD                Barycenter position along world x axis                     [deg]
#   6 Y_WORLD                Barycenter position along world y axis                     [deg]
#   7 A_WORLD                Profile RMS along major axis (world units)                 [deg]
#   8 B_WORLD                Profile RMS along minor axis (world units)                 [deg]
#   9 THETA_WORLD            Position angle (CCW/world-x)                               [deg]
#  10 FWHM_WORLD             FWHM assuming a gaussian core                              [deg]
#  11 ELONGATION             A_IMAGE/B_IMAGE                                           
#  12 ELLIPTICITY            1 - B_IMAGE/A_IMAGE                                       
         1 -12.6771    160.4812     55.5081   7.1987307778e+01   3.7940718961e+01      1.63192     1.103683  32.74  0.005539569    1.690    0.408
         2 -12.8488    173.6203     40.1724   6.4632924439e+01   3.6815653874e+01     1.138724    0.9472623  43.86  0.003678352    1.211    0.174
         3 -13.2007    190.9187      8.3192   5.2467638005e+01   3.6035823317e+01     1.163292     1.077957  55.40  0.004469952    1.120    0.107
         4 -11.9149    212.7543      3.1364   4.8793438126e+01   3.1045780905e+01     1.484234    0.3777049  74.77  0.004791952    4.016    0.751
         5  -8.7952    250.6288    238.6198   9.6446940381e+01  -8.3862566942e+00    0.1689526   0.09326131 -20.03 0.0006307422    1.877    0.467
         6 -11.9597    233.3508    249.6290   1.0091048050e+02  -7.0793509120e+00    0.2069723    0.1508053  28.60 0.0003418901    1.144    0.126
         7 -10.2254    120.7968    249.1941   1.2018895062e+02   9.7890301097e+00    0.3352858    0.1782723  58.41  0.001953436    1.865    0.464
         8 -10.6571    118.6230    245.4007   1.2019173007e+02   1.0669657975e+01    0.3688243     0.179182  48.21  0.001427994    1.607    0.378
         9 -18.6334     49.7232    237.8539   1.3149277346e+02   2.1071699317e+01      4.30632     3.305176  56.34   0.01845667    1.180    0.152
        10 -10.6665    102.7990    196.2320   1.1768997025e+02   2.1468491505e+01    0.3691222    0.2394549  66.02  0.002047283    1.595    0.373
        11 -10.2571    110.8667    213.0060   1.1811306525e+02   1.7130280188e+01    0.3589868    0.2265647 -80.52  0.001372709    1.999    0.500
        12  -8.5754    153.5168    193.9748   1.0691718208e+02   1.3390795569e+01    0.1830953    0.1320224 -44.23  0.001023424    1.585    0.369
        13  -9.8022    172.9003    189.6438   1.0228501102e+02   1.0634600868e+01    0.4539307    0.2880374   5.24  0.002002162    2.680    0.627
        14  -8.5282     14.7002    188.0630   1.3465050356e+02   3.3966990111e+01    0.1618189    0.1292935 -34.83 0.0009851173    2.076    0.518
        15  -7.8786     10.2539    186.3358   1.3539356782e+02   3.4707001880e+01   0.09788469   0.07022513 -64.94  0.000549796    1.567    0.362
        16 -13.7808     12.4325    244.8887   1.3782836123e+02   2.3894204470e+01    0.4793353    0.3640604 -51.81  0.003857327    2.301    0.565
        17  -9.6116    130.7383    214.6076   1.1443831246e+02   1.3714192562e+01    0.2228846    0.1745686  74.26 0.0005210351    1.403    0.287
        18  -8.8844     17.2939    181.2363   1.3371399446e+02   3.5100785260e+01    0.1463474    0.1288812  65.23 0.0003641457    1.281    0.219
        19  -9.6923    167.9738    231.5819   1.0967292315e+02   5.0440861726e+00    0.1834585    0.1766902 -16.08 0.0004877842    1.274    0.215
        20  -9.8883    201.5379    170.0538   9.2972585429e+01   8.4853043779e+00    0.5749466    0.3144535 -57.30  0.002231124    3.407    0.706
        21 -10.0062    204.4404    166.1763   9.1632487170e+01   8.5531423595e+00    0.8756292    0.3565842 -39.08  0.003546102    2.559    0.609
        22  -8.6492    250.5308    176.9514   8.5593225909e+01  -1.2855324149e+00    0.1809417    0.1124673 -27.93 0.0003422377    1.534    0.348
        23 -10.3330    143.9826    174.8653   1.0571674551e+02   1.8599968561e+01    0.3893881     0.212075  57.16  0.001686045    2.167    0.539
        24 -10.4268    106.3845    207.2143   1.1830963295e+02   1.8860221961e+01    0.2617138    0.2175616 -68.40   0.00099121    1.335    0.251
        25 -10.7401    104.0310    174.2336   1.1441797663e+02   2.5661940984e+01    0.4058168     0.316551 -32.89   0.00227192    1.731    0.422
        26  -7.9752      4.3873    176.4498   1.3595167047e+02   3.7184760342e+01    0.1061117   0.08043228 -89.97 0.0005613933    1.117    0.104
        27  -9.3581    239.6439    172.6454   8.6567534984e+01   1.1317535384e+00    0.2587292    0.1742498  41.40  0.001282408    1.501    0.334
        28 -11.1036    193.6194    167.4556   9.3994754748e+01   1.0433871034e+01    0.7100575    0.4395723 -58.18  0.001972308    2.480    0.597
        29  -9.6668    190.2835    155.9874   9.2293921770e+01   1.3047384001e+01    0.4070995    0.3481551 -47.64  0.002262745    1.315    0.239
        30 -10.7047    104.1692    203.1078   1.1825957167e+02   1.9957487250e+01    0.4604889    0.2854554  38.43  0.001563206    1.535    0.349
        31  -9.5164    137.0867    172.4868   1.0680304393e+02   2.0322219513e+01    0.2151987    0.1265426  42.98 0.0007451191    1.566    0.362
        32  -9.4421    100.9406    170.6817   1.1458342971e+02   2.6896260517e+01    0.2535197    0.1914426 -76.32 0.0008609187    1.366    0.268
        33  -9.0298     10.7362    169.7239   1.3426482670e+02   3.8039846637e+01    0.2997695    0.2057804 -19.85  0.001829665    2.850    0.649
        34  -8.7029     17.4964    168.9924   1.3281809140e+02   3.7608565409e+01    0.2503276    0.1473892 -49.61  0.001495008    2.228    0.551
        35  -9.8856     18.0000    164.4730   1.3237260280e+02   3.8516476942e+01    0.2916457    0.1728571 -75.90  0.001665659    1.409    0.290
        36  -9.4570    240.2797    167.9926   8.5521713396e+01   1.6663170755e+00    0.2171778     0.180347  36.12 0.0003010387    1.275    0.216
        37 -10.1671     24.4144    165.5293   1.3108464930e+02   3.7709158955e+01      0.46873    0.2492671  53.47  0.002782737    1.736    0.424
        38  -9.3605    229.7933    166.3344   8.7001136313e+01   3.7760809733e+00    0.1833867    0.1610196 -13.17 0.0007565263    1.124    0.111
        39  -9.4593    120.2138    164.5847   1.0921676344e+02   2.4937902137e+01    0.3090823    0.2059479  63.12  0.001077984    1.679    0.404
        40  -8.9264    161.3303    164.1426   9.9992010240e+01   1.7338423165e+01    0.2359729    0.1818889  32.68 0.0005100206    1.272    0.214
        41  -9.3270    240.3421    163.0202   8.4493001216e+01   2.3543634950e+00    0.1815335    0.1489647 -14.20 0.0003544688    1.117    0.105
        42 -10.3530    208.4848    160.6097   8.9712787869e+01   8.6670211846e+00    0.2449269    0.2266004  20.57 0.0004307762    1.084    0.077
        43 -11.7350     24.6715    156.8837   1.3028818263e+02   3.9544207137e+01    0.5548205    0.4455958  85.86  0.001831627    1.027    0.027
        44 -10.4471     26.9102    145.7208   1.2871515864e+02   4.1791816825e+01    0.3166605    0.2524858  65.42  0.001830682    1.203    0.169
        45 -11.1864     31.2023    142.9198   1.2739312528e+02   4.2017467372e+01    0.4757091    0.3235394  10.46  0.002796231    2.236    0.553
        46 -11.9437      3.4383    124.6737   1.3242575369e+02   4.8303414535e+01     1.079473     0.239701 -72.36  0.004384275    3.187    0.686
        47  -9.3998     16.5700    152.2120   1.3170217393e+02   4.1270799654e+01    0.1830164     0.135322 -58.93 0.0007056369    1.462    0.316
        48 -10.0604    101.1268    158.6408   1.1265575287e+02   2.9431564344e+01    0.2410467    0.2202978  66.01 0.0003802182    1.039    0.037
        49  -8.1003      3.4999    158.3852   1.3501661249e+02   4.0988401340e+01    0.1087075   0.08382233  86.35 0.0001687567    1.044    0.042
        50  -8.7204    120.6590    157.1889   1.0781202547e+02   2.6404294029e+01    0.2426168     0.170825  52.31 0.0007223152    1.382    0.277
        51 -11.3381    104.8506    152.4921   1.1072765440e+02   3.0152551656e+01    0.6776553    0.5347501  11.82  0.002641062    1.742    0.426
        52 -12.1785     91.3205    152.4581   1.1399336241e+02   3.2343543757e+01    0.4554448    0.3588914  13.83  0.001310822    1.743    0.426
        53 -10.2221    133.8862    146.6639   1.0268446695e+02   2.6162262098e+01     1.165588    0.3141356 -55.77  0.002849835    6.259    0.840
        54 -11.7853      5.7227    138.0422   1.3302107740e+02   4.5201799071e+01    0.9564139     0.381904 -73.96  0.005063094    1.934    0.483
        55  -9.0000    143.8604    146.7763   1.0038138381e+02   2.4190497412e+01    0.2855439    0.1966588 -78.03   0.00124663    2.160    0.537
        56  -9.8636     84.2054    146.1753   1.1471477787e+02   3.4828648469e+01    0.2572596    0.1751229  48.12 0.0009143166    1.456    0.313
        57  -8.5812    152.1118    211.8481   1.0990703505e+02   1.0636703004e+01    0.1817777    0.1503315  56.63 0.0003816112    1.196    0.164
        58  -8.6643    228.0599    143.1840   8.2368335134e+01   7.5978469138e+00    0.1999813    0.1663454   9.73 0.0002429181    1.153    0.133
        59  -9.2902     17.0226    142.6985   1.3076343540e+02   4.3317151247e+01    0.1534154    0.1313577  80.50 0.0004851659    1.132    0.117
        60  -8.5509    156.4171    141.5155   9.6387372258e+01   2.2708871943e+01    0.1447191    0.1415678  32.54 7.931792e-05    1.014    0.014
        61 -10.4990    113.6101    138.4891   1.0595057842e+02   3.1703210440e+01    0.5200025    0.2538246 -44.67  0.002127573    2.202    0.546
        62 -10.9560    103.2396    137.7986   1.0842370050e+02   3.3672432180e+01    0.2653271    0.2568628  80.68 0.0003963964    1.053    0.050
        63  -9.4947    163.3533    203.3123   1.0643143463e+02   1.0091363396e+01    0.2843398    0.2349984  86.49 0.0007519378    1.616    0.381
        64 -10.0062      3.9729    228.9731   1.3851685200e+02   2.7363352009e+01    0.1659218    0.1058177 -81.34  0.000848697    1.485    0.326
        65 -10.9318    204.3889    199.7387   9.7988661652e+01   3.4585710829e+00    0.4126252    0.2523054  24.53  0.002184317    1.640    0.390
        66  -8.7557    109.0640    132.9650   1.0597562252e+02   3.3738556557e+01    0.2139971    0.2004015 -65.86 0.0004069669    1.050    0.048
        67  -9.5110    118.6659    129.6736   1.0283326335e+02   3.2712315014e+01    0.2803883    0.2316538  -7.00 0.0005929276    1.572    0.364
        68  -9.1434    159.9401    128.3230   9.2574584397e+01   2.4592716342e+01     0.302673    0.2119324 -58.66  0.001372095    1.690    0.408
        69  -9.4322     28.9927    126.6982   1.2607399742e+02   4.5893876536e+01    0.1706591    0.1447953  85.76  0.001163576    1.092    0.085
        70  -9.8353     23.5062    126.5474   1.2748807580e+02   4.6402494660e+01    0.2835853    0.1782737  52.40  0.001707056    1.674    0.403
        71  -9.7417    107.1665    125.2641   1.0484290602e+02   3.5796443934e+01    0.2831729    0.2399248 -25.93 0.0007643083    1.384    0.277
        72 -10.1581    135.0785    123.1787   9.7241822313e+01   3.0893412059e+01    0.5125039    0.1913101 -52.41  0.001673454    3.073    0.675
        73  -8.6463    122.6297    123.7026   1.0048988234e+02   3.3262659797e+01    0.1506853    0.1186597  -0.55 0.0007029495    1.735    0.424
        74 -10.5409     35.1826    118.9553   1.2338388441e+02   4.7102807003e+01    0.2476606    0.2238086 -66.48  0.001702141    1.146    0.128
        75  -9.0253    113.1208    118.9096   1.0185309717e+02   3.6127347966e+01    0.2449837    0.2067876  44.44 0.0003879015    1.208    0.172
        76  -9.2670     12.7598    116.5988   1.2919234353e+02   4.9484964214e+01    0.1854835    0.1198699  12.04  0.001131659    2.166    0.538
        77  -8.9153    168.6138    114.0868   8.7122041992e+01   2.5469358414e+01    0.3410084    0.2489594 -72.72  0.001453908    1.948    0.487
        78 -10.9222     71.0193    112.2865   1.1207257555e+02   4.4509288444e+01    0.4264131    0.2460987 -50.44  0.002069305    1.618    0.382
        79 -11.7346     60.0224    109.6908   1.1475354684e+02   4.6551580628e+01    0.6817573    0.4097205  24.08  0.003401612    2.094    0.522
        80 -10.2555     65.6167    105.2425   1.1220729861e+02   4.6867685688e+01    0.3464822    0.2410349 -36.85  0.001605252    1.606    0.377
        81  -8.5139     94.1674    112.1277   1.0545034823e+02   4.1010770346e+01    0.1956535    0.1658687  85.78 0.0004161388    1.304    0.233
        82 -10.2726     89.0007    109.7660   1.0637193294e+02   4.2397316264e+01    0.3657714    0.2761269   8.18   0.00117912    1.822    0.451
        83  -9.8531    157.1754    200.2996   1.0718201571e+02   1.1667394451e+01    0.2250728    0.1929751 -61.33  0.001406724    1.393    0.282
        84  -8.0879     25.2958    109.3478   1.2480110405e+02   5.0185667076e+01    0.1268098   0.07653554 -47.49 0.0007033146    1.676    0.403
        85  -8.9554    134.7106    105.5217   9.2920429149e+01   3.4697560476e+01    0.2787594    0.1921208 -65.36  0.001203996    1.847    0.459
        86 -11.1874      9.8934    153.9801   1.3332678669e+02   4.1432476188e+01    0.7289873    0.3960656  65.18  0.003979201    1.702    0.412
        87  -8.3979    169.9375     95.6795   8.1941881814e+01   2.8658436454e+01    0.2057232    0.1902927  42.90 0.0003228125    1.083    0.076
        88  -8.0734    113.3139     95.2713   9.5846392326e+01   4.1259974994e+01    0.1459559    0.1175581  -1.47 0.0002969049    1.554    0.357
        89  -9.2702    225.9465     88.0479   6.9528493249e+01   1.6764967887e+01    0.2073826    0.1967895  -5.19 0.0003606032    1.059    0.056
        90  -9.7851    113.0035     76.9007   9.0587039700e+01   4.5132660798e+01    0.3786337    0.2664326  64.50  0.001720745    1.845    0.458
        91  -9.0926    169.7035     68.9859   7.4274400058e+01   3.3449380448e+01    0.2170486    0.1951291 -29.18 0.0003765227    1.114    0.102
        92 -10.6956    188.0052    245.0092   1.0791749343e+02   1.3078637861e-01    0.3166158    0.1854932 -41.43 0.0009047929    2.192    0.544
        93  -8.8827    141.0116    199.0000   1.1023296441e+02   1.4695637393e+01    0.2361987    0.1879412 -85.32  0.000515591    1.554    0.356
        94 -11.7329    177.6294     32.7639   6.1654291356e+01   3.6743881425e+01    0.5674543     0.416075  36.40 0.0009111018    1.493    0.330
        95 -10.4847    126.0402     54.8676   7.9769054819e+01   4.6377477295e+01    0.2395472    0.2155949 -21.55            0    1.095    0.087
        96  -8.8848    221.7308     39.5013   5.7449935201e+01   2.4736115639e+01    0.2641491    0.1843061 -30.49 0.0007891478    1.404    0.288
        97  -9.2292    140.2915    242.7828   1.1606965644e+02   7.8036006330e+00    0.2447839    0.2242714  -4.09 0.0008578619    1.421    0.296
