#   1 NUMBER                 Running object number                                     
#   2 MAG_AUTO               Kron-like elliptical aperture magnitude                    [mag]
#   3 X_IMAGE                Object position along x                                    [pixel]
#   4 Y_IMAGE                Object position along y                                    [pixel]
#   5 X_WORLD                Barycenter position along world x axis                     [deg]
#   6 Y_WORLD                Barycenter position along world y axis                     [deg]
#   7 A_WORLD                Profile RMS along major axis (world units)                 [deg]
#   8 B_WORLD                Profile RMS along minor axis (world units)                 [deg]
#   9 THETA_WORLD            Position angle (CCW/world-x)                               [deg]
#  10 FWHM_WORLD             FWHM assuming a gaussian core                              [deg]
#  11 ELONGATION             A_IMAGE/B_IMAGE                                           
#  12 ELLIPTICITY            1 - B_IMAGE/A_IMAGE                                       
         1 -13.5434    242.2665     10.6445   3.9809660267e+01   2.3157105124e+01    0.2692416    0.2118771 -72.86  0.001453874    1.105    0.095
         2 -11.3088     98.5047      8.5038   6.0085016463e+01   5.8977643901e+01    0.1331399    0.1168166  26.28 0.0003049127    1.014    0.014
         3 -12.4305     85.6613      7.9256   6.3374442766e+01   6.1741562635e+01    0.2490423    0.1543114  29.99 0.0009370331    1.532    0.347
         4 -11.7835      3.5057      8.5267   9.9351696381e+01   7.3088159768e+01     0.110718   0.08038204 -30.33 3.630553e-05    1.018    0.018
         5 -12.3011     64.9809     10.8402   7.1569028210e+01   6.5316900815e+01    0.2279713    0.1652468 -15.32  0.001170091    1.252    0.201
         6 -11.9727    178.4600      7.5032   4.5267752302e+01   3.9333193741e+01    0.1383474    0.1251248  83.25  7.71993e-05    1.005    0.005
         7 -11.7278     15.6911      5.3412   9.1067440608e+01   7.2624253396e+01   0.09536172   0.08594473 -47.75  0.000704411    1.691    0.409
         8 -11.5307    230.1588      1.8315   3.8679314710e+01   2.6934197665e+01    0.1694521    0.1482399  59.81 0.0007096078    1.316    0.240
         9 -11.2226    113.4801      1.5297   5.3630655528e+01   5.6208900146e+01    0.1350774     0.115819  38.90 0.0008094938    1.023    0.023
        10 -11.6146    140.3419    239.8572   1.0831588065e+02   6.8332846003e+00    0.3669474    0.2060315  45.09  0.002100964    1.412    0.292
        11 -11.3789    102.2695    250.1455   1.1622911608e+02   1.1113438323e+01    0.1627579    0.1259207  52.31  0.001055113    1.105    0.095
        12 -16.0314     42.2818    185.6857   1.2162350209e+02   3.1464137176e+01     6.662365     2.023424 -51.97   0.02323215    5.367    0.814
        13 -13.5511    147.9165    231.9438   1.0591764342e+02   6.8218055185e+00    0.4721754    0.3668541   1.27  0.001715924    1.878    0.468
        14 -13.0160    151.5175    226.4751   1.0450628342e+02   7.0833462414e+00     0.486511    0.2292904  31.05  0.002152006    2.541    0.606
        15 -13.8570    159.6932    230.8286   1.0356265699e+02   5.0224521289e+00    0.5772367    0.4018347  20.32  0.003338394    1.733    0.423
        16 -14.9269    191.9322    216.9974   9.5423076969e+01   1.5704894939e+00    0.7050988    0.5110322  67.92  0.003843233    2.100    0.524
        17 -15.0987    189.1482    226.5088   9.7448561606e+01   6.7929298082e-01     0.761141    0.5791456  76.21  0.004370129    2.149    0.535
        18 -13.0091    200.7831    229.2959   9.5756549630e+01  -1.6419458177e+00    0.2297332    0.1653716 -15.14  0.001419444    1.611    0.379
        19 -11.1458     24.9661    233.0695   1.2814350746e+02   2.4069404041e+01    0.1961609   0.08869853 -57.72  0.001092681    3.132    0.681
        20 -11.3101    146.4833    222.7726   1.0496109225e+02   8.5401994007e+00    0.1941296    0.1420138  75.03  0.001116055    1.696    0.411
        21 -11.1651     18.6406    221.5547   1.2857900418e+02   2.6853834898e+01    0.1289818   0.07596251  58.31 0.0008923432    1.310    0.236
        22 -12.5241     13.6033    216.1562   1.2914796304e+02   2.8382465285e+01    0.2747605    0.1744887 -71.02  0.001961913    1.640    0.390
        23 -10.7275      9.3887    217.3954   1.2992598126e+02   2.8562175465e+01    0.1017806   0.07533827  79.57 0.0006530685    1.122    0.109
        24 -11.5838     19.7845    211.5421   1.2781816119e+02   2.8642806649e+01    0.1838043     0.107078  63.46 0.0007914868    1.326    0.246
        25 -14.2651    194.8828    208.4591   9.3441534079e+01   2.3223352533e+00    0.7878523    0.4151687  62.66  0.002755949    4.619    0.783
        26 -10.8427      8.7050    211.2651   1.2973413681e+02   2.9794123139e+01    0.1092004    0.0556739  66.38 0.0002823693    1.509    0.337
        27 -11.4372    123.6864    243.3846   1.1175044579e+02   8.9346340271e+00     0.183087     0.127085  58.00 0.0005889537    1.240    0.193
        28 -11.3421      3.0915    201.5836   1.3021862390e+02   3.2196541417e+01    0.2031207    0.1240017 -69.25  0.001413056    1.668    0.400
        29 -10.8287      3.9912    190.5455   1.2946748991e+02   3.4323031119e+01    0.2443128    0.1007621  75.69  0.001313002    2.163    0.538
        30 -12.2825      7.2602    187.4031   1.2867388136e+02   3.4676380157e+01    0.3402394    0.1389713  48.44  0.001959855    2.104    0.525
        31 -13.6571    190.4579    189.8811   9.0980189442e+01   6.0724238916e+00    0.4216476    0.2144121  40.39  0.001922545    1.789    0.441
        32 -10.1642    113.8703    243.4997   1.1352897443e+02   1.0436609309e+01    0.3679865    0.1413253  52.44  0.001742247    2.307    0.567
        33 -12.8181    153.2406    186.4303   9.7954400443e+01   1.3775120097e+01    0.2710909    0.2325345 -87.64  0.001540231    1.353    0.261
        34 -13.3392    174.7630    179.9909   9.2279302626e+01   1.0811407649e+01    0.3107584    0.2604282 -35.95   0.00174109    1.287    0.223
        35 -14.1366    156.6970    177.0275   9.5523083660e+01   1.4910255129e+01    0.6838357    0.4487344  78.99  0.002863677    2.596    0.615
        36 -13.3238    164.2319    182.5334   9.4945061134e+01   1.2397780577e+01    0.3489796    0.2581457 -53.41  0.001457349    1.523    0.343
        37 -13.4018    165.7838    177.6099   9.3699782381e+01   1.3015669502e+01    0.3655783    0.2774723  40.90  0.001931068    1.222    0.182
        38 -11.6162    117.2528    236.0127   1.1211517373e+02   1.1136603307e+01     0.414161    0.2145124  33.91  0.002129982    2.105    0.525
        39 -12.5792    147.9496    177.4371   9.7486480049e+01   1.6529057005e+01    0.3694987    0.1983638 -49.68  0.001641261    2.010    0.502
        40 -12.1144    150.5020    174.0201   9.6302515592e+01   1.6711650651e+01    0.2754155     0.218727  87.73  0.001030221    1.558    0.358
        41 -11.0254     31.4234    243.8363   1.2767378827e+02   2.1455052100e+01    0.1460188    0.1260211 -44.34  0.001134768    2.159    0.537
        42 -12.0204    170.0330    242.0150   1.0318166172e+02   1.6776100752e+00    0.1798947    0.1400708  30.26 0.0003425038    1.162    0.140
        43 -12.6872    144.9232    170.2288   9.6820215385e+01   1.8565291063e+01    0.2740509    0.2508691  58.74 0.0008044181    1.035    0.034
        44 -12.1199    166.5051    241.4861   1.0374985473e+02   2.3275299730e+00    0.2305958    0.1386827  59.80   0.00114422    2.049    0.512
        45 -14.4808    186.9107    238.4182   9.9632611218e+01  -5.8573938392e-01    0.5300932    0.3592844 -19.65  0.003209966    1.920    0.479
        46 -12.9482    150.6474    159.4717   9.3435733198e+01   1.9633724860e+01    0.4332349    0.2089696 -60.20  0.001544574    2.943    0.660
        47 -13.0635    142.5104    160.4999   9.5486035276e+01   2.1056754393e+01    0.3374066    0.2325389  56.81 0.0008893061    1.500    0.333
        48 -10.6714      2.6055    157.7055   1.2766448322e+02   4.1369251431e+01    0.1082136   0.07337745 -52.24 0.0002704118    1.792    0.442
        49 -12.3916      7.6009    155.4257   1.2641294717e+02   4.1479196386e+01    0.2032724    0.1580551 -77.76  0.001460853    1.180    0.153
        50 -11.0278    155.6367    240.6544   1.0561847508e+02   4.2239788955e+00    0.2021631    0.1403004 -86.93 0.0008109019    2.367    0.577
        51 -14.6381    130.8173    144.9968   9.5056076603e+01   2.6741650103e+01     1.184847    0.2971916  44.58  0.003392833    3.902    0.744
        52 -10.6763    167.2054    138.8312   8.5202783927e+01   2.0373248764e+01    0.2050503    0.1797199   3.60 0.0004254621    1.288    0.224
        53 -11.5427    124.0848    231.3815   1.1031789785e+02   1.0822857722e+01    0.4182798    0.1880976  41.14  0.001100115    1.881    0.468
        54 -15.1039    125.6685    149.3136   9.7193768086e+01   2.6794740973e+01     1.079794     0.678762  89.72  0.004158803    2.725    0.633
        55 -12.5734    129.0319    135.0551   9.3324542659e+01   2.9316546200e+01     0.233264     0.223654  71.81 0.0005227147    1.025    0.024
        56 -11.9672    111.6290    135.0709   9.7724754036e+01   3.2699835745e+01    0.2657488    0.2147744  37.93 0.0004003994    1.321    0.243
        57 -11.5004    125.9915    236.0119   1.1050242627e+02   9.7526043515e+00    0.2288895    0.1951285  35.23  0.001011293    1.283    0.221
        58  99.0000     25.1882    240.6273   1.2850354374e+02   2.2704242516e+01    0.2659187    0.1174415  55.70   0.00169845    1.651    0.394
        59 -13.8507    100.7074    118.6701   9.6977637925e+01   3.8510857857e+01    0.4768066    0.3095298  38.59  0.002213091    1.653    0.395
        60 -13.7490     37.7467    121.4123   1.1515685063e+02   4.6630837145e+01    0.4184784    0.1820228 -59.25  0.001979602    1.879    0.468
        61 -13.1424     44.2793    118.5271   1.1287205564e+02   4.6636804624e+01    0.2664436    0.1963978   9.89  0.001099135    1.900    0.474
        62 -12.4343    119.0222    118.4767   9.1996880638e+01   3.5079380889e+01    0.2340593    0.1510293  43.86 0.0006854025    1.592    0.372
        63 -11.6773     17.8075    239.3825   1.2961608632e+02   2.3711213654e+01    0.2235196   0.08471733  89.83  0.001254047    2.462    0.594
        64 -12.5559     44.4854    113.9852   1.1204316402e+02   4.7693289696e+01    0.1863723     0.175789  77.84 0.0005932673    1.172    0.146
        65 -13.6208     97.5432    108.4849   9.5422194115e+01   4.1442473033e+01    0.3454058     0.321066  18.99  0.001477506    1.208    0.173
        66 -12.5155    152.1972    108.2033   8.0968239580e+01   3.0128255915e+01    0.4018179    0.1900175  57.26  0.001378671    2.552    0.608
        67 -16.0764    110.4313    211.2232   1.1051895018e+02   1.6617778777e+01     4.329973    0.9378854 -59.22   0.01387007    5.474    0.817
        68 -12.9590    104.6681    105.1432   9.2553049495e+01   4.0903957353e+01    0.4307543    0.1676894 -43.24   0.00148282    2.627    0.619
        69 -10.8763      1.4856    105.0508   1.2310545709e+02   5.3270600737e+01    0.1849448   0.08759861 -71.26   0.00101123    1.561    0.359
        70 -18.9355     71.4713    216.6558   1.1871259469e+02   2.1431055994e+01     7.529576     4.168477  56.96   0.04366149    1.517    0.341
        71 -11.0910    142.7211     95.9648   7.9867344249e+01   3.4862307958e+01    0.2268742    0.2049787 -47.45 0.0007510137    1.094    0.086
        72 -18.7048     75.6332    186.2298   1.1466347745e+02   2.7029669429e+01     6.572957     3.289001  38.79   0.03249916    2.007    0.502
        73 -14.2172     51.2272     81.4946   1.0306855059e+02   5.4509160392e+01    0.5937555    0.4040228  -8.64  0.003064414    2.038    0.509
        74 -12.9656     41.9985     70.9896   1.0357966804e+02   5.7858349261e+01    0.3044569     0.191688  23.17   0.00167007    1.896    0.473
        75 -12.3822    250.0000     57.5190   5.0200050205e+01   1.5399724337e+01    0.3115326   0.07098162 -31.91 0.0009387658    3.967    0.748
        76 -11.5392    128.8159    238.5883   1.1027938031e+02   8.8858182160e+00    0.1979382    0.1729926  89.63  0.000669933    1.286    0.223
        77 -12.2272    126.1540     40.1571   6.5759448812e+01   4.8813607145e+01    0.5008098    0.2563736  48.71  0.001841228    1.858    0.462
        78 -12.0347    239.1223     24.8867   4.3454846853e+01   2.2226159946e+01    0.2087808     0.156796 -61.71 0.0002736147    1.193    0.162
        79 -11.9384     34.1647     14.1890   8.6153678811e+01   6.9371721790e+01    0.1504389    0.1301192 -28.44 0.0004933887    1.329    0.248
        80 -10.9244    166.4706    248.4144   1.0465960796e+02   1.3719212781e+00    0.1773537    0.1139285 -64.89  0.001023093    2.479    0.597
        81 -10.8069    132.2462    247.8892   1.1070967311e+02   6.8970606926e+00    0.1173515   0.09815475 -80.01 0.0004384981    1.436    0.304
        82 -11.8068    130.0392    234.7669   1.0960668781e+02   9.3049166607e+00    0.2261955    0.1827536  67.69  0.001295516    1.211    0.174
        83 -10.5905    143.4214    247.3524   1.0864982504e+02   5.2101639308e+00    0.1180312   0.08940981  44.39 0.0001222061    1.050    0.047
        84 -13.3450    195.7128    237.0442   9.7849852452e+01  -1.8351572783e+00    0.2764381    0.2038811  29.26  0.001024266    1.113    0.101
        85 -12.7658    181.0969    244.9506   1.0159295340e+02  -5.1213180963e-01    0.2415238    0.1672804 -45.76  0.001181988    1.866    0.464
        86 -11.8700    145.0161    239.4271   1.0740674790e+02   6.1406926616e+00    0.2462489    0.1826602  43.98   0.00160682    1.083    0.077
        87  99.0000    138.2932    243.7489   1.0915136857e+02   6.5669892665e+00    0.2841114    0.2131446  56.55  0.000999623    1.181    0.154
