#   1 NUMBER                 Running object number                                     
#   2 MAG_AUTO               Kron-like elliptical aperture magnitude                    [mag]
#   3 X_IMAGE                Object position along x                                    [pixel]
#   4 Y_IMAGE                Object position along y                                    [pixel]
#   5 X_WORLD                Barycenter position along world x axis                     [deg]
#   6 Y_WORLD                Barycenter position along world y axis                     [deg]
#   7 A_WORLD                Profile RMS along major axis (world units)                 [deg]
#   8 B_WORLD                Profile RMS along minor axis (world units)                 [deg]
#   9 THETA_WORLD            Position angle (CCW/world-x)                               [deg]
#  10 FWHM_WORLD             FWHM assuming a gaussian core                              [deg]
#  11 ELONGATION             A_IMAGE/B_IMAGE                                           
#  12 ELLIPTICITY            1 - B_IMAGE/A_IMAGE                                       
         1 -14.9279      6.4876     70.9089   7.6674815872e+01   6.1610634144e+01     1.307432    0.6934613 -55.30  0.005216597    1.478    0.323
         2 -12.9309      9.0596      2.9672   5.1208114229e+01   7.3485042120e+01     0.625639    0.3164307  37.75  0.003572796    2.685    0.628
         3 -15.7560     11.3990     23.2034   5.9398681730e+01   7.0378947930e+01     1.773842    0.8927742 -23.48  0.008013558    1.825    0.452
         4 -14.1866     26.9018     12.2513   4.6082582063e+01   7.0327770291e+01    0.8252205    0.4863914  -1.94  0.004049249    1.681    0.405
         5 -13.7896    122.2875     36.9270   2.3152250478e+01   4.9479457297e+01    0.9201906    0.4593238  37.64  0.002690347    2.235    0.553
         6 -14.1176    166.6446     29.7056   1.2788827525e+01   3.9644994601e+01     1.021342    0.6474911  67.33  0.003831711    1.402    0.287
         7 -14.1194    147.9598     29.5219   1.5707851591e+01   4.4202419703e+01     1.203856    0.6721536  68.26  0.004694615    1.665    0.399
         8 -13.0737    187.7132     11.7016   5.5828186580e+00   3.6572759855e+01    0.7322929    0.3311325 -31.44  0.003592511    2.406    0.584
         9 -13.4885    189.0407     25.5299   8.7706599006e+00   3.4777549519e+01     1.033999    0.4417965 -59.33  0.004207991    2.929    0.659
        10 -13.3696     57.5011     26.7857   3.8993303450e+01   6.4026872473e+01     1.015202    0.3476072  40.46   0.00336422    2.648    0.622
        11 -12.3370    121.0068     25.5516   1.9635700907e+01   5.1090433539e+01    0.4997294    0.3798071  21.55  0.002823225    1.475    0.322
        12 -15.0909     98.4800     12.0400   1.9963842110e+01   5.7534670869e+01     1.520351    0.7007445  55.56   0.00734526    1.785    0.440
        13 -12.1452     60.0689     15.3942   3.2988513382e+01   6.4930305320e+01    0.4816369    0.2518931  29.19  0.002497747    1.804    0.446
        14 -13.6673    215.0656     10.1027   2.6932212012e+00   3.0568656225e+01    0.8140771    0.3855698  82.06  0.002927256    1.949    0.487
        15 -11.7311     46.7371     12.9832   3.7177749682e+01   6.7430368835e+01    0.2693627     0.223315  22.21  0.001301986    1.185    0.156
        16 -12.0673    123.0392     11.0795   1.4417036101e+01   5.2010560077e+01    0.2723458    0.2247421 -66.93  0.001072073    1.425    0.298
        17 -13.8226     41.8608      4.5433   3.5152659509e+01   6.9085162938e+01    0.6980188     0.449306  13.08  0.003372557    1.374    0.272
        18 -11.6120     75.1321      9.6853   2.5379041215e+01   6.2651115121e+01      0.23388    0.1697242   6.60  0.001082032    1.397    0.284
        19 -11.8191    152.3662      8.6771   9.0081706845e+00   4.5236430762e+01    0.3196178    0.1754161  53.45    0.0016621    1.650    0.394
        20 -10.6282     80.4448      7.2841   2.2805115561e+01   6.1785651501e+01    0.1484949    0.1154205 -29.72 0.0009332293    1.541    0.351
        21 -10.0031     60.3434      6.2805   2.8741637898e+01   6.5778768311e+01    0.1295274   0.07322985  26.44 0.0007010503    1.632    0.387
        22 -11.9691    119.5331      2.8286   1.2328792430e+01   5.3496274707e+01    0.5618752    0.2613163  84.06  0.002258656    3.174    0.685
        23 -11.9489     78.7999      2.1077   2.1107319400e+01   6.2536576661e+01    0.8299448          nan  51.55  0.002341476    5.678    0.824
        24 -11.0632     67.6375      2.7277   2.4683047047e+01   6.4711434008e+01    0.2791765    0.1500163  29.28  0.001514569    1.730    0.422
        25 -11.1995    232.6023      1.7774   3.5971872214e+02   2.7719638488e+01    0.2113333    0.1342812  83.83  0.001002338    1.353    0.261
        26 -11.2801     61.5807      1.4771   2.6096513459e+01   6.5961638011e+01    0.3614467    0.1005872  52.93  0.001458324    3.122    0.680
        27 -13.2768    164.7357    195.2900   5.4310897145e+01   8.9901239623e+00     0.631882    0.4043851 -71.00   0.00253362    2.800    0.643
        28 -12.7565    107.5315    246.5180   7.5140081914e+01   8.3339801103e+00    0.7675788    0.5183779  89.85  0.004132279    2.001    0.500
        29 -13.0153     98.8637    238.5959   7.6070053630e+01   1.1175712593e+01    0.8462059     0.456662  35.44  0.004217281    1.660    0.398
        30 -13.9007     92.5181    230.2827   7.6478906385e+01   1.3816790982e+01    0.6816314    0.5939602  43.49  0.004244561    1.088    0.081
        31 -11.7855     51.4788    248.6155   8.6928697016e+01   1.5712211942e+01    0.3528947    0.1897897  88.32  0.001898786    2.044    0.511
        32 -11.0458     41.4046    250.1654   8.9010420295e+01   1.6634070476e+01    0.1626192   0.09475584  84.38 0.0009464003    1.687    0.407
        33 -13.0205     28.6337    245.8817   9.1169597042e+01   1.8951149273e+01    0.4932432    0.3029562  80.42  0.002623601    1.450    0.310
        34 -12.1019      2.8306    249.7368   9.6097940737e+01   2.0870224661e+01    0.3625501    0.2213163  54.66  0.001757459    1.281    0.220
        35 -13.6864      9.7243    245.6588   9.4671903150e+01   2.0989507828e+01    0.8297092    0.3828839  56.62  0.003680872    1.719    0.418
        36 -11.0362     80.7208    192.8078   7.4392917400e+01   2.3986946155e+01    0.3058546    0.1744686  44.12  0.001407575    1.667    0.400
        37 -12.0634    201.1946    191.2039   4.5617952106e+01   3.3201256507e+00    0.3563943    0.2733143   3.35  0.001450997    1.342    0.255
        38 -12.9145     98.9886    186.5902   6.8798582374e+01   2.2611059462e+01    0.4509026     0.356768 -20.81  0.002247654    1.629    0.386
        39 -12.1844    155.8582    184.8799   5.4352072673e+01   1.2802909005e+01    0.2423385    0.2049842  -3.81  0.001171396    1.273    0.215
        40 -12.1054     48.9005    181.5372   8.0970641156e+01   3.1025719025e+01    0.4038034     0.245408 -49.32  0.001992621    1.793    0.442
        41 -12.9020    198.1027    180.6239   4.4120712929e+01   5.8508186601e+00    0.5081248    0.4007441 -72.56  0.002527497    1.927    0.481
        42 -11.3901    122.5326    181.3111   6.1847597708e+01   1.9785340061e+01    0.4864098    0.2884643  75.58  0.001597808    3.654    0.726
        43 -13.3602    124.2601    166.6303   5.8549043647e+01   2.2926506453e+01    0.7415496    0.4759179 -72.77  0.002984297    2.166    0.538
        44 -11.3664    102.1081    161.1109   6.3401144607e+01   2.8297873748e+01    0.2956063    0.2089463  42.58  0.001368693    1.414    0.293
        45 -12.0348     24.8615    159.6756   8.4675307611e+01   3.8997075530e+01    0.3454469    0.1946798  -0.04  0.001555356    2.929    0.659
        46 -11.7717    239.2803    159.4357   3.1997595565e+01   2.5893226463e+00    0.2868421     0.131195  43.64  0.001273845    2.496    0.599
        47 -12.6236    111.7240    155.9286   5.9705727816e+01   2.7848015331e+01    0.5778535    0.4054843  82.97   0.00239092    2.100    0.524
        48 -12.4318     77.3056    156.8953   6.9578405045e+01   3.3393594651e+01    0.6038761    0.4764955  23.05  0.002222697    1.418    0.295
        49 -13.5848     73.9883    153.4861   6.9918750396e+01   3.4751391817e+01    0.8635562    0.5763109  32.50  0.002960368    1.579    0.367
        50 -12.5429    210.6769    153.8901   3.5943668439e+01   8.6591824024e+00     0.424383    0.3341243  26.24  0.002252271    1.374    0.272
        51 -12.4038     85.6115    153.0745   6.6487233515e+01   3.3071779508e+01    0.6943893    0.4465967 -23.27  0.002818307    2.333    0.571
        52 -11.6509    103.3944    149.7426   6.0729418014e+01   3.0885285657e+01    0.3837932    0.2699357 -33.24    0.0013496    1.637    0.389
        53 -12.5364      8.8418    150.1629   8.7957745399e+01   4.2655081783e+01    0.4233167    0.3491146  87.93  0.002741238    1.100    0.091
        54 -12.5064     60.5155    147.6568   7.2831392118e+01   3.8108600522e+01    0.4437889    0.2907325 -28.40  0.002011061    2.003    0.501
        55 -11.5737     38.0665    145.5041   7.9116134837e+01   4.1281817804e+01     0.219133    0.1708872 -68.51  0.000629803    1.129    0.114
        56 -11.7349     54.9901    156.3008   7.5855278336e+01   3.6611042789e+01    0.3807898      0.22214  -6.17  0.001445308    3.318    0.699
        57 -12.6866     41.0067    137.3591   7.6975732881e+01   4.3039081932e+01     0.494608    0.2832156  58.58  0.002211659    2.225    0.551
        58 -12.2945    246.4139    134.6639   2.5720139452e+01   5.6763889999e+00    0.3598475    0.2531554  80.60  0.001813806    2.360    0.576
        59 -11.9987     45.4118    133.0857   7.4893440693e+01   4.3643732366e+01    0.4289334    0.2429582  30.04  0.002018683    1.923    0.480
        60 -12.8930    136.9093    132.0981   4.7432150566e+01   2.8517346998e+01    0.6305929    0.3407285  39.54  0.002445219    1.891    0.471
        61 -12.2081    111.8901    131.6998   5.4220067192e+01   3.3707938692e+01    0.4326606     0.313606 -18.46  0.001772426    1.797    0.443
        62 -11.0669      5.2471    128.8580   8.6624787182e+01   4.8118889712e+01    0.2477181    0.1330025 -36.54   0.00125427    2.101    0.524
        63 -12.0328    222.9861    127.4978   2.7908792797e+01   1.1238246895e+01    0.2934383    0.1848707 -52.19  0.001401598    1.626    0.385
        64 -14.6170    106.1339    104.6434   4.8921502084e+01   4.1126318630e+01     1.296812     1.101443 -19.70  0.005323566    1.246    0.197
        65 -12.8487     28.7238    121.7601   7.8282255239e+01   4.8141720367e+01     0.490826    0.2726825 -55.08  0.002436941    1.513    0.339
        66 -12.6834    181.0081    121.4338   3.4363587416e+01   2.1156625816e+01     0.645348     0.442363  64.39   0.00286594    1.773    0.436
        67 -12.9465    112.1796    116.7445   5.0381594320e+01   3.7174608160e+01     0.593013    0.3467427  34.91  0.002048304    1.801    0.445
        68 -10.3845     58.6966    124.7113   6.9059620349e+01   4.4157367868e+01    0.1467721    0.1046228 -29.96 0.0003116165    1.566    0.361
        69 -11.9140     78.8692    119.1441   6.1275356624e+01   4.2624856109e+01    0.3404741     0.249194 -54.02  0.001284946    1.309    0.236
        70 -13.5428     82.8793    113.8951   5.8696272133e+01   4.3240235135e+01    0.9943341    0.5937169  49.72   0.00420299    1.980    0.495
        71 -11.8331     42.4130     90.2881   6.6946196270e+01   5.4374507018e+01    0.2925929     0.228395 -56.22 0.0003851685    1.231    0.188
        72 -12.7477     19.6734     85.9183   7.4670413852e+01   5.7437617824e+01    0.5873415    0.3495452  -2.91 0.0005901328    1.988    0.497
        73 -12.5231     36.7746     92.8965   6.9709553073e+01   5.4361457174e+01    0.4735527    0.3093106  10.95  0.001874411    1.741    0.426
        74 -13.6034      2.2920     96.9374   8.3208305247e+01   5.5939904824e+01    0.9786459    0.5542463 -88.25  0.004083852    2.061    0.515
        75 -14.1941     18.4159    111.7744   8.0036815009e+01   5.1420495337e+01    0.7359847    0.5796208 -14.55  0.003051584    1.444    0.307
        76 -13.5298     17.3631    104.1287   7.9096249534e+01   5.3340432572e+01    0.7463424    0.3610404  26.76  0.002678708    2.332    0.571
        77 -14.5423     22.7625     94.8807   7.5389923865e+01   5.5134788264e+01     1.676053    0.8763615  -1.34  0.007775006    2.545    0.607
        78 -12.7989     29.6904     89.3951   7.1582836868e+01   5.5833916878e+01    0.5884764    0.4118472  72.26  0.002341338    2.195    0.544
        79 -11.2430    229.6826    118.3290   2.4797249836e+01   1.1588677607e+01    0.1416369    0.1016227 -66.69 0.0004579122    1.682    0.405
        80 -12.2533    121.4371    112.0716   4.6482098227e+01   3.6331423279e+01    0.4057291    0.3230581  82.90  0.001343703    1.675    0.403
        81 -11.6414     62.5325    110.6294   6.4672240328e+01   4.7112564892e+01    0.5005782    0.2583901  49.80  0.001980643    2.586    0.613
        82 -11.9845     33.4914    110.9716   7.4750210266e+01   5.0368581429e+01     0.263235    0.2139472 -65.61  0.001530866    1.143    0.125
        83 -11.3831    222.8729    108.8911   2.3764922341e+01   1.4605068472e+01    0.2108768    0.1919389  -8.65  0.001027555    1.258    0.205
        84 -12.9069    136.2771    103.1500   4.0018048855e+01   3.5021676903e+01    0.7061568    0.3495047  50.38  0.001965516    2.088    0.521
        85 -13.1985    121.0058    102.0781   4.3853920195e+01   3.8607528600e+01    0.4742162    0.3619502  38.46  0.002239613    1.313    0.239
        86 -10.8791     64.5194    101.5423   6.1747116336e+01   4.8995131298e+01    0.2494426    0.2127216  22.66 0.0005008599    1.232    0.188
        87 -11.9111     61.7116     97.7281   6.1752462148e+01   5.0274979736e+01    0.4399809    0.3790206  70.11   0.00171128    1.481    0.325
        88 -12.0458     48.9983     93.4852   6.5285237277e+01   5.2891269959e+01    0.3861248    0.3181324  69.07  0.002118714    1.623    0.384
        89 -12.4478     49.6091     98.8647   6.6397146856e+01   5.1569158603e+01    0.7896239    0.4637992  10.28  0.003587453    2.149    0.535
        90 -11.1166     42.1079     96.1949   6.8501528705e+01   5.3043081298e+01    0.2197608    0.1783101  -6.78 0.0003914468    1.305    0.234
        91 -12.2570    163.2400     97.9257   3.2142292884e+01   2.9858065051e+01    0.4084337    0.3309594  51.76  0.000591166    1.238    0.192
        92 -13.1913      5.4905    118.1414   8.5205249852e+01   5.0713180866e+01     1.749859    0.2564328 -54.47  0.005957025    3.736    0.732
        93 -12.9306    137.2424     95.0629   3.7502702963e+01   3.6455214892e+01    0.5270434    0.3883705  59.11  0.001487644    1.461    0.316
        94 -13.5838    188.4489     84.0790   2.3558799134e+01   2.6488994054e+01    0.7589647     0.410846  44.17   0.00234914    2.108    0.526
        95 -13.3396    187.1113     79.1431   2.2538496740e+01   2.7641692037e+01    0.4057328    0.2888088  38.11  0.001879489    1.687    0.407
        96 -12.7387    237.1413     79.9264   1.5369599005e+01   1.6562065111e+01    0.3872908    0.2487905  89.22  0.001986827    1.949    0.487
        97 -13.2577    164.3537     71.1988   2.4623568309e+01   3.4386944070e+01     1.030909    0.4396031  51.91  0.003951883    2.245    0.555
        98 -13.7225    160.8310     80.7776   2.7990038134e+01   3.3599211183e+01     1.089659    0.6043133  32.25  0.004065284    2.671    0.626
        99 -14.3349    169.2652     76.7301   2.5178386230e+01   3.2280536254e+01     1.557789    0.5244657  54.13  0.004689565    2.849    0.649
       100 -12.8965     51.7849     67.5107   5.6745733186e+01   5.8135673373e+01     1.003683    0.5322573 -59.09  0.004320311    2.554    0.608
       101 -12.9349     61.9504     58.1559   4.9535895038e+01   5.8447197547e+01    0.9126355     0.463003 -22.10   0.00365361    2.759    0.638
       102 -13.1154     65.5746     49.0731   4.4814352195e+01   5.9425165239e+01    0.7488884    0.6084927 -48.92  0.004248138    1.553    0.356
       103 -13.5135     92.2264     58.0906   3.8737111633e+01   5.3045091026e+01    0.5352128    0.4989246 -11.21  0.002342068    1.098    0.089
       104 -13.7172     73.8748     73.9209   5.0387732960e+01   5.3548703056e+01     1.462997    0.7095198  16.97  0.004712068    4.035    0.752
       105 -12.8941     87.4638     65.0943   4.2714658327e+01   5.2773738860e+01    0.4818369    0.3617049   6.24 0.0009700448    1.482    0.325
       106 -12.9306     54.8284     81.2722   5.9763000889e+01   5.4881301441e+01    0.6291993    0.4243236 -34.57  0.002517608    1.387    0.279
       107 -13.8060     61.2241     75.6968   5.5644691137e+01   5.5167271831e+01    0.7738026    0.4815727 -35.76  0.002543723    1.528    0.345
       108 -14.5730    105.2885    122.5225   5.3897085538e+01   3.7170053975e+01     1.600109    0.9716502  39.83  0.006768255    1.672    0.402
       109 -13.6317    214.8691     78.9144   1.8110910841e+01   2.1390828657e+01    0.9247003    0.6044711  77.84  0.004611545    1.762    0.432
       110 -11.2358     41.7666     75.4922   6.3224005014e+01   5.7714465423e+01    0.2837893    0.2213614 -70.36  0.001198898    1.636    0.389
       111 -12.4860    135.7928     79.2839   3.3281336461e+01   3.9804055329e+01    0.7405599    0.3406408  52.81  0.002496723    2.164    0.538
       112 -13.8638    171.1170    241.7650   6.0924373152e+01  -7.1567086286e-01    0.9841142    0.7053363  20.79  0.005481711    1.256    0.204
       113 -13.7855      4.8416     63.5158   7.5666126672e+01   6.3277420834e+01    0.5793743    0.4367737   7.97  0.003556434    1.477    0.323
       114 -11.5199     27.2805     75.8166   6.9216760217e+01   5.9083153975e+01    0.3713541    0.2477565 -79.62  0.001890098    2.162    0.538
       115 -13.5126    199.0404     70.0034   1.8319915710e+01   2.6363719963e+01    0.7936469    0.4821402  44.94   0.00264562    1.940    0.485
       116 -11.1371     42.5258     79.4794   6.4046804683e+01   5.6771769791e+01    0.3026469    0.1958249 -63.45  0.001520658    1.770    0.435
       117 -10.9737     45.3019     68.2171   5.9604459606e+01   5.8815851468e+01    0.3388503    0.2936166  80.90  0.001974449    1.742    0.426
       118 -11.9889     39.0293     67.7444   6.2057243899e+01   5.9636091270e+01    0.6118037    0.3038245  20.70  0.002876138    2.187    0.543
       119 -12.3145    135.2181     66.1537   2.9458323875e+01   4.2211445919e+01    0.5293592    0.3898163  32.27  0.002049752    1.483    0.326
       120 -11.9527    158.5432     64.5685   2.3913137937e+01   3.6862157726e+01    0.4874424    0.2524728 -46.05  0.002041529    2.040    0.510
       121 -11.3136     99.9144     65.2315   3.8763396314e+01   5.0267172305e+01    0.2165024    0.2020782  58.92 0.0009435099    1.216    0.177
       122 -12.8459     79.0026     60.1868   4.3922085495e+01   5.5216276187e+01    0.6624119    0.4639824 -47.58  0.003387145    1.637    0.389
       123 -10.5701     74.1615     54.1294   4.3486493958e+01   5.7118089021e+01     0.188031    0.1664307  -5.62  0.001115055    1.054    0.051
       124 -11.9836    114.2090     79.7842   3.9202957546e+01   4.4586509426e+01    0.4180396    0.3508653 -42.67  0.001042653    1.238    0.192
       125 -12.2947     35.0194     59.8897   6.1311349525e+01   6.1643921939e+01     1.055258    0.1680335 -45.77  0.003238843    4.556    0.781
       126 -13.3615    177.9763     57.6867   1.8515605510e+01   3.3211779086e+01     0.694795    0.5578232 -58.83  0.002112338    1.244    0.196
       127 -11.8158     24.7544     59.2167   6.5633791948e+01   6.2772686808e+01    0.3686701    0.2210191 -44.11  0.001989435    1.394    0.283
       128 -14.3526    119.6445     54.6782   2.9673058216e+01   4.7654551880e+01      1.08911    0.5322959  44.51  0.001966758    1.935    0.483
       129 -13.3032    103.4067     50.5436   3.2691555892e+01   5.1898337045e+01    0.7497109    0.4071217 -47.07  0.002307463    2.285    0.562
       130 -13.1294     97.9724     49.9792   3.4092535423e+01   5.3142312780e+01    0.5463008     0.375752 -30.77  0.001723047    1.530    0.346
       131 -11.6075    248.2024     54.6891   8.8929031272e+00   1.8113167718e+01    0.3911865    0.1243167 -52.31  0.001541269    3.085    0.676
       132 -12.5824     56.9205     65.6712   5.4094569676e+01   5.7790122294e+01    0.5342847    0.3425083  28.08  0.002039988    1.570    0.363
       133 -11.3570     17.6695     55.3880   6.7689940522e+01   6.4117709279e+01    0.3048605       0.1687 -53.97  0.001663336    1.651    0.394
       134 -12.2262    136.1085     50.6308   2.4457851691e+01   4.4379341759e+01    0.4440301    0.4018206  24.60  0.001730775    1.170    0.145
       135 -10.5237     23.5300     49.9625   6.3248486979e+01   6.4680632533e+01     0.177824    0.1046442 -45.34  0.000410184    1.479    0.324
       136 -12.4788    153.0972     46.3234   1.9716929692e+01   4.0863797650e+01    0.5431187    0.2154265  52.05   0.00160223    2.294    0.564
       137 -12.5078    158.8043     43.0737   1.7756252830e+01   3.9905032407e+01    0.5201224      0.37303  62.89  0.001995532    1.271    0.213
       138 -11.9412     38.7959     59.9493   5.9694894724e+01   6.1218565157e+01     0.268026    0.2430011 -80.76  0.001678115    1.597    0.374
       139 -13.2321      6.0665     42.9563   6.9429409520e+01   6.7320695429e+01    0.8087014    0.3777131  16.19   0.00441794    2.250    0.555
       140 -12.2058     59.5088    246.5054   8.5151674134e+01   1.5110444332e+01    0.3385238    0.2010798  24.60  0.001804944    2.104    0.525
       141 -12.2892      3.0147     34.2827   6.8153561223e+01   6.9102322424e+01    0.2645293    0.1741553 -37.17 0.0007921275    1.169    0.144
       142 -12.4131    147.6842    238.8945   6.5474086111e+01   3.4762979210e+00    0.2733931    0.2451961  87.16  0.001067907    1.433    0.302
       143 -12.6027     23.5660    216.2488   9.0166029999e+01   2.5723722567e+01    0.7685567     0.340208  52.32  0.003893329    2.004    0.501
       144 -13.2384    205.4377     40.2521   1.0345230128e+01   2.9179444929e+01     1.201935    0.5072882  89.15  0.003900701    4.595    0.782
       145 -12.4976    212.7061     42.8670   1.0104869306e+01   2.7197111512e+01    0.4170476    0.2811237  60.40  0.001726612    1.526    0.345
       146 -13.5407    219.6378     41.4771   9.0301396390e+00   2.5850004909e+01    0.5889193    0.3953146  83.32  0.001955522    1.432    0.301
       147 -10.4292     25.4165     44.2207   6.0371729677e+01   6.5563269678e+01    0.1638009    0.1108872 -52.45 0.0009533423    1.659    0.397
       148 -11.6503    135.1256     39.6233   2.1224488379e+01   4.6095427384e+01    0.4467025    0.2456324  67.51  0.001548101    1.893    0.472
       149 -12.0744    109.8556     41.9434   2.7914550546e+01   5.1690588141e+01    0.4610198    0.1924233  54.68  0.001011418    2.244    0.554
       150 -13.7269     26.5715    225.7697   9.0228818650e+01   2.3335721575e+01    0.8226035    0.3713037 -55.53   0.00406216    2.628    0.619
       151 -12.7545    113.7426     37.9712   2.5545087131e+01   5.1326247807e+01    0.3904328    0.3665557  44.87  0.001355719    1.067    0.063
       152 -12.5585    131.3662     33.4989   2.0061390998e+01   4.7745255445e+01     0.456085     0.370164  20.30   0.00134534    1.399    0.285
       153 -12.3059     40.6425     40.3407   5.1821379115e+01   6.4522172224e+01    0.4952953    0.2557138  32.18  0.002559222    1.928    0.481
       154 -12.5984     32.9967     40.2938   5.5319490062e+01   6.5452484077e+01    0.3229203    0.2273487   1.62 0.0006234138    1.308    0.235
       155 -12.5775     75.8694     37.0678   3.6406518556e+01   5.9404972162e+01    0.4674817    0.2614219  32.05  0.001331705    1.724    0.420
       156 -11.7569     71.1475     36.3721   3.7802194290e+01   6.0372932137e+01    0.3028896    0.2016616  43.74  0.001090404    1.474    0.322
       157 -12.7762    242.2617     36.0608   5.7081543774e+00   2.1794135664e+01    0.4986215    0.2870237  80.15  0.001797776    1.718    0.418
       158 -10.8232    104.4921     36.9641   2.7584872440e+01   5.3533263251e+01    0.1981115    0.1350342 -28.51  0.001033712    1.596    0.374
       159 -12.8588     44.6506     33.5445   4.7274976056e+01   6.5053250027e+01     0.750773    0.4144201  31.43  0.004048052    1.717    0.418
       160 -13.7929     20.7216    224.0511   9.1298716444e+01   2.4320820884e+01    0.5934983    0.4994944 -81.30   0.00261729    1.241    0.194
       161 -13.0087    237.9866    230.7112   4.5886822928e+01  -8.6944693814e+00    0.6170771    0.4434185 -60.50  0.003216002    3.108    0.678
       162 -12.4922    139.8078     21.4107   1.4681254500e+01   4.7046702933e+01    0.5845543    0.2364677  58.73  0.001162866    2.027    0.507
       163 -10.3010    113.6136     32.2682   2.3606995368e+01   5.2051543455e+01     0.134382    0.1038534 -88.52 0.0006987907    1.704    0.413
       164 -13.0410     57.6475    203.4438   8.1372345740e+01   2.4677719389e+01    0.8665984    0.4095371 -88.29  0.003430374    2.911    0.656
       165 -13.5009     65.4741    223.2986   8.1712399137e+01   1.9159842312e+01    0.8899068    0.5997825  40.31  0.005024446    1.374    0.272
       166 -11.3022    194.7805     23.5503   7.6418478372e+00   3.3665353521e+01     0.327514    0.2024778  60.26  0.001509316    1.563    0.360
       167 -13.2021    217.8103     28.8240   6.4530853796e+00   2.7849824292e+01    0.4786189     0.285243 -78.45  0.002599453    1.675    0.403
       168 -14.3523     62.9447    213.7842   8.1275568393e+01   2.1608945958e+01    0.9259204     0.493227  41.86  0.004594003    1.697    0.411
       169 -11.5684     50.8865     20.3538   3.8845028240e+01   6.5911868822e+01    0.4039603    0.2149341  51.28  0.001918125    2.553    0.608
       170 -11.2001     45.7998     20.4276   4.1041527110e+01   6.6694181065e+01    0.2681973     0.170986  12.84 0.0007340214    1.490    0.329
       171 -12.3002     94.3142    218.0310   7.4542160686e+01   1.6152500189e+01    0.2615121    0.2300059  30.35  0.001188013    1.193    0.162
       172 -12.0838     30.7920     25.2299   5.0168458841e+01   6.8085564431e+01    0.3341681    0.1903846  11.86  0.001828398    1.769    0.435
       173 -12.6806     35.3104     23.3876   4.7165605991e+01   6.7781469487e+01     0.276655    0.1917673   1.51  0.000723155    1.264    0.209
       174 -10.9766    181.3205    216.3337   5.4525674303e+01   2.0700305015e+00    0.1446241   0.09979246  -2.18 0.0007049519    1.701    0.412
       175 -12.3574    223.8747     20.8464   4.2019434736e+00   2.7479001249e+01    0.2726475    0.2111885  67.69  0.001069299    1.369    0.270
       176 -11.6006     71.0498     16.5638   2.9623469898e+01   6.2784592125e+01    0.2301777     0.203595  20.55 0.0006918159    1.127    0.113
       177 -11.5046    156.7596    214.9672   5.9669637852e+01   6.4667741223e+00    0.1792714     0.119193 -45.15 0.0008861595    1.623    0.384
       178 -12.9262    219.0058     15.4845   3.4966753772e+00   2.9132519586e+01    0.2918946    0.2064682  72.92  0.001233741    1.336    0.251
       179 -10.8193     85.6495    215.3066   7.6206209234e+01   1.8060714154e+01    0.1473311   0.09315143  63.08  0.000704264    1.708    0.415
       180 -12.4272      4.6482    212.0952   9.3799458334e+01   2.8461783853e+01    0.4826021    0.1972588 -66.27  0.002476393    2.231    0.552
       181 -11.0051    136.6046    210.7914   6.3580854400e+01   1.0771451116e+01    0.1902192    0.1397785 -67.05 0.0009468558    1.673    0.402
       182 -10.9672    150.7784    207.1875   5.9684355103e+01   9.0513954885e+00    0.2356709    0.1612718  -3.73  0.001053662    2.052    0.513
       183 -11.2625    249.1254    224.8947   4.2875509792e+01  -9.3006017470e+00    0.1774988     0.153201  -5.53  0.001247372    1.265    0.209
       184 -13.3883     15.4156    198.8060   9.0626473087e+01   3.0460349410e+01     1.087922     0.279376 -55.81  0.003959218    4.195    0.762
       185 -14.8488     29.9802    169.2118   8.4401465171e+01   3.6143424524e+01     1.965472     1.081592 -41.92  0.009289421    2.261    0.558
       186 -12.9019     22.3506    165.9914   8.6032046109e+01   3.7660816256e+01    0.3960533    0.2623872   8.82 0.0004037002    2.072    0.517
       187 -13.8868     22.2191    180.7160   8.7529457433e+01   3.4082081860e+01     1.007954    0.3598197 -59.91  0.004345954    2.463    0.594
       188 -15.1875      8.4746    183.1546   9.0997759756e+01   3.4718798266e+01     1.274671     1.050656 -78.50  0.008600371    1.130    0.115
       189 -15.3356     15.4331    175.0682   8.8662593168e+01   3.6057850925e+01     2.235936    0.9700105  60.51  0.009860076    2.608    0.617
       190 -13.9785     40.0506    195.6800   8.4711542258e+01   2.8643707461e+01    0.7903014    0.4311654  54.77  0.003958471    1.785    0.440
