#   1 NUMBER                 Running object number                                     
#   2 MAG_AUTO               Kron-like elliptical aperture magnitude                    [mag]
#   3 X_IMAGE                Object position along x                                    [pixel]
#   4 Y_IMAGE                Object position along y                                    [pixel]
#   5 X_WORLD                Barycenter position along world x axis                     [deg]
#   6 Y_WORLD                Barycenter position along world y axis                     [deg]
#   7 A_WORLD                Profile RMS along major axis (world units)                 [deg]
#   8 B_WORLD                Profile RMS along minor axis (world units)                 [deg]
#   9 THETA_WORLD            Position angle (CCW/world-x)                               [deg]
#  10 FWHM_WORLD             FWHM assuming a gaussian core                              [deg]
#  11 ELONGATION             A_IMAGE/B_IMAGE                                           
#  12 ELLIPTICITY            1 - B_IMAGE/A_IMAGE                                       
         1 -10.4252    216.7453     29.2125   3.5711979156e+01   2.8012419115e+01    0.5288371    0.4348047  28.66  0.001071457    1.775    0.436
         2 -11.2336    200.4102     42.2268   4.0594563594e+01   3.0054086207e+01     1.014975    0.6531111  -0.91  0.004464203    2.996    0.666
         3 -11.6751    207.8311     37.8055   3.8642591187e+01   2.8930912635e+01    0.8023939    0.7140777  11.50  0.004989489    1.542    0.351
         4 -11.2439    224.9761     20.8900   3.3126498999e+01   2.7210631361e+01    0.6913817    0.5297735 -63.40  0.003036117    1.099    0.090
         5  -9.6099    247.3252      2.2505   2.7775952070e+01   2.4673651987e+01    0.4999479     0.189877  80.25  0.002552866    2.509    0.602
         6  -7.9269    167.0602      2.5010   3.4378549429e+01   4.2364949315e+01    0.1878808    0.1072305  72.90 0.0003520337    1.487    0.327
         7  -9.9909    121.1354    231.7275   9.9789931159e+01   8.9226882077e+00    0.3636966    0.2459519 -79.25  0.001863731    2.072    0.517
         8 -13.8191     20.8330    220.9384   1.2035471433e+02   2.4500422298e+01     1.836503    0.4762577  56.69  0.006646654    4.190    0.761
         9 -14.1133     12.7165    213.8372   1.2155738516e+02   2.6827802039e+01     1.224388    0.6236446 -84.23  0.006850371    1.720    0.419
        10 -14.2857     29.9972    247.8216   1.2024516935e+02   1.8034684056e+01    0.9942912    0.7123711  46.16  0.005942819    1.258    0.205
        11 -13.8563      1.9305    206.3232   1.2331818375e+02   2.9437181931e+01     1.381026    0.3171758 -73.55  0.005581074    3.408    0.707
        12 -14.5062     20.2457    248.2502   1.2207317473e+02   1.8998022344e+01    0.6121538    0.4488262 -69.00  0.004366048    1.562    0.360
        13 -15.9916     12.2512    243.0366   1.2326298073e+02   2.0828170166e+01     2.679893     1.197346 -52.42    0.0133833    3.489    0.713
        14 -15.4399      6.7058    223.9420   1.2332441039e+02   2.5232859498e+01     3.545167          nan  44.80  0.008771358    6.010    0.834
        15  -9.2908    130.8280    234.1276   9.7991974481e+01   6.9511716532e+00    0.2105448    0.1700795  55.07   0.00124188    1.291    0.226
        16  -9.3578     84.3373    231.5242   1.0784249705e+02   1.4466313438e+01    0.3831198    0.2578979 -76.29  0.002151369    1.641    0.391
        17  -7.4355    198.4201    232.2152   8.3417682806e+01  -3.2047091274e+00    0.1541982    0.1216539 -44.36 0.0004906179    1.597    0.374
        18  -9.2206    217.5600    225.3982   7.8488703292e+01  -4.9255847820e+00    0.2379365    0.1952449  -1.51 0.0002862705    1.054    0.051
        19  -8.5116     60.8098    225.7493   1.1235443775e+02   1.8861677990e+01    0.2246623    0.1804955 -31.39  0.001104422    1.794    0.443
        20  -8.2438    185.9189    225.4378   8.4818095724e+01  -2.1486630904e-01    0.1994019    0.1161199  32.79 0.0003000051    1.546    0.353
        21  -9.9033    112.6564    224.0784   1.0065026596e+02   1.1762887944e+01    0.4491064    0.2137444  33.65 0.0009613424    1.949    0.487
        22  -8.8892    187.1441    220.7519   8.3758744602e+01   3.8512702577e-01    0.2336679    0.1813859 -22.74 0.0003402466    1.275    0.216
        23  -8.1377    136.3518    220.6370   9.4803632518e+01   8.6570756401e+00    0.2698987     0.157932  16.04  0.001154498    2.334    0.571
        24  -9.2606     51.5657    219.1032   1.1374313550e+02   2.1457877362e+01    0.2750576    0.2382534 -45.95  0.001773479    1.483    0.326
        25  -8.3978     82.9557    218.3059   1.0665796968e+02   1.7446790170e+01    0.2033457    0.1765241 -84.10 0.0004595685    1.174    0.148
        26  -8.3819     56.0127    216.9492   1.1256595234e+02   2.1377936990e+01    0.2058458    0.1602745  48.22  0.001258901    1.178    0.151
        27  -9.4532    154.7277    211.1893   8.9131132501e+01   7.4498044377e+00    0.3592595    0.2731305 -44.35   0.00074097    1.421    0.296
        28  -8.9759     75.2612    212.6812   1.0776463895e+02   1.9770426092e+01    0.4787653    0.2627631  18.31  0.001869651    2.730    0.634
        29  -7.8461     54.3462    211.9849   1.1245675073e+02   2.2689926638e+01    0.1813034    0.1492002  81.04 0.0005665818    1.088    0.081
        30  -8.8998    189.0554    210.1420   8.1471813850e+01   1.9212482864e+00    0.2086883    0.1946488 -30.00 0.0002828346    1.255    0.203
        31  -7.4894    101.4899    211.4058   1.0149232717e+02   1.6175033221e+01    0.1395484     0.122121  53.30 0.0001302986    1.051    0.048
        32  -7.6611     95.5007    211.5366   1.0291442196e+02   1.7068139736e+01    0.1343794    0.1268914  42.33 0.0004408705    1.095    0.087
        33  -8.9326     62.6800    208.7575   1.1022752861e+02   2.2353467298e+01    0.3189851    0.1558776 -77.82  0.001143284    2.269    0.559
        34  -9.8560    118.6116    208.0961   9.6977517070e+01   1.4150163512e+01    0.4138717     0.275755 -38.97  0.001559642    1.762    0.432
        35  -7.7957    128.5060    206.6595   9.4420074037e+01   1.2810618083e+01    0.2423896       0.1246  36.00 0.0008462546    1.799    0.444
        36  -7.2840    107.0000    206.0087   9.9421134521e+01   1.6488981433e+01    0.2122304   0.08054189 -57.93 0.0004449444    2.817    0.645
        37  -8.0677     73.8127    204.1149   1.0709091330e+02   2.1908524125e+01    0.2102911    0.1665512  70.81 0.0003712362    1.214    0.176
        38  -7.9805    115.7840    203.2503   9.6902510938e+01   1.5667755306e+01    0.1812299    0.1620781 -11.26 0.0003153189    1.280    0.219
        39  -8.2059    193.0000    196.9895   7.8179812425e+01   3.6354030176e+00    0.2003864    0.1587691 -56.36  0.001063002    1.650    0.394
        40  -8.9439    109.0060    198.1069   9.7742056679e+01   1.7928419702e+01    0.2135192    0.2022551 -77.32 0.0002753764    1.098    0.090
        41  -9.2112     88.9142    197.5988   1.0259109336e+02   2.1217100781e+01    0.3738004    0.2426319  22.78 0.0008580425    1.816    0.449
        42  -8.3751     79.0005    198.0744   1.0508084589e+02   2.2571600153e+01    0.2087944    0.1864401  58.70            0    1.042    0.040
        43  -7.9870     97.9765    196.0267   1.0013339563e+02   2.0179061677e+01    0.2069809    0.1979911  50.08   0.00121207    1.052    0.050
        44  -9.2379     75.6117    187.8638   1.0455039049e+02   2.5480374889e+01    0.5545544    0.2345723 -51.34  0.002010673    2.477    0.596
        45  -9.6776     80.5303    187.3649   1.0323460408e+02   2.4888461863e+01    0.2732134    0.2481731  45.29 0.0003124927    1.108    0.097
        46 -10.5851     67.3634    190.2441   1.0693550964e+02   2.6054473088e+01    0.3716392    0.2756198  21.03 0.0007975603    1.606    0.377
        47  -8.4772     17.3317    189.6634   1.1888857600e+02   3.1865053646e+01    0.3077761    0.1712669  60.05   0.00166193    1.692    0.409
        48  -9.2052     18.6742    184.6574   1.1817714470e+02   3.2922849347e+01     0.356024     0.187287  83.55 0.0009912952    1.852    0.460
        49  -6.9627     90.5435    189.4585   1.0100627207e+02   2.2878883485e+01    0.1441164      0.13144  68.21 5.594799e-05    1.044    0.042
        50  -7.3342     25.6758    187.7037   1.1679391445e+02   3.1535419137e+01    0.1212913   0.09107453 -46.03 0.0002795412    1.624    0.384
        51 -15.5327      3.0513    239.3228   1.2475525340e+02   2.2445689191e+01     1.361752    0.3561509 -77.58  0.006150203    3.359    0.702
        52  -8.1095     78.1932    182.4273   1.0312055763e+02   2.6426675570e+01    0.2411528     0.188943 -70.38 0.0002970492    1.251    0.201
        53  -9.9508     11.0584    181.6515   1.1971506960e+02   3.4303740749e+01    0.4360919    0.2342782  50.57  0.002374441    1.780    0.438
        54  -9.2307      2.5772    181.4884   1.2165198497e+02   3.5025013785e+01    0.3747797    0.1804493 -52.25  0.001900964    2.332    0.571
        55 -10.3215     61.0102    179.2718   1.0712533580e+02   2.9570173449e+01    0.4886588    0.3794743 -60.80  0.001974233    1.266    0.210
        56  -9.6951     66.3673    173.5435   1.0493374948e+02   3.0282894358e+01    0.3273757    0.2555819 -47.92 0.0008175838    1.371    0.270
        57  -9.3742     42.1954    179.9167   1.1200462017e+02   3.1683891597e+01    0.4738212    0.1979773  36.92  0.001606159    2.303    0.566
        58  -7.4006    147.3472    179.7184   8.5084389173e+01   1.5303449895e+01    0.1507463    0.1186384  68.52 0.0007013867    1.643    0.391
        59  -7.6582    109.5264    179.4601   9.4522525968e+01   2.2170186503e+01    0.1508478    0.1391735  66.24 0.0008070379    1.093    0.085
        60 -10.7692    101.0498    176.0359   9.6131807450e+01   2.4420403347e+01    0.2419886     0.209186  70.47            0    1.209    0.173
        61  -8.8031     22.9563    177.4680   1.1652724958e+02   3.4252440898e+01    0.1968334    0.1470324 -84.15  0.000330969    1.137    0.120
        62  -7.1437     76.5031    176.4704   1.0267952792e+02   2.8135913929e+01    0.1416216    0.1348118 -52.38 -7.395837e-05    1.136    0.120
        63  -8.7200      1.9802    173.4038   1.2122522401e+02   3.6975464297e+01    0.3907357    0.1709781 -74.73  0.001958397    1.842    0.457
        64  -9.3912    175.3414    172.4914   7.7069785355e+01   1.1568408245e+01    0.3157424    0.2831329  16.18  0.000725786    1.079    0.073
        65  -9.0082     47.0813    172.6929   1.0990788554e+02   3.2914436512e+01    0.4999802    0.2559785  87.91  0.002058831    2.473    0.596
        66  -8.2120     43.5080    168.9963   1.1039253229e+02   3.4244110624e+01     0.191812    0.1564944 -78.46 0.0001343432    1.092    0.084
        67  -7.5804    117.5060    173.4500   9.1360705907e+01   2.2206717208e+01    0.1494953    0.1464588  37.86 4.823572e-05    1.011    0.011
        68  -9.4374     17.3320    171.3242   1.1735079600e+02   3.6250252029e+01    0.3908116    0.2235771  82.11  0.001949756    1.692    0.409
        69  -7.7541    137.4349    172.2433   8.6035788806e+01   1.8832581295e+01    0.1981476    0.1497818 -63.04 0.0004502928    1.505    0.336
        70  -7.0562    124.3148    172.7151   8.9460637554e+01   2.1153295746e+01    0.1525657    0.1185844  70.27 0.0003883342    1.581    0.368
        71  -8.2546     37.5289    169.6971   1.1204493042e+02   3.4717730945e+01     0.401953    0.1365569 -65.08  0.001587189    2.473    0.596
        72  -9.5929     24.0811    169.9307   1.1552812885e+02   3.5988901553e+01    0.4243197     0.282374  -9.13  0.002195709    2.355    0.575
        73  -9.1919     19.7615    163.1738   1.1596310616e+02   3.8041754292e+01     0.347769    0.2153581  31.40  0.001605875    1.789    0.441
        74  -9.1085     11.2989    161.7659   1.1800326060e+02   3.9081169547e+01     0.385474    0.1710725 -38.70  0.001596933    3.390    0.705
        75  -9.5162      6.8581    170.0399   1.1980752152e+02   3.7413400128e+01    0.2635557    0.2006225  64.94 0.0003167572    1.240    0.194
        76  -8.5787     10.8715    167.9159   1.1865061472e+02   3.7614133923e+01     0.206029    0.1642342  67.76 0.0002690706    1.188    0.158
        77  -9.4032      3.9703    166.0014   1.2019139589e+02   3.8601059258e+01    0.3909339     0.301512 -41.77  0.001384438    1.577    0.366
        78  -7.7064     75.2392    170.0461   1.0203093177e+02   2.9918676279e+01    0.1944706    0.1785125 -77.57 0.0003304632    1.038    0.036
        79  -6.9268     99.3055    166.6668   9.4928044113e+01   2.7004364359e+01    0.1567306     0.115658  74.06 0.0005771315    1.664    0.399
        80  -9.2188     91.1727    164.7164   9.6792457812e+01   2.8823735238e+01    0.4425044    0.3576532   3.20  0.001720083    1.545    0.353
        81  -8.7773     24.8550    165.6879   1.1490019737e+02   3.6965615782e+01    0.2784496    0.1842891 -81.67 0.0007544274    1.319    0.242
        82  -7.3761    124.4342    164.5757   8.7815996291e+01   2.3054756639e+01    0.1517354    0.1482484  61.17 0.0002576631    1.044    0.042
        83  -7.3362    106.9681    164.0129   9.2355514063e+01   2.6346822541e+01    0.1774744     0.174778  87.80 0.0003102539    1.002    0.002
        84  -8.6479     76.3850    164.0173   1.0074864532e+02   3.1269968531e+01     0.253224    0.2159738  35.59 0.0003794626    1.227    0.185
        85  -7.5660     53.3885    162.8505   1.0692075690e+02   3.4644589786e+01    0.3795252    0.1190677  44.48  0.001301254    3.337    0.700
        86  -8.0702     57.5434    163.4664   1.0586648885e+02   3.3974409563e+01    0.2497205    0.1978986 -62.15 -2.19376e-05    1.188    0.158
        87  -7.1204     44.2687    163.3069   1.0947243762e+02   3.5590904776e+01    0.1347363   0.09674291 -44.65  0.000150142    1.537    0.349
        88  -7.6419     28.5035    162.5101   1.1360448029e+02   3.7416405838e+01    0.1339636    0.1137023 -85.90 0.0008105826    1.009    0.009
        89  -9.8680     82.6904    158.0935   9.7968250868e+01   3.1825066116e+01    0.4825051     0.391022   1.13  0.001506662    1.544    0.352
        90  -8.6299     86.9992    154.5019   9.6087818951e+01   3.2061919877e+01    0.3524725    0.2393787  60.43  0.001576726    1.735    0.424
        91  -8.5306     64.0258    159.8721   1.0352399549e+02   3.4049460310e+01    0.2641145    0.2006842  38.22 0.0007035683    1.370    0.270
        92  -8.2744     35.2795    158.6297   1.1132826027e+02   3.7728948174e+01    0.2858984    0.1641474 -40.03  0.000752421    2.137    0.532
        93  -7.7347     23.5561    158.0576   1.1443191182e+02   3.8983234019e+01    0.1861962   0.09475733  78.48 0.0005254195    2.323    0.569
        94  -7.7848    167.0345    157.2298   7.5655382235e+01   1.6403406722e+01    0.2051515    0.1897788  19.65            0    1.072    0.067
        95  -8.3745     52.0130    156.7739   1.0643170787e+02   3.6357870246e+01    0.2547438     0.184564 -34.61 0.0002436598    1.655    0.396
        96  -9.5004      8.6758    154.9592   1.1805803211e+02   4.0950760588e+01    0.2229022    0.1756905  33.90  0.000167589    1.471    0.320
        97  -8.4333     62.1096    136.1503   1.0002230507e+02   4.0394021811e+01    0.3564306    0.2177636 -52.08   0.00115779    1.506    0.336
        98  -8.0672     65.7653    154.1719   1.0211126488e+02   3.5273255373e+01    0.2245684     0.179022 -45.69  0.000329343    1.293    0.227
        99 -10.9748     68.6286    145.2980   9.9733650969e+01   3.7158501116e+01    0.9518586    0.6283307 -87.33  0.003682531    1.879    0.468
       100  -9.3912     15.0473    152.5070   1.1612768374e+02   4.1077603847e+01    0.3740622    0.2411429 -31.56  0.001999126    2.025    0.506
       101  -8.3563    146.2085    152.9324   7.9718123191e+01   2.1546500841e+01    0.2209016    0.2085336 -79.53 0.0003059367    1.174    0.148
       102  -8.5827     80.2736    151.3891   9.7436504729e+01   3.3899706980e+01    0.2871045    0.2112258 -25.41 0.0007741763    1.713    0.416
       103  -7.2985     34.5086    154.5306   1.1102889896e+02   3.8844060236e+01    0.1371115     0.117823 -86.65 0.0008094138    1.045    0.043
       104  -9.2883    111.2243    149.5703   8.8251372979e+01   2.9136792478e+01    0.2752366    0.2586403 -68.16 0.0003136912    1.080    0.074
       105  -8.5419     88.5093    146.9184   9.4181520019e+01   3.3741947957e+01    0.2685278    0.2269523  89.92 0.0003235176    1.299    0.230
       106  -9.5855     85.4479    142.4100   9.4171566278e+01   3.5379975747e+01    0.4559376    0.3914102  52.34  0.001683769    1.224    0.183
       107  -8.8115    243.7362    144.9958   5.7946314281e+01   4.3357850474e+00    0.2326224    0.1359934   7.34 0.0008998882    3.471    0.712
       108  -9.1430     98.3360    142.9429   9.0495980104e+01   3.3091416889e+01    0.4568498    0.2973752 -27.80 0.0008788941    2.021    0.505
       109  -7.5672    118.6947    145.0068   8.5178616110e+01   2.8850436508e+01    0.2172662     0.196275 -51.70 0.0001898515    1.098    0.089
       110  -7.4796     16.7725    142.0241   1.1450600314e+02   4.3566834875e+01    0.1829487    0.1338825 -30.86  0.001040957    1.647    0.393
       111  -7.2921    227.4675    139.4546   5.9439816572e+01   8.1571370626e+00    0.1412476    0.1230495 -28.94 6.889462e-05    1.006    0.006
       112  -7.5575     52.7260    138.4791   1.0332387531e+02   4.0972548086e+01     0.268117    0.1140765 -62.43  0.001054435    2.088    0.521
       113  -9.0849     12.2223    137.7337   1.1531784151e+02   4.4976799846e+01    0.2632428    0.2228757  66.56   0.00127122    1.246    0.197
       114  -7.6822     13.7034    134.6925   1.1453357029e+02   4.5633489630e+01    0.1921027    0.1063593 -81.36 0.0005853436    1.643    0.392
       115  -8.2936      2.5057    138.9904   1.1820306193e+02   4.5301154826e+01    0.1853209   0.08661146  78.02 0.0008098046    2.492    0.599
       116  -8.8152     82.7351    137.5209   9.3976510968e+01   3.7053904841e+01    0.3965731      0.26602 -87.07  0.001504794    2.072    0.517
       117  -7.4665      5.6077    137.7176   1.1720426894e+02   4.5423203264e+01    0.1320072   0.07948078 -43.92 0.0007000627    1.753    0.429
       118  -8.3873     28.8042    133.9826   1.0992215118e+02   4.4610201841e+01    0.2265294    0.1863237  47.60 0.0005460039    1.348    0.258
       119  -8.3878      9.9584    132.2195   1.1534462267e+02   4.6508794752e+01    0.2453655    0.1632394 -80.48 0.0009312702    1.296    0.229
       120  -7.9301     72.4927    132.0165   9.5981775604e+01   4.0012385899e+01    0.2278292    0.1412896 -60.16 0.0005916532    1.531    0.347
       121  -7.7935    109.1808    131.8753   8.4835968589e+01   3.3862843453e+01    0.2161222    0.1847469 -17.51  0.000425899    1.295    0.228
       122  -7.8580    245.6918    130.6595   5.4606893639e+01   6.4558632939e+00    0.1354254    0.0977832  -9.54 0.0002392274    1.687    0.407
       123  -7.5658     20.3804    126.8073   1.1149808147e+02   4.7123652006e+01     0.191052    0.1004358 -60.57 0.0005560465    1.547    0.353
       124  -8.7139     66.2262    125.0603   9.6517231627e+01   4.2673743685e+01    0.2145792    0.2114209  -9.72 0.0003764269    1.085    0.078
       125  -7.8820     64.3258    120.8849   9.6244349591e+01   4.3991826001e+01    0.2045371    0.1736746 -55.62 0.0004436649    1.084    0.078
       126 -14.4746     14.2222    232.4867   1.2234283733e+02   2.2745693128e+01    0.5446754    0.2661855  43.64  0.003166207    1.728    0.421
       127  -8.7767      6.1629    119.6090   1.1497987358e+02   4.9877497262e+01    0.2420291    0.1501077 -44.14 0.0006291773    1.567    0.362
       128  -9.5636    247.1220    115.4884   5.1159442102e+01   8.7730434924e+00    0.3333578    0.2602885  56.92    0.0019743    1.541    0.351
       129  -7.3537     66.4405    116.4324   9.4560748541e+01   4.4818125976e+01    0.1461593    0.1372675 -63.81 1.078244e-05    1.075    0.070
       130  -8.0713     59.1847    110.4734   9.5656276513e+01   4.7282313420e+01    0.2243553    0.1937809 -86.08 0.0005955409    1.317    0.241
       131  -8.0624     50.6639    110.3034   9.8556880776e+01   4.8379614837e+01    0.2161595     0.198294 -78.02 0.0003500909    1.159    0.137
       132  -9.8941    248.7712    105.8473   4.8872290069e+01   1.0078880774e+01    0.4092095    0.2618023 -36.41  0.002196093    1.351    0.260
       133  -7.9513     69.0212    103.6860   9.0617095370e+01   4.7577972179e+01    0.2086637     0.193071  -2.55  0.001155485    1.110    0.099
       134  -7.6567     58.1990    102.2113   9.4046343799e+01   4.9434958980e+01    0.1853296    0.1664262  84.43 0.0003601087    1.321    0.243
       135  -7.0933     46.6725    107.3005   9.9297901588e+01   4.9581357106e+01    0.1386664    0.1076012  70.91 0.0002633156    1.640    0.390
       136  -7.8185    188.5858     96.3252   5.6180707271e+01   2.4176616142e+01     0.293304    0.1351518 -42.24 0.0007263633    2.046    0.511
       137  -8.3772     99.6413     96.7412   7.8494770552e+01   4.3961829913e+01    0.2540612    0.2100814  33.75 0.0004260724    1.228    0.186
       138  -6.9043     73.3170     96.2891   8.7160352551e+01   4.8678360887e+01    0.1519398    0.1101216 -17.60 0.0001623365    1.594    0.373
       139  -7.2469     68.3138     96.6603   8.9024765147e+01   4.9351903472e+01    0.1451979    0.1174852  80.37 0.0007047078    1.699    0.411
       140  -7.8464     25.7487     93.9815   1.0406910646e+02   5.4835999378e+01    0.1931316    0.1458904 -56.91 0.0003620718    1.124    0.111
       141  -8.3288     93.2236     92.2782   7.9252325331e+01   4.6169957378e+01    0.2494797    0.1956348 -31.88 0.0004817795    1.261    0.207
       142  -8.6866     43.0580     92.7978   9.7290372451e+01   5.3496639433e+01    0.2385073    0.2059849 -78.67 0.0003179281    1.330    0.248
       143  -7.5515     75.7623     88.4142   8.4058589698e+01   5.0083631150e+01    0.1872038    0.1400273  16.39 0.0002902743    1.452    0.311
       144  -7.5685     38.6441     82.9128   9.6517959572e+01   5.6268773111e+01    0.1836457    0.1516914 -48.32 0.0003342721    1.095    0.087
       145  -7.9045     81.3824     77.5156   7.8720281307e+01   5.1475962449e+01    0.3026385    0.1960808   2.90  0.001268964    2.198    0.545
       146  -6.8851     11.3186     75.3058   1.0577649772e+02   6.0202103237e+01    0.1369606   0.07353248 -37.88 0.0005189028    1.632    0.387
       147  -7.4706     46.9441     73.9610   9.0696360500e+01   5.7349712939e+01    0.1641879     0.138805 -31.11 0.0009543051    1.022    0.022
       148  -7.7461     17.8426     73.8445   1.0273304508e+02   6.0115741251e+01    0.1517485    0.1460813 -81.57  0.001023458    1.282    0.220
       149  -7.7589     23.0262     69.5213   9.9451915651e+01   6.0694851573e+01    0.1697248    0.1235127   8.49 0.0003335001    1.486    0.327
       150  -7.1437     88.4254     60.4297   7.0501742406e+01   5.3456884005e+01    0.1429094    0.1314733   5.84 0.0001574822    1.025    0.024
       151  -8.9731    237.8667    244.5214   7.7986201479e+01  -1.0306730658e+01     0.204768    0.1474693 -42.00  0.001218383    1.943    0.485
       152  -9.2096     95.9778    241.9739   1.0648625383e+02   1.0724399301e+01    0.2103279    0.1552908  57.68  0.001259269    1.265    0.209
       153  -9.0573     97.4878    238.4806   1.0577496516e+02   1.1182079445e+01    0.2275126    0.1229265 -56.92 0.0007973168    2.083    0.520
       154  -7.3241    155.2744     41.3297   4.7117984185e+01   4.1046489869e+01    0.1388439    0.1054072  28.26 0.0003553929    1.591    0.372
       155  -7.6196     60.7815     40.1585   7.2992650226e+01   6.1807225686e+01    0.1817748    0.1352949   5.36 0.0003419765    1.283    0.221
       156  -7.2848     18.6598     40.2559   9.2465938237e+01   6.7020992736e+01    0.1041189   0.09426689  39.05 0.0001545549    1.579    0.367
       157  -8.5329    123.9047     35.0349   5.1431372988e+01   4.9470458656e+01    0.2150095    0.1937457 -58.65 0.0003604198    1.262    0.208
       158  -7.8100     23.3048     31.0414   8.6519580722e+01   6.8241057589e+01    0.1721649    0.1298699 -23.42 0.0004737513    1.075    0.070
       159  -7.5720    102.6722    239.3020   1.0475722407e+02   1.0261653274e+01    0.1345631   0.08664899  59.86 0.0007032203    1.644    0.392
       160 -10.2096    115.7286    236.8195   1.0163705224e+02   8.7778364748e+00    0.5160943    0.2868999  12.72  0.002046685    3.338    0.700
