#   1 NUMBER                 Running object number                                     
#   2 MAG_AUTO               Kron-like elliptical aperture magnitude                    [mag]
#   3 X_IMAGE                Object position along x                                    [pixel]
#   4 Y_IMAGE                Object position along y                                    [pixel]
#   5 X_WORLD                Barycenter position along world x axis                     [deg]
#   6 Y_WORLD                Barycenter position along world y axis                     [deg]
#   7 A_WORLD                Profile RMS along major axis (world units)                 [deg]
#   8 B_WORLD                Profile RMS along minor axis (world units)                 [deg]
#   9 THETA_WORLD            Position angle (CCW/world-x)                               [deg]
#  10 FWHM_WORLD             FWHM assuming a gaussian core                              [deg]
#  11 ELONGATION             A_IMAGE/B_IMAGE                                           
#  12 ELLIPTICITY            1 - B_IMAGE/A_IMAGE                                       
         1 -13.8123     23.9450     28.7530   8.2767768842e+01   6.8559984426e+01     1.895743     0.769061 -28.88  0.008472645    2.682    0.627
         2 -13.4299      5.7299     38.3105   9.6075171420e+01   6.8420223414e+01    0.8765315    0.6674047 -31.47  0.004243301    1.030    0.029
         3 -13.1797    216.5649     38.2615   3.6401315333e+01   2.7424383903e+01     1.097408    0.7602926  89.26  0.006509145    1.378    0.275
         4 -12.4479     77.8210     37.0770   6.3114519400e+01   5.9126198354e+01     1.272918    0.4871481 -38.48  0.005194401    2.812    0.644
         5 -12.9577    234.5405     31.1122   3.3191451914e+01   2.4587300523e+01    0.7393422    0.5917283 -86.60  0.003060511    1.147    0.128
         6 -12.7262     41.7419     21.9511   7.0966297663e+01   6.7316630083e+01     0.827243    0.3845392 -37.52   0.00418026    2.239    0.553
         7 -11.8181     57.9677     22.5904   6.4339360287e+01   6.4649216652e+01    0.6899369     0.364666   8.92  0.002954537    2.960    0.662
         8 -13.6312    119.7287      8.7088   4.1665693936e+01   5.3127427553e+01     1.404194     1.243959  58.19  0.009297494    1.043    0.041
         9 -12.3789    178.9947     12.6018   3.4386669591e+01   3.8830260051e+01    0.5920448    0.3293617 -53.29  0.003158925    1.802    0.445
        10 -12.2389    184.5538      7.6068   3.2587859559e+01   3.8048134606e+01    0.7562047    0.3063598 -36.92  0.003678154    2.404    0.584
        11 -13.3599    140.3687     11.3996   3.9058023417e+01   4.8040718035e+01    0.8427318    0.5129861  78.57  0.004349607    1.588    0.370
        12 -13.2341    141.3673      4.8642   3.6959295590e+01   4.8375922963e+01    0.9097246    0.4522097  78.76  0.004377799    1.986    0.496
        13 -11.7077    194.4982     10.5078   3.2314276278e+01   3.5511106958e+01    0.4224246    0.2608125  25.89  0.002052975    3.158    0.683
        14 -12.8015    168.3279     10.6020   3.5083675065e+01   4.1509490811e+01    0.6866269    0.3631465 -63.99  0.003364165    2.161    0.537
        15 -12.3521    198.6273     20.1947   3.4151457631e+01   3.3549637376e+01    0.6958953    0.3321475  61.15  0.003514837    1.995    0.499
        16 -10.0611      2.4824      2.4757   8.2814533691e+01   7.4525263076e+01    0.1122669   0.08023077  -9.82 0.0004520464    1.001    0.001
        17 -10.7687    203.0396      6.8055   3.0719285689e+01   3.3994455778e+01    0.2067477     0.161774 -53.23 0.0009770475    1.236    0.191
        18 -11.6703    175.2090      3.6448   3.2556996140e+01   4.0561976150e+01    0.3502062    0.2468078 -32.46  0.002169541    1.609    0.378
        19  -9.0433    132.7484    159.3638   8.2123803083e+01   2.2844629504e+01    0.1545656    0.1235127 -87.11 0.0006652053    1.620    0.383
        20 -11.9924     85.7703    249.0961   1.0723238187e+02   1.0512754036e+01    0.3592933    0.2884303  26.50  0.002027013    1.318    0.241
        21  -9.5136     61.3135    250.3027   1.1240121423e+02   1.3499482870e+01    0.1070811    0.0948185 -16.12 0.0004305319    1.614    0.381
        22 -14.9292    104.5322    228.1767   1.0073988149e+02   1.2016480051e+01     2.712221    0.9855466  35.22  0.009995259    2.443    0.591
        23 -14.4425     50.5151    210.3933   1.1113658862e+02   2.3377944127e+01     4.665961     1.834193  76.18   0.01210147    7.251    0.862
        24 -11.8153     72.1243    155.9492   9.8271077345e+01   3.4018746836e+01    0.5884718    0.4610729 -47.74   0.00301127    1.277    0.217
        25 -13.0109     39.5596    147.0446   1.0642915894e+02   4.0356634394e+01     0.721216    0.6094429  46.03  0.004171605    1.274    0.215
        26 -12.0899     67.8888    143.5237   9.7293220559e+01   3.7826124092e+01    0.7416453    0.4460722  60.36  0.002657135    2.177    0.541
        27 -10.9292     88.7879    143.5782   9.1011656119e+01   3.4644277594e+01    0.4183595    0.2409234 -50.57  0.001132174    1.656    0.396
        28 -11.0285     92.3182    140.0434   8.9215017677e+01   3.4954513061e+01    0.3419073    0.2700542  39.63  0.001206873    1.307    0.235
        29 -11.4937     76.2518    141.7147   9.4402145506e+01   3.7085388551e+01    0.3368419    0.2668537 -52.32 0.0003238235    1.195    0.163
        30 -12.7613     89.8646    128.1257   8.7299916084e+01   3.8363430024e+01     1.066395    0.6408391 -78.88 0.0004752913    2.771    0.639
        31 -13.3662     85.0210    122.9044   8.7595123351e+01   4.0473328086e+01    0.9101174    0.7212133 -56.30  0.004463242    1.227    0.185
        32 -11.1937     26.5471    128.4902   1.0768315442e+02   4.6365583979e+01    0.3521172    0.2432074  -5.75  0.001702349    1.847    0.459
        33 -11.7835    243.5005    131.4017   5.3148105871e+01   7.4061632341e+00    0.2531014    0.2131481 -70.57  0.001536883    1.431    0.301
        34 -13.4970     28.9868    113.5838   1.0442165158e+02   4.9931783159e+01     1.103269     1.029041 -66.72  0.006910604    1.094    0.086
        35 -10.5404     32.3420     92.0200   9.8832521384e+01   5.4906471091e+01    0.4847729    0.3024406 -30.03  0.002451889    1.642    0.391
        36 -11.5117     25.7310    104.6048   1.0392098540e+02   5.2437598438e+01    0.4289364    0.2671384  11.85  0.001643902    1.889    0.471
        37 -12.3121     33.6748    101.7327   1.0045492165e+02   5.2444606653e+01    0.7062917    0.5925205 -84.41  0.003002421    1.338    0.252
        38 -10.1643    102.9416    119.9270   8.1314079408e+01   3.8036826246e+01    0.2334813    0.2279792 -22.95 0.0004496272    1.015    0.015
        39 -11.7123     76.5219    109.0056   8.6970731881e+01   4.5252747297e+01    0.4030879    0.2791512 -80.75  0.001731809    2.095    0.523
        40 -10.5037    105.0743    131.1382   8.3417544164e+01   3.4919546883e+01    0.3911951     0.334034   7.84   0.00192416    1.317    0.241
        41 -11.2324     52.2133     90.0977   9.0735261388e+01   5.3185756939e+01    0.4890006    0.3737245 -21.17  0.001759707    1.334    0.250
        42 -11.6070     49.2762     96.1267   9.3386593478e+01   5.2134501568e+01    0.6513197    0.4994563 -81.75  0.003002846    1.653    0.395
        43 -11.8918     49.5731    108.2141   9.6117688533e+01   4.9169946245e+01    0.6578371    0.5077633 -89.46  0.002880924    1.607    0.378
        44 -11.3965     47.5905    102.6283   9.5562429112e+01   5.0769975612e+01    0.4253104    0.3503033  19.48  0.001806505    1.321    0.243
        45 -11.9294     67.6237    103.6771   8.8664984244e+01   4.7889202873e+01    0.7407082    0.5545225   1.08  0.003641921    1.574    0.365
        46 -10.1107     90.3013     98.0027   7.9434750877e+01   4.5485423014e+01    0.2241447    0.1982272 -38.37  0.001171551    1.089    0.082
        47 -10.4366     66.1110     89.3254   8.5344035961e+01   5.1449993215e+01     0.385879    0.2836047  -6.31  0.001904703    1.575    0.365
        48 -11.5594     27.7016     78.9881   9.7562881327e+01   5.8343138990e+01    0.5848978     0.405527  35.64  0.002974248    1.707    0.414
        49 -10.4389     69.1574     80.3306   8.1571191151e+01   5.2954370471e+01    0.2864473    0.1325404  26.31   0.00109252    2.564    0.610
        50 -10.5827      7.1370     76.3773   1.0550697465e+02   6.0386210804e+01    0.2841839    0.2169026 -24.22  0.001391552    1.271    0.213
        51 -11.7728      5.8818     69.9629   1.0465616081e+02   6.1892093212e+01    0.6236008    0.2577441 -39.57  0.002991849    2.037    0.509
        52 -10.0516     26.3489     61.6565   9.3386225751e+01   6.2224822754e+01    0.1810033    0.1578941  70.79  0.001114223    1.679    0.404
        53 -10.3106    248.3573    249.8094   7.4604664946e+01  -1.1890878291e+01    0.2019377   0.07526907  32.28  0.001019916    2.605    0.616
        54 -12.7497      3.3414     50.7836   1.0107968324e+02   6.6110911279e+01    0.9718537     0.282993 -54.47  0.004324538    2.439    0.590
        55 -13.2501     11.4121     50.0347   9.6904046990e+01   6.5774386789e+01     1.142673    0.4195697 -40.96  0.005327925    2.170    0.539
        56 -14.3806     74.3554    227.3159   1.0745050904e+02   1.6523093212e+01     1.845233      1.26428  42.87  0.008358155    1.298    0.230
        57 -10.9461     15.0166    248.4397   1.2131093235e+02   1.9138234080e+01    0.2108399    0.1395662  85.16 0.0004550611    1.308    0.236
        58 -12.6802    209.7431     29.4191   3.5131484283e+01   3.0012522886e+01    0.9768016    0.3835126  79.26  0.004062217    2.940    0.660
        59 -10.7249     94.7471     46.6553   6.1277173887e+01   5.4352309567e+01     0.267495    0.2444098 -24.35  0.001592034    1.165    0.142
        60 -11.4099     37.2104     43.7109   8.2260405108e+01   6.4532820467e+01    0.5531964    0.3213905  20.75  0.002961215    1.716    0.417
        61 -10.4717    132.4912    247.4856   9.7097333937e+01   4.0921021563e+00    0.1297808    0.1106846  30.95 2.550548e-05    1.004    0.004
        62 -10.5791     59.8446    246.2946   1.1236678095e+02   1.4478558044e+01     0.205129    0.1472158  80.93 0.0006166293    1.370    0.270
        63 -15.3285     14.2780    202.7810   1.1870700498e+02   2.9007225335e+01     3.211116     1.150711 -61.81   0.01449562    2.590    0.614
        64 -11.9786     48.7400     24.5308   6.9019645907e+01   6.5914314854e+01    0.5180401    0.2659661  11.51  0.002205379    2.982    0.665
        65 -13.4042      3.0890    132.4561   1.1544633088e+02   4.7041840063e+01     2.016305    0.3763778 -75.39  0.005781624    5.031    0.801
        66 -14.0556      3.9371    185.2151   1.1981595198e+02   3.4007104200e+01     2.482047    0.6930417 -69.14  0.009751818    2.779    0.640
        67 -10.8921     41.5316    232.3840   1.1503982795e+02   1.9566748056e+01    0.3448165     0.252697  86.46  0.001525599    1.255    0.203
        68 -11.9597     25.2102    227.5863   1.1808106083e+02   2.2391817030e+01    0.5189393    0.2973489  65.70  0.001968641    1.550    0.355
        69 -15.0650     13.9941    132.7125   1.1218945843e+02   4.6270891770e+01     3.929665     1.112128 -69.36   0.01457468    2.799    0.643
        70 -10.7702     35.8968    210.7032   1.1449924495e+02   2.4996287722e+01    0.3100619    0.2460043  69.59  0.001226011    1.083    0.077
        71 -10.8999     66.1657    205.9597   1.0697528757e+02   2.2420521239e+01    0.3520239    0.3167823  76.41  0.002115844    1.023    0.022
        72 -11.3199     42.1283    180.2256   1.0999119337e+02   3.1614794526e+01    0.2813916    0.2445365 -46.58 0.0005455994    1.308    0.236
        73 -11.5319     50.1045    173.6848   1.0710317313e+02   3.2340662817e+01    0.2738843    0.2512519 -49.67 0.0004654298    1.199    0.166
        74 -10.4747     63.2460    163.5748   1.0206057561e+02   3.3274608576e+01    0.2494021    0.2217997 -52.18 0.0004033789    1.146    0.127
        75 -12.8811     48.2518    160.0106   1.0576877572e+02   3.6051718405e+01    0.5378136    0.3135763 -36.76  0.001632063    2.180    0.541
