#   1 NUMBER                 Running object number                                     
#   2 MAG_AUTO               Kron-like elliptical aperture magnitude                    [mag]
#   3 X_IMAGE                Object position along x                                    [pixel]
#   4 Y_IMAGE                Object position along y                                    [pixel]
#   5 X_WORLD                Barycenter position along world x axis                     [deg]
#   6 Y_WORLD                Barycenter position along world y axis                     [deg]
#   7 A_WORLD                Profile RMS along major axis (world units)                 [deg]
#   8 B_WORLD                Profile RMS along minor axis (world units)                 [deg]
#   9 THETA_WORLD            Position angle (CCW/world-x)                               [deg]
#  10 FWHM_WORLD             FWHM assuming a gaussian core                              [deg]
#  11 ELONGATION             A_IMAGE/B_IMAGE                                           
#  12 ELLIPTICITY            1 - B_IMAGE/A_IMAGE                                       
         1 -11.5063     20.9632     29.1036   1.2325336419e+02   7.2022169758e+01     1.568343     1.014885  29.06  0.008511893    1.689    0.408
         2 -10.9645     39.9976      3.1472   9.4100165687e+01   7.4633383952e+01    0.6659617    0.4375019  16.82  0.002597765    1.602    0.376
         3 -11.4651     25.7713      5.4960   1.0682477765e+02   7.6404025885e+01    0.6493668    0.5013239  16.88   0.00250694    1.241    0.194
         4 -11.3913      6.3202     17.6187   1.3064802624e+02   7.5502258781e+01     1.123982    0.4562097 -42.96  0.005351217    1.983    0.496
         5 -10.7686     16.7656     10.0876   1.1780495499e+02   7.6479492812e+01    0.4324887    0.2704763 -27.77   0.00040794    1.475    0.322
         6 -11.5084     27.6941     14.6126   1.1110592691e+02   7.4463647704e+01     1.151008    0.6416298   1.96  0.004680275    2.368    0.578
         7 -11.1733     20.2223     14.6352   1.1726159939e+02   7.5240186549e+01    0.7887215    0.4124517 -20.07  0.003651722    2.262    0.558
         8 -10.6086     10.2767     10.2444   1.2395343822e+02   7.6923695142e+01    0.4195533    0.3042382 -39.76 0.0007885754    1.138    0.121
         9 -11.7885      8.9078      3.3625   1.2163931075e+02   7.8441011626e+01    0.9970647    0.3278315  17.40  0.004264677    3.095    0.677
        10 -12.2216     68.8457     11.6591   8.4256585099e+01   6.7644669349e+01    0.3811559    0.2887339  43.13 0.0002892549    1.210    0.173
        11  -9.3296    161.1553     10.3962   6.2350282950e+01   4.3150168074e+01    0.2940128    0.2112643  30.46  0.001046295    1.727    0.421
        12  -8.8672     48.9571     10.0509   9.3315013131e+01   7.1993579832e+01    0.2101163    0.1785085   7.84 0.0004224027    1.058    0.055
        13 -10.3274     80.7179      6.5078   7.6673063413e+01   6.5432726249e+01    0.4352987    0.3402673  77.54  0.001050336    1.458    0.314
        14  -8.8608    144.6041      4.4124   6.2256563526e+01   4.8292394428e+01    0.3240935    0.2182046  29.51  0.001533308    1.818    0.450
        15  -9.5156    158.1255      1.4184   5.9618280263e+01   4.4810258872e+01    0.4388513    0.1306288  76.90  0.001129758    3.155    0.683
        16 -10.1958     94.7882    245.0032   1.3145930781e+02   1.3205656365e+01    0.2403012    0.1713794  30.38 0.0003714326    1.176    0.149
        17  -9.0138    249.9981    250.4212   1.0312570501e+02  -6.7760265653e+00    0.1421618   0.08479089  16.30 0.0004133451    1.173    0.147
        18  -8.4734    232.0496    250.7502   1.0603903682e+02  -4.8919670481e+00    0.2154532   0.06664681  31.87 0.0008916119    2.516    0.603
        19  -9.1604    202.7626    249.9010   1.1091801080e+02  -1.4211211127e+00    0.2752472     0.139849  22.02 0.0006708478    1.501    0.334
        20  -9.0734    197.9959    250.5836   1.1185494131e+02  -9.1648804633e-01    0.1822261    0.0788438  32.53  0.000345787    1.748    0.428
        21  -8.3155    189.7341    249.9793   1.1326842601e+02   1.6832307948e-01    0.3167681     0.120576  20.02  0.001381545    3.224    0.690
        22  -8.5488    183.1140    250.6308   1.1456476995e+02   9.2275846514e-01    0.1614339   0.07895181  29.46 0.0003560114    1.485    0.327
        23  -8.6209    166.4702    250.1219   1.1762518938e+02   3.1087119647e+00    0.2014231    0.1210287  39.38  0.001286738    1.522    0.343
        24  -8.4201    147.7557    245.2347   1.2069862292e+02   6.2006347561e+00    0.1949916    0.1651232 -86.16  0.001385976    1.963    0.491
        25 -10.1567    156.9466    246.1518   1.1899453022e+02   4.8573123509e+00    0.4330499    0.2412001   8.98 0.0005078607    2.286    0.563
        26  -9.2678    151.8931    244.3523   1.1977803337e+02   5.7665709016e+00    0.1941908    0.1605366  16.37 0.0003648196    1.171    0.146
        27  -8.4664    136.3999    250.4693   1.2352051500e+02   6.9941014149e+00    0.2442921    0.0846893  33.33 0.0008231364    2.069    0.517
        28 -10.1480    124.9479    248.4961   1.2561135968e+02   8.7735210761e+00    0.2191427      0.20229  54.75 0.0005589279    1.367    0.269
        29  -8.3968    108.4544    249.6451   1.2905473324e+02   1.0751524890e+01    0.1188357    0.1090323  -5.91 0.0009143378    1.408    0.290
        30  -7.8170     84.2713    250.6334   1.3403777782e+02   1.3634524072e+01    0.1166542   0.06475177  54.29 0.0003081856    1.664    0.399
        31  -9.8467     71.8350    249.9607   1.3650643248e+02   1.5230717445e+01    0.3069437    0.1552967  47.80 0.0005253984    1.500    0.333
        32 -10.3704     61.8661    248.8705   1.3845050768e+02   1.6560767017e+01    0.2202829    0.1775338  28.61 0.0004190661    1.313    0.238
        33  -8.3137     66.9192    245.7584   1.3724403331e+02   1.6485173902e+01    0.2110822   0.07528385  29.16 0.0008306173    2.387    0.581
        34 -10.5819     47.4236    250.2547   1.4140013886e+02   1.7934392236e+01    0.3713932    0.1205037  31.61  0.001430609    2.298    0.565
        35 -10.2238     16.3162    249.1364   1.4738364316e+02   2.1232694822e+01     0.261663    0.1859362  18.19   0.00113993    1.755    0.430
        36  -8.2364      1.7307    250.6780   1.5012732491e+02   2.2276123345e+01    0.1471399   0.05906877  38.78 0.0007323501    1.620    0.383
        37  -8.9561     90.6828    245.3053   1.3233046287e+02   1.3676059430e+01    0.1608789    0.1321222  41.88 0.0005985413    1.132    0.116
        38  -8.1722    249.0039    245.4289   1.0257703337e+02  -6.2215001966e+00    0.1404839   0.07356902  23.80 0.0003131934    1.454    0.312
        39 -10.9634    234.1938    243.2018   1.0463376030e+02  -4.4015310265e+00    0.2887233    0.1692633  -2.61 0.0005396059    1.458    0.314
        40  -9.5385    193.1188    243.2750   1.1177685901e+02   5.0676494425e-01    0.3412383    0.2449706  55.97  0.001049762    2.871    0.652
        41  -8.9736    187.4055    244.9251   1.1304470329e+02   1.0409312299e+00    0.2170132    0.1420675  13.36  0.001218229    1.243    0.195
        42  -9.0161    163.4510    244.5731   1.1754042294e+02   4.1999962710e+00    0.1961675    0.1453892  22.53 0.0005200506    1.036    0.034
        43  -9.6427    113.8595    244.2298   1.2745823150e+02   1.0857225623e+01     0.184276    0.1545959  21.39 0.0003158618    1.220    0.181
        44  -9.9646     81.1478    244.4536   1.3423452491e+02   1.4994835677e+01     0.218292    0.1652407  28.17 0.0004281604    1.254    0.202
        45  -9.8949     41.3096    244.4238   1.4235763278e+02   1.9551872278e+01    0.2037504    0.1561791  34.89 0.0005916767    1.254    0.202
        46  -8.5086    219.7827    244.0214   1.0716103608e+02  -2.8304927796e+00    0.1807833    0.1206804  34.31   0.00127391    1.661    0.398
        47  -8.8625     48.1716    244.0021   1.4095862629e+02   1.8889854776e+01    0.1488257    0.1209191 -39.35  0.001078892    1.912    0.477
        48  -8.7234     19.6784    243.9899   1.4660666005e+02   2.1782049556e+01    0.1479123    0.1048312  54.27 0.0005089305    1.066    0.062
        49  -8.2043    177.1287    242.8693   1.1470385931e+02   2.6133183090e+00    0.1590624    0.1036028  15.24 0.0005553265    1.280    0.219
        50  -8.4646    210.5337    241.8276   1.0845748778e+02  -1.4939343708e+00    0.1562671    0.1163925  22.06 0.0003465513    1.257    0.205
        51 -10.3739    104.2692    241.0752   1.2915505221e+02   1.2600117755e+01    0.2616189    0.2004885  37.11 0.0005830833    1.041    0.040
        52 -10.4345    201.6071    239.0576   1.0966227607e+02  -8.2602313305e-02    0.3388374    0.3226818  29.44  0.001167268    1.786    0.440
        53 -11.4223    207.5412    232.3939   1.0765423922e+02  -7.2654930768e-02    0.7693456    0.3733734  22.40  0.001430653    1.711    0.416
        54 -10.4556    238.9587    217.6800   1.0002441764e+02  -2.3298012776e+00    0.3424767    0.1686275  24.01 0.0007909191    1.692    0.409
        55 -10.2088    222.1109    225.5066   1.0407178498e+02  -1.1255531386e+00    0.6508278    0.2731265  17.14  0.002351047    2.810    0.644
        56  -9.8926    231.8927    203.4469   9.8886237942e+01   1.5807851497e-01    0.3305415    0.2502144  -6.10  0.001303586    1.141    0.124
        57  -8.6209    236.3050    202.0500   9.7915108774e+01  -2.4976987706e-01     0.160083    0.1268435   2.35 0.0004597688    1.169    0.145
        58 -11.2443    227.2618    216.0206   1.0171767219e+02  -7.0299422719e-01    0.7000299    0.4407467  13.29  0.004206797    1.259    0.206
        59 -10.4998    233.6032    210.4041   9.9744948404e+01  -8.6520842718e-01    0.3785233    0.2525194  -5.11  0.001120897    1.234    0.189
        60  -9.7874    170.4399    239.9467   1.1561209342e+02   3.8626712636e+00    0.2409803    0.1659924  38.19  0.001529978    1.407    0.289
        61  -8.6206    133.7086    245.0666   1.2349323966e+02   8.1000942797e+00      0.15133    0.1233786  27.13  0.000390405    1.124    0.110
        62  -8.1191    150.1708    249.8357   1.2073946635e+02   5.2704202882e+00    0.1520972    0.1055347  16.56 0.0003339067    1.278    0.218
        63  -9.7139    126.5751    240.4472   1.2446268739e+02   9.7262464041e+00    0.2117772    0.1630926  31.09 0.0005025067    1.045    0.043
        64  -9.9492     69.1584    240.0858   1.3642406657e+02   1.7162259591e+01    0.2153971    0.1570785  35.60 0.0004186142    1.147    0.128
        65 -10.2668     25.2936    239.4827   1.4536868584e+02   2.2018223475e+01    0.2003253     0.177591  32.56 0.0006860264    1.394    0.283
        66  -9.6501    214.8006    238.9967   1.0731524684e+02  -1.7065450956e+00    0.1842145    0.1402733  10.10 0.0003742416    1.164    0.141
        67  -9.4254    135.8062    239.2921   1.2244169606e+02   8.6433215048e+00    0.3370855    0.1743948  46.27  0.001846664    1.886    0.470
        68  -9.2071    118.3811    239.2893   1.2604176540e+02   1.1004157411e+01    0.1949891     0.140227  29.32 0.0003055905    1.108    0.097
        69  -9.4866     61.8736    239.6654   1.3791519687e+02   1.8087485166e+01    0.1900831    0.1636705  42.78  0.000427465    1.209    0.173
        70  -9.5384     35.4974    240.0023   1.4334246734e+02   2.0909866256e+01    0.2559576    0.1460122  28.77 0.0004572213    1.588    0.370
        71  -8.9484     32.4147    237.5188   1.4386888145e+02   2.1654917900e+01    0.1666758    0.1209412  36.71 0.0005073898    1.227    0.185
        72 -10.6601     35.6058    231.9340   1.4298867471e+02   2.2318422111e+01    0.3602618    0.2077257 -75.73  0.001313556    2.011    0.503
        73  -8.9147     18.8519    240.2072   1.4666363837e+02   2.2507325992e+01    0.1343092    0.1153315  34.47  0.001078194    1.372    0.271
        74 -10.4094     10.5778    239.0094   1.4824898442e+02   2.3471105701e+01    0.2531266    0.1672433  42.93 0.0004947662    1.148    0.129
        75  -9.6048      3.4975    235.5186   1.4955319601e+02   2.4696560480e+01    0.2459424    0.1412574  38.69  0.000554589    1.322    0.244
        76  -8.1846    238.7358    234.5426   1.0263754630e+02  -4.0565403305e+00    0.1458206    0.1269672 -16.20  0.001167197    1.792    0.442
        77 -10.1834    247.7435    238.5709   1.0178624907e+02  -5.4475372250e+00     0.227364    0.1371263  22.12  0.000830859    1.316    0.240
        78  -9.5659    243.7128    234.8339   1.0187741107e+02  -4.6447217985e+00    0.2409472     0.197358  37.77 0.0009663896    2.186    0.543
        79  -9.0550    240.7440    239.0281   1.0296914223e+02  -4.7246571598e+00    0.1659409    0.1079646  13.88 0.0003871612    1.092    0.084
        80  -9.4743    149.4439    238.2307   1.1954856694e+02   6.9319497686e+00    0.2129735    0.1510061  26.67 0.0004047209    1.053    0.050
        81  -9.7445     41.7455    236.7616   1.4193037811e+02   2.0821801493e+01    0.2412196    0.1695457  67.35  0.001255014    1.304    0.233
        82  -9.4816    220.4943    237.9588   1.0618372564e+02  -2.2813067197e+00    0.1975912    0.1196174  23.66 0.0004591697    1.253    0.202
        83  -9.0136    112.4041    237.3770   1.2710354257e+02   1.2101986971e+01    0.2234477    0.1421334 -57.32  0.000851217    2.088    0.521
        84  -8.8002     97.6156    237.8131   1.3026364829e+02   1.3987484844e+01    0.1430752    0.1076882  80.25 0.0009497716    1.686    0.407
        85  -8.1247     48.4481    238.5311   1.4063378153e+02   1.9792570697e+01    0.1157965   0.08269266  47.30 9.689758e-05    1.006    0.006
        86  -8.0962    183.7900    237.2060   1.1270041296e+02   2.4340475135e+00    0.1565171    0.1037569  13.10 0.0004387292    1.267    0.211
        87 -10.0688     91.4597    236.3247   1.3144152933e+02   1.5027215207e+01    0.2166376    0.1780629  33.90 0.0003560941    1.141    0.123
        88 -11.0516     93.3864    228.4485   1.3034343527e+02   1.6100609262e+01    0.3634754    0.2995666   1.33 0.0008507355    1.543    0.352
        89  -9.7937     78.8252    236.1209   1.3411176179e+02   1.6657335723e+01    0.2425292    0.1661278  42.23 0.0004009948    1.076    0.071
        90  -7.5999     51.6552    237.7073   1.3992791299e+02   1.9581773241e+01    0.1008151   0.08367975   5.31 0.0003834157    1.662    0.398
        91  -8.0678    225.0683    236.2998   1.0516496609e+02  -2.6509340587e+00    0.1498526    0.1028804  12.30  0.000395076    1.021    0.020
        92  -9.4773    140.3294    234.9352   1.2101792644e+02   8.6554482466e+00    0.2054329    0.1635117  19.34 0.0004486015    1.139    0.122
        93 -10.1806    171.7082    233.6010   1.1454199493e+02   4.5130049485e+00    0.2931834    0.2029745  32.36 0.0008710955    1.218    0.179
        94  -8.4886    129.9661    235.3056   1.2320781971e+02   1.0031500432e+01     0.168173    0.1162693  30.33 0.0002931776    1.097    0.089
        95 -10.2263    192.1754    233.2401   1.1058310409e+02   1.8138005889e+00    0.2298794    0.1711165  13.87 0.0004507786    1.047    0.045
        96  -8.4978     64.9732    234.0964   1.3691658959e+02   1.8682510847e+01    0.1741911    0.1299232  44.53 0.0003744111    1.018    0.018
        97  -8.8834    231.0154    232.9707   1.0367740853e+02  -3.0048836135e+00    0.1656401    0.1163669  12.31 0.0005030753    1.073    0.068
        98  -8.6299    176.8611    232.9173   1.1344850437e+02   3.9012089495e+00     0.177142    0.1231571  13.18 0.0003681249    1.221    0.181
        99  -8.7603    153.1627    233.1171   1.1817474296e+02   7.1351654925e+00    0.1761925    0.1331478  28.34 0.0004313091    1.051    0.049
       100  -9.0190    108.4967    233.2079   1.2752475661e+02   1.3290266912e+01    0.2071478    0.1301713  33.43 0.0003918179    1.212    0.175
       101 -10.1742     10.3852    231.6910   1.4812255892e+02   2.4776720898e+01    0.2422085    0.1822857  34.10 0.0007112947    1.326    0.246
       102 -10.5323      7.8010    225.9637   1.4851309821e+02   2.6039534352e+01    0.5122018    0.2814529  51.87  0.001017847    1.270    0.213
       103 -10.3012      1.7616    227.2987   1.4975174859e+02   2.6308337704e+01    0.3290282    0.1433801 -79.34    0.0012577    2.465    0.594
       104 -10.0403    250.3283    231.5761   1.0034337222e+02  -5.0573822531e+00    0.1756832    0.1158915 -14.23  0.001326279    1.342    0.255
       105  -7.6381    148.5045    232.5379   1.1905248338e+02   7.8662624180e+00    0.1237682   0.09244688  27.36 0.0008094456    1.004    0.004
       106  -9.6576    100.5496    231.3660   1.2905543100e+02   1.4658024997e+01    0.2141806    0.1699781  23.35  0.000387399    1.244    0.196
       107  -9.3807     85.2386    231.3106   1.3236071820e+02   1.6668834649e+01    0.2322208    0.1840895   9.22   0.00049247    1.554    0.356
       108  -9.2853     55.3875    231.1221   1.3877606000e+02   2.0318884830e+01    0.1941613    0.1564058  34.57 0.0005132796    1.222    0.182
       109  -9.2492    133.3281    230.2482   1.2193216726e+02   1.0331346201e+01    0.2310514    0.1721923  37.86 0.0009310813    1.138    0.121
       110  -9.3653    123.5217    231.0369   1.2409624209e+02   1.1578383661e+01    0.2234908    0.1394677  33.05 0.0003678648    1.214    0.177
       111  -8.9468    245.1521    229.8765   1.0090648861e+02  -4.3154025466e+00    0.1771521    0.1131543  -0.98 0.0003347728    1.191    0.160
       112  -8.3319    226.2450    230.2343   1.0407424063e+02  -2.1485071946e+00    0.1370015    0.1029601  21.29 0.0004452009    1.316    0.240
       113  -9.0311    158.9780    229.6522   1.1655616175e+02   6.8105102031e+00     0.191841    0.1541584  -2.61 0.0002231203    1.302    0.232
       114  -9.4755    114.0628    229.0110   1.2590564114e+02   1.3211478075e+01    0.2815009    0.1695887  39.57 0.0008152398    1.282    0.220
       115  -9.9654     45.3796    229.2433   1.4080646562e+02   2.1769776372e+01    0.3029078    0.1772246  23.85 0.0005829975    1.760    0.432
       116  -8.1764    119.5449    233.7609   1.2523093605e+02   1.1700064346e+01     0.148958    0.1161144  86.64 0.0009654255    1.846    0.458
       117  -8.4475    144.8637    229.2670   1.1940166450e+02   8.8541106737e+00    0.2267529    0.1348205  20.62  0.001274943    1.568    0.362
       118  -9.1332     79.2514    228.7146   1.3345321527e+02   1.7879310960e+01    0.2028405    0.1639119  30.12 0.0003806816    1.209    0.173
       119  -9.3796     29.5986    228.9703   1.4411981913e+02   2.3461943723e+01    0.1800457    0.1367648  25.39 0.0003692583    1.448    0.309
       120  -8.5101    153.0110    227.9837   1.1755742124e+02   7.8892916821e+00    0.1828127    0.1399246  26.64 0.0003573191    1.023    0.023
       121  -8.2634    107.3128    228.5189   1.2731626234e+02   1.4218486770e+01    0.1588177   0.09852126  26.47 0.0008099987    1.422    0.297
       122 -10.1584     19.6281    226.7867   1.4611398054e+02   2.4823849258e+01    0.2244661    0.1924373  44.87 0.0005691378    1.260    0.206
       123 -10.3621    236.3446    226.4334   1.0181237595e+02  -2.9492029063e+00     0.242016    0.1730588  20.96  0.001199277    1.288    0.224
       124  -8.7329    175.6669    227.1278   1.1288963467e+02   4.8246981846e+00    0.1819063    0.1292607  29.46  0.000369057    1.160    0.138
       125  -8.9926     58.9042    227.1025   1.3777435932e+02   2.0636580794e+01    0.3178159   0.08504921  39.79  0.001325121    2.386    0.581
       126  -9.6070    229.4270    225.7611   1.0286247880e+02  -2.0513312557e+00    0.1931419    0.1365787   6.48  0.000384473    1.030    0.029
       127  -9.8357    200.1465    225.1998   1.0794906157e+02   1.7380351018e+00     0.188083    0.1471077   8.37 0.0003155826    1.111    0.100
       128  -8.4881    184.9846    226.2225   1.1095328046e+02   3.6576682568e+00    0.1682672    0.1292993  28.20 0.0004447747    1.221    0.181
       129  -9.1056    160.0177    218.2630   1.1481217650e+02   8.3028423432e+00     0.245217     0.193215  50.36  0.001209495    1.570    0.363
       130  -8.7413    163.3979    225.2259   1.1507510392e+02   6.8097359965e+00    0.2498612    0.2094358 -14.50  0.001016743    1.336    0.251
       131  -9.3484    160.4818    222.4953   1.1529894208e+02   7.6166751400e+00    0.2441039    0.2098668  12.74 0.0009563786    1.157    0.136
       132  -7.7542    169.7115    228.2965   1.1422502046e+02   5.4961517062e+00    0.1094715   0.08323867  44.59 0.0002471192    1.552    0.356
       133  -8.5799    120.8524    224.9438   1.2399634949e+02   1.2926388260e+01    0.1734588    0.1381876  22.39  0.000251028    1.171    0.146
       134 -10.4905    249.0064    223.1416   9.9264135638e+01  -4.0739709024e+00    0.2264542    0.1668686  -5.60 0.0004442707    1.221    0.181
       135  -9.1195    191.6105    224.1107   1.0938481455e+02   3.0225043697e+00    0.2069336    0.1323207  21.84 0.0004223744    1.212    0.175
       136  -8.3125    170.8800    223.9018   1.1338869692e+02   5.9335615438e+00    0.1812706     0.130139  11.22 0.0003254226    1.249    0.200
       137  -8.4258    155.8742    223.8846   1.1643315821e+02   8.0769530654e+00     0.175927    0.1340931  15.45 0.0003486144    1.161    0.138
       138  -9.0631    129.8507    223.7197   1.2190830973e+02   1.1844383256e+01    0.1790714    0.1557026   5.19 0.0002799351    1.258    0.205
       139  -8.1789    104.6114    223.9394   1.2744690913e+02   1.5359739750e+01    0.1613068    0.1337894  37.89 0.0005303029    1.075    0.070
       140  -7.9241     89.6735    224.7347   1.3082722945e+02   1.7234455148e+01    0.1139691   0.08731481  10.85  0.000223847    1.569    0.362
       141  -8.2827    136.0396    223.4529   1.2054731075e+02   1.0998213018e+01    0.1885772   0.09821198  32.73 0.0003531585    1.491    0.329
       142  -8.8797     83.0000    223.0297   1.3216106171e+02   1.8408728574e+01    0.1834395    0.1416461  42.03 0.0003738388    1.012    0.012
       143  -8.6703     75.1948    222.6569   1.3387040877e+02   1.9471953043e+01    0.1721112     0.122275  36.24 0.0005909704    1.144    0.126
       144 -10.3060     50.3619    221.5188   1.3930484718e+02   2.2642052750e+01    0.3651495    0.2704001  28.57  0.002152951    1.343    0.255
       145 -10.5310     49.1413    217.6646   1.3934931159e+02   2.3507264232e+01    0.4724096    0.3156181  60.34  0.003037923    1.280    0.219
       146  -8.7009    175.0846    221.5644   1.1222187281e+02   5.6593972188e+00    0.1763761    0.1652706  24.06 0.0005007919    1.403    0.287
       147  -8.3643    115.4020    221.7172   1.2482998866e+02   1.4231065212e+01    0.1365802    0.1194031 -30.91 0.0003456055    1.445    0.308
       148  -8.6394     97.8114    221.9493   1.2875819803e+02   1.6634104131e+01    0.1728637    0.1448977  21.23 0.0003809643    1.249    0.200
       149  -8.1322     92.8099    222.1036   1.2988927552e+02   1.7281812079e+01    0.1510318    0.1298452  18.09 0.0003457084    1.290    0.225
       150  -9.7016     15.8584    221.3778   1.4673542925e+02   2.6175005073e+01     0.207787    0.1812746  13.26 0.0006345192    1.546    0.353
       151  -9.2378    216.7934    220.9334   1.0430117880e+02   6.7472378676e-02    0.2352894    0.1603441  25.15 0.0003141408    1.248    0.199
       152 -11.0610    203.5703    216.6476   1.0602505936e+02   2.3345644760e+00    0.4022363    0.2742794 -31.72  0.001615508    1.668    0.400
       153 -11.1142    211.8100    217.2912   1.0462446057e+02   1.1492737437e+00    0.5899689    0.3933826  15.26  0.002443248    1.166    0.142
       154  -9.2085    186.0750    220.1878   1.0986796216e+02   4.2953177602e+00     0.183183    0.1482705   3.99 0.0003869972    1.147    0.128
       155  -8.3494    181.0059    221.0239   1.1097664223e+02   4.8955315316e+00    0.1832978    0.1391674  15.01 0.0005002373    1.051    0.048
       156  -8.5191    141.1889    220.5260   1.1907999892e+02   1.0711013076e+01      0.17157    0.1475165  24.75    0.0011587    1.116    0.104
       157  -8.2915     68.6262    221.0183   1.3521198516e+02   2.0588503850e+01    0.1571086    0.1330825  53.62 0.0004804194    1.123    0.110
       158  -9.1392     59.9359    220.7020   1.3713090213e+02   2.1693064914e+01    0.1715526    0.1631934 -52.08 0.0004933269    1.422    0.297
       159  -9.5997     40.3631    220.8228   1.4146192484e+02   2.3864864715e+01    0.1959464    0.1629977  42.91 0.0004023602    1.179    0.152
       160  -8.1989    109.0895    219.6839   1.2600857028e+02   1.5468242394e+01    0.1728697    0.1287203  32.78 0.0003665676    1.087    0.080
       161  -7.9677     87.8156    220.4009   1.3085184529e+02   1.8250974714e+01    0.1623034    0.1012908  26.55 0.0004009307    1.486    0.327
       162  -8.5460    109.9525    224.4908   1.2632768930e+02   1.4528219990e+01    0.1888758   0.09760414  34.22 0.0003492289    1.487    0.328
       163  -7.9132    104.3153    219.2575   1.2703158349e+02   1.6210699097e+01    0.1179667   0.08830076  11.81 0.0002830455    1.534    0.348
       164  -7.9116    136.8863    218.3847   1.1973280728e+02   1.1678954162e+01    0.1726469    0.0990944  25.15 0.0001583793    1.555    0.357
       165 -10.1727    194.5646    216.6842   1.0771586484e+02   3.5693569242e+00    0.2823697    0.1842048  12.59 0.0004910721    1.331    0.249
       166  -8.3520    120.0647    217.3895   1.2330475324e+02   1.4295371658e+01    0.1785433    0.1292133  34.62 0.0005549087    1.083    0.076
       167  -8.1312     72.5220    216.9593   1.3401967655e+02   2.0860308338e+01    0.1500821    0.1196773 -80.59 0.0003288834    1.470    0.320
       168  -9.0945     56.1017    216.7133   1.3772624451e+02   2.2895004645e+01    0.1904694    0.1528153  88.71 0.0007322463    1.367    0.269
       169  -8.5736     21.8366    216.8305   1.4531719562e+02   2.6483772811e+01    0.1520398    0.1358372  49.54 0.0005512994    1.264    0.209
       170 -10.2343      7.9720    216.1244   1.4825289568e+02   2.7864325892e+01    0.2216941    0.2009545  -0.99 0.0006047635    1.604    0.376
       171  -9.7796    180.6026    215.9247   1.1030551100e+02   5.6473605816e+00    0.2129653    0.1352984  21.30  0.000597801    1.301    0.231
       172  -7.9735    124.8150    215.8665   1.2206731294e+02   1.3862134721e+01    0.1665811    0.1243555  46.90 0.0003323229    1.278    0.218
       173  -7.8806     91.3952    216.5219   1.2967905435e+02   1.8475201196e+01    0.1249454    0.1011084  40.03 0.0001317545    1.040    0.039
       174  -8.9638     83.0548    215.8840   1.3152441339e+02   1.9705673677e+01    0.1840618    0.1483302  37.82 0.0003868758    1.083    0.077
       175  -9.3439    171.9489    214.4032   1.1181261461e+02   7.1180697571e+00    0.2004813    0.1618105  -4.63  0.001324199    1.240    0.194
       176  -8.5396    144.0314    215.0188   1.1774904399e+02   1.1161398794e+01    0.1909071    0.1492027  25.70 0.0003872987    1.037    0.036
       177  -9.7853    248.6918    212.8558   9.7688109244e+01  -2.9728488645e+00    0.2518545    0.1515392  -7.21  0.001306131    1.375    0.273
       178  -8.6368    132.8139    213.8114   1.2003911293e+02   1.3026527425e+01    0.1821862    0.1438761  21.39 0.0003541419    1.146    0.127
       179 -10.5695    187.3769    211.7598   1.0834258199e+02   5.2439963527e+00      0.38651    0.2049692 -19.41  0.001586344    2.395    0.583
       180  -7.7924    155.3074    213.2976   1.1510220474e+02   9.7487331081e+00    0.1267133   0.08624047   7.65 0.0002578141    1.591    0.372
       181  -8.2351    118.1379    212.8799   1.2320337610e+02   1.5351258990e+01    0.1643042    0.1334837  15.04 0.0003507233    1.273    0.214
       182  -7.9473    111.5732    213.4489   1.2475785237e+02   1.6204781054e+01    0.1287858     0.103888  32.54  9.15667e-05    1.055    0.053
       183  -8.1047     74.7287    212.9593   1.3318473394e+02   2.1336842128e+01    0.1631412    0.1381228  49.93 0.0001866633    1.087    0.080
       184  -8.7141     41.8553    212.8409   1.4071263482e+02   2.5238267027e+01     0.162933    0.1397813  42.44 0.0003638149    1.194    0.163
       185  -8.4705     99.0382    211.5131   1.2741819009e+02   1.8339482249e+01    0.1871003    0.1549284  18.00 -7.076038e-05    1.289    0.224
       186  -9.3540     25.1121    211.2290   1.4438948609e+02   2.7259542025e+01    0.2043067    0.1662491  79.98 0.0005953996    1.250    0.200
       187 -10.0340     17.0332    210.3798   1.4614224211e+02   2.8180671259e+01    0.4314889    0.1938144  69.62  0.001318349    1.970    0.492
       188 -10.2781    194.3890    200.6918   1.0521022834e+02   5.7467437734e+00    0.3018102    0.1778764   8.73 0.0007920869    1.869    0.465
       189 -10.6624    206.8371    206.0410   1.0373742682e+02   3.2323089649e+00    0.4684528    0.2212267 -23.41 0.0003349353    2.409    0.585
       190 -11.0303    199.6515    201.5027   1.0433604434e+02   4.8615618595e+00    0.4371452     0.260352 -22.04  0.001810788    1.749    0.428
       191 -11.1064    212.3539    198.7646   1.0151777539e+02   3.3970495237e+00    0.4661523    0.2212647  24.26  0.002346722    2.012    0.503
       192 -12.9115    205.5360    193.7217   1.0191204045e+02   5.0572667581e+00     0.976341     0.728341   2.52  0.006227688    1.146    0.127
       193  -8.1264     11.6333    211.7472   1.4735942896e+02   2.8392677744e+01   0.09476729   0.08542271  -9.10  0.000465048    1.628    0.386
       194  -9.0288    200.8959    209.7060   1.0543328533e+02   3.5914550870e+00    0.1680744    0.1229297  19.55 0.0002912038    1.084    0.078
       195 -10.4486    193.9180    208.5915   1.0658013070e+02   4.7322622438e+00    0.2828725    0.2203075  -3.68 0.0005801972    1.182    0.154
       196  -8.0196    107.3794    210.2159   1.2534951739e+02   1.7389246000e+01    0.1262605   0.08777349  15.94 0.0006257684    1.597    0.374
       197  -8.2590    162.0342    209.3576   1.1311481063e+02   9.3426544682e+00    0.1816545    0.1339794  28.35 0.0004903221    1.091    0.084
       198  -7.8335     93.6355    209.1702   1.2842851270e+02   1.9530373978e+01    0.1450956    0.1189668 -47.57 0.0001279168    1.540    0.351
       199  -9.9777     67.3575    208.2103   1.3451072649e+02   2.3187872422e+01    0.2418782    0.2168302 -85.47 0.0009255215    1.297    0.229
       200  -8.2016    149.6713    207.9519   1.1555030744e+02   1.1443239043e+01    0.1661135    0.1461445  12.97  0.000309618    1.131    0.116
       201  -7.9655    133.6062    208.4970   1.1916749745e+02   1.3800695099e+01    0.1296128    0.1063282  28.51  0.000287623    1.030    0.029
       202  -8.2742    115.0447    207.6946   1.2328483111e+02   1.6725717416e+01    0.1812161    0.1386873  32.57 0.0002792602    1.077    0.072
       203  -8.6656     78.9400    208.1318   1.3177764309e+02   2.1718657940e+01    0.1909007    0.1535026  42.19 0.0004310221    1.038    0.037
       204  -8.1912     72.5226    208.0599   1.3328296962e+02   2.2565293570e+01    0.1598287    0.1227742 -77.95  0.000349386    1.502    0.334
       205 -10.5078    184.4918    206.4662   1.0808287741e+02   6.4023331046e+00    0.2674049    0.2051587  18.92 0.0008926973    1.028    0.027
       206  -8.3007    120.0939    206.7685   1.2200787806e+02   1.6140126243e+01    0.1844868    0.1395457  32.45 0.0004312089    1.080    0.074
       207  -7.8654    127.2651    206.3091   1.2030877866e+02   1.5139987603e+01    0.1953088    0.1399743  27.54 0.0003877517    1.196    0.164
       208  -9.2693    124.0333    206.0255   1.2100947965e+02   1.5679382456e+01    0.1887846    0.1523653  33.09            0    1.004    0.004
       209  -7.8127    104.2054    205.9147   1.2559673395e+02   1.8640520394e+01    0.1380751    0.1070901 -69.11 0.0003480184    1.590    0.371
       210  -8.2371     47.7728    206.4145   1.3897467417e+02   2.5863332719e+01    0.1540033    0.1062803  24.42 0.0002915147    1.509    0.337
       211  -8.3399     39.3092    205.9642   1.4091755054e+02   2.6875302664e+01    0.1606329    0.1312039  64.41 0.0003604002    1.113    0.101
       212  -9.4466    247.1157    204.6925   9.6602740706e+01  -1.9030408897e+00    0.1929579     0.129629 -14.29 0.0003772569    1.250    0.200
       213  -9.8846    222.9579    204.0493   1.0051777179e+02   1.2674805156e+00    0.4700347      0.26761  48.47  0.001928591    2.975    0.664
       214  -9.1027    223.9657    200.6615   9.9775124821e+01   1.5460562154e+00    0.2115994    0.1360108 -11.24 0.0007475781    1.410    0.291
       215 -10.1207      7.4444    203.7724   1.4806115326e+02   3.0325399757e+01    0.2332569    0.2088653   3.81 0.0006650133    1.555    0.357
       216  -8.0464    141.1421    203.7915   1.1683432592e+02   1.3444030358e+01    0.1713706    0.1322493  13.30  0.001009503    1.280    0.219
       217  -7.9016     93.7631    203.5568   1.2780519152e+02   2.0582829937e+01    0.1937358   0.09705302  41.99 0.0006892528    1.606    0.377
       218  -7.6990     43.2957    203.3681   1.3983638587e+02   2.6973715264e+01    0.1108102   0.09205291 -34.34 0.0007029435    1.725    0.420
       219  -8.7761     21.5317    202.5010   1.4485015480e+02   2.9344882064e+01    0.1918348    0.1479133  30.44 0.0001171218    1.342    0.255
       220  -8.2824     16.7862    201.0108   1.4587868912e+02   3.0080651561e+01    0.2089486    0.1250461  25.07  0.001253042    1.700    0.412
       221  -9.1874    187.1023    201.6448   1.0679235629e+02   6.6994553666e+00    0.1806698    0.1325251  19.85 0.0004609383    1.101    0.092
       222  -9.9920    179.2281    201.7633   1.0838966247e+02   7.8733380894e+00    0.2155867    0.1951561  49.38 0.0009542203    1.520    0.342
       223  -7.6406    110.4930    202.4796   1.2370963243e+02   1.8358879008e+01    0.1337511    0.1103867  32.58 0.0008095979    1.059    0.056
       224  -8.6315     98.9344    202.0550   1.2640417303e+02   2.0134628364e+01    0.1979185    0.1634831  33.78 0.0004141254    1.084    0.077
       225  -9.3594     81.4612    200.6692   1.3046447098e+02   2.2852035949e+01    0.2807246    0.1915153  60.18 0.0007479874    1.432    0.302
       226  -9.5112     69.4330    200.9734   1.3340721447e+02   2.4371604021e+01    0.3741964    0.2302065  54.45  0.001489943    1.440    0.306
       227 -11.0396     64.1892    195.6144   1.3422439852e+02   2.6136108875e+01    0.5256101    0.3196798  54.89  0.001079918    1.454    0.312
       228  -8.4953     28.9123    201.8006   1.4311820841e+02   2.8783107559e+01    0.1648406    0.1476999  52.66 0.0004658147    1.207    0.171
       229  -9.0305    132.4357    200.0186   1.1827230779e+02   1.5453221267e+01    0.3126272    0.1969604 -20.70 0.0006548869    2.375    0.579
       230  -7.7981     34.5068    201.5028   1.4179711176e+02   2.8283366089e+01    0.1222346   0.09659023  53.83 0.0002638947    1.030    0.029
       231  -9.4766    250.3580    199.2027   9.5171383665e+01  -1.6930634088e+00    0.1679954    0.1211318 -10.22 0.0006777508    1.153    0.133
       232  -9.3454    243.3954    198.3506   9.6131834941e+01  -7.2878442825e-01    0.1917077    0.1444416   4.39 0.0008254675    1.076    0.071
       233  -8.3562     42.1319    199.3366   1.3986760193e+02   2.7928749221e+01    0.1698285    0.1450936  15.30 0.0006009519    1.438    0.305
       234  -8.3258    230.9444    197.8625   9.8103392346e+01   9.4847874123e-01    0.1766087    0.1199471   3.69  0.000354544    1.209    0.173
       235  -8.6589    140.4578    197.5087   1.1607832728e+02   1.4632032458e+01    0.3110746    0.1921615  -2.70  0.001386481    2.620    0.618
       236  -8.5759     21.7908    197.6595   1.4459527508e+02   3.0316511381e+01    0.1618228    0.1390168  23.97 0.0006295471    1.382    0.276
       237  -7.7365    150.6791    197.2763   1.1374816800e+02   1.3046457641e+01    0.1278733   0.09451708  52.09  0.000262873    1.577    0.366
       238  -7.8816     89.5355    197.4203   1.2815964468e+02   2.2386569172e+01    0.1329081    0.1102379  39.50 0.0001077956    1.048    0.045
       239  -9.1325    238.0716    196.0193   9.6599145873e+01   2.2724036691e-01    0.1734781    0.1279088   2.89 0.0003361055    1.006    0.006
       240  -8.2356    113.8892    194.8494   1.2192818837e+02   1.9289717249e+01    0.1821449    0.1374827  50.02  0.000336548    1.262    0.208
       241 -10.1081    196.0390    193.9932   1.0376491058e+02   6.4419275394e+00    0.1967309    0.1586248  10.43 0.0004315076    1.026    0.026
       242  -9.4766    186.6808    193.9686   1.0560215291e+02   7.8804556614e+00    0.1993374    0.1470445   7.37 0.0003044615    1.234    0.190
       243 -10.9634    189.3394    190.4646   1.0447240453e+02   7.9856008896e+00    0.3349797    0.2928188  89.08  0.001999694    2.090    0.521
       244  -8.4887     27.0260    192.2500   1.4310912036e+02   3.0960937814e+01    0.1720654     0.128837  50.12 0.0003981783    1.073    0.068
       245  -8.6993      9.2261    190.6140   1.4728618552e+02   3.2886995732e+01    0.1422593    0.1057472  18.80 0.0004585306    1.580    0.367
       246  -8.2487     94.6603    188.9480   1.2591115863e+02   2.3367970053e+01    0.1849524    0.1600039  54.13 0.0005365351    1.094    0.086
       247 -10.7939    154.1010    187.9166   1.1149951734e+02   1.4090128125e+01    0.4596778    0.3076725  53.58  0.002254328    1.850    0.459
       248 -10.4952    222.0215    187.8775   9.7900382255e+01   3.4341394199e+00    0.3293509    0.1517949  42.08 0.0002941006    2.387    0.581
       249 -10.3424    231.7302    185.6095   9.5827835269e+01   2.3517301017e+00    0.3335524    0.1967446 -14.35  0.001274711    1.592    0.372
       250 -10.2925    229.4910    182.5316   9.5651528343e+01   3.0580779064e+00    0.2420057    0.1664394   9.27 0.0007605868    1.255    0.203
       251  -8.3687      1.3860    187.8304   1.4904697722e+02   3.4088405163e+01    0.1464376     0.094379 -78.34 0.0003431933    1.606    0.377
       252  -8.2127    125.1819    211.1476   1.2140195974e+02   1.4612281114e+01    0.1708586    0.1244964  44.82 0.0002633363    1.254    0.202
       253 -10.4502    177.6731    184.3467   1.0578270799e+02   1.0794806725e+01    0.2855631    0.1983412 -28.99  0.001594357    1.524    0.344
       254  -7.6117    134.7080    183.7077   1.1530756314e+02   1.8073740651e+01    0.1348363    0.1018076   3.29 0.0002359938    1.551    0.355
       255  -9.9524     29.9935    180.7005   1.4176155440e+02   3.3189858529e+01     0.527155    0.2180001  46.18  0.002553809    1.901    0.474
       256  -9.4626      8.1666    182.8391   1.4729809266e+02   3.4636185881e+01    0.1867781    0.1258287  56.39 0.0004729907    1.154    0.133
       257  -9.9207    233.4124    181.2700   9.4762979917e+01   2.6640828532e+00    0.2773232    0.2294544  36.52  0.001409097    1.576    0.366
       258  -8.8414      3.5091    182.4891   1.4841217419e+02   3.5070301711e+01    0.1185872   0.09310832  62.31 0.0001448151    1.033    0.032
       259  -9.8771    116.8663    178.9638   1.1894771258e+02   2.1955657061e+01    0.4866173    0.2750145  41.77  0.001649073    1.542    0.352
       260  -7.8027     14.4923    180.4335   1.4565935863e+02   3.4648499146e+01    0.1192143   0.09968907  62.29   0.00028039    1.080    0.074
       261  -8.0003     56.7827    202.6369   1.3658606785e+02   2.5589756303e+01    0.1755102   0.09015356  40.63 0.0002717223    1.511    0.338
       262  -9.6481      9.5177    176.8428   1.4676695341e+02   3.5845202168e+01    0.3843839    0.1587377  27.94  0.001925958    2.196    0.545
       263 -10.2685      9.8904    172.7302   1.4652622944e+02   3.6734735770e+01    0.4198765     0.171261  47.78  0.001663978    1.901    0.474
       264  -8.6302    199.4083    175.7650   9.9850414259e+01   8.5747416209e+00    0.1745605    0.1127285 -19.92 0.0003101248    1.566    0.361
       265  -7.7030    100.9471    175.9754   1.2259838147e+02   2.5136307544e+01    0.1671791    0.1361575  38.99            0    1.069    0.064
       266  -9.6415     41.0877    171.6379   1.3823927026e+02   3.4118118872e+01    0.2236847    0.1590126  73.17 0.0005492768    1.292    0.226
       267 -11.7372    184.6819    166.4029   1.0100226706e+02   1.2517652216e+01    0.7958936    0.3870365  28.59  0.003422583    2.161    0.537
       268 -10.9160      6.3008    163.2929   1.4712073988e+02   3.9152332089e+01    0.4617668    0.3727151 -54.28  0.002412048    1.528    0.346
       269 -10.0249    193.0086    163.6345   9.8772340508e+01   1.1520342709e+01    0.3875892    0.2374343  -9.18  0.001821688    2.045    0.511
       270 -10.4253    217.5448    161.4394   9.3726525030e+01   7.7422169966e+00    0.5951096    0.3386062  42.29   0.00239394    1.866    0.464
       271  -9.0444    217.0546    156.3267   9.2790898278e+01   8.5636245725e+00    0.2375675    0.1756795   9.59  0.001385209    1.268    0.212
       272  -8.6519     40.0125    162.4921   1.3781322115e+02   3.6378573394e+01    0.1775734    0.1126278 -11.51 0.0008106248    2.626    0.619
       273 -10.8827    172.0598    159.0160   1.0222413840e+02   1.6036978522e+01    0.3850707    0.3062199 -51.30  0.002078255    1.547    0.354
       274  -8.4571    160.3138    159.2843   1.0491280847e+02   1.8156026058e+01    0.1453849    0.1058836   6.42 0.0004314113    1.578    0.366
       275 -10.3281    148.6562    166.8124   1.0908084208e+02   1.8867765621e+01    0.3545634    0.2581579  28.21   0.00183541    1.259    0.206
       276  -8.1879    228.9902    156.2433   9.0727715553e+01   6.6483875721e+00    0.1726557    0.1422957   6.11 0.0004165708    1.075    0.070
       277  -8.7945    123.4478    155.7284   1.1335344165e+02   2.5692352390e+01    0.2874365     0.193049  37.28 0.0008753282    1.349    0.259
       278  -9.2682    245.6867    150.0438   8.6842602968e+01   4.9126241689e+00    0.2278578    0.1637807  24.21 0.0008096585    1.380    0.275
       279 -10.9779     84.5251    146.0868   1.2269701112e+02   3.4566901572e+01    0.5539361    0.4879178  35.17  0.001683181    1.116    0.104
       280  -9.6929     26.9098    148.3860   1.4052286714e+02   4.1072974582e+01    0.2534675    0.1737276 -73.65 0.0007524645    1.415    0.293
       281  -8.3447    134.1440    148.1536   1.0908098146e+02   2.5316741595e+01    0.2051728    0.1767064  62.22 0.0006155346    1.295    0.228
       282  -9.8912     11.7787    145.9715   1.4485835705e+02   4.2871280185e+01    0.3003616    0.1858872  37.65  0.001014503    1.504    0.335
       283  -9.4205     48.7425    143.3583   1.3336375842e+02   4.0117297038e+01    0.3898569     0.215914  31.97  0.001719683    1.718    0.418
       284  -8.9828    225.0914    138.4955   8.7713108548e+01   9.8159597027e+00    0.3556828    0.2179309  -8.65  0.001769811    1.863    0.463
       285  -9.2976     98.7912    137.6049   1.1689959524e+02   3.4250925767e+01    0.3115721    0.2462778  52.85 0.0009841009    1.237    0.192
       286  -9.7258     42.2330    134.2337   1.3441491913e+02   4.3156765076e+01    0.3106693    0.2734633  82.90  0.000851613    1.043    0.041
       287  -9.8985    244.9776    133.8741   8.3653634468e+01   7.1718130430e+00    0.3156447    0.1885038  59.81   0.00158546    2.773    0.639
       288  -8.0706    238.3625    134.3028   8.4726137100e+01   8.1840970373e+00    0.1335951   0.08745616   5.95 0.0007036929    1.729    0.421
       289  -7.9600    234.4038    133.2066   8.5099537752e+01   8.9945212861e+00     0.172362    0.1069487 -36.99 0.0004187377    1.538    0.350
       290  -9.2489    173.2587    129.7972   9.5623178793e+01   2.1118776046e+01    0.2147936    0.1698814   2.02  0.001069652    1.393    0.282
       291  -8.9772    242.5098    125.6928   8.2285798874e+01   8.6866252537e+00    0.2252662    0.1088658 -26.51 0.0004840895    1.855    0.461
       292  -7.9608    222.7411    126.3577   8.5458834734e+01   1.2020664971e+01    0.1287781   0.09845565 -50.90 0.0001828411    1.620    0.383
       293  -8.7977    150.5245    123.4888   9.9409588029e+01   2.7147050360e+01    0.1550016    0.1466839  18.74  0.000810034    1.014    0.014
       294  -9.5096    165.6076    120.8267   9.5179574610e+01   2.4426181218e+01    0.2159251    0.1417079 -49.36  0.000518824    1.689    0.408
       295 -10.4903    100.6026    116.8599   1.1196718328e+02   3.8952157436e+01    0.4823561    0.4224221 -62.89 0.0006929514    1.186    0.157
       296 -11.0515     18.1147    115.2558   1.4076629478e+02   5.0192320128e+01    0.4727062    0.3221166  87.36 0.0009990494    1.326    0.246
       297  -8.3845      3.3172    119.3247   1.4616693896e+02   5.0022022646e+01    0.1307847   0.08466595 -51.52 0.0007044314    1.671    0.402
       298  -8.6882    232.0479    116.4882   8.1808392322e+01   1.1789411474e+01    0.2556811    0.1352069  57.10  0.001190301    2.510    0.602
       299  -9.4939     34.0849    109.4735   1.3426474979e+02   5.0441376218e+01    0.3839127    0.2522096 -57.67  0.001114532    1.468    0.319
       300  -8.2388    129.0030    109.7649   1.0163318321e+02   3.4761280116e+01    0.2204789    0.1306876  43.42 0.0008822983    1.633    0.387
       301  -9.1850    144.8266    106.3729   9.6478847472e+01   3.1941917026e+01    0.2352522      0.14375  36.44 0.0006550638    1.721    0.419
       302  -9.7954    249.9025    102.4377   7.6238797737e+01   1.0594936043e+01    0.2823327    0.1854846 -53.88  0.001283516    1.898    0.473
       303 -11.0603      7.9787     99.4385   1.4323956041e+02   5.4903991150e+01    0.3799637    0.3518547 -44.38  0.001172437    1.208    0.172
       304 -10.2283      2.2292     94.6638   1.4514677209e+02   5.6387883892e+01     0.431351    0.2264703 -88.53  0.001876305    1.659    0.397
       305 -11.6168    243.0454     95.5693   7.5572231425e+01   1.2739743150e+01    0.5994878    0.2166985 -36.25  0.002552334    2.272    0.560
       306  -9.2484    141.8768     98.1480   9.4977264452e+01   3.4328307937e+01    0.2466207    0.2200781  84.99 0.0005705366    1.276    0.216
       307  -8.6375    114.4766     95.9604   1.0215781124e+02   4.1065884648e+01    0.3203709    0.2253513  26.62  0.001057619    1.651    0.394
       308 -10.0283    237.9105     94.6124   7.6015087647e+01   1.3818969066e+01    0.2583563    0.1713371 -14.22  0.001373448    1.587    0.370
       309  -9.0836    158.2112     91.2590   8.9028329632e+01   3.1806617578e+01     0.275987    0.2550652 -45.46 0.0005288254    1.097    0.088
       310  -8.3069    249.3279     91.7030   7.3929165923e+01   1.2130347517e+01    0.1253992   0.08784845 -54.14 0.0002149206    1.633    0.388
       311 -10.3141     17.0417     89.7185   1.3861916961e+02   5.6968061128e+01    0.5847774    0.2947083 -40.50  0.002639189    2.178    0.541
       312  -9.4123     16.4993     85.9618   1.3840266295e+02   5.7989758231e+01    0.3102504    0.2539632 -87.27  0.001176789    1.114    0.102
       313  -8.1544     54.4616     95.5414   1.2388193924e+02   5.1912592327e+01    0.1465804    0.1399503 -71.44 9.184846e-05    1.017    0.017
       314  -8.7460     33.9796     88.9926   1.3122960218e+02   5.5896042514e+01    0.2138814    0.1946837 -72.46 0.0004108737    1.010    0.010
       315 -11.3315    244.3508     83.1384   7.2577888484e+01   1.4183330700e+01    0.4299287    0.3341722 -66.62  0.002016715    1.565    0.361
       316 -10.2015    154.9475     82.3110   8.7156239652e+01   3.4292082422e+01    0.4278353    0.3573664  47.43  0.001144869    1.191    0.161
       317 -10.4315    156.8661     77.9056   8.5394511699e+01   3.4625983192e+01    0.4273843     0.347939   9.09 0.0007411897    1.494    0.331
       318 -10.2292    220.7967     79.8745   7.4772105603e+01   1.9312026738e+01    0.3069849    0.2783003  86.13 0.0005856974    1.262    0.208
       319 -12.8012     79.9478     76.0386   1.0832069968e+02   5.2855023850e+01     0.426651    0.4052607  60.86  0.000443826    1.093    0.085
       320 -11.2867    239.6018     72.4989   7.0651089262e+01   1.6514553557e+01    0.4886073    0.3020254  31.10  0.002441599    2.269    0.559
       321 -11.8204    247.0910     73.6643   7.0094722451e+01   1.4922009758e+01    0.7502972    0.3604721 -38.35  0.003724646    1.708    0.415
       322 -12.2674     22.1212     74.4663   1.3416642677e+02   6.0664778488e+01    0.5108958    0.4646084  46.23  0.003120579    1.198    0.165
       323 -11.1056    115.8032     74.3736   9.5057251967e+01   4.5508870408e+01    0.5552028    0.4587105  76.58  0.001698212    1.412    0.292
       324  -9.7542     45.1466     75.2496   1.2332897538e+02   5.8362566840e+01    0.3505618    0.2740849  70.09  0.000977314    1.479    0.324
       325  -8.8680      1.5200     74.9783   1.4396800728e+02   6.1495375947e+01    0.2030427   0.06481433 -57.33 0.0008101038    2.538    0.606
       326  -9.9090      8.2875     73.0739   1.4060804180e+02   6.1760012432e+01    0.2468468    0.2091411 -70.16  0.001524947    1.024    0.023
       327 -10.9187    227.2598     70.7712   7.1685303616e+01   1.9244204608e+01    0.4185891     0.323145 -60.66 0.0007080899    1.386    0.278
       328 -10.9976    143.8187     63.9113   8.3921007780e+01   4.0485218722e+01     0.601941      0.43892 -19.53  0.001619375    1.606    0.377
       329  -8.8749    101.6700     73.0516   9.9228268329e+01   4.9062678535e+01    0.2298784    0.2094283 -43.01 0.0005224335    1.117    0.105
       330  -9.0707    106.9657     66.4921   9.5154695002e+01   4.9247267954e+01     0.250459    0.1557843  47.77  0.001026699    1.572    0.364
       331  -8.4391     52.0716     65.2121   1.1724782737e+02   6.0037191162e+01    0.2712281    0.1915599  81.44 0.0008206773    2.005    0.501
       332  -8.5439    184.3738     77.8651   7.9908939680e+01   2.7849881151e+01    0.2168971    0.1404566 -20.38  0.000941304    1.760    0.432
       333 -10.0806    237.9880     63.3012   6.8647691262e+01   1.8047927450e+01    0.3015381    0.1672518 -22.43  0.001472944    1.821    0.451
       334  -9.1220     58.6625     60.8042   1.1262662252e+02   6.0153061089e+01    0.3944821    0.2753376  -7.14  0.001245674    1.895    0.472
       335  -8.2261    243.2961     61.3046   6.7624611954e+01   1.7249383479e+01    0.1206715   0.09556276   7.72 0.0003110369    1.583    0.368
       336  -9.2751      2.0883     58.3416   1.4201147698e+02   6.5739236302e+01    0.2456843    0.1447723 -64.14  0.001315763    1.397    0.284
       337 -11.1405     79.8427     54.4270   1.0067475510e+02   5.7784069555e+01    0.8498701    0.5360527  18.58  0.001177211    2.238    0.553
       338  -9.7613     14.9032     56.5781   1.3471035121e+02   6.5713483523e+01    0.5431474    0.2267529 -31.84  0.002216805    2.710    0.631
       339  -8.7563     16.4834     51.5271   1.3277308230e+02   6.6906944044e+01    0.2330625    0.1575168 -60.33 0.0008063675    1.266    0.210
       340  -8.2724     27.6027     55.7419   1.2738516667e+02   6.5084679302e+01    0.1989494    0.1262542 -80.03 0.0009542999    1.727    0.421
       341  -8.0848    141.3399     54.2753   8.1204112806e+01   4.2794151998e+01    0.1624438    0.1195744  29.87 0.0004904024    1.614    0.381
       342  -7.8657    171.9696     49.9699   7.3776248090e+01   3.5332864013e+01    0.1723021    0.1638742 -86.75            0    1.023    0.023
       343  -9.1963    246.0028     46.7625   6.3972981533e+01   1.8520382047e+01    0.1493031    0.1057445  74.17 0.0004265825    1.626    0.385
       344 -10.1487    225.3093    248.0058   1.0677823847e+02  -3.8713942454e+00    0.2010882    0.1526588   2.96 0.0004078192    1.248    0.199
       345 -10.0908     13.6294     26.7266   1.2787563952e+02   7.3065614669e+01     0.924588    0.3874152   3.93  0.003988439    2.793    0.642
       346  -7.9934    221.4851    248.4444   1.0748189519e+02  -3.4779372747e+00    0.1400475   0.07969683  31.34 6.842514e-05    1.538    0.350
       347  -7.8310    119.9840    248.7027   1.2663346762e+02   9.3944156616e+00    0.1592783    0.1106607  33.39 0.0003446249    1.038    0.037
       348  -8.2809    115.9560    249.0440   1.2748049869e+02   9.8700620789e+00    0.2196396    0.1257989  -3.38 0.0009577457    4.123    0.757
       349  -8.7376     89.4987    249.0283   1.3285899980e+02   1.3241164817e+01    0.2878347   0.08263305  44.01  0.001305969    2.541    0.606
       350 -10.4244     33.0875    248.1820   1.4413062535e+02   1.9769399889e+01    0.2205554    0.1724449  31.26 0.0004653335    1.348    0.258
       351  -9.2437     24.7562    248.8417   1.4576609022e+02   2.0482817040e+01    0.2173128    0.1480687  12.33  0.001181558    2.034    0.508
       352  -9.8482      8.9337    248.5421   1.4875917524e+02   2.2000911636e+01    0.1973666    0.1456282  40.08 0.0005334408    1.235    0.190
       353 -11.0965    211.6694    246.8348   1.0894574657e+02  -2.1641183268e+00     0.259688    0.1632246  16.80 0.0004468021    1.133    0.117
       354 -12.6828     19.6816     41.1524   1.2817500132e+02   6.9276008393e+01     0.811449    0.3833977 -22.95  0.002115295    2.574    0.612
       355 -12.4589     12.9839     39.0134   1.3200311933e+02   7.0184249813e+01    0.6871945     0.417915 -14.94  0.001892624    1.767    0.434
       356  -8.5598     32.4469     40.5189   1.1978456942e+02   6.8344510549e+01     0.137151    0.1234731 -36.36 0.0001389751    1.021    0.021
       357  -8.4780     45.0262     38.0239   1.1109517332e+02   6.7380935526e+01    0.2390151    0.1592475 -19.05  0.001130345    1.753    0.430
       358 -10.0043    243.9997     36.9994   6.1860817259e+01   2.0079801424e+01    0.1919882    0.1505552  18.19  0.001148971    1.758    0.431
       359  -9.0823     53.5149     36.3429   1.0548825052e+02   6.6447412093e+01    0.3402826    0.2198039   4.76  0.001231201    2.121    0.529
       360  -9.1255     45.8811     33.2979   1.0844050992e+02   6.8269336720e+01    0.2515424    0.2342536 -57.86 0.0008979398    1.243    0.196
       361  -9.0867     75.6850     32.1277   9.2530328350e+01   6.2993257034e+01    0.2644958    0.1949378  53.18 0.0005703956    1.422    0.297
       362  -8.1670    205.5048     31.4680   6.3914162037e+01   2.9296829398e+01    0.1399377    0.1213773 -58.93 0.0001685066    1.028    0.027
       363  -8.9768     66.5819     30.4579   9.5830870587e+01   6.5195041164e+01    0.2480522    0.2332288  -0.91 0.0005506523    1.040    0.039
       364  -9.8139    145.6427     34.4978   7.3232016909e+01   4.4620730711e+01    0.4204278    0.2703384  64.08  0.001259623    1.474    0.321
       365  -8.3185    111.0561     30.0000   7.9296794353e+01   5.4671779369e+01    0.2626735   0.08373094  59.40 0.0007950806    2.950    0.661
       366  -9.9576      5.1567     32.4852   1.3581803212e+02   7.2071251703e+01    0.5210643    0.2198656  14.62  0.002421226    2.594    0.614
       367  -9.1128     66.2738     25.4341   9.3339699429e+01   6.6133498333e+01    0.2894146    0.1302607  41.13  0.001139754    2.165    0.538
       368 -10.7328    244.1150     22.8444   5.8553805848e+01   2.1647734961e+01    0.2965907    0.2585078  -9.08  0.001988525    1.392    0.282
       369  -7.7907    128.5304     22.5608   7.2012327133e+01   5.0891382061e+01    0.1523958    0.1407785  70.58 0.0002157811    1.008    0.008
       370  -8.7056     83.8396     19.1782   8.2611168396e+01   6.3124143816e+01    0.2129888    0.2024614  80.45 0.0005128869    1.186    0.157
       371  -9.2324     75.1950     17.9870   8.5278729485e+01   6.5335839821e+01     0.326563    0.1925507 -20.80   0.00145141    1.902    0.474
       372  -9.1631     58.6069     18.1401   9.3043953022e+01   6.8880431141e+01    0.2715366    0.1876547  33.77 0.0006061787    1.385    0.278
       373  -7.9596    206.3076    245.6959   1.0973088457e+02  -1.3982505878e+00    0.1144441   0.07899188  15.49 0.0004656478    1.001    0.001
       374  -9.4942    140.8559    247.2404   1.2229247290e+02   6.8466159265e+00    0.1972643    0.1453595  23.20 0.0003583974    1.112    0.100
       375  -8.0151    171.1949    246.7587   1.1631910790e+02   2.9095250719e+00    0.1452115    0.1004732  13.57 0.0004373334    1.229    0.186
       376  -8.5623     75.8577    246.8370   1.3548686057e+02   1.5252372019e+01     0.160377    0.1286752  31.32 0.0005919334    1.223    0.183
       377  -9.9791    243.2095    245.2656   1.0346916615e+02  -5.5895815512e+00    0.2023819    0.1255725  -6.71 0.0003467563    1.316    0.240
