#   1 NUMBER                 Running object number                                     
#   2 MAG_AUTO               Kron-like elliptical aperture magnitude                    [mag]
#   3 X_IMAGE                Object position along x                                    [pixel]
#   4 Y_IMAGE                Object position along y                                    [pixel]
#   5 X_WORLD                Barycenter position along world x axis                     [deg]
#   6 Y_WORLD                Barycenter position along world y axis                     [deg]
#   7 A_WORLD                Profile RMS along major axis (world units)                 [deg]
#   8 B_WORLD                Profile RMS along minor axis (world units)                 [deg]
#   9 THETA_WORLD            Position angle (CCW/world-x)                               [deg]
#  10 FWHM_WORLD             FWHM assuming a gaussian core                              [deg]
#  11 ELONGATION             A_IMAGE/B_IMAGE                                           
#  12 ELLIPTICITY            1 - B_IMAGE/A_IMAGE                                       
         1 -13.7443     66.8989    145.0663   5.6981122376e+01   3.7215582565e+01     2.570838     1.364773 -84.23  0.009615903    2.594    0.615
         2 -12.4485    203.2066     49.1828   1.1987445772e+00   2.8770446824e+01     1.035567    0.8195736 -41.19  0.003826921    1.134    0.118
         3 -13.0220    213.1618     40.7830   3.5820081642e+02   2.7792736967e+01     1.085811    0.9369633  -2.27   0.00123599    1.553    0.356
         4 -12.1364    240.0181     16.1790   3.5083081064e+02   2.5407297226e+01    0.7851728    0.5599993 -53.11  0.004282256    1.039    0.038
         5  -8.2915     12.9676     17.2281   4.7483785763e+01   7.5761933444e+01    0.1663452   0.09912355  23.43 0.0008785822    1.656    0.396
         6 -11.1910    118.9941      9.9656   3.5954657570e+02   5.3807741728e+01    0.6499747    0.4329876  56.37  0.003038352    1.449    0.310
         7  -9.0678    217.3278     13.5834   3.5147372814e+02   3.0080275408e+01     0.174443    0.1419813  -7.50 0.0003833989    1.678    0.404
         8  -8.4089    100.5057      9.9680   2.7277458403e+00   5.8589023232e+01    0.1876153    0.1379436 -24.96 0.0003773624    1.497    0.332
         9  -9.7576    144.6170      6.7639   3.5517824750e+02   4.7530716290e+01    0.2799321    0.1755845   2.28    0.0013387    2.362    0.577
        10  -9.0808      7.9873      8.6666   4.6786726588e+01   7.7911842204e+01    0.1955001   0.07550204  43.99 0.0007049541    4.325    0.769
        11  -9.2027    172.0081      3.0287   3.5166621787e+02   4.1152380405e+01    0.2249657    0.1179146 -59.32 0.0006393594    1.707    0.414
        12  -9.8319    181.3283    180.5522   3.4239573091e+01   1.1160217779e+01     0.589224    0.1966692 -45.37  0.002297644    3.130    0.680
        13  -8.4050    237.0133    249.9943   3.5547346925e+01  -4.7643587690e+00    0.1235998   0.08366562  -0.43 0.0004147192    1.023    0.022
        14  -9.0816    104.7399    249.4316   6.0064250748e+01   9.7569106938e+00    0.1823152    0.1321155 -23.35 0.0007512992    1.734    0.423
        15  -9.7416     75.3190    249.0666   6.6330805469e+01   1.3221728035e+01     0.384126    0.1837049 -59.13   0.00211282    2.538    0.606
        16 -10.6628     71.7255    242.6137   6.6617588358e+01   1.4767068740e+01    0.4133776    0.2671773 -67.76  0.002082951    1.889    0.471
        17 -15.1846     49.6804    179.1872   6.6558160734e+01   3.0790145994e+01      13.0741     3.225048  48.01   0.03940522    4.180    0.761
        18  -9.7020    192.5544    194.3196   3.4520533628e+01   7.3606687299e+00    0.6447855    0.3397091 -59.06  0.002308822    5.552    0.820
        19 -11.0416    239.0863    175.2158   2.3467327602e+01   4.1666484959e+00    0.2575224    0.2375309  -6.81  0.001989851    1.385    0.278
        20  -9.0166    122.4882    173.9116   4.6093272550e+01   2.1633828007e+01    0.2075922     0.141171 -52.93  0.000702276    1.569    0.363
        21 -11.0583     45.1740    131.4111   6.2177375395e+01   4.3708398063e+01    0.9512358    0.3701094  52.32  0.003159205    3.138    0.681
        22 -11.2751     47.1607    125.1302   6.0484820611e+01   4.5172642908e+01      1.29815    0.3695249  44.91  0.003860449    3.761    0.734
        23 -11.6092     98.0320    169.6260   5.1755538949e+01   2.6462314157e+01     1.760213    0.3501443  43.59 0.0002341161    5.573    0.821
        24 -11.0796     53.2930    147.5620   6.1746421653e+01   3.8389893259e+01     1.206585    0.5481168  47.88  0.004704587    2.223    0.550
        25 -11.4708     79.0237    157.0166   5.5150014075e+01   3.2397697314e+01    0.8949289     0.639417  89.29   0.00424347    1.657    0.396
        26  -9.1776     64.3033    196.2004   6.4294023895e+01   2.5044717860e+01    0.2983547    0.2008404 -86.76  0.001027793    1.680    0.405
        27 -10.9520     66.2996    167.5276   6.0433106128e+01   3.1580014220e+01    0.3999582    0.3097146 -16.71  0.001584238    1.672    0.402
        28 -10.2220    231.6245    169.1020   2.3479251770e+01   5.9522437017e+00    0.3095078    0.1574998 -49.01  0.001520401    2.734    0.634
        29 -10.3284    111.3137    168.2568   4.7978635824e+01   2.4670433693e+01    0.3589954    0.3051494 -51.15 0.0009489498    1.236    0.191
        30 -15.5971      9.4450    208.9000   7.9069184587e+01   2.7907878062e+01     2.186557      1.61367  85.82  0.009511032    1.316    0.240
        31 -10.5657    237.1592    166.6606   2.2214517248e+01   5.5879655917e+00    0.3368104    0.1643482  16.20  0.001511959    3.512    0.715
        32 -10.3202    242.0155    163.4908   2.0940586100e+01   5.4141305232e+00    0.2055218    0.1343222 -16.32 0.0007555826    1.363    0.266
        33 -10.9061     70.9940    163.0614   5.8442336249e+01   3.2048657182e+01    0.3290779    0.2906348  -3.43 0.0007909744    1.315    0.239
        34 -14.4546     10.5492    249.0054   8.0121941056e+01   1.9789590420e+01     0.436052     0.277176  35.04  0.001481291    1.254    0.203
        35  -9.2190     43.1530    157.2047   6.6181276224e+01   3.7074947635e+01    0.3501274    0.1949593  52.30 0.0008150322    1.756    0.430
        36  -8.7263     60.2317    155.6355   6.0662227533e+01   3.5391453985e+01    0.2849478    0.2058458  67.88 0.0007104786    1.455    0.313
        37 -11.0423     87.4198    148.8991   5.1272443586e+01   3.3122601266e+01     0.774602    0.5347766 -41.84  0.003597458    1.607    0.378
        38 -10.2806    134.0013    146.0264   3.7899170185e+01   2.5678843801e+01     1.354393     0.338854 -54.47  0.003108415    6.658    0.850
        39  -8.3815    137.0201    141.6726   3.6226842140e+01   2.6061889882e+01    0.3162676    0.1710269  55.75  0.001209481    2.509    0.601
        40  -9.1941     37.2625    145.1868   6.6709503310e+01   4.0889653268e+01     0.355491    0.2592024  33.08  0.001826714    1.357    0.263
        41  -9.5847     31.9104    143.8721   6.8345318525e+01   4.1794260089e+01     0.575299    0.2779667  82.99  0.002243538    2.451    0.592
        42  -7.7780    124.6681    141.2842   3.9268841668e+01   2.8442096469e+01    0.1501393    0.1182588  72.84 0.0003061263    1.615    0.381
        43  -8.0340    154.4507    138.5837   3.1475110668e+01   2.3448309223e+01    0.1426668    0.1353079 -13.80 3.232896e-05    1.012    0.012
        44  -9.7066    101.4583    136.8513   4.4762145108e+01   3.3714112364e+01    0.5178365    0.3547814 -13.64   0.00211848    2.252    0.556
        45 -11.0383     88.7298    135.8346   4.8395915826e+01   3.6178800246e+01    0.2929885    0.2831883 -70.83 0.0003808315    1.041    0.040
        46 -16.8231      7.9722    237.5556   8.0337629354e+01   2.2161074630e+01     2.244068     1.337075  28.06  0.009922473    1.495    0.331
        47  -8.3260    118.8234    132.0821   3.8806431460e+01   3.1635336306e+01    0.2324129    0.2016238  81.23 0.0004875598    1.328    0.247
        48  -9.7587    135.5635    126.7326   3.3211454271e+01   2.9571506988e+01    0.9722025    0.2542599 -49.43  0.002701642    4.080    0.755
        49  -8.8749    110.9849    128.5464   4.0186823558e+01   3.3952347883e+01    0.2995223    0.2452224   4.64 0.0008053372    1.487    0.328
        50 -10.7866    242.9695    122.9418   1.3066322638e+01   1.1017231214e+01    0.5559347     0.161729 -46.58  0.001943032    4.383    0.772
        51  -9.2371     36.6266    125.9302   6.4465467034e+01   4.6168228653e+01    0.3156301    0.1571644  45.09  0.001298329    2.001    0.500
        52  -9.5437     98.0190    124.0327   4.2988717815e+01   3.7474224148e+01     0.301912    0.2491859   8.85  0.000657291    1.448    0.310
        53  -8.3502     91.8876    125.1716   4.5152819930e+01   3.8307191509e+01    0.2447633    0.2067323  71.55 0.0008396665    1.291    0.226
        54  -9.1824     75.3645    124.6182   5.0435717781e+01   4.1270105154e+01    0.4404219    0.2738973   7.32   0.00167197    2.532    0.605
        55  -8.8815    117.1634    123.5871   3.7293803699e+01   3.3917593718e+01    0.2156865    0.1478079  27.01 0.0006974961    1.686    0.407
        56  -7.8366     82.9781    121.0467   4.7116287511e+01   4.0917929925e+01    0.1784385     0.173116 -89.71            0    1.009    0.009
        57  -9.7077    185.7978    226.9865   4.0922551808e+01   3.3862643502e+00    0.5009163    0.1527133 -48.94  0.001854934    5.382    0.814
        58 -11.5593     37.7317    115.5428   6.2476653436e+01   4.8892638606e+01    0.5845051    0.4751296 -33.30  0.003032861    1.380    0.275
        59 -10.7834     33.0840    110.6563   6.3527066410e+01   5.0728685127e+01    0.5213982    0.3510666 -85.21  0.001708498    1.507    0.337
        60  -8.5603    231.3472    118.0022   1.3548789874e+01   1.3504953848e+01    0.1847656    0.1229159 -36.78 0.0005946399    1.216    0.178
        61  -8.1738    107.3584    118.0798   3.8766568576e+01   3.7134693958e+01    0.2073059    0.1905348 -63.12 0.0004235753    1.093    0.085
        62 -10.6418     52.9242    111.3804   5.5828212734e+01   4.8152236393e+01    0.4535889    0.4020906 -75.24  0.001558868    1.092    0.084
        63 -10.3436     53.7808    103.5255   5.3835935297e+01   5.0140598192e+01    0.5337451    0.3875191  70.65  0.002463401    1.615    0.381
        64 -10.0913    237.4436    109.5305   1.1023163105e+01   1.3789094745e+01    0.3054771    0.1183777 -41.37  0.001426907    2.090    0.521
        65  -9.9219     66.1852    189.6853   6.3111809030e+01   2.6292299766e+01    0.2532871    0.2108688  70.51 0.0005152859    1.201    0.167
        66  -8.3379     64.3151    106.3135   5.0376446555e+01   4.7831955454e+01    0.1580927    0.1184553 -26.00 0.0003279865    1.641    0.391
        67 -10.5797     38.2744    102.4395   5.9956006408e+01   5.2412361897e+01     0.632165    0.3374084  51.18  0.001950417    2.115    0.527
        68  -9.8883     34.1419     97.0674   6.0688406497e+01   5.4328432254e+01    0.4708131    0.3126651  26.50  0.001962064    1.578    0.366
        69 -10.0445     21.3792     97.1575   6.6311463067e+01   5.5517855305e+01    0.4195926    0.2662064 -77.52    0.0020034    1.493    0.330
        70  -7.9442    163.2244    217.4163   4.3884322028e+01   7.6169564820e+00    0.1610895    0.1015108  35.79 0.0002879589    1.537    0.350
        71  -8.7541    114.1320    189.2074   5.0626360874e+01   1.9701691707e+01    0.1871619    0.1526736  51.48 0.0006711079    1.291    0.225
        72  -8.5771     58.6883    101.1362   5.1340987667e+01   5.0058862018e+01    0.2363659    0.1973298  44.50 0.0002519455    1.217    0.178
        73  -8.1187    111.1167     91.5078   3.0502714735e+01   4.2467593521e+01    0.2161691    0.1543036  47.42 0.0002699377    1.413    0.292
        74  -9.8700     23.2999     87.6859   6.3815554678e+01   5.7924081280e+01    0.4799631    0.1938671 -64.53  0.001878344    2.145    0.534
        75  -7.9315    233.4266     85.4861   6.3935963268e+00   1.7907899452e+01     0.125821   0.09824505 -41.78 6.147856e-05    1.028    0.027
        76  -9.9311      1.9363     85.0325   7.3593410698e+01   6.0046668642e+01    0.3369377    0.2337449 -34.62  0.001516901    1.511    0.338
        77  -9.9552      3.1128     80.6394   7.2485283336e+01   6.1168132668e+01    0.5153043    0.2139022  77.29  0.001880293    3.124    0.680
        78  -7.9840    151.8479     79.8379   1.7120466194e+01   3.5506539157e+01    0.1939114    0.1607814 -66.96 0.0002386637    1.243    0.195
        79  -8.1815    147.2831     66.5445   1.4104654670e+01   3.8917751591e+01    0.2866205    0.1413624  75.55 0.0009634615    3.245    0.692
        80 -11.9604    192.0843     56.7896   4.3818671735e+00   3.0102017634e+01    0.6942472    0.6140793  53.34  0.001753068    1.336    0.251
        81 -10.2315     96.6096    248.1869   6.1677595489e+01   1.0918144395e+01    0.3338451    0.2444579  -1.93  0.002126859    1.618    0.382
        82 -15.6306     41.6717    194.6907   7.0114958012e+01   2.8013078267e+01     8.175072     3.214466  84.83   0.02945178    3.749    0.733
        83  -8.7486     33.0000     51.0247   4.8862435491e+01   6.6200600207e+01    0.2355319   0.07680576 -56.90 0.0008060141    2.967    0.663
        84  -7.7071    141.7371     41.9911   7.3382414115e+00   4.4131035335e+01    0.1724344    0.1224168 -35.67 0.0002779745    1.413    0.292
        85  -9.2538    234.0038     36.2293   3.5552654362e+02   2.4271545733e+01    0.1690097    0.1350549 -55.38  0.001143179    1.060    0.056
        86  -8.1491    110.3329     28.6356   8.5624213660e+00   5.3951871877e+01    0.1573609    0.1029382 -66.55 0.0007035982    1.817    0.450
        87  -7.9603    101.6208     26.5211   9.6799132884e+00   5.6443622733e+01    0.1398141    0.1324732 -89.86 -5.619618e-05    1.042    0.040
        88  -8.4481     85.9486     25.6883   1.3477002701e+01   6.0460680974e+01    0.1965152    0.1682135  63.74 0.0002318538    1.113    0.101
        89  -8.3209     90.9611    246.4847   6.2738283540e+01   1.1866917413e+01    0.1883751   0.09591876  28.86  0.001023269    1.565    0.361
        90  -8.0574     79.6030    244.2196   6.5014706378e+01   1.3579516424e+01    0.1325158    0.1127561 -47.71 0.0002646814    1.473    0.321
        91  -7.6694    115.2970    243.3042   5.7204620360e+01   9.4927910677e+00    0.1160086   0.08293401  -2.04 0.0004955286    1.583    0.368
        92  -8.5826    215.3112    241.6805   3.7853448489e+01  -1.7513261774e+00    0.2147946   0.09758645 -18.13  0.001107704    2.469    0.595
        93  -8.9382    119.0169    240.4693   5.6106144602e+01   9.5029216437e+00    0.1596169    0.1486544   4.23 7.230524e-05    1.190    0.160
        94  -8.8111     92.0746    183.8349   5.5479148409e+01   2.4110513427e+01    0.3052448    0.2019653 -10.64  0.001359231    2.284    0.562
        95  -8.2601    147.3431    205.3119   4.5391564560e+01   1.1781574811e+01    0.1346894   0.09135861  -3.88 0.0002008161    1.703    0.413
        96  -9.5896     72.2584    203.4567   6.2988951626e+01   2.2451860136e+01    0.3716542    0.2357304  76.03  0.001870685    1.945    0.486
