#   1 NUMBER                 Running object number                                     
#   2 MAG_AUTO               Kron-like elliptical aperture magnitude                    [mag]
#   3 X_IMAGE                Object position along x                                    [pixel]
#   4 Y_IMAGE                Object position along y                                    [pixel]
#   5 X_WORLD                Barycenter position along world x axis                     [deg]
#   6 Y_WORLD                Barycenter position along world y axis                     [deg]
#   7 A_WORLD                Profile RMS along major axis (world units)                 [deg]
#   8 B_WORLD                Profile RMS along minor axis (world units)                 [deg]
#   9 THETA_WORLD            Position angle (CCW/world-x)                               [deg]
#  10 FWHM_WORLD             FWHM assuming a gaussian core                              [deg]
#  11 ELONGATION             A_IMAGE/B_IMAGE                                           
#  12 ELLIPTICITY            1 - B_IMAGE/A_IMAGE                                       
         1 -14.4758    162.8340     48.5552   7.9673043400e+01   3.8447769516e+01     1.873627     1.427828  20.86  0.006455794    1.642    0.391
         2 -14.2910    176.1635     32.6602   7.2779941906e+01   3.7273497747e+01     0.941471     0.899813 -56.84  0.003587279    1.130    0.115
         3 -13.6948    180.1016     25.8695   7.0307098257e+01   3.7120282710e+01    0.5957602    0.5421219  68.90  0.001522423    1.064    0.060
         4 -13.5018    189.8599     14.1013   6.5861541172e+01   3.6034370594e+01      1.08229    0.5497055 -85.28  0.004525793    2.593    0.614
         5 -13.8343    193.8913      3.6541   6.2757253978e+01   3.6122179946e+01     1.439508    0.5122039  64.86  0.004631469    2.277    0.561
         6 -10.9420    182.4717    233.9692   1.1850925864e+02  -1.1909518783e+00    0.2591041    0.1645184  29.34  0.001208577    1.579    0.367
         7 -19.7865     50.8623    165.8365   1.3632544264e+02   3.4931051650e+01     19.57839      5.40472 -68.59   0.06814375    3.557    0.719
         8  -9.2879    170.3617    205.2394   1.1612137105e+02   6.0366308111e+00    0.1798592    0.1332529 -59.97 0.0004453721    1.588    0.370
         9 -10.0753    211.0833    202.5870   1.0744491397e+02  -1.2453503019e+00    0.2057117    0.1829724 -42.55 0.0005139672    1.268    0.211
        10 -10.9485    140.6899    199.3363   1.2135106384e+02   1.2896546774e+01     0.278247    0.2120025  82.76 0.0009736016    1.529    0.346
        11 -10.8184    136.7318    197.3322   1.2186583784e+02   1.4058964446e+01    0.4458237      0.26521  80.79  0.001700428    3.024    0.669
        12 -10.1393    177.9612    196.7910   1.1301257441e+02   6.1480379653e+00      0.27184    0.2329509  86.07  0.001352176    1.418    0.295
        13 -11.0479    179.7420    192.7720   1.1188422802e+02   6.5601429274e+00    0.5861408    0.3537975 -69.23  0.002301311    2.925    0.658
        14  -9.3781    169.6963    195.3472   1.1447286035e+02   8.0557609192e+00    0.1449462    0.1121251  82.21 0.0007040601    1.693    0.409
        15 -10.9772    157.5523    192.6046   1.1655247368e+02   1.1001162447e+01    0.2604681    0.2282132  76.61  0.001435053    1.209    0.173
        16 -11.2536    157.1278    218.8658   1.2111781566e+02   6.0111029460e+00    0.2116341      0.17722  66.93 0.0007413828    1.232    0.188
        17 -12.0335    207.5974    183.7638   1.0442594782e+02   2.7075621526e+00    0.3778016    0.3604405 -68.06  0.001073471    1.220    0.180
        18 -12.1114    210.9594    181.2095   1.0323995642e+02   2.5080497718e+00    0.4586281    0.3227488 -25.06  0.001503121    1.541    0.351
        19 -11.5605    197.9405    175.8114   1.0473203300e+02   6.1255158647e+00    0.4033023    0.3149399 -56.70  0.001108034    1.468    0.319
        20 -10.5665    145.5112    178.0658   1.1648526607e+02   1.6439853496e+01     0.215808    0.1466367 -52.22 0.0004875963    1.527    0.345
        21  -9.5757    168.7009    175.4275   1.1082907988e+02   1.2256937907e+01    0.2148284    0.1388883  34.26 0.0008220358    1.654    0.395
        22 -10.6510    177.9975    171.2789   1.0796355602e+02   1.1164584822e+01    0.4780441    0.1794987 -52.54  0.001525304    3.365    0.703
        23 -12.3477    136.2433    171.2370   1.1728156707e+02   1.9782300951e+01    0.6627962     0.374146  41.05  0.002135295    1.772    0.436
        24 -11.6571    204.2190    168.3102   1.0187525020e+02   6.2641284935e+00    0.5326317    0.5043983  47.04  0.002571786    1.095    0.087
        25 -10.3324    135.9448    219.2327   1.2547066058e+02   9.8217725511e+00    0.1892567    0.1593881  51.68 0.0002665923    1.058    0.055
        26 -11.1774    145.8708    168.6010   1.1455198672e+02   1.8428996179e+01    0.2707188    0.2551449 -24.81 0.0006831495    1.197    0.165
        27 -10.1509    142.4747    165.9432   1.1479815092e+02   1.9707964096e+01      0.29585    0.1492005 -55.38  0.001054921    2.121    0.528
        28 -11.2556    119.4804    215.4074   1.2827251236e+02   1.3497871409e+01    0.3301961    0.2128681  80.47  0.001236592    1.937    0.484
        29 -11.2150    225.9579    166.9615   9.7360724280e+01   2.1181944877e+00    0.2266581    0.1812863 -77.86  0.001138331    1.808    0.447
        30  -9.9685    122.8277    165.9813   1.1939969041e+02   2.3576994182e+01    0.2235698     0.183153  80.57 0.0003701662    1.282    0.220
        31 -11.9061     99.6836    162.4967   1.2427750403e+02   2.8576382771e+01    0.2811686    0.2383021 -63.33 0.0002069285    1.141    0.124
        32 -10.7005     12.5488    160.2253   1.4419665361e+02   4.0141982401e+01    0.2709723    0.1631486  72.83  0.001248293    1.627    0.385
        33 -13.2271    104.1608    154.6734   1.2173818364e+02   2.9633909944e+01    0.8340462    0.5860143 -42.67  0.004047604    1.580    0.367
        34 -11.9917    111.8472    149.8411   1.1888097736e+02   2.9379558461e+01    0.5256953    0.3416626  72.55   0.00223615    2.076    0.518
        35 -11.9374     92.2406    148.5309   1.2353841078e+02   3.3115880044e+01    0.6597532    0.2535976  50.77  0.002308867    3.125    0.680
        36 -12.4302    112.7285    140.0705   1.1661191422e+02   3.1500987955e+01    0.7585528    0.5484797 -13.85  0.003290602    2.217    0.549
        37 -12.5989    102.2321    140.3471   1.1936002700e+02   3.3346585899e+01    0.3334318    0.2900508  64.33 0.0004204751    1.177    0.151
        38 -10.4553    140.0113    156.4820   1.1342133876e+02   2.2328913607e+01    0.2545342    0.2067645 -75.29 0.0003471806    1.339    0.253
        39 -10.4014     10.2271    153.3941   1.4401535920e+02   4.1855231580e+01    0.2615038    0.1782654   9.06  0.001638257    2.335    0.572
        40 -12.1687    133.9693    144.9889   1.1238835012e+02   2.6180177757e+01     1.159578     0.318776 -54.45  0.002995302    4.644    0.785
        41 -12.3587     20.0646    213.9681   1.4728002687e+02   2.7892069711e+01    0.2848991     0.176411  44.24  0.001562245    1.695    0.410
        42 -11.1789    174.4396    148.3545   1.0372890275e+02   1.6704508204e+01    0.3972354    0.2953111 -54.68  0.001102922    1.413    0.293
        43 -11.9296    144.9881    146.2570   1.1001414370e+02   2.3590059470e+01    0.5019264    0.3542843 -80.26  0.002135027    1.926    0.481
        44 -10.8167      3.0926    146.8063   1.4493182448e+02   4.3862416053e+01    0.1908505    0.1600207  30.85 0.0004739954    1.589    0.371
        45 -11.7945    162.9738    155.0720   1.0779943560e+02   1.7781310220e+01    0.4450415    0.3635902 -83.15  0.001954895    1.451    0.311
        46 -11.3657    143.5252    139.4630   1.0881734931e+02   2.5427969377e+01    0.3471314    0.2472469   0.23  0.001206794    2.406    0.584
        47 -10.5166    133.0434    213.4989   1.2521003893e+02   1.1462754901e+01     0.205443    0.1223856  44.43 0.0004830397    1.511    0.338
        48 -12.4637      3.4477    131.1627   1.4317237752e+02   4.7303203562e+01    0.7852592    0.2235579 -76.06  0.003109334    3.305    0.697
        49 -11.7516    128.7311    206.4508   1.2503480155e+02   1.3661922730e+01    0.3545577    0.2494453  22.74    0.0017334    1.982    0.495
        50  -9.6959    171.4718    137.5395   1.0186685509e+02   1.9666027765e+01    0.1566239    0.1512853 -88.50 0.0001288539    1.042    0.040
        51 -11.4851     20.4518    135.9592   1.3961679993e+02   4.4945356280e+01    0.2060705    0.1763247 -69.64 0.0002024083    1.127    0.112
        52 -10.1231    165.7131    207.3640   1.1745275731e+02   6.5308133002e+00    0.2726317     0.211127  87.38  0.001030006    1.701    0.412
        53 -11.7042    118.5206    130.1534   1.1290052986e+02   3.2691919717e+01    0.4191751    0.3803589 -44.56  0.001172093    1.115    0.103
        54 -11.6011    106.0000    130.9844   1.1635501954e+02   3.4865029017e+01    0.4055932    0.3293415  73.86  0.001338571    1.384    0.277
        55 -11.5682    106.5087    126.9009   1.1529392448e+02   3.5720341966e+01    0.3263049    0.2571478 -45.82 0.0007809458    1.245    0.197
        56 -11.9350    135.4379    122.3784   1.0670992049e+02   3.0986869426e+01    0.6364316    0.2309793 -49.34  0.002056753    2.798    0.643
        57 -11.3070    160.6103    128.2917   1.0209959744e+02   2.4115775567e+01    0.4556916    0.2849062 -33.69  0.001869058    1.810    0.447
        58 -10.3135    142.1523    127.2004   1.0623325278e+02   2.8466983286e+01    0.3669021    0.2407585  78.95 0.0008410874    2.456    0.593
        59 -11.6615    123.9567    126.4297   1.1061986136e+02   3.2462919057e+01    0.6011444    0.3586351  71.25  0.002143577    2.902    0.655
        60 -10.5103    164.6980    204.3511   1.1713942726e+02   7.2966744283e+00    0.3107005    0.1990008 -70.15  0.001211298    2.285    0.562
        61 -13.7021     12.5442    206.0103   1.4803636318e+02   3.0288971950e+01     0.577697    0.2735687  35.83  0.003377249    2.441    0.590
        62 -10.6398    112.7639    119.4054   1.1185138605e+02   3.6266031267e+01    0.2694055    0.2543327 -55.17 0.0004542008    1.019    0.018
        63 -11.0035     22.6124    204.8304   1.4613522051e+02   2.9504797798e+01    0.1444222   0.08475763  89.83 0.0002100178    1.374    0.272
        64 -12.0538      2.9566    112.6873   1.4100005136e+02   5.1407363827e+01    0.3608243    0.2286223 -54.48  0.001614601    1.322    0.244
        65 -11.1313    168.4194    113.3413   9.6547490274e+01   2.5467815642e+01    0.4325316    0.3187939  89.76 0.0009222964    1.845    0.458
        66 -11.0747    134.5906    104.1653   1.0220149557e+02   3.5128977968e+01    0.5854007     0.175589 -43.12  0.001745661    3.315    0.698
        67 -10.5884    205.4180    110.1756   8.8130508703e+01   1.7316632184e+01       0.3303    0.2206312  44.57  0.001009458    1.594    0.373
        68 -11.2820     87.8421    108.2220   1.1600386602e+02   4.3223859033e+01    0.3745364    0.2562779  71.33  0.001438721    2.172    0.540
        69 -13.3442    194.1400    194.1499   1.0918886132e+02   3.4609311521e+00      1.17914    0.7901793 -66.93  0.005165295    2.305    0.566
        70 -10.6826     86.6121     77.6799   1.0809592440e+02   4.9886438953e+01    0.2237729    0.2072804 -18.28 0.0005118726    1.019    0.019
        71 -10.2011    160.3486    247.8798   1.2479536105e+02   4.7234158012e-01    0.2212299    0.1191191 -59.83  0.001094112    2.578    0.612
        72 -10.2974     13.5488     59.9634   1.2789312009e+02   6.1756626036e+01    0.1590387    0.1573622  45.84 0.0004006867    1.373    0.272
        73 -12.3817    204.6628    198.3540   1.0789328432e+02   6.8226563308e-01    0.5497408    0.3799549  19.18  0.001781074    1.660    0.397
        74 -11.4256    158.4881    241.8699   1.2430631228e+02   1.7659482993e+00    0.3060208    0.2145218  -8.55  0.001552207    2.522    0.604
        75  -9.3815    218.7888    241.9736   1.1297030591e+02  -8.5693854711e+00    0.1455956   0.09707678 -32.24 0.0005258436    1.667    0.400
