#   1 NUMBER                 Running object number                                     
#   2 MAG_AUTO               Kron-like elliptical aperture magnitude                    [mag]
#   3 X_IMAGE                Object position along x                                    [pixel]
#   4 Y_IMAGE                Object position along y                                    [pixel]
#   5 X_WORLD                Barycenter position along world x axis                     [deg]
#   6 Y_WORLD                Barycenter position along world y axis                     [deg]
#   7 A_WORLD                Profile RMS along major axis (world units)                 [deg]
#   8 B_WORLD                Profile RMS along minor axis (world units)                 [deg]
#   9 THETA_WORLD            Position angle (CCW/world-x)                               [deg]
#  10 FWHM_WORLD             FWHM assuming a gaussian core                              [deg]
#  11 ELONGATION             A_IMAGE/B_IMAGE                                           
#  12 ELLIPTICITY            1 - B_IMAGE/A_IMAGE                                       
         1 -11.2780     80.1245     54.4555   9.7620936273e+01   5.5481188373e+01    0.8005928     0.494385   9.79  0.001310238    2.230    0.552
         2 -11.1651     39.9905      3.1265   9.1738280752e+01   6.8241315771e+01    0.7737916    0.4201132  -0.30  0.004528877    2.008    0.502
         3 -11.6575      9.2538      3.2934   1.0542868303e+02   7.1725781265e+01    0.7744321    0.2535228  28.45  0.004163016    2.997    0.666
         4 -11.4742     21.1294     28.8397   1.1057217037e+02   6.7199010678e+01    0.9340994    0.5781485  23.02  0.006217428    1.669    0.401
         5 -11.6864     25.7693      5.4869   9.8753739924e+01   6.9784017011e+01    0.7563001    0.6214763  43.04  0.004838169    1.990    0.497
         6 -11.6671      8.6543     13.2551   1.1008324135e+02   7.0503686971e+01     1.335659    0.4801582 -24.49  0.006038267    3.548    0.718
         7 -10.5801     16.8280      9.9365   1.0480443041e+02   7.0204138121e+01    0.3194755    0.1994388 -11.70 0.0004171499    1.326    0.246
         8 -10.9097     26.6298     15.1017   1.0263232784e+02   6.8545066371e+01    0.5081362    0.3561941 -35.05  0.001046601    1.541    0.351
         9 -11.0929     20.2938     14.4302   1.0516168853e+02   6.9292248905e+01    0.7243157    0.3756528  -7.75  0.004119895    2.200    0.546
        10 -10.1525     45.7572     33.0650   1.0203525782e+02   6.3862735710e+01    0.2969395    0.2152393 -46.34  0.001448941    1.758    0.431
        11  -9.4157     75.1106     18.5167   8.5992148584e+01   6.1164419760e+01     0.333104    0.1657687 -15.75  0.001653334    2.354    0.575
        12 -12.0151     68.8347     11.5670   8.5181345242e+01   6.2963996854e+01    0.3669463    0.2232055  34.52 0.0003039674    1.403    0.287
        13 -10.5546    162.2988      9.6365   6.4436969802e+01   4.3221106715e+01    0.5036741    0.2096805  52.35  0.002288858    2.163    0.538
        14  -8.9150     48.8718      9.9554   9.1371585796e+01   6.6295448945e+01    0.1822249    0.1448357  20.60  0.000623826    1.143    0.125
        15  -8.5487    130.8885      8.3418   6.9029535497e+01   5.0651333347e+01    0.3477268    0.1049333  38.71  0.001046571    5.407    0.815
        16 -10.4471     80.8234      6.3848   7.9551788168e+01   6.1287123418e+01    0.3508036    0.2738688  50.42 0.0008896459    1.277    0.217
        17  -8.7436    111.1345      3.2887   7.1170692419e+01   5.5428052166e+01    0.2113005    0.1245097  44.90 0.0008907109    1.434    0.302
        18  -9.3575    144.7920      4.2970   6.5508118597e+01   4.7803370931e+01    0.3210053    0.2095021  25.40  0.001762129    1.937    0.484
        19  -9.6160    158.0714      1.4363   6.2802340730e+01   4.4947763618e+01     0.403744    0.1082388  69.40  0.001138016    3.253    0.693
        20  -8.2326    249.0128    245.4336   1.0319436205e+02  -1.3860602586e+01    0.1618959   0.09992778  30.41 0.0003468356    1.472    0.320
        21  -9.1722    250.0750    250.2946   1.0383180631e+02  -1.4629968057e+01     0.168169     0.123079  10.62 0.0004027711    1.126    0.112
        22  -8.9930    232.1144    250.7069   1.0710052365e+02  -1.2180479383e+01    0.2332657   0.09329659  37.56 0.0007405453    2.246    0.555
        23  -9.3337    202.7666    249.8374   1.1240968701e+02  -7.6047388821e+00    0.3897893    0.3185929 -39.84  0.001694231    1.446    0.309
        24  -8.7819    198.0187    250.5325   1.1342328899e+02  -6.9509513806e+00    0.1832971    0.1065554  37.92 0.0003865762    1.483    0.326
        25  -8.4132    190.1651    249.8702   1.1482430100e+02  -5.5819085989e+00    0.3837921    0.1591548  27.61  0.001481748    3.208    0.688
        26  -8.6025    183.1527    250.5906   1.1628862382e+02  -4.5434228970e+00    0.1809834    0.1063238  37.63 0.0003320168    1.451    0.311
        27  -8.7382    166.4185    250.0307   1.1946254301e+02  -1.6649897981e+00    0.2336057    0.1583923  55.54  0.001297053    1.571    0.363
        28  -8.4521    150.0644    249.6445   1.2261759397e+02   1.1618638653e+00    0.2661872    0.1657192  32.05 0.0003888323    1.590    0.371
        29  -8.2598    147.9795    245.1552   1.2240229895e+02   2.2957339641e+00    0.2326235    0.1724861 -60.09  0.001356067    1.594    0.373
        30  -9.9215    156.9210    246.1197   1.2076431982e+02   5.9998953497e-01    0.4133466    0.2962389   7.29 0.0006362505    2.004    0.501
        31  -9.3116    151.8874    244.3118   1.2150419345e+02   1.7743252311e+00    0.2612907    0.2110804 -62.14 0.0003342085    1.461    0.316
        32  -8.4179    136.5772    250.2518   1.2534925124e+02   3.3307342002e+00     0.256393     0.124633  48.32 0.0006916802    1.788    0.441
        33 -10.1895    124.9611    248.3909   1.2738875439e+02   5.6058360467e+00    0.2701128    0.2210168 -80.51 0.0005872937    1.355    0.262
        34  -8.4611    115.9697    248.7807   1.2919565330e+02   7.0178268226e+00    0.2494289    0.1736279 -37.38  0.001369647    2.130    0.531
        35  -8.4672     89.5941    249.1951   1.3431798661e+02   1.1123541140e+01    0.3306743    0.1379862  58.79   0.00143677    2.566    0.610
        36  -7.9189     83.8375    250.6270   1.3554805744e+02   1.1721470711e+01    0.1773554   0.09147124  51.09 0.0005519256    1.600    0.375
        37  -9.9981     71.8633    249.9723   1.3770765567e+02   1.3604762473e+01    0.3131367     0.203657  66.43 0.0004724805    1.300    0.231
        38 -10.3436     61.8765    248.7784   1.3942638789e+02   1.5243087440e+01    0.2254837    0.2057979  74.76 0.0004602551    1.332    0.249
        39 -10.1923     16.2416    249.0580   1.4734249954e+02   2.0861140020e+01    0.2423265    0.2248406  26.75  0.001390789    1.839    0.456
        40  -9.9312      8.9953    248.3910   1.4848167925e+02   2.1773283921e+01    0.2176728    0.1673466  56.71 0.0004670669    1.359    0.264
        41  -8.5116      1.8994    250.5900   1.4972609020e+02   2.2093172475e+01    0.1708865   0.09260283  39.79  0.001125667    2.001    0.500
        42  -8.7465    133.7844    244.9392   1.2519723106e+02   4.7528442492e+00    0.1751263    0.1641172  46.58 0.0003809203    1.142    0.124
        43  -9.6076    113.9013    244.0060   1.2902059578e+02   8.2505336146e+00    0.2135153    0.1925606 -64.78 0.0003523789    1.301    0.232
        44 -10.0283     80.9606    244.2747   1.3545081325e+02   1.3382421197e+01    0.3100582    0.1898731  51.78  0.001513883    1.366    0.268
        45  -9.8727     41.2186    244.3688   1.4277058238e+02   1.8833847204e+01    0.2139726    0.1751458  63.56 0.0005511573    1.228    0.185
        46 -11.0185    234.2914    242.9880   1.0540788080e+02  -1.1448183946e+01    0.3437749    0.2387821  -5.66 0.0005784998    1.435    0.303
        47  -8.5239    219.8673    243.8275   1.0820532842e+02  -9.4027417365e+00    0.2226599    0.1556716  49.67  0.001289651    1.760    0.432
        48  -8.4364    163.3477    244.1578   1.1920122219e+02  -1.6424069648e-01    0.1685819    0.1644365  65.57   0.00112469    1.160    0.138
        49  -8.5010     48.1154    244.1645   1.4152531790e+02   1.7994355595e+01    0.1697009     0.147968 -89.72  0.001228516    1.309    0.236
        50  -8.5955     19.6705    243.8627   1.4645568229e+02   2.1489437025e+01    0.1662705    0.1316302  59.35 0.0004984045    1.306    0.234
        51  -8.1439    177.1489    242.8887   1.1627449907e+02  -2.3069196525e+00    0.1752924    0.1384188  18.32 0.0004445438    1.295    0.228
        52  -9.8142    170.5498    240.0177   1.1713774231e+02  -6.9777576609e-01    0.2772426    0.2111534  15.15  0.000375705    1.483    0.326
        53 -10.1412    171.7949    233.3766   1.1583957765e+02   2.3082097434e-01    0.3172297    0.2815521  68.52  0.001949544    1.293    0.227
        54 -10.8407    222.7495    203.1774   1.0033224427e+02  -3.4698905908e+00     0.878512    0.5947016  53.24  0.002975539    1.853    0.460
        55 -12.8990    188.8764    191.1018   1.0471908833e+02   4.9586447969e+00     1.168321    0.7932877 -66.63  0.005266363    2.104    0.525
        56  -9.7405    214.8044    238.6617   1.0828466170e+02  -7.8546356951e+00    0.2757591    0.1995951 -36.99 0.0004422871    1.506    0.336
        57 -10.5038    193.9405    208.4239   1.0700058052e+02   7.2601790989e-01     0.446264    0.3226465 -53.68  0.002006939    1.621    0.383
        58 -10.4428    206.9410    205.6436   1.0387048940e+02  -1.1250830301e+00    0.3871886     0.274823 -23.29  0.000340396    1.517    0.341
        59 -10.9497    199.3518    201.6987   1.0463374990e+02   9.6490167329e-01    0.5882604    0.4624769 -24.11  0.001692467    1.328    0.247
        60 -13.3546    206.1867    194.2408   1.0181035351e+02   1.0763374852e+00     1.579212     1.358735   5.19  0.008987048    1.173    0.147
        61 -10.3809    221.8507    225.5310   1.0466006517e+02  -6.9719769816e+00    0.7223974    0.4043071  12.40  0.002355297    2.615    0.618
        62 -10.4728    238.9715    217.5190   1.0002754874e+02  -8.4396123857e+00    0.4439742    0.2312179  35.56  0.001019444    1.877    0.467
        63 -10.2127    233.1587    202.8917   9.8328929098e+01  -5.1785143947e+00    0.5623283    0.3640692  24.13    0.0029604    1.630    0.387
        64 -11.1126    203.6450    216.2541   1.0649869821e+02  -2.3942643172e+00    0.6748419    0.3408421 -44.74  0.003098587    2.135    0.532
        65 -11.4205    211.4868    217.2467   1.0514376225e+02  -3.9160856979e+00    0.8750724    0.5882983  40.93  0.004737573    1.455    0.313
        66 -11.2632    227.5136    215.5842   1.0178053182e+02  -6.3168808956e+00    0.7631699    0.5911237   9.20  0.003593669    1.248    0.199
        67 -10.4330    233.6644    210.3038   9.9649743168e+01  -6.4683535556e+00    0.3874925    0.3117477  -7.42  0.000914188    1.157    0.136
        68  -7.9105    155.4637    240.9892   1.2030523812e+02   1.7415373930e+00     0.165872    0.1320254 -51.10 0.0003468331    1.450    0.311
        69  -9.6400    126.5445    240.2295   1.2601748767e+02   6.8526703239e+00     0.236539    0.2147994  78.43 0.0006709824    1.126    0.112
        70  -9.9665     69.1875    239.9285   1.3725698567e+02   1.5968454462e+01    0.2327657    0.1891963  61.28 0.0004091595    1.130    0.115
        71 -10.2866     25.3347    239.3105   1.4518826382e+02   2.1749748651e+01    0.2253114     0.183691 -76.18 0.0005087783    1.416    0.294
        72  -9.3594    135.9833    239.1596   1.2396886261e+02   5.4403267984e+00    0.3598446    0.2270271  58.45  0.001865562    1.616    0.381
        73  -9.2397    118.4039    239.1325   1.2751054964e+02   8.4337120110e+00    0.2232816    0.1770144  48.66  0.000372415    1.113    0.101
        74  -9.4347     61.9835    239.5210   1.3857769047e+02   1.7064418109e+01    0.2090202    0.1738672  85.74 0.0004025861    1.153    0.133
        75  -7.9567     29.4280    234.7863   1.4414842266e+02   2.2188764181e+01     0.165296   0.09510376 -81.60 0.0004796944    1.489    0.328
        76  -9.1830     35.5039    239.9633   1.4345057267e+02   2.0417836566e+01    0.1988604    0.1612906  79.72 0.0004559905    1.159    0.137
        77  -8.2715     32.4427    237.4785   1.4380967368e+02   2.1286744023e+01    0.1867553    0.1062409  38.16 0.0006046513    1.929    0.481
        78 -10.6439     35.6017    231.8732   1.4281354909e+02   2.2052722743e+01    0.4251131    0.1885766 -69.28  0.001441029    2.053    0.513
        79  -9.0209     19.0404    239.7239   1.4629869003e+02   2.2377136370e+01    0.2145466     0.144337  67.34  0.001283525    1.142    0.124
        80 -10.4425     10.4645    238.8046   1.4769082454e+02   2.3485675082e+01    0.2621845    0.1842175  75.19 0.0005350197    1.029    0.028
        81  -8.5653    238.8275    234.6486   1.0314236686e+02  -1.0946476390e+01    0.2108061    0.1705972 -45.79  0.001348666    1.632    0.387
        82  -9.1142    245.1845    229.5479   1.0109698316e+02  -1.1151803913e+01    0.3290317    0.1866628 -14.82  0.001008334    2.049    0.512
        83 -10.1346    247.7439    238.4791   1.0221873525e+02  -1.2759721139e+01    0.2739725    0.1816016  27.27  0.001703486    1.370    0.270
        84  -9.4983    243.6776    234.7488   1.0228832573e+02  -1.1667587080e+01    0.3264404    0.2692516 -78.53 0.0009089357    2.525    0.604
        85  -9.0282    240.7753    238.9578   1.0354359258e+02  -1.1833637296e+01        0.189    0.1471504  16.74 0.0003766935    1.105    0.095
        86  -9.5313    149.4164    238.0145   1.2108622626e+02   3.3233265542e+00    0.2285564    0.2165554  46.74 0.0004534037    1.093    0.085
        87  -8.6333    148.8932    232.6716   1.2039768787e+02   4.3965726190e+00    0.2357065    0.1921823 -47.43   0.00138291    1.398    0.284
        88  -9.3707    112.3018    237.0480   1.2847234258e+02   9.8554408348e+00    0.3503876    0.2079235 -58.26  0.001102658    1.858    0.462
        89  -9.0329    108.4876    233.1627   1.2875166107e+02   1.1256678637e+01    0.2560979    0.1687864  45.14 0.0003973972    1.353    0.261
        90  -9.8034     41.7498    236.7903   1.4208296367e+02   2.0288754011e+01    0.2754395    0.1771942 -87.65   0.00122657    1.336    0.251
        91  -9.4407    220.5632    237.9007   1.0707065211e+02  -8.6466338817e+00    0.2374988    0.1584679  33.47 0.0005049625    1.352    0.261
        92  -8.1577    225.0861    236.2417   1.0594055127e+02  -9.1038288462e+00    0.1692764    0.1424453  12.44 0.0003803842    1.020    0.020
        93  -7.5223    142.2672    242.6372   1.2318925767e+02   3.7231574784e+00    0.1298685   0.09484428  73.87 0.0003081109    1.648    0.393
        94  -8.6930     97.6038    237.2610   1.3144240549e+02   1.2204082767e+01    0.2290635    0.1209077 -70.43  0.001118979    2.123    0.529
        95  -7.8545     48.4756    238.4610   1.4099112495e+02   1.9091511446e+01    0.1205798   0.09379155  74.96 0.0001711081    1.037    0.036
        96  -8.1570    183.7079    236.9898   1.1403856894e+02  -2.4496594669e+00     0.171246    0.1594579  30.96 0.0005005887    1.093    0.085
        97  -9.8281     78.6512    235.9218   1.3503043407e+02   1.5398290239e+01    0.3070729     0.201217  57.74  0.000403598    1.297    0.229
        98  -9.8366    200.1260    225.0675   1.0877127623e+02  -3.2782965916e+00    0.2749754    0.2277129 -33.49  0.000367116    1.282    0.220
        99  -9.5185      3.5241    235.3888   1.4865033124e+02   2.4875755963e+01    0.1906195    0.1525558 -85.49 0.0002139219    1.324    0.245
       100  -9.4928    140.3840    234.7915   1.2245451568e+02   5.4941453515e+00    0.2410952    0.2079035  55.30 0.0004015024    1.048    0.046
       101  -8.4665    129.9150    235.1666   1.2464735415e+02   7.2392527741e+00    0.1864056     0.155721  60.19 0.0002752819    1.083    0.077
       102  -9.2215    230.4433    233.1354   1.0440683380e+02  -9.4705143712e+00    0.3143867    0.1902706  20.44 0.0009325507    1.682    0.405
       103 -10.2988    192.1964    233.0252   1.1170368281e+02  -3.2433790992e+00    0.2721782    0.2581093 -23.32 0.0004759339    1.180    0.152
       104  -8.1286    119.5338    233.3017   1.2651549113e+02   9.3776030273e+00    0.2466461    0.1309868 -65.66  0.001153055    2.224    0.550
       105  -8.6949     64.9395    234.0609   1.3749899217e+02   1.7765781013e+01    0.1836868    0.1501588  77.47  0.000428486    1.062    0.058
       106  -8.4974    176.9015    232.8316   1.1472177869e+02  -5.6823738621e-01    0.1929865    0.1635676  17.24 0.0003654925    1.185    0.156
       107  -8.1619    166.2650    232.7100   1.1685364034e+02   1.3208146505e+00    0.1706472    0.1436193  16.40  0.000452871    1.268    0.211
       108  -8.9789    153.2634    233.0306   1.1955640129e+02   3.5586598711e+00    0.2131618    0.1710183  45.87 0.0004030032    1.102    0.092
       109 -10.3607      7.9759    216.0091   1.4668278316e+02   2.8400562419e+01     0.419571     0.288838 -31.05 0.0006064152    3.079    0.675
       110 -10.1459     10.5129    231.4779   1.4723643977e+02   2.4947477456e+01    0.2326896    0.1872365  74.57 4.427445e-05    1.205    0.170
       111 -10.2893      7.7911    225.9554   1.4736178260e+02   2.6351207357e+01    0.3509366    0.2691651 -58.08  0.001087322    1.758    0.431
       112 -10.1413      1.8067    226.8469   1.4844782847e+02   2.6761117534e+01    0.3679999    0.1290944 -72.14  0.001066886    2.322    0.569
       113 -10.1059    250.3318    231.4177   1.0051886389e+02  -1.2154330656e+01    0.2076736    0.1492855 -28.10  0.001319192    1.332    0.249
       114  -9.8515    100.7115    231.0097   1.3006436288e+02   1.2965450817e+01    0.2656504    0.2475331 -20.61 0.0004447081    1.506    0.336
       115  -9.3550     85.3920    230.9373   1.3315152963e+02   1.5401029542e+01    0.2865886    0.2406926 -31.24  0.001606901    1.836    0.455
       116  -9.3672    133.1633    230.1929   1.2327592229e+02   7.6359998063e+00    0.3060009    0.2073497  48.80  0.001292687    1.305    0.234
       117  -9.3855    123.5136    230.9518   1.2537814341e+02   9.1611450986e+00    0.2388189    0.1764086  44.54 0.0003866721    1.220    0.180
       118  -9.2107     55.5473    230.8680   1.3899653921e+02   1.9718749999e+01    0.2039031    0.1822654 -55.86 0.0006111043    1.550    0.355
       119  -8.8206     59.0050    227.3793   1.3799741068e+02   1.9982180081e+01    0.2442464    0.1024093  43.92  0.001170349    2.123    0.529
       120  -8.2993    226.2365    230.2028   1.0466941730e+02  -8.3843398090e+00    0.1572861    0.1373256  37.85 0.0004626431    1.311    0.237
       121  -9.1847    158.9360    229.4090   1.1782931651e+02   3.2185194951e+00    0.3404128    0.2186285 -29.46 0.0004584347    2.131    0.531
       122  -8.7020    163.2307    225.1746   1.1626246147e+02   3.2316706599e+00    0.2922404    0.2879066  26.45  0.001076975    1.097    0.089
       123  -9.3404    160.5015    222.4934   1.1639037506e+02   4.2274635595e+00    0.2676329    0.2516714  28.46 0.0008145807    1.074    0.069
       124  -9.6757    160.1630    218.1441   1.1573959713e+02   5.1191821353e+00    0.3674021    0.2605896  73.75   0.00116236    1.949    0.487
       125  -9.9703     45.2291    229.0336   1.4079161878e+02   2.1450499611e+01    0.2507676    0.2221854  33.94 0.0004891846    1.581    0.368
       126  -8.4760    144.9821    229.0367   1.2065499279e+02   5.7740359109e+00    0.2554673    0.2043561   5.54     0.001396    1.676    0.403
       127  -9.1990     79.3555    228.5467   1.3409329826e+02   1.6815724055e+01    0.2143232    0.2046186  65.80 0.0002423941    1.308    0.235
       128  -9.1718     29.8459    228.4537   1.4359988868e+02   2.3442851624e+01    0.3159686    0.1663538 -55.92  0.001525358    2.351    0.575
       129 -10.3204    104.1837    241.0066   1.3057913511e+02   1.0410664984e+01     0.288512    0.2261951  68.28 0.0005482532    1.134    0.118
       130  -8.6223    152.9116    227.8828   1.1883327293e+02   4.5787870810e+00    0.1924985    0.1743674  23.54 0.0003392259    1.164    0.141
       131  -8.2911    107.4781    228.1620   1.2831521224e+02   1.2436236512e+01    0.1941802    0.1541293  53.34 0.0004514966    1.111    0.100
       132 -10.2275     19.5402    226.5858   1.4532748893e+02   2.4990328247e+01    0.2481768    0.1949064  84.45 0.0006042448    1.129    0.114
       133 -10.2881    236.3282    226.3134   1.0211379860e+02  -9.3612486441e+00    0.2795279    0.2319491  36.28  0.001262155    1.335    0.251
       134  -8.9585    175.5557    227.0516   1.1404142491e+02   6.8274587204e-01    0.2256499    0.1701369  26.23 0.0003487551    1.314    0.239
       135  -7.8522    139.2230    227.3335   1.2159582283e+02   7.1248022531e+00    0.1221008    0.1047039 -16.39 0.0002030561    1.520    0.342
       136  -9.6109    229.4439    225.6129   1.0325401556e+02  -8.1914833894e+00    0.2263307    0.1938289  -7.31 0.0004264935    1.074    0.069
       137  -8.5904    185.0979    226.0461   1.1193789978e+02  -8.2974937200e-01    0.1956425    0.1805189  24.32 0.0003591086    1.037    0.036
       138  -8.8959    120.9019    224.7262   1.2505179167e+02   1.0859772231e+01    0.2225544    0.1857453 -77.03 0.0002688953    1.258    0.205
       139 -10.5163    248.9646    223.0099   9.9246212471e+01  -1.0762154450e+01    0.2641152    0.2337141 -27.49 0.0004440575    1.303    0.233
       140  -9.2994    191.5536    224.0091   1.1028936667e+02  -1.6115884170e+00     0.239428    0.1966949  27.00 0.0004606816    1.113    0.102
       141  -8.1679    170.9175    223.8451   1.1445541518e+02   2.0915154417e+00    0.1941547    0.1706928   6.96 0.0003103891    1.224    0.183
       142  -8.3921    156.0013    223.7598   1.1753565023e+02   4.8029735096e+00    0.1850498    0.1625734  45.89 0.0002606258    1.028    0.028
       143  -9.5834    129.7399    223.4354   1.2300480922e+02   9.5760681777e+00    0.2405333    0.2293624  12.41  0.000430216    1.253    0.202
       144  -8.6560    129.9002    218.9045   1.2229274758e+02   1.0468580903e+01    0.2304781    0.1941765 -53.17 0.0006021695    1.317    0.241
       145  -8.4174    104.4362    223.7172   1.2836519186e+02   1.3860302861e+01    0.1887509    0.1613074  19.60 0.0002960212    1.550    0.355
       146 -10.6264     47.4169    250.1460   1.4212165001e+02   1.6911279308e+01    0.3549842    0.1624386  40.75  0.001149281    2.078    0.519
       147  -8.5634    135.9170    223.0895   1.2164969530e+02   8.5490291671e+00    0.2427133    0.1778214  44.16 0.0007203736    1.233    0.189
       148  -8.9787     82.9481    222.9384   1.3272422869e+02   1.7456020284e+01    0.2090323     0.167312  54.30  0.000362331    1.162    0.140
       149  -8.7279     75.3484    222.3421   1.3421038543e+02   1.8728179391e+01    0.1960142    0.1780673  88.15 0.0005774166    1.200    0.166
       150  -9.9685     50.3390    221.5343   1.3912966077e+02   2.2383421801e+01    0.3285287    0.2982774 -46.69  0.001145843    1.599    0.375
       151 -10.4817     48.9768    217.6030   1.3902300841e+02   2.3409147627e+01    0.5291081    0.3516911  87.38  0.003161189    1.313    0.238
       152  -8.5302    175.0054    221.2621   1.1317640765e+02   1.8260297683e+00    0.2357179    0.1935108 -69.97 0.0009463337    1.535    0.349
       153  -8.4939    115.1909    221.6247   1.2581841737e+02   1.2481779588e+01    0.1842839     0.153059  48.00  0.000467221    1.136    0.120
       154  -8.9014     97.8673    221.8016   1.2948977472e+02   1.5341908313e+01    0.2016368    0.1808473 -43.40 0.0004535179    1.446    0.308
       155  -8.1827     92.8936    221.6912   1.3051465936e+02   1.6166488292e+01    0.1796614    0.1486115  62.53 0.0003670699    1.057    0.054
       156  -9.7159     16.0229    221.1197   1.4557688654e+02   2.6506619390e+01    0.2408542     0.193868 -63.91 0.0005834238    1.548    0.354
       157  -8.4673    181.0146    220.9542   1.1189066283e+02   7.9827450691e-01    0.2031742    0.1860792  24.48 0.0004182186    1.021    0.021
       158  -8.3914    109.9399    224.2198   1.2728076420e+02   1.2836050377e+01    0.2053019    0.1569914  64.00 0.0004336117    1.200    0.167
       159  -8.4041     68.4598    220.9970   1.3546184317e+02   2.0021161209e+01    0.1837806    0.1498964  65.39 0.0003864331    1.087    0.080
       160  -9.2581     59.8910    220.6332   1.3714930972e+02   2.1301164715e+01    0.2014389     0.172827 -65.80 0.0003892968    1.376    0.273
       161  -9.6089     40.2958    220.5117   1.4098767848e+02   2.3872288531e+01    0.2737739    0.1911831  82.81  0.001171589    1.167    0.143
       162  -9.6197    186.0511    219.8202   1.1066645037e+02   9.7582704125e-02    0.2376729    0.2019186 -41.01 0.0004901804    1.278    0.218
       163  -9.0884    141.3194    220.1468   1.2005237276e+02   8.1657366142e+00    0.2301587    0.1834188  46.68 0.0009317566    1.133    0.117
       164  -8.5052    109.0569    219.4882   1.2682116808e+02   1.3974757878e+01    0.1912269    0.1702246  87.32 0.0004053836    1.096    0.088
       165  -7.8437     87.8549    220.1938   1.3137910626e+02   1.7283478138e+01    0.1585852    0.1511199  55.49 0.0003084025    1.272    0.214
       166  -8.7799    104.4708    219.0524   1.2773507194e+02   1.4837800701e+01    0.1841143    0.1297315 -65.32 0.0003541863    1.469    0.319
       167  -8.0586    136.8146    218.3699   1.2073360848e+02   9.3370796999e+00    0.1849027    0.1239223  34.70 0.0001825559    1.513    0.339
       168 -10.2737    195.1454    216.0040   1.0814750611e+02  -8.5081954463e-01     0.446597    0.2994805 -10.29 0.0009324207    2.031    0.508
       169  -8.4583    120.1661    217.2141   1.2412438183e+02   1.2540019171e+01    0.1906566    0.1816182  42.35  0.000500273    1.181    0.153
       170  -7.5089     77.3063    217.3177   1.3322994149e+02   1.9522748115e+01    0.1182226    0.1039997 -35.31 0.0005711311    1.631    0.387
       171  -8.3771     72.2514    217.0701   1.3424939564e+02   2.0324686480e+01    0.1802951    0.1675393 -83.29 0.0006344247    1.260    0.206
       172  -8.7510     56.1266    216.7966   1.3751340724e+02   2.2644860283e+01    0.2058268    0.1376249 -88.07  0.000728955    1.340    0.253
       173  -8.5780     21.8523    216.7811   1.4418414923e+02   2.6802252514e+01    0.1625488    0.1353491 -83.35 0.0006035144    1.260    0.206
       174  -9.8486    180.3343    215.9550   1.1115508336e+02   1.8316939183e+00    0.2339799    0.1750765  47.10 0.0004636378    1.306    0.234
       175  -8.1677    124.9577    215.6836   1.2286537429e+02   1.2015485294e+01    0.1955029    0.1619686  54.27 0.0003456929    1.088    0.081
       176  -7.9386     91.1224    216.1953   1.3018971434e+02   1.7631106317e+01    0.1851605    0.1779634 -87.60 0.0007117708    1.240    0.194
       177  -8.9934     83.0791    215.6504   1.3182112579e+02   1.9010103306e+01    0.2112309    0.1770582 -70.15 0.0004479847    1.247    0.198
       178  -9.6295    171.9662    214.2501   1.1259279561e+02   3.6878667202e+00    0.2292878    0.2040413 -30.60 0.0004941826    1.213    0.176
       179  -8.5627    144.0482    214.9382   1.1863751280e+02   8.7156161552e+00    0.2071598     0.191412  41.19 0.0004220596    1.077    0.072
       180  -9.8146    248.7822    212.6466   9.7364675145e+01  -9.1958837572e+00    0.3077378    0.2019019 -15.01  0.001248873    1.543    0.352
       181  -8.7278    132.8402    213.6394   1.2084626918e+02   1.1027650133e+01    0.2093801    0.1863341 -47.15 0.0003603721    1.270    0.212
       182 -10.6947    187.2911    211.3084   1.0888942460e+02   1.4143441076e+00    0.4874694    0.2726006 -30.40  0.002149247    2.214    0.548
       183  -8.4676    117.9368    212.8596   1.2396005409e+02   1.3852819112e+01     0.194719    0.1835905  40.24 0.0003594651    1.190    0.160
       184  -8.3191    111.6891    213.0824   1.2534900894e+02   1.4891454945e+01    0.1860691    0.1660584 -75.12 0.0003917089    1.157    0.136
       185  -8.1656     74.8473    212.8295   1.3321380099e+02   2.0874772313e+01    0.1801441    0.1663716 -87.46 0.0003056994    1.212    0.175
       186  -8.8739     41.8772    212.6774   1.3996580426e+02   2.5378590700e+01     0.185529    0.1458494 -77.15 0.0004105406    1.222    0.182
       187  -7.8666     33.2751    213.5737   1.4174102589e+02   2.6210807526e+01    0.1347699   0.07118035  74.67 0.0004120326    1.825    0.452
       188  -9.6604    113.9500    228.8528   1.2706871035e+02   1.1211140482e+01    0.3422634    0.2175649  50.57 0.0009675833    1.388    0.280
       189  -8.9217     98.8700    211.4942   1.2790340056e+02   1.7400977246e+01    0.2251722    0.2113123 -22.16 0.0008292064    1.429    0.300
       190  -9.2387     25.1952    211.0416   1.4309335874e+02   2.7674860021e+01    0.2250465    0.1667533  73.12 0.0009574111    1.105    0.095
       191  -9.9677     17.2045    210.4580   1.4457515134e+02   2.8653231442e+01    0.4161472    0.1953673 -89.48  0.001101758    1.914    0.478
       192  -8.5132    125.3027    210.9864   1.2206955786e+02   1.2945205637e+01    0.1862953    0.1731883  82.64 0.0003101922    1.068    0.064
       193  -9.9892     67.4601    208.2885   1.3423915208e+02   2.2961318692e+01    0.3621639    0.2302166 -81.12  0.001145782    1.499    0.333
       194  -7.9061    141.1498    209.8965   1.1843679375e+02   1.0283334570e+01    0.1861434    0.1694001  -4.42 0.0005556109    1.327    0.247
       195  -8.9221    107.3403    210.0963   1.2586256014e+02   1.6285119930e+01      0.21999    0.1802297  38.52 0.0004545081    1.298    0.229
       196  -8.2550    162.2030    209.2183   1.1377400028e+02   6.4851114449e+00    0.1885968    0.1622802  73.27 0.0004730145    1.304    0.233
       197  -8.2976     93.8308    208.9165   1.2864452039e+02   1.8795097288e+01    0.1884704    0.1821563 -71.68 0.0004030307    1.249    0.199
       198  -8.2424    149.5508    207.8259   1.1626010242e+02   9.1446749732e+00    0.1921487    0.1413326 -50.19 0.0003932506    1.458    0.314
       199  -8.9265    133.9816    208.3163   1.1974380096e+02   1.1936183891e+01    0.1981844    0.1685752  51.91 0.0005179048    1.082    0.076
       200  -8.6524    115.0614    207.3392   1.2375657394e+02   1.5551111818e+01    0.2189675    0.1889946 -54.89 0.0004354923    1.277    0.217
       201  -8.6064     78.9524    208.0585   1.3175515583e+02   2.1322408733e+01    0.2029149    0.1707432  77.60 0.0003715609    1.009    0.009
       202  -8.5001     72.6832    208.0404   1.3309790441e+02   2.2261427347e+01    0.1847045    0.1496437 -87.95 0.0003304322    1.099    0.090
       203  -8.4638    120.1658    206.8236   1.2254933077e+02   1.4759827880e+01    0.2085463    0.1758185  67.46 0.0004022045    1.117    0.105
       204 -10.0584    184.3194    206.0372   1.0853271200e+02   2.9471806436e+00    0.3362704    0.2072626  35.78  0.001075548    1.573    0.364
       205  -8.5275    127.2602    206.3012   1.2089775744e+02   1.3594871620e+01     0.231121     0.200882  68.57 0.0002086059    1.093    0.085
       206  -9.3567    124.0287    206.0008   1.2156476559e+02   1.4245223023e+01    0.2050425    0.1854728  65.57  0.001177144    1.003    0.003
       207  -8.4050     47.9392    206.3036   1.3810939068e+02   2.6036962330e+01    0.1673686    0.1394098  70.47 0.0003236798    1.118    0.105
       208  -8.2318     39.4805    205.8709   1.3980070093e+02   2.7176594870e+01    0.1741116    0.1040916 -73.22 0.0004355456    1.458    0.314
       209  -9.3899    247.1784    204.5040   9.6107631206e+01  -7.6911298481e+00    0.2404712    0.1745702 -32.23 0.0004937316    1.283    0.221
       210  -7.9887    104.3632    205.5452   1.2585377712e+02   1.7795874654e+01    0.1370544    0.1232886  82.11 7.976981e-06    1.043    0.041
       211 -10.1294      7.4300    203.6041   1.4591704927e+02   3.1104850530e+01    0.2198988    0.2037682 -84.91 0.0006996233    1.406    0.289
       212 -10.8871    178.6634    202.3758   1.0903348796e+02   4.7154237220e+00    0.4544324    0.3579512  21.56  0.002321501    1.356    0.263
       213  -8.6440     94.0921    203.6362   1.2785468447e+02   1.9934891760e+01    0.2295537     0.150113  58.86  0.001154325    1.476    0.323
       214  -7.7908     43.4367    203.4663   1.3875118744e+02   2.7236123769e+01    0.1255139    0.1033948 -89.32 0.0004664285    1.086    0.079
       215  -9.0852     21.5068    202.3796   1.4309319874e+02   2.9971281170e+01    0.2224461     0.168767  56.78 0.0009907039    1.302    0.232
       216  -8.6102     17.0146    201.0000   1.4386494951e+02   3.0738226952e+01    0.2509734    0.1642912  34.19   0.00126678    1.860    0.462
       217  -9.9875    132.2709    200.0847   1.1875464896e+02   1.4020284964e+01    0.4017946    0.2779922 -25.54 0.0007230747    2.209    0.547
       218  -8.4592    121.4885    202.0144   1.2149150154e+02   1.5575209755e+01    0.2064616    0.1397093 -58.14 0.0005064285    1.531    0.347
       219  -8.6102     98.6889    202.0973   1.2661109049e+02   1.9524099796e+01    0.2510299    0.1925668  39.50 0.0006204489    1.366    0.268
       220  -9.9665     81.5807    200.7610   1.3023244822e+02   2.2574259976e+01    0.3576738    0.2392658  70.57 0.0008858038    1.517    0.341
       221 -10.0246     69.3177    200.6824   1.3292215503e+02   2.4420006847e+01    0.4022336    0.2737794  77.16   0.00205013    1.437    0.304
       222 -11.0896     64.1428    195.4317   1.3340690475e+02   2.6363890945e+01    0.5541418    0.3676724  70.63  0.001090466    1.480    0.324
       223  -8.0033     56.7835    202.4734   1.3584052742e+02   2.5750864177e+01     0.149405    0.1275023  28.80 0.0005890208    1.546    0.353
       224  -8.4620     29.1365    201.3984   1.4148056356e+02   2.9367993560e+01    0.2046984    0.1377754 -71.13 0.0006795087    1.334    0.250
       225  -8.9305    187.4484    201.1435   1.0696411456e+02   3.2892671855e+00    0.2021547    0.1383548 -40.49 0.0005310465    1.516    0.341
       226  -7.4450     34.5449    201.4587   1.4038518062e+02   2.8744453549e+01    0.1243431   0.09968208  89.09 0.0001330258    1.056    0.053
       227  -9.4107    250.3688    199.0725   9.4503673758e+01  -7.3288587124e+00    0.1844487    0.1515774 -21.98 0.0006106006    1.080    0.074
       228  -9.2949    243.4420    198.2333   9.5562027466e+01  -6.0951256503e+00    0.2228069    0.1910527  -3.48 0.0003845708    1.047    0.045
       229 -10.1565    140.2703    197.7028   1.1654938312e+02   1.3033073450e+01    0.3826323    0.2817139  -5.32  0.001723598    2.198    0.545
       230  -7.8492    103.9958    198.9887   1.2495493176e+02   1.9331999815e+01    0.1673994    0.1478206  67.91 0.0003267752    1.034    0.033
       231  -8.3087     42.1767    199.1501   1.3857290405e+02   2.8366268898e+01    0.1833803    0.1500334 -69.68  0.001046428    1.269    0.212
       232  -8.3914    231.0086    197.8230   9.7742285234e+01  -3.9701997824e+00    0.2016423    0.1594358  -4.82 0.0004644381    1.266    0.210
       233  -8.6887    141.0384    203.7327   1.1742440255e+02   1.1596891797e+01    0.1977554    0.1740432  45.82 0.0002809678    1.081    0.075
       234  -7.6454    110.4945    202.4553   1.2402404436e+02   1.7429407974e+01     0.141511    0.1287313  70.74  0.000129224    1.031    0.030
       235  -8.1156     89.5329    197.1059   1.2794542438e+02   2.2162492804e+01    0.1984055    0.1295235 -64.80 0.0004145356    1.490    0.329
       236  -8.6816     21.6063    197.3730   1.4264377243e+02   3.1074691041e+01    0.1932974    0.1426207  39.80 0.0006598188    1.580    0.367
       237  -7.9810      7.4817    197.5325   1.4545625604e+02   3.2424350207e+01    0.1181947   0.08851853  89.10 9.324116e-05    1.032    0.031
       238  -9.2221    238.0505    195.9484   9.6084754710e+01  -4.8366552591e+00    0.1950236    0.1723253  -7.23 0.0003706491    1.013    0.013
       239  -9.4591    114.0395    194.8323   1.2201264610e+02   1.8520560452e+01    0.2435496    0.2009755 -71.35 0.0005061692    1.209    0.173
       240  -8.3291    119.7453    193.7182   1.2052028732e+02   1.7743907819e+01    0.2268161    0.1210409 -69.43 0.0008639907    2.380    0.580
       241  -8.1652     74.9473    194.0284   1.3081030872e+02   2.5133497093e+01    0.1630585    0.1400041  76.21 0.0003036376    1.041    0.039
       242  -8.6910     27.5983    192.5937   1.4097632304e+02   3.1521255265e+01    0.2602634    0.1312402  67.61 0.0006412791    2.054    0.513
       243  -9.9012    226.4386    191.1227   9.7271506255e+01  -2.0256073372e+00    0.3928716    0.1600086 -35.27   0.00122557    2.508    0.601
       244 -11.6857    154.4735    188.3271   1.1163812897e+02   1.2305280866e+01    0.5871096    0.5097405 -89.31  0.002756805    1.282    0.220
       245  -9.7477      9.2499    190.5606   1.4455943279e+02   3.3803596336e+01    0.1955502    0.1163386 -68.24 0.0005343956    1.457    0.314
       246  -8.5590     94.4770    188.6514   1.2554765849e+02   2.3321268698e+01    0.2539977    0.1883284  85.22 0.0006089923    1.407    0.289
       247  -7.9348     14.5175    189.0374   1.4336177370e+02   3.3651696701e+01    0.1758394   0.09503705 -76.75 0.0004181984    1.478    0.323
       248 -10.2500    222.2485    187.7480   9.7386131331e+01  -6.8041856887e-01    0.3444251    0.2114584  52.63 0.0004182019    1.980    0.495
       249  -8.5121      1.4230    187.9352   1.4591753454e+02   3.5078285384e+01    0.1731575   0.08729073 -75.71 0.0003524486    1.533    0.348
       250 -10.0715    231.5114    185.5024   9.5201037638e+01  -1.9307714500e+00    0.3172203    0.2591118 -31.49  0.001137287    1.144    0.126
       251 -10.2991    233.0231    181.4943   9.4111567839e+01  -1.4909287604e+00     0.421112    0.3894375 -63.33  0.001972602    1.319    0.242
       252 -10.6083    201.5700    238.7593   1.1083203639e+02  -5.7331007022e+00    0.6032045    0.3999052 -61.47   0.00168129    2.460    0.594
       253  -7.4549    121.3279    187.3301   1.1905724575e+02   1.8907742411e+01    0.1451535     0.119227 -13.08 0.0007051264    1.710    0.415
       254  -7.7460     57.6557    187.2672   1.3383608719e+02   2.9155434727e+01    0.1385398   0.08783217  69.01 0.0002071546    1.608    0.378
       255 -11.4899    176.9502    183.3230   1.0569582891e+02   8.8775085614e+00    0.5437868    0.4205642 -44.26  0.002083849    1.318    0.241
       256 -10.1313    142.4570    184.5650   1.1365210646e+02   1.5497531686e+01    0.3342894    0.2369186  -9.24  0.001390043    2.409    0.585
       257 -11.0188    183.3309    182.3640   1.0413322756e+02   7.7967158969e+00    0.4274306     0.339805 -65.66  0.001995609    1.491    0.330
       258 -10.2437     29.8120    180.4041   1.3927238818e+02   3.4090814082e+01    0.5027065    0.3038019  59.74  0.002828435    1.639    0.390
       259 -10.1927    224.6547    182.8850   9.5945570234e+01  -2.4012624669e-01    0.2304838    0.1843672  21.10 0.0005392539    1.298    0.229
       260  -8.4130    135.1510    183.6267   1.1516503532e+02   1.7132321133e+01    0.2046536    0.1398255  31.89 0.0003790997    1.634    0.388
       261 -10.3771     10.2544    176.4287   1.4313590887e+02   3.6901329640e+01    0.3105173    0.2167763 -67.76  0.001986423    1.279    0.218
       262 -10.3477      8.0838    182.6757   1.4414242330e+02   3.5676231129e+01    0.2541867    0.1900392  71.65 0.0009809601    1.207    0.171
       263  -9.7396      3.7573    182.2327   1.4499710721e+02   3.6149919529e+01    0.2255492    0.1382247 -68.08 0.0009509051    1.399    0.285
       264  -9.4849    162.5037    181.9844   1.0860100955e+02   1.2067322151e+01    0.2150786    0.1295713 -25.21 0.0008104977    2.577    0.612
       265  -8.4000    122.3920    181.8260   1.1782502416e+02   1.9977488342e+01    0.2095866    0.1956221 -65.64 0.0004742448    1.099    0.090
       266 -10.5193    116.9701    179.1314   1.1862477606e+02   2.1613794130e+01    0.6181781    0.3970696  51.65  0.001956386    1.550    0.355
       267 -11.4522    207.6959    232.4104   1.0857288789e+02  -5.7443465109e+00    0.8882961    0.4951586  25.19 0.0009165127    1.914    0.478
       268  -9.9792    205.8233    176.2148   9.8217040161e+01   4.5620952554e+00     0.281294    0.1979022 -34.05 0.0007970135    1.418    0.295
       269  -7.4595     56.2664    181.3199   1.3339251258e+02   3.0745267834e+01    0.1268444   0.09592701 -47.78 0.0003711946    1.558    0.358
       270  -8.1620     43.4398    179.7589   1.3614153725e+02   3.2713839511e+01    0.1826319    0.1041503 -61.52 0.0009446929    1.585    0.369
       271 -10.6090      8.5338    172.4491   1.4314199563e+02   3.7958481288e+01    0.2846396    0.2384314  87.82  0.001336974    1.127    0.113
       272 -10.1282    229.5163    182.4939   9.4959287521e+01  -1.0451874528e+00    0.2597257    0.2258974 -18.85 0.0008237852    1.062    0.058
       273 -13.7160    186.0839    166.0349   1.0011758449e+02   1.0602724102e+01     1.638649     1.341107 -41.60  0.007456959    1.211    0.174
       274  -7.5799    100.9445    175.9909   1.2192873925e+02   2.5225715722e+01    0.1687824    0.1512381 -80.76 -0.001877172    1.047    0.045
       275  -8.6095    129.5504    173.5041   1.1455724524e+02   2.0541903426e+01    0.1496281    0.1451383  86.50 6.263452e-05    1.044    0.042
       276  -9.9877     40.8303    171.6086   1.3575042728e+02   3.4950175204e+01    0.2975015    0.2132055  85.64  0.001405562    1.285    0.222
       277 -11.9589    148.5675    166.7444   1.0867651593e+02   1.8282648923e+01    0.7022874    0.5295508  22.90  0.003240551    1.630    0.387
       278 -10.7236      6.6320    163.1629   1.4268339039e+02   4.0243406826e+01    0.4773868     0.307695 -51.37  0.001768381    1.669    0.401
       279 -10.6807    217.1649    161.2665   9.2822530010e+01   5.2221236587e+00     0.674051    0.4621668  48.59  0.002713049    1.567    0.362
       280  -9.9208    217.1740    156.5931   9.1805833547e+01   6.1227002464e+00     0.302156    0.2412169  41.63 0.0008911595    1.324    0.245
       281 -11.4208    160.4825    160.6394   1.0460319024e+02   1.7164694502e+01     0.586704    0.2583204 -43.82  0.002109086    2.318    0.569
       282  -8.6670     40.9233    162.0466   1.3449470364e+02   3.7226132669e+01    0.3171379    0.1775571  11.10  0.001382035    3.323    0.699
       283 -12.3509    171.7845    158.7032   1.0162263668e+02   1.5184237283e+01    0.8163359    0.4928529  48.32  0.003471786    1.680    0.405
       284  -8.8557     84.4052    154.2966   1.2219974330e+02   3.3238751253e+01    0.2489943    0.2395966  66.32 0.0006986025    1.118    0.106
       285 -10.7291    149.0690    155.8521   1.0621901191e+02   2.0658113805e+01    0.4656202    0.2972522  84.86  0.001646174    2.905    0.656
       286  -8.1899    229.0161    155.9815   8.9490246537e+01   3.9095564423e+00    0.1716434    0.1530823 -34.14 0.0003826034    1.030    0.030
       287  -9.2538    245.6798    149.6318   8.5257235589e+01   1.9309920896e+00    0.2514306    0.2124425  24.15 0.0006776261    1.344    0.256
       288  -7.7345     58.2918    150.2992   1.2833836639e+02   3.7979986199e+01    0.1342776   0.09923042 -39.56 0.0002393467    1.564    0.361
       289  -9.6224    133.8022    147.9397   1.0817430580e+02   2.5675291336e+01    0.3089067     0.275901 -76.28 0.0007855216    1.140    0.123
       290 -11.2191     84.3890    145.9889   1.2062028310e+02   3.5271330052e+01    0.5679021      0.54002  36.35   0.00171425    1.178    0.151
       291  -9.6713     26.7188    148.4976   1.3621808888e+02   4.1930144548e+01    0.2655851    0.1745975 -54.16 0.0008072114    1.426    0.299
       292  -9.8527     11.8072    146.7504   1.3971728956e+02   4.3631016573e+01    0.3312432    0.2122268 -56.66  0.002006046    1.409    0.290
       293  -9.8791    123.3582    155.3930   1.1240769214e+02   2.6017163562e+01    0.3821015    0.2989121  56.24   0.00103523    1.309    0.236
       294  -7.9094    236.4264    145.4966   8.5925206966e+01   4.4320040851e+00     0.142181    0.1269771 -34.91 7.338862e-05    1.025    0.024
       295  -9.7091     48.2442    143.4358   1.2987117884e+02   4.0881371814e+01    0.3819586    0.2746071  23.87  0.001912577    1.731    0.422
       296 -10.0394    199.0305    175.9712   9.9536812349e+01   5.9484995728e+00    0.2286304    0.2174958  -1.54 0.0005630655    1.029    0.028
       297  -7.9049    150.5807    141.2895   1.0254617269e+02   2.3649608448e+01    0.2166279    0.1492931 -36.54 0.0007308924    1.574    0.365
       298  -8.6551    225.1157    139.0567   8.6477541381e+01   7.8918383354e+00    0.2433252    0.2121678  47.61 0.0007999903    1.244    0.196
       299  -9.6559    170.4740    134.9824   9.6442360920e+01   2.0635417259e+01    0.2575011    0.2152345  50.64  0.001036012    1.215    0.177
       300  -9.9231     42.3187    134.0628   1.2992875079e+02   4.3802378827e+01    0.3398103    0.2694054 -71.02  0.000928815    1.095    0.087
       301  -8.6593    245.0371    133.7023   8.1955361493e+01   4.9337974147e+00    0.2637859    0.1713554  81.13  0.001150891    2.605    0.616
       302  -7.5868    234.3320    132.7152   8.3484912927e+01   7.2201756636e+00    0.1418808    0.1084911 -74.24 0.0004015662    1.616    0.381
       303  -8.6279    161.6725    131.6809   9.7639170950e+01   2.3335841113e+01    0.1598833    0.1282375   1.55 0.0003710024    1.682    0.406
       304  -8.7971    145.5038    130.4987   1.0118852561e+02   2.7196253129e+01    0.1585595    0.1521208 -80.99 0.0008104868    1.031    0.030
       305  -9.0235    173.8375    129.2124   9.4303782466e+01   2.1113648964e+01    0.2188011    0.1914704   5.12 0.0006895689    1.377    0.274
       306  -8.3297    242.2435    125.7595   8.0675238050e+01   6.9224081717e+00    0.1824053    0.1571387 -17.74  0.000442164    1.300    0.230
       307  -9.7047     98.8470    137.5392   1.1496421668e+02   3.4891399943e+01    0.3734143    0.3148442 -79.78 0.0009616786    1.235    0.190
       308  -8.9949    150.5269    123.4824   9.8231767118e+01   2.7642426571e+01    0.1564853    0.1538709 -65.04 0.0001629422    1.025    0.024
       309  -8.8982    165.5075    120.4940   9.3995854345e+01   2.4878683221e+01    0.1563503    0.1531527 -68.59 -9.776004e-05    1.022    0.021
       310 -10.5665    100.6607    117.0884   1.0969000754e+02   3.9385784822e+01    0.4048084    0.3526357 -88.11  0.000516383    1.292    0.226
       311  -8.2011    102.4814    112.4976   1.0801754358e+02   4.0095896700e+01    0.2319656    0.1357027 -39.96 0.0009774638    1.755    0.430
       312 -10.9314     18.0649    115.2649   1.3369206744e+02   5.0443362936e+01    0.4713891    0.2893144 -64.99  0.001108043    1.305    0.234
       313  -7.4617    249.7197    117.6919   7.7788736305e+01   6.9013291292e+00    0.1298433    0.1059927 -10.20 0.0003610718    1.559    0.359
       314  -8.5416    231.5191    116.3715   8.0304799435e+01   1.0833275396e+01    0.3260111    0.1414054  58.94  0.001239872    2.771    0.639
       315  -9.5734     33.9895    109.4356   1.2789435005e+02   5.0416649888e+01    0.3838815    0.2209359 -53.52  0.001170229    1.423    0.297
       316  -8.9622    129.4066    109.1857   9.9811490032e+01   3.5418396771e+01    0.4005507    0.2486219 -45.65  0.001720564    1.588    0.370
       317  -8.7688    145.0010    106.0236   9.5040776094e+01   3.2640876468e+01    0.2453932     0.196102   8.90 0.0006377177    1.648    0.393
       318  -8.8430    250.5640    102.7147   7.4451123074e+01   9.3638329650e+00    0.2600814    0.1228717 -36.87  0.000678437    2.014    0.503
       319 -10.6185      8.1056     99.3001   1.3401447737e+02   5.4712520957e+01    0.3248906    0.2763197 -36.25  0.001178495    1.225    0.184
       320  -9.7226      2.2239     94.5102   1.3503069026e+02   5.6100788172e+01     0.293727    0.1876829 -64.93   0.00186751    1.241    0.194
       321  -7.6919    142.3293     98.3057   9.3600873768e+01   3.4836763845e+01    0.1560314     0.123767   9.31 0.0002827886    1.655    0.396
       322  -8.4714     72.3083     97.9740   1.1327257850e+02   4.8372921198e+01    0.2014118    0.1660089 -43.16 0.0004903009    1.104    0.094
       323  -8.7320    114.4947     95.4995   1.0006511263e+02   4.1439877707e+01    0.3322464    0.2284469   1.03   0.00136319    2.337    0.572
       324  -8.7596     53.9909     95.6260   1.1852480582e+02   5.1355273732e+01    0.2432688    0.1626712  44.86   0.00119179    1.794    0.443
       325  -8.4962    237.4845     95.4702   7.4713296780e+01   1.3328200634e+01    0.1422962    0.1232722 -61.41 2.870963e-05    1.023    0.022
       326  -8.8360    243.2058     93.4017   7.3451207938e+01   1.2478912374e+01    0.1845663    0.1286749  78.55 0.0008964159    1.641    0.390
       327  -8.9951    158.1764     91.0704   8.7918105715e+01   3.2572086847e+01    0.2549279    0.2178894  52.56 0.0005239274    1.161    0.138
       328  -9.9935     16.8409     89.8234   1.2944271472e+02   5.6187359830e+01    0.3809186    0.2170756 -27.32  0.002104583    1.971    0.493
       329  -9.4886     16.4761     85.9761   1.2876835010e+02   5.7034148598e+01    0.4077647     0.264002  20.90   0.00251999    1.849    0.459
       330  -8.8617     33.9745     88.8701   1.2351587048e+02   5.4975488704e+01    0.2157587    0.1570325 -52.28 0.0004364699    1.156    0.135
       331  -9.8996    154.8195     82.2033   8.6213312137e+01   3.5026564182e+01    0.3582424    0.3226349  39.32 0.0009780029    1.157    0.136
       332 -10.0873    156.9523     77.9826   8.4566356403e+01   3.5276412493e+01    0.4169134    0.3251734   1.30 0.0008635712    1.756    0.431
       333  -9.6657    244.2206     82.5955   7.0963777101e+01   1.4092087974e+01    0.1987775    0.1336873  66.93 0.0005350753    1.586    0.370
       334 -10.2368    220.7921     79.6988   7.3556798691e+01   1.9729469352e+01    0.3698942    0.2739263  78.83  0.000646402    1.400    0.286
       335 -12.5941     80.0777     75.8748   1.0455479155e+02   5.1705811899e+01    0.3585781     0.353069 -22.50  0.000365917    1.152    0.132
       336 -12.2484     22.1715     74.3319   1.2413251140e+02   5.9022163170e+01    0.4191453    0.3931572  -1.17  0.002033817    1.252    0.201
       337 -11.0962    115.8898     74.2411   9.3435375800e+01   4.5270393255e+01    0.4842996    0.4050502  73.07  0.001661597    1.441    0.306
       338  -9.8435     45.2568     75.1503   1.1611487101e+02   5.6657461841e+01    0.3021915    0.2808865  73.40  0.001126264    1.433    0.302
       339 -10.5883    238.7021     72.7699   6.9535358519e+01   1.6883241493e+01    0.3570909    0.2750134  35.66  0.001928136    1.861    0.463
       340 -10.9114    227.3743     70.6352   7.0545406529e+01   1.9734055550e+01    0.4571795    0.3352749 -70.50 0.0006002643    1.327    0.247
       341  -9.3734      8.1199     73.1188   1.2888479675e+02   6.0246019237e+01    0.2243586    0.1375871 -61.71  0.001383012    1.424    0.298
       342  -8.9831    101.9682     73.0374   9.6976398705e+01   4.8306369163e+01    0.2229668    0.2075798  -1.95 0.0008760154    1.030    0.029
       343  -8.3468    184.3913     77.8193   7.9069360098e+01   2.8665682745e+01     0.206182    0.1440991 -26.24 0.0007293355    1.719    0.418
       344  -8.3607      1.6455     74.6786   1.3151177785e+02   6.0295640673e+01    0.1257207   0.06205108 -38.42 0.0007046601    1.756    0.431
       345  -8.5272     47.1279     69.1148   1.1371979881e+02   5.7624859708e+01    0.2000094    0.1490802 -25.90 0.0004906566    1.223    0.182
       346 -10.8760    143.8833     63.7560   8.3343274526e+01   4.0788909433e+01    0.5198471    0.3882573 -19.21  0.001563234    1.590    0.371
       347  -9.4168    245.5027     65.9697   6.7236148130e+01   1.6498703845e+01    0.2046591    0.1182244 -41.89  0.001031697    1.587    0.370
       348  -9.6921    244.0245     76.4628   6.9663138809e+01   1.5141712806e+01    0.1900765    0.1292495  68.68 0.0004609962    1.545    0.353
       349  -9.1304     51.6934     64.8509   1.1079467803e+02   5.7879790082e+01    0.2249618     0.220281 -68.45 0.0008289684    1.338    0.253
       350  -9.6978     59.1766     60.8622   1.0686519252e+02   5.7624477991e+01    0.4581871     0.291245  -7.85  0.002194198    1.962    0.490
       351  -8.0970    243.2959     61.3086   6.6502472907e+01   1.7691260664e+01    0.1166282     0.106588  19.98 0.0002908732    1.590    0.371
       352 -10.1423    225.3265    247.7795   1.0785396745e+02  -1.0786587399e+01    0.2298734    0.2099333   1.86 0.0004445055    1.220    0.180
       353  -8.8288     27.3380     55.4732   1.1702905669e+02   6.2214051012e+01    0.2270296     0.132555 -51.15 0.0009165864    1.590    0.371
       354  -8.3845      6.2186     54.1794   1.2497916118e+02   6.4037260676e+01    0.2044719   0.07483254 -31.78 0.0009485265    2.816    0.645
       355  -8.7948      5.6252     67.1786   1.2844099895e+02   6.1580438134e+01    0.1719819   0.07507381 -50.25 0.0004351115    1.662    0.398
       356  -7.8727    113.3138     53.2989   8.7509798266e+01   4.9280199204e+01    0.1418468    0.1025591  18.54 0.0003328876    1.607    0.378
       357  -9.8158     15.7445     55.6860   1.2163245844e+02   6.3122564701e+01    0.4047628    0.1841844 -28.18  0.001853361    2.313    0.568
       358  -7.9432    171.9952     49.9963   7.3877455674e+01   3.6100743723e+01    0.1594665    0.1493702 -86.27            0    1.049    0.047
       359  -9.9100     32.2596     53.9478   1.1464304296e+02   6.2024104657e+01    0.4758921    0.2908303 -50.66  0.002797798    1.600    0.375
       360  -8.1698    221.4653    248.4208   1.0867263396e+02  -1.0296912833e+01    0.1387204    0.1152349 -35.50 7.916339e-05    1.425    0.298
       361  -8.1995    108.5869    249.3218   1.3069334861e+02   8.1156621383e+00    0.1421613    0.1197511 -59.66 0.0003078759    1.417    0.294
       362 -10.4426     31.6162     34.7375   1.0833234457e+02   6.5270850116e+01    0.5301167    0.3021552  -1.92  0.002813414    2.043    0.511
       363 -10.3921     33.1710    248.0608   1.4444060466e+02   1.9098647551e+01     0.228672    0.1936087  73.25 0.0004559104    1.276    0.216
       364  -9.1132     24.7132    248.9376   1.4593197995e+02   1.9927226412e+01    0.1892531    0.1543721  35.00 0.0005888629    1.765    0.433
       365 -11.1067    211.4660    246.6750   1.1025247932e+02  -8.5123921003e+00    0.3569495    0.2282997  36.75 0.0005229433    1.392    0.281
       366  -8.6914    210.6200    241.7112   1.0959114938e+02  -7.6469715404e+00    0.2046252    0.1783503 -33.34 0.0004163657    1.318    0.241
       367  -9.5165    140.8199    247.0919   1.2409131232e+02   3.1733470774e+00    0.2138841    0.2077836  68.62 0.0003653876    1.161    0.139
       368  -8.1255    119.9699    248.3637   1.2836350598e+02   6.4374748033e+00      0.17424    0.1371261  50.45   0.00107276    1.075    0.070
       369 -10.4031     24.7163     38.4306   1.1252762791e+02   6.5375979550e+01    0.2224506    0.1641109 -25.31 0.0005939203    1.068    0.063
       370 -12.4147     19.5618     41.0896   1.1559119361e+02   6.5395321858e+01    0.5641069    0.3052788 -15.52  0.001546997    2.014    0.504
       371 -12.4821     13.0795     38.8565   1.1758949346e+02   6.6282075705e+01    0.5674288    0.3353466  -3.69  0.001811841    1.766    0.434
       372  -8.1766    126.0131     56.0029   8.5153707002e+01   4.6106075359e+01    0.1743621    0.1580291  44.29 0.0004696573    1.041    0.040
       373  -8.9499     32.4185     40.5871   1.1011931953e+02   6.4271076459e+01    0.2362495    0.1640727 -30.17 0.0006393616    1.195    0.163
       374  -8.8790     45.0022     37.9667   1.0417544325e+02   6.3238971073e+01    0.2843211     0.136845 -24.67  0.001187305    2.292    0.564
       375  -8.5727     75.8861    246.5846   1.3663903888e+02   1.3679566325e+01    0.1796755    0.1532091 -80.81 0.0004106533    1.279    0.218
       376  -9.5332      4.6587     32.4672   1.1913885176e+02   6.7922992297e+01    0.3229606    0.1844449  27.60  0.002123573    2.101    0.524
       377  -9.4795     75.5315     31.9820   9.1038361108e+01   5.9516228066e+01     0.357157    0.1549671  38.91   0.00109072    2.156    0.536
       378  -8.3996    205.8055     31.1162   6.4196638887e+01   3.0471593385e+01    0.2093694    0.1563989 -74.26 0.0008271051    1.240    0.194
       379  -8.2240     54.4943     31.5211   9.8131479259e+01   6.2893723870e+01    0.1202381    0.1000296  -0.32 8.548708e-05    1.042    0.040
       380  -8.9859     66.6500     29.9886   9.3220888087e+01   6.1250631298e+01    0.2088623    0.1665425  34.18 0.0005279781    1.257    0.205
       381  -9.5444     53.4977     36.1965   1.0028775259e+02   6.2379500739e+01    0.2833104    0.1744821   7.68  0.001184486    1.833    0.455
       382 -10.0174    145.6868     34.5126   7.4256560875e+01   4.4498319791e+01    0.4246668    0.2718803  44.30  0.001502748    1.534    0.348
       383  -9.1698     67.0346     24.7195   9.1039346258e+01   6.1839992210e+01    0.3504468    0.1688191  22.92  0.001583459    2.679    0.627
       384  -8.9153    244.1306     23.1186   5.8541236770e+01   2.2831280792e+01    0.2887162    0.1492084 -27.41  0.001401075    2.714    0.632
       385  -8.4006    128.6697     22.8739   7.4027726974e+01   4.9766517963e+01    0.1687676     0.167282   4.59  0.001084683    1.139    0.122
       386 -10.0783    243.2779    245.0741   1.0414751326e+02  -1.3018650009e+01    0.2454472    0.1725108 -13.88 0.0003653694    1.331    0.249
       387  -8.4694     83.9539     19.0470   8.3555084679e+01   5.9500261865e+01    0.1925382    0.1574559  23.02 0.0005935915    1.042    0.040
       388  -9.4970     58.2850     18.2039   9.1436491444e+01   6.3988158864e+01    0.2381904    0.1685502  16.94 0.0005087847    1.232    0.188
       389  -9.2650    187.7445    244.9808   1.1452593324e+02  -4.4242491505e+00    0.3372365    0.2406891  -5.72  0.001579002    1.775    0.437
       390  -9.2392    194.1593    244.1651   1.1315066957e+02  -5.3567975888e+00    0.2007151     0.174976  22.79 0.0003831857    1.027    0.026
       391  -9.0362    191.5010    241.5144   1.1323956782e+02  -4.5005068206e+00    0.2428082    0.2041893  47.12 0.0009130677    1.255    0.203
       392  -8.2109    171.4216    246.4718   1.1795228709e+02  -1.9253852902e+00    0.1281748    0.1108312  36.54 7.397957e-05    1.017    0.017
       393 -10.3415     94.2520    244.8563   1.3296186217e+02   1.1239028633e+01    0.5431808    0.2263941  47.66 0.0009916094    2.010    0.502
       394 -10.2242     91.4799    236.2324   1.3253980895e+02   1.3376409153e+01    0.3511889    0.2832797 -23.52 0.0003329799    2.102    0.524
       395 -11.0858     93.4313    228.3607   1.3122432014e+02   1.4678927327e+01    0.4036958    0.3585508 -41.87 0.0008304188    1.520    0.342
