#   1 NUMBER                 Running object number                                     
#   2 MAG_AUTO               Kron-like elliptical aperture magnitude                    [mag]
#   3 X_IMAGE                Object position along x                                    [pixel]
#   4 Y_IMAGE                Object position along y                                    [pixel]
#   5 X_WORLD                Barycenter position along world x axis                     [deg]
#   6 Y_WORLD                Barycenter position along world y axis                     [deg]
#   7 A_WORLD                Profile RMS along major axis (world units)                 [deg]
#   8 B_WORLD                Profile RMS along minor axis (world units)                 [deg]
#   9 THETA_WORLD            Position angle (CCW/world-x)                               [deg]
#  10 FWHM_WORLD             FWHM assuming a gaussian core                              [deg]
#  11 ELONGATION             A_IMAGE/B_IMAGE                                           
#  12 ELLIPTICITY            1 - B_IMAGE/A_IMAGE                                       
         1 -14.5602     68.5538    144.0808   1.0175319760e+02   3.7198615252e+01     5.026206     2.313367  62.52  0.003154337    4.923    0.797
         2 -13.2571    197.7406     41.3456   4.3569839387e+01   3.0730392645e+01     1.219134     1.020681 -48.82  0.003912889    1.155    0.134
         3 -13.7309    207.3102     31.9377   4.0064931663e+01   2.9712195595e+01     1.270831     0.896055 -13.25   0.00143512    1.909    0.476
         4 -12.9977    231.8197      6.0268   3.1968439430e+01   2.7251548196e+01    0.8418901    0.6445732  86.20  0.005345179    1.192    0.161
         5 -10.4258     61.5401      7.9947   6.1457514937e+01   6.5279809226e+01    0.2138861    0.1693094  53.20 0.0006426827    1.542    0.351
         6 -10.6626     43.6977      6.9993   6.7989485506e+01   6.8352858896e+01    0.1752763    0.1348589  -2.16  0.001109922    1.101    0.092
         7 -11.7708    107.6791    203.9325   1.0140536523e+02   1.7229154060e+01    0.4698603     0.370588  79.58   0.00172942    1.434    0.303
         8 -11.2087    139.8990    246.5773   1.0035558920e+02   4.1034146254e+00    0.5010804    0.2432776 -50.56  0.002531866    2.439    0.590
         9 -13.3055     57.0346    185.8402   1.1086893243e+02   2.8537879336e+01     1.502677     1.114186  62.75  0.008659134    1.298    0.230
        10 -15.9705     48.3737    200.4471   1.1443894165e+02   2.6245754576e+01     13.60796     5.789268  74.48   0.02688818    4.064    0.754
        11 -16.0092      5.8552    210.2778   1.2402769868e+02   2.8464840545e+01     8.832275    0.3715057 -70.22    0.0271789    6.457    0.845
        12 -10.9627    193.4164    195.5218   8.0979067178e+01   4.3102231016e+00      1.15637    0.6469667 -64.58  0.003592261    5.643    0.823
        13 -12.9905     28.2000    215.5687   1.1997643920e+02   2.5197552564e+01     1.004033    0.4622564 -87.68  0.004745006    2.166    0.538
        14  -9.5937     32.3878    204.2987   1.1824376673e+02   2.7178444971e+01     0.253686    0.1711428 -88.82 0.0009415142    1.307    0.235
        15 -17.3111     11.9684    245.2845   1.2477932343e+02   2.0934442274e+01     9.913013     4.826073 -81.20   0.01815228    1.863    0.463
        16  -9.7958    121.6723    199.9555   9.7583610179e+01   1.5809280846e+01    0.1889332    0.1868808  86.10 0.0005747777    1.067    0.063
        17 -10.9354    113.0573    196.0914   9.8977793965e+01   1.8054228915e+01    0.5436377    0.3385634  -4.13  0.002019887    3.553    0.719
        18  -9.4986    120.1983    194.4747   9.7045837692e+01   1.7224676818e+01    0.2675512    0.1881266 -80.95 0.0009895052    1.889    0.471
        19 -10.2258    164.1779    213.8062   9.0416566581e+01   5.9569326785e+00    0.1960284    0.1526346   5.31   0.00100989    1.365    0.267
        20  -9.6590    149.3953    187.2425   8.8982783758e+01   1.3675054251e+01    0.2487813    0.1913763 -58.88  0.001175236    1.487    0.328
        21  -8.8581     72.2256    188.2264   1.0754346991e+02   2.6000480815e+01    0.1858585    0.1419454  76.12 0.0004369022    1.321    0.243
        22  -8.5942     80.8289    184.2290   1.0491879924e+02   2.5720193529e+01    0.2437983    0.1279883  66.08 0.0009430992    2.799    0.643
        23  -8.9912     23.7152    185.8094   1.1857159134e+02   3.2201021935e+01    0.1699611    0.1633785  30.55 0.0005029991    1.340    0.254
        24 -10.6115     99.3607    180.8932   9.9854884612e+01   2.3679821500e+01    0.2754781    0.2603531  30.12 0.0006025037    1.119    0.107
        25  -9.2245     90.9926    182.2551   1.0213423214e+02   2.4670071833e+01    0.1872944    0.1738815  57.26 0.0003434431    1.050    0.047
        26  -9.7563    188.4582    176.6709   7.8263764418e+01   8.6512784999e+00    0.3486057    0.3075849 -67.39  0.001912422    1.480    0.324
        27 -10.2732    141.5063    213.5005   9.5267978136e+01   9.7810607341e+00     0.241653    0.1717607  43.70   0.00129416    1.323    0.244
        28  -9.9001     47.1789    172.1031   1.1161558843e+02   3.2968899516e+01    0.3749478    0.2278116 -40.73  0.001842923    2.095    0.523
        29  -9.7186     39.5073    177.0851   1.1406116982e+02   3.2631078028e+01    0.2357147    0.1853444  59.86 0.0007389123    1.226    0.184
        30  -8.5640    148.6539    175.3476   8.6869821722e+01   1.6312373149e+01    0.2727284    0.1989164  84.91 0.0007928702    2.223    0.550
        31  -9.5659    146.5043    172.0063   8.6711284248e+01   1.7431058233e+01    0.2684446    0.2089711  58.42  0.000863629    1.486    0.327
        32 -12.6719     54.7390    147.1550   1.0616170954e+02   3.8202896574e+01     4.100118    0.9827085 -55.37   0.01352698    3.324    0.699
        33 -13.1290     71.8345    154.1459   1.0258366710e+02   3.4249815027e+01    0.6686791    0.5328938 -58.07  0.001153872    1.182    0.154
        34 -11.0471    125.4043    244.7280   1.0304642633e+02   6.5973116895e+00    0.3857782    0.1930604 -62.55  0.001647932    2.662    0.624
        35 -11.4582     74.9720    167.9670   1.0397834848e+02   3.0425694839e+01    0.3785899    0.3169288 -49.41 0.0009684747    1.245    0.197
        36  -8.5096    194.2086    171.4345   7.5977006357e+01   8.5903892570e+00    0.1934585    0.1371543  49.21  0.000943484    1.629    0.386
        37  -8.9566    185.5924    169.7266   7.7421021837e+01   1.0516913157e+01    0.1960043    0.1368043 -48.88  0.000538867    1.555    0.357
        38  -9.6244    240.3954    169.2304   6.6787957950e+01   9.8565128832e-01    0.1836875    0.1120459 -41.60 0.0003763511    1.601    0.375
        39  -9.0444    110.6855    167.9877   9.4769693887e+01   2.4813245248e+01     0.209919     0.186373 -58.84 0.0004776276    1.127    0.112
        40 -10.9860    106.9210    211.6327   1.0266455829e+02   1.5728211409e+01    0.6036776    0.2648688  26.51  0.002288822    3.043    0.671
        41  -9.0979    135.4112    165.6206   8.8103421829e+01   2.0913239362e+01    0.3442728    0.2027042  62.81  0.001053198    2.677    0.626
        42  -8.9114    132.9855    162.5027   8.8067298949e+01   2.2069718461e+01    0.2765513    0.1919741  45.03  0.001279613    1.457    0.314
        43  -9.5485     89.8861    212.5861   1.0658223991e+02   1.8092266204e+01    0.2435521    0.1907096  76.34 0.0006650654    1.311    0.237
        44 -10.7750    184.6201    213.2550   8.6043801247e+01   2.6843119499e+00    0.3283817    0.2070049 -35.73  0.001713478    1.646    0.393
        45 -12.4347     83.2637    159.7531   1.0045480509e+02   3.1218156458e+01     1.295413    0.7583702  67.91  0.005220556    2.510    0.602
        46 -11.6256     90.1145    152.3280   9.7264139330e+01   3.1977096920e+01    0.7233927    0.4771315 -27.91  0.003166463    2.056    0.514
        47 -11.0408    133.7923    144.7475   8.4028929889e+01   2.5965764631e+01     1.301273    0.3490892 -53.83  0.003145359    5.259    0.810
        48  -8.7080    111.7575    149.7837   9.0903070523e+01   2.8933798384e+01    0.3813021    0.1692188  57.10  0.001082131    4.331    0.769
        49  -9.4315    174.6284    148.7789   7.5194577511e+01   1.6859249016e+01    0.2743392     0.189552 -49.23 0.0009552365    1.508    0.337
        50 -10.0210     39.7988    146.9301   1.1027011969e+02   3.9927625315e+01    0.2693373    0.2029926  28.87 0.0009950895    1.522    0.343
        51  -9.2546    143.8099    145.3963   8.1653708123e+01   2.3830219138e+01     0.301128    0.1194777 -49.29  0.001008391    2.579    0.612
        52 -10.3946    103.4070    138.4355   9.0753159657e+01   3.3140083002e+01    0.5974399    0.3460838 -26.71  0.002197547    2.678    0.627
        53 -11.7187     90.9134    138.0813   9.4204975594e+01   3.5341281524e+01    0.2930597    0.2590437 -42.53 0.0003454933    1.117    0.105
        54 -11.6843     39.6813    124.7465   1.0688672393e+02   4.5446211321e+01    0.4825364    0.3128713  61.69  0.002408881    1.921    0.479
        55 -11.4940     44.3298    129.6889   1.0631768677e+02   4.3737162856e+01    0.4890295    0.2739285 -69.63  0.001966122    1.668    0.400
        56 -10.0632    105.9926    130.8186   8.8307535840e+01   3.4509032397e+01    0.3680903    0.3199237 -66.33  0.001269734    1.203    0.168
        57 -10.1912     33.1114    130.8927   1.0984287310e+02   4.4559875131e+01    0.2861329    0.2032146 -75.98  0.001043006    1.279    0.218
        58 -10.2179    135.6377    129.5798   7.9968024712e+01   2.9046462182e+01    0.5164041    0.1429653 -45.36  0.001459283    3.526    0.716
        59 -10.1528    112.4709    129.2961   8.6130284622e+01   3.3676300310e+01    0.3815694    0.2959953  -0.82 0.0009689371    1.643    0.392
        60  -9.0236    160.7921    128.1939   7.3433839029e+01   2.4056955777e+01    0.2656191    0.1796668 -84.14 0.0009597015    2.873    0.652
        61 -10.3098     99.4051    125.2813   8.8899034267e+01   3.7010023723e+01    0.3060984    0.2513413 -24.59 0.0008406078    1.328    0.247
        62  -8.5959     93.7136    126.0240   9.0737320902e+01   3.7813893201e+01    0.2118362    0.1867448 -52.24 0.0005817785    1.082    0.075
        63 -10.8412    118.7767    123.1208   8.2872037447e+01   3.3908811618e+01    0.5354235    0.3495565   5.44  0.002010307    2.588    0.614
        64  -9.1749    108.1499    118.4075   8.4684989047e+01   3.7044377555e+01    0.2346501    0.2020232 -33.76 0.0004121315    1.147    0.128
        65  -9.9983    231.2941    113.6892   5.6221032769e+01   1.2059362998e+01    0.2613111    0.2529595 -57.77 0.0008728629    1.134    0.118
        66 -10.1890    134.7517    108.9677   7.4869248229e+01   3.3789190153e+01    0.8857716    0.1234257 -46.35  0.001647653    8.232    0.879
        67  -9.3769    205.6292    110.1029   5.9672184523e+01   1.7929713025e+01    0.2626642    0.2146011  40.14 0.0006096903    1.331    0.249
        68 -10.8037    117.0083    108.9614   7.9687986610e+01   3.7481084946e+01    0.5857904    0.4026688  53.52   0.00259642    1.658    0.397
        69 -11.7397     52.5395    108.5923   9.9676149518e+01   4.8014844571e+01     0.681155    0.3078451 -55.96  0.002892825    1.901    0.474
        70  -8.4315     66.2934    100.0138   9.3068599608e+01   4.8292374309e+01    0.1975159    0.1723349 -47.00 0.0003833125    1.054    0.051
        71 -11.6335     70.9298    172.3647   1.0567475726e+02   2.9925221072e+01    0.4429098    0.3239366 -30.31  0.001308701    1.801    0.445
        72  -8.8259    129.0807     96.1503   7.2789121846e+01   3.7720880172e+01    0.2358545    0.2076305  10.18  0.000570489    1.211    0.174
        73 -10.9531     51.7446     92.8433   9.6282051386e+01   5.1851502163e+01      0.41228    0.3150817 -39.90  0.001611706    1.169    0.145
        74  -8.4236    157.0152     89.2072   6.3931265550e+01   3.2789931516e+01    0.2537857    0.1824667  89.63  0.001066435    2.081    0.519
        75 -10.4636     42.7658     89.3400   9.8630220093e+01   5.3675296342e+01    0.3251417     0.141434  39.47  0.001362704    2.746    0.636
        76 -10.9662    156.0750    217.1563   9.2698687975e+01   6.6883899347e+00    0.4109482    0.2491658 -63.96  0.001893934    2.504    0.601
        77  -7.9834    117.3384     86.3046   7.3111111617e+01   4.2244074366e+01    0.1585483    0.1190663   4.33 0.0006034214    1.674    0.403
        78  -9.2988     75.3895     85.0793   8.5892322892e+01   5.0322445123e+01      0.23745     0.204994  37.43 0.0003770869    1.272    0.214
        79  -8.7931    157.5591     82.5011   6.1901745068e+01   3.3903533655e+01    0.1500468    0.1470009 -11.41 8.146981e-05    1.023    0.022
        80  -8.5357    184.3226     77.3152   5.5123436359e+01   2.8505029447e+01    0.1480551    0.1155384  17.07 0.0004829392    1.661    0.398
        81  -9.6545     59.0092     67.5856   8.6410616054e+01   5.6444602646e+01    0.2424609    0.2125972  50.88 0.0008880341    1.471    0.320
        82 -13.0406    186.8554     49.8502   4.7326643445e+01   3.2145960621e+01     1.004814    0.8851272  28.73  0.002049659    1.332    0.249
        83  -8.3156    224.2509    206.4011   7.7010189309e+01  -2.4485110322e+00    0.1362484   0.08580771  -8.93 0.0006946802    1.700    0.412
        84 -11.3428    111.9004    205.1203   1.0061408736e+02   1.6307634812e+01    0.4421473    0.3008959 -78.88  0.001368346    1.863    0.463
        85  -8.6209     72.4233     54.1738   7.6798404209e+01   5.6936821318e+01    0.1823689    0.1267982 -47.02 0.0005023978    1.603    0.376
        86  -9.3483    198.1598     23.3341   3.8984957904e+01   3.2837493978e+01    0.2100271    0.1734289 -21.50 0.0007244048    1.434    0.303
        87  -8.7952    158.4973    235.5050   9.5033351010e+01   3.0926648446e+00    0.1293384    0.1102094  27.05 0.0008106366    1.013    0.013
        88  -8.9902    189.5155     14.9713   3.7847534359e+01   3.5767362893e+01    0.1819243    0.1238238 -32.61 0.0006532375    1.565    0.361
        89 -10.6844    161.0708    225.6610   9.2999446564e+01   4.3618762306e+00    0.2538307    0.1932079 -29.38  0.001473298    1.444    0.307
