#   1 NUMBER                 Running object number                                     
#   2 MAG_AUTO               Kron-like elliptical aperture magnitude                    [mag]
#   3 X_IMAGE                Object position along x                                    [pixel]
#   4 Y_IMAGE                Object position along y                                    [pixel]
#   5 X_WORLD                Barycenter position along world x axis                     [deg]
#   6 Y_WORLD                Barycenter position along world y axis                     [deg]
#   7 A_WORLD                Profile RMS along major axis (world units)                 [deg]
#   8 B_WORLD                Profile RMS along minor axis (world units)                 [deg]
#   9 THETA_WORLD            Position angle (CCW/world-x)                               [deg]
#  10 FWHM_WORLD             FWHM assuming a gaussian core                              [deg]
#  11 ELONGATION             A_IMAGE/B_IMAGE                                           
#  12 ELLIPTICITY            1 - B_IMAGE/A_IMAGE                                       
         1  -9.0164     12.9678     30.3045   1.1471677187e+02   6.7426631520e+01    0.3164782    0.1617176 -72.96  0.001366906    2.083    0.520
         2  -8.3330    101.4670     29.1960   8.0952066156e+01   5.5688383140e+01    0.2089038    0.1932952 -65.11 0.0005975149    1.311    0.237
         3  -8.4792     55.7908     10.1251   8.8142820645e+01   6.6700944659e+01    0.1852962       0.1543 -39.60 0.0007351738    1.285    0.222
         4  -8.0055     47.6693     10.3209   9.1634902852e+01   6.7803286479e+01    0.1747174     0.141379 -61.44 0.0007833093    1.746    0.427
         5  -8.1462     90.7121      9.0973   7.5307122028e+01   6.0735337017e+01    0.2150249    0.1544275 -38.58 0.0005385415    1.478    0.324
         6  -7.9702    101.1758      8.1671   7.1863787712e+01   5.8664387006e+01    0.1838415    0.1559826 -42.56 0.0004531869    1.350    0.259
         7  -7.5856     12.6941      8.7174   1.0758912207e+02   7.1661237682e+01    0.1148505   0.06577899 -33.12 0.0001941024    1.559    0.359
         8  -7.7106      5.6501      8.2728   1.1108191971e+02   7.2209558753e+01   0.09524615   0.08157006  85.52 0.0003657848    1.631    0.387
         9  -8.6998     33.5343      5.1755   9.5541357447e+01   7.0374414784e+01    0.2878725    0.1715327 -59.57  0.001480274    2.597    0.615
        10  -8.4282     78.9758      3.5661   7.6297653464e+01   6.3725262570e+01    0.2549054     0.159432 -39.63 0.0009617608    1.724    0.420
        11  -7.6621     44.7093      3.3533   8.9432681564e+01   6.9295753938e+01    0.1131468   0.09085432 -53.91   0.00070278    1.677    0.404
        12  -8.1518     16.1802      3.3755   1.0345969287e+02   7.2362170646e+01    0.1312883    0.1032713  31.71 0.0004196929    1.669    0.401
        13  -7.8547    115.4815      2.4729   6.5673330300e+01   5.6062190861e+01    0.1374713    0.1306223   1.89 0.0002273279    1.096    0.087
        14  -8.3509     62.4905      1.6181   8.1142690599e+01   6.6892313163e+01    0.1706639    0.1578926  86.43 0.0007409319    1.642    0.391
        15  -7.6107     39.4298      1.5108   9.0868579959e+01   7.0261539940e+01    0.1208138   0.09588864 -24.29 9.289262e-05    1.040    0.038
        16  -8.8668    169.2047    243.1596   1.1177760231e+02   7.4312698424e+00    0.1751902    0.1682772  83.34 0.0007542532    1.416    0.294
        17  -8.3974    248.9999    249.2386   1.0059918629e+02  -4.6732114471e+00     0.236374    0.1148863 -19.00  0.001600593    2.518    0.603
        18  -9.0507    243.0307    246.8463   1.0113857906e+02  -3.6694181260e+00     0.276795    0.1408102 -20.44  0.001899604    2.422    0.587
        19  -9.9176    247.6363    241.9687   9.9823333558e+01  -3.9426852558e+00    0.3259299    0.2207428  49.21  0.002403638    1.796    0.443
        20  -9.1836    211.0200    246.5283   1.0579677475e+02   9.3405533605e-01    0.1601433    0.1468856 -59.49 0.0006705266    1.802    0.445
        21  -8.3237    191.3008    249.4496   1.0910111326e+02   3.5417149867e+00    0.1408759    0.1171249  71.66 0.0007085856    1.743    0.426
        22  -8.4142     93.8941    249.2585   1.2388840637e+02   1.7150570696e+01    0.2629101    0.1071191  67.16  0.001354141    3.569    0.720
        23  -8.3382     78.0273    243.6543   1.2589811267e+02   1.9861100572e+01    0.2320369   0.08625677  61.80  0.001292746    2.753    0.637
        24  -8.1656     34.2197    243.9428   1.3235913054e+02   2.4710457613e+01    0.1072177   0.05951798 -88.86 0.0008745522    1.689    0.408
        25  -8.1892    236.3384    243.3006   1.0164205445e+02  -2.4487142716e+00    0.1085324   0.05748671  24.18 0.0007036104    1.665    0.399
        26  -9.2225    194.2313    240.2100   1.0757359165e+02   4.0097341975e+00    0.2336312     0.150584 -51.17  0.001415878    2.477    0.596
        27  -9.5884    183.1595    240.2670   1.0928960580e+02   5.6620581990e+00     0.329425    0.2773852  61.62  0.002053298    1.446    0.308
        28  -9.3062    160.1886    240.4024   1.1288482283e+02   9.0688017746e+00    0.2324973    0.1687043 -86.11  0.001243013    2.206    0.547
        29  -8.0975    153.4967    242.0225   1.1410029127e+02   9.8664932345e+00    0.1201263    0.1045618 -67.10  0.001018226    1.570    0.363
        30  -8.0503     88.2038    242.2085   1.2425517013e+02   1.8799723547e+01    0.1325247   0.08386718  68.62 0.0005332571    1.382    0.277
        31  -9.3783    240.8593    239.8081   1.0051434090e+02  -2.8150897010e+00    0.3432138    0.1640241  -6.22   0.00191043    3.280    0.695
        32  -9.3677    247.7960    234.8297   9.8815065350e+01  -3.4118732995e+00    0.3123422    0.1586609  36.26  0.001526531    1.405    0.288
        33  -9.6035    246.5117    229.5890   9.8259709017e+01  -2.8062642211e+00    0.3766143    0.1895885 -18.57  0.002395428    2.350    0.574
        34  -8.4926    214.4944    241.0085   1.0458726661e+02   9.1883774914e-01    0.1281964   0.09974415 -14.28  0.001031864    1.590    0.371
        35  -8.9405    136.1208    239.2529   1.1655050239e+02   1.2711601711e+01    0.2333291    0.1152474  58.82  0.001400923    2.078    0.519
        36  -8.4447    208.8814    238.5334   1.0512331682e+02   1.9795608470e+00    0.1334763    0.1238321   1.09 0.0004471472    1.412    0.292
        37  -8.4703    129.2861    238.9705   1.1760062611e+02   1.3719486064e+01    0.2182914   0.09201104  58.45  0.001152765    2.663    0.625
        38  -7.9939     40.5322    239.5045   1.3124838277e+02   2.4685541669e+01   0.09452894   0.06152477  63.26 0.0001002308    1.025    0.024
        39  -9.3772    231.0856    236.9852   1.0157482395e+02  -1.1694570340e+00    0.2194496    0.1814601 -40.13  0.001220448    1.920    0.479
        40  -9.1752    217.0011    235.5249   1.0349917383e+02   1.0442084973e+00    0.2185152    0.1486029  57.16  0.001075574    1.949    0.487
        41  -9.3688    213.8193    231.7736   1.0348924645e+02   1.8726257121e+00    0.2415279    0.1910081  64.64  0.001257754    1.904    0.475
        42  -9.4413    203.3051    234.3004   1.0544022494e+02   3.2248997181e+00    0.3132702    0.2038787 -30.76  0.001685674    2.017    0.504
        43  -9.7225    175.8969    233.5891   1.0964597035e+02   7.4750485541e+00    0.3410271     0.222752 -64.89  0.002216323    2.705    0.630
        44  -8.3592    170.1513    235.8095   1.1081185153e+02   8.0988214427e+00      0.15198    0.1358809  77.35 0.0006915028    1.450    0.310
        45  -9.3729    109.2574    234.6989   1.2038967701e+02   1.7056466295e+01    0.4211253    0.1425711  53.45  0.001467272    2.582    0.613
        46  -7.8320     57.9846    237.0000   1.2852176327e+02   2.3140453769e+01    0.1507164   0.04111572  40.83 0.0007442546    2.895    0.655
        47  -8.8983      9.0795    235.8858   1.3563256768e+02   2.8274189689e+01    0.1477118   0.07372195  62.46 0.0009029494    1.322    0.244
        48  -8.1455    153.1344    235.2261   1.1344681728e+02   1.0716109042e+01    0.1465882    0.1005963  58.35 0.0009033255    1.385    0.278
        49  -8.3670    123.0733    234.2727   1.1815088714e+02   1.5199053632e+01    0.1878645    0.1114593  73.59 0.0008102036    2.151    0.535
        50  -8.5618     99.4888    234.4895   1.2192056321e+02   1.8394619395e+01    0.2187338    0.1069602  65.78 0.0008843819    2.220    0.550
        51  -8.6831     78.7638    234.4612   1.2517287630e+02   2.1045712935e+01     0.193178    0.1072008  67.40 0.0009143632    1.600    0.375
        52  -9.0002     68.4276    232.5159   1.2665136770e+02   2.2573538274e+01    0.3509086    0.1408678  68.18  0.001939143    2.910    0.656
        53  -8.8168    194.5223    232.3474   1.0655944261e+02   4.7605049750e+00    0.2284908    0.1743751 -20.78  0.001603914    1.697    0.411
        54  -8.2407    144.7906    233.1968   1.1456659866e+02   1.2198523734e+01    0.2246217    0.1033031  62.85  0.001050023    3.569    0.720
        55  -8.7370    140.1858    230.1151   1.1498901135e+02   1.3264859245e+01    0.2330178    0.1505062  72.89 0.0009445521    1.994    0.499
        56  -8.2387    132.7401    232.9389   1.1647515817e+02   1.3991582444e+01    0.1613874    0.1018589  73.09  0.001063589    1.990    0.498
        57  -9.3683    186.4605    230.7144   1.0762513840e+02   6.1705799923e+00    0.2514332     0.191766  84.49  0.001492563    2.278    0.561
        58  -8.2182    157.9432    232.0164   1.1232913738e+02   1.0378806486e+01    0.1610039    0.1083524  63.70  0.000591822    1.668    0.401
        59  -8.4113     92.1571    231.6072   1.2285609926e+02   1.9755132016e+01    0.2068871     0.115503  69.53 0.0008854923    1.791    0.442
        60  -8.7289    236.0694    230.8058   9.9982184654e+01  -1.3764688512e+00    0.1620808     0.129566   9.56  0.000493574    1.253    0.202
        61  -8.6871      1.6929    230.9217   1.3652528962e+02   2.9650601943e+01    0.1647127   0.07524252  72.89 0.0008813249    1.590    0.371
        62  -9.0888    151.3224    228.9717   1.1306122548e+02   1.1746589356e+01     0.243484    0.1642445  86.72  0.001407934    2.401    0.583
        63  -9.1846    148.6604    224.5065   1.1300177657e+02   1.2709858057e+01    0.3291129    0.1981779  69.32  0.001677424    2.318    0.569
        64  -8.4488    229.8607    229.0905   1.0067587607e+02  -3.0273140135e-01    0.1517339    0.1220115  36.43 0.0005695574    1.272    0.214
        65  -8.8313    162.3631    228.1710   1.1118130941e+02   1.0166136478e+01    0.2879637    0.1552916  56.47  0.001103293    1.894    0.472
        66  -8.8042    128.0549    227.4525   1.1669279775e+02   1.5386895204e+01    0.2407215    0.1333116  61.01   0.00115394    1.805    0.446
        67  -7.9853    119.9797    227.7540   1.1804009748e+02   1.6504965695e+01    0.1746847   0.08980028  61.24    0.0010455    1.985    0.496
        68  -8.2350    223.4723    226.5098   1.0128866781e+02   8.9756370255e-01    0.1680885   0.09533511 -10.90 0.0009914527    2.369    0.578
        69  -8.7105    206.0577    226.0462   1.0392884763e+02   3.6238781725e+00    0.1753514    0.1489169 -19.16 0.0006276879    1.483    0.326
        70  -8.1886     49.5518    227.0113   1.2925058636e+02   2.5541133324e+01    0.1918812   0.09056176  77.08  0.001272667    2.075    0.518
        71  -8.3519    199.9047    225.9872   1.0489059306e+02   4.5868807047e+00    0.1563818    0.1512281  -1.64 0.0007183919    1.393    0.282
        72  -8.8856     94.2549    224.3888   1.2194113117e+02   2.0511040907e+01    0.3368143     0.139748  63.89  0.001623807    2.996    0.666
        73  -9.1223    216.4944    223.2528   1.0191234467e+02   2.2806859572e+00    0.2687934    0.1858443 -37.76   0.00125205    1.975    0.494
        74  -9.0813    180.6874    224.0374   1.0771325402e+02   7.8062419341e+00    0.2365969    0.2071896 -70.27  0.001027702    1.644    0.392
        75  -8.9549    104.6896    223.6517   1.2016804746e+02   1.9211805742e+01    0.2789492    0.1607068  81.19  0.001748639    2.244    0.554
        76  -7.9069     38.4502    224.9681   1.3085631572e+02   2.7037766005e+01    0.1322231   0.05410683  72.89 0.0005278863    2.365    0.577
        77  -8.7961    173.1889    223.4264   1.0885462306e+02   9.0520193668e+00    0.2207016    0.1668396  75.87 0.0009329309    1.881    0.468
        78  -8.0165    113.8161    224.0524   1.1870177976e+02   1.7886934073e+01    0.1654281   0.09898856  73.00 0.0006748088    1.953    0.488
        79  -8.2686     59.8125    223.9704   1.2746125428e+02   2.4842127089e+01    0.1664187   0.07951131  70.70  0.001069609    2.009    0.502
        80  -9.3523    192.5395    221.4911   1.0546925689e+02   6.2229600614e+00    0.2567171    0.2114928  86.10 0.0009897319    1.947    0.486
        81  -8.1949    140.1525    222.8908   1.1422857363e+02   1.4205319792e+01    0.1675544    0.1155189  58.02 0.0005343966    1.293    0.226
        82  -9.1470    238.8027    221.2136   9.8192006477e+01  -9.5185401217e-01    0.1988042    0.1951299 -84.47    0.0012772    1.760    0.432
        83  -9.4608    225.5576    221.7507   1.0029364589e+02   1.0223759109e+00    0.2132128    0.1615237  46.98  0.001208351    1.434    0.303
        84  -9.3901      7.2951    221.7642   1.3542499680e+02   3.0528931686e+01     0.234556   0.06221886  56.80  0.001425694    2.481    0.597
        85  -9.1464    120.3637    219.1207   1.1713470052e+02   1.7645133034e+01     0.391139    0.1900889  66.44  0.001825511    2.934    0.659
        86  -8.2881     73.4651    220.9894   1.2506665501e+02   2.3666826113e+01    0.2169158   0.07609088  62.02  0.001029781    3.349    0.701
        87  -7.9801     27.5282    220.9949   1.3234442330e+02   2.8752719853e+01    0.1296297   0.07451305 -85.90  0.001027071    1.584    0.369
        88  -8.2580    202.6745    220.1488   1.0366204472e+02   4.7628942157e+00      0.14123     0.134702  56.52 0.0005693414    1.427    0.299
        89  -8.7629    249.2070    218.6559   9.6247757702e+01  -2.2931979185e+00    0.2569394    0.1497614  55.31  0.001477768    2.617    0.618
        90 -10.5340    157.5185    218.3787   1.1082359263e+02   1.2124808932e+01    0.5072038    0.2939864  71.66 0.0005250389    3.196    0.687
        91  -8.4813    210.1809    218.4478   1.0222939733e+02   3.7513844300e+00    0.2404278    0.1304818 -31.40  0.001016745    2.313    0.568
        92  -9.3887    132.6575    215.7823   1.1471044668e+02   1.6296080266e+01    0.3687394    0.2193277  82.48  0.002023514    2.853    0.650
        93  -8.5973     51.3902    217.3948   1.2840059391e+02   2.6803891281e+01    0.1945355    0.1098891  75.75 0.0007765817    1.540    0.351
        94  -8.7162    142.7543    216.3233   1.1306190385e+02   1.4685367598e+01    0.2080352    0.1415405 -81.35   0.00102794    2.163    0.538
        95  -8.5658     82.7112    220.6014   1.2352692238e+02   2.2568560835e+01    0.2626202    0.1090842  63.06  0.001111466    2.597    0.615
        96  -8.4436     18.6309    216.0642   1.3349752392e+02   3.0373926113e+01    0.1888542   0.07179322 -81.73  0.001232137    2.406    0.584
        97  -8.6709    232.2924    215.1451   9.8283281563e+01   5.9984496659e-01    0.1994207    0.1813941  52.30  0.001079145    1.589    0.371
        98  -7.7478    233.4902    211.5054   9.7545774962e+01   7.5654306528e-01    0.1151425   0.08381885  26.82 0.0008104281    1.028    0.027
        99  -9.1038     93.8477    214.5624   1.2117219682e+02   2.2021289819e+01    0.4156756     0.136288  55.97  0.001911994    3.171    0.685
       100  -7.9518     41.7394    215.9853   1.2986605853e+02   2.8074280730e+01    0.1893247   0.05175849  59.84  0.000892709    3.551    0.718
       101  -8.5833    185.6364    214.2951   1.0562771683e+02   8.1413435350e+00    0.2026167    0.1681608 -77.35  0.001075553    1.857    0.462
       102  -9.3532    213.9988    212.2379   1.0072447018e+02   3.7842560702e+00    0.3122385    0.2067739  57.85   0.00148088    1.969    0.492
       103  -9.1182    215.0301    206.7524   9.9737969956e+01   4.1936980356e+00     0.353634    0.1818927  23.42  0.001831426    2.256    0.557
       104  -9.4355     73.3250    212.1499   1.2443221514e+02   2.5043945165e+01    0.4920247    0.1527281  58.99  0.002151986    3.812    0.738
       105  -8.2686    224.8420    212.6037   9.9061243867e+01   2.0151419472e+00    0.1758448    0.1473491 -48.87  0.001132651    1.888    0.470
       106  -8.6409    161.6957    212.4790   1.0939318919e+02   1.2220970516e+01    0.2001681     0.150075  74.36 0.0008388378    1.724    0.420
       107  -9.0990    204.4025    211.0793   1.0210126440e+02   5.4597010015e+00    0.2321406     0.208935 -77.75 0.0008366524    1.730    0.422
       108  -8.9446    148.1138    210.7009   1.1148709892e+02   1.4613651936e+01     0.262245    0.1662956  70.40  0.001480171    2.108    0.526
       109  -9.4556      6.7051    209.6103   1.3508414704e+02   3.2471620233e+01    0.3852954   0.09611573  70.20  0.001744155    4.553    0.780
       110  -7.7394    242.9661    212.0000   9.6167241042e+01  -7.6341444942e-01    0.1768088   0.04992485  44.08  0.000498456    2.824    0.646
       111  -8.4238    192.4423    210.7336   1.0401092099e+02   7.4487481352e+00    0.1669685    0.1130056 -43.69 0.0006547302    1.961    0.490
       112  -9.5150    175.3634    210.0189   1.0676223764e+02   1.0324703331e+01    0.2873006    0.1961812  67.31  0.001141586    1.987    0.497
       113  -8.9414    116.2468    210.5579   1.1696087019e+02   1.9482536034e+01    0.2373676    0.1418717  67.23 0.0009248396    1.791    0.442
       114  -9.2139    236.7124    208.6368   9.6603280102e+01   5.2221722434e-01    0.2401133     0.220732 -87.46  0.001428361    1.956    0.489
       115  -8.4678     85.7661    209.8825   1.2213933495e+02   2.3813522083e+01     0.247751    0.1244224  63.70  0.001489413    1.924    0.480
       116  -8.0830     32.2394    210.2878   1.3108348264e+02   2.9961956876e+01    0.1440739   0.06057758  86.28  0.000879918    2.348    0.574
       117  -8.5034    139.2903    208.0104   1.1268620720e+02   1.6370359082e+01    0.2090466    0.1537983  81.02 0.0007208863    1.673    0.402
       118  -8.5640     62.5066    217.7637   1.2662486207e+02   2.5475097932e+01    0.3260979    0.1118284  56.46  0.001787508    2.464    0.594
       119  -8.9410    169.3185    216.2116   1.0858703272e+02   1.0532439501e+01    0.2290975    0.1819466  87.16 0.0009661508    1.810    0.448
       120  -9.2878    246.3549    207.4863   9.4943424522e+01  -8.7765638278e-01    0.2078643    0.1694439   8.70 0.0005896864    1.201    0.167
       121  -8.1188    156.6125    208.2877   1.0972754858e+02   1.3587307852e+01    0.1670163    0.1185929  69.41  0.000873735    1.712    0.416
       122  -9.2392     99.5849    206.4946   1.1944410183e+02   2.2476078515e+01    0.3253363    0.1742726  73.24  0.001512559    2.353    0.575
       123  -8.4370     56.4528    205.5836   1.2679832990e+02   2.8109768760e+01    0.2078403   0.09695576  71.43  0.001015253    2.169    0.539
       124  -8.1874     11.4974    206.4843   1.3421518838e+02   3.2548750292e+01   0.09650099   0.06307863  68.82 0.0001162704    1.039    0.038
       125  -9.5624    194.9159    203.5762   1.0256536331e+02   7.8757409291e+00    0.3158219    0.2962245  14.38  0.001490097    1.239    0.193
       126  -9.2620    192.3637    197.3980   1.0206898465e+02   9.0497427074e+00    0.2729156    0.2326017  87.10 0.0008755291    1.739    0.425
       127  -8.9031    184.0323    204.0755   1.0447051620e+02   9.6313491315e+00    0.2410883    0.1930427  69.16 0.0009381654    1.617    0.382
       128  -8.7233    131.4035    204.1178   1.1360522136e+02   1.8156758465e+01    0.2446504    0.1603175  77.08 0.0009888592    1.969    0.492
       129  -8.2747    109.0332    205.0736   1.1764845143e+02   2.1357821216e+01    0.1752402    0.1094092  69.62 0.0007157995    1.669    0.401
       130  -7.3863     92.3092    205.6225   1.2063002003e+02   2.3611167723e+01    0.1160534   0.06586362  68.60 0.0007028157    1.786    0.440
       131  -7.8891     25.2282    205.2265   1.3196062004e+02   3.1473769930e+01    0.1467806   0.05832237  86.05 0.0007768005    2.451    0.592
       132  -9.4585    250.0882    202.2707   9.3535766187e+01  -9.8263898568e-01    0.3084245    0.1568312 -23.37  0.001385073    2.152    0.535
       133  -9.6769    164.0054    203.1385   1.0777448326e+02   1.3073870005e+01    0.3893503    0.2020698  57.25   0.00117936    2.154    0.536
       134  -8.8641    210.8716    201.6102   9.9625002409e+01   5.4377309976e+00    0.2558404    0.1613837 -44.24  0.001063193    2.208    0.547
       135  -8.1578    222.2545    201.4703   9.7755968476e+01   3.5673001750e+00     0.160098    0.1433682 -58.27 0.0008591511    1.770    0.435
       136  -8.6881    140.6820    201.4379   1.1164238685e+02   1.7093704867e+01    0.2808551    0.1630542  68.49  0.001424825    2.382    0.580
       137  -8.5729     80.0353    201.5891   1.2241566519e+02   2.5882607801e+01    0.2441275     0.126196  72.63  0.001413607    2.168    0.539
       138  -8.1045     48.2032    202.1809   1.2796778684e+02   2.9596691942e+01    0.1526852   0.08706159  68.30  0.001074783    1.429    0.300
       139  -8.0071     10.3089    202.6638   1.3424854471e+02   3.3274187011e+01    0.1029903   0.04584081  65.16 0.0007042998    1.679    0.404
       140  -9.1973    237.0408    198.3352   9.4903322073e+01   1.4696135992e+00    0.2504128    0.1580145 -36.32  0.001202659    2.057    0.514
       141  -9.4371    149.5534    198.8098   1.0973254000e+02   1.6043531888e+01    0.3453909    0.2319595  80.55  0.001406523    2.249    0.555
       142  -8.9331    123.9887    199.2961   1.1435765520e+02   2.0021608574e+01    0.2471284     0.159968  82.79  0.001245249    2.052    0.513
       143  -9.3709    112.9867    198.5190   1.1624442773e+02   2.1800057382e+01    0.3912805    0.1954831  67.29  0.001800796    2.769    0.639
       144  -9.2084     88.6214    198.5878   1.2062176203e+02   2.5238989443e+01    0.3005673    0.1702564  80.00  0.001535371    2.076    0.518
       145  -8.4755    177.0594    199.0255   1.0493703432e+02   1.1439300297e+01    0.2040489    0.1657744  65.00 0.0007891674    1.438    0.304
       146  -8.2689    202.1435    197.6614   1.0045838629e+02   7.3559027068e+00    0.1661666    0.1643299 -56.91 0.0006970119    1.385    0.278
       147  -8.5860    133.2147    196.4788   1.1235850480e+02   1.9014345636e+01    0.2379383    0.1490358 -81.33 0.0009516545    2.428    0.588
       148  -9.0845     61.4720    197.2503   1.2532262496e+02   2.8901330669e+01    0.3278146    0.1545901  69.66  0.001403883    2.195    0.544
       149  -9.4572     12.8642    197.1716   1.3360134031e+02   3.3953163658e+01    0.2954109    0.1055606  79.02  0.001678215    2.690    0.628
       150  -8.7737    215.9473    195.8309   9.7879667340e+01   5.2283373556e+00    0.2074825    0.1719566 -41.29 0.0007638188    1.639    0.390
       151  -7.9588     29.3592    197.6877   1.3088478488e+02   3.2315871548e+01    0.1095063   0.05042013  63.78 0.0007042671    1.745    0.427
       152  -9.2592    243.0986    200.9937   9.4396401591e+01   2.3780039236e-01    0.2252592     0.192831 -22.93  0.001042849    1.516    0.340
       153  -8.5953    224.6170    194.6043   9.6268159318e+01   3.9042014716e+00    0.1946091    0.1701141 -34.52 0.0009747245    1.538    0.350
       154  -8.9607    185.1972    194.8027   1.0290374559e+02   1.0599463688e+01    0.2131939    0.1814989  62.08  0.000577435    1.369    0.270
       155  -9.1238    160.9204    194.3372   1.0709972537e+02   1.4794485079e+01     0.278755    0.1910454  70.92   0.00104314    1.954    0.488
       156  -8.8958     43.8365    193.6111   1.2815294873e+02   3.1512183425e+01    0.3451025    0.1354347  65.53  0.001870622    2.552    0.608
       157  -9.0752    245.4068    193.4446   9.2784897701e+01   5.9466285325e-01    0.1939889    0.1869787  12.25 0.0007612887    1.501    0.334
       158  -8.2819    230.8506    194.1771   9.5196195678e+01   2.9092358772e+00    0.1671543    0.1424393  28.03 0.0007022744    1.185    0.156
       159  -8.7131     76.9540    193.8775   1.2228140289e+02   2.7557154465e+01    0.1783424    0.1317017  83.78 0.0006486335    1.236    0.191
       160  -7.8526    241.4963    192.0717   9.3160346827e+01   1.3669457493e+00    0.1507636    0.1067506 -15.92 0.0004969409    1.488    0.328
       161  -8.3077    198.9414    191.7695   1.0007202931e+02   8.6105644914e+00    0.1736662     0.155211 -58.87 0.0004963989    1.563    0.360
       162  -8.1782    178.9929    191.7181   1.0351656331e+02   1.2069325957e+01    0.1805278    0.1554004 -73.87 0.0006352076    1.591    0.372
       163  -8.5329    172.4423    191.9085   1.0470036541e+02   1.3171585720e+01    0.1934816    0.1703933 -86.47 0.0008767767    1.476    0.323
       164  -7.4995    205.2828    191.6853   9.8984061771e+01   7.5251835201e+00    0.1064432   0.09129513  67.38 0.0002687443    1.577    0.366
       165  -9.0093    139.3457    190.5455   1.1047881426e+02   1.8932452409e+01    0.2419066    0.1749161  73.91 0.0008421622    1.612    0.380
       166 -10.3963     92.3446    188.8385   1.1897343324e+02   2.6350469768e+01    0.8078504    0.1979066  50.86  0.003090624    3.953    0.747
       167  -8.4575     20.8362    191.2117   1.3198278970e+02   3.4231976989e+01    0.1866657   0.05926997  63.85 0.0009608758    2.948    0.661
       168  -8.3095      6.4957    190.9690   1.3438528932e+02   3.5549934136e+01    0.1428723   0.05055726  73.31 0.0008096969    2.524    0.604
       169  -7.9943    210.4543    189.9399   9.7830799254e+01   6.8382352935e+00    0.1420234    0.1049591 -63.24 0.0006989592    2.450    0.592
       170  -8.6350    148.5300    189.4610   1.0865041419e+02   1.7580161338e+01     0.242185    0.1567096  73.63 0.0008250779    2.204    0.546
       171  -9.0390    129.3359    188.7423   1.1208703665e+02   2.0828206536e+01    0.2656259    0.1721689  74.92  0.001083188    1.961    0.490
       172  -9.8785    120.9312    186.9738   1.1342658413e+02   2.2437899238e+01    0.4363177     0.244991 -79.03  0.002214206    2.785    0.641
       173  -8.5318    237.2279    188.3032   9.3188364161e+01   2.4570936976e+00    0.2274005    0.1525762 -14.36  0.000786915    1.574    0.365
       174  -8.7848    216.7380    188.3082   9.6512771975e+01   5.9418801050e+00    0.2140931    0.1864343  69.40 0.0008497299    1.656    0.396
       175  -9.2699    155.9220    187.2265   1.0698218422e+02   1.6664789006e+01    0.3226959    0.1936747 -62.06  0.001454435    2.369    0.578
       176  -8.6966     34.2835    188.1376   1.2947551233e+02   3.3453926511e+01    0.2684821    0.1114799  72.98  0.001034235    2.445    0.591
       177  -7.4876    242.6975    188.3280   9.2331118947e+01   1.5452614840e+00   0.09899654   0.09417827  65.42 0.0007032967    1.645    0.392
       178  -8.1690    230.5174    187.5451   9.4130675666e+01   3.6673422052e+00    0.1693589    0.1088993 -39.34 0.0008825899    2.041    0.510
       179  -8.9229    191.4813    187.3831   1.0065437155e+02   1.0461263778e+01    0.2472445    0.1996512 -70.43  0.001192796    1.897    0.473
       180  -9.1691     54.7267    187.0942   1.2573919183e+02   3.1428498087e+01    0.3261639    0.1458004  69.83  0.001627077    2.418    0.586
       181  -8.6607    249.4736    185.8020   9.0837859006e+01   6.8178171356e-01    0.2144475    0.1770661 -25.51 0.0009117541    1.511    0.338
       182  -8.9132    164.8291    186.5765   1.0526592020e+02   1.5229546542e+01    0.2475425    0.2009981  87.82  0.001082409    1.635    0.388
       183  -9.2366    109.4473    186.0709   1.1546943430e+02   2.4344068123e+01    0.2994029    0.1944863  83.11  0.001092366    1.851    0.460
       184  -8.9671    182.9612    184.7780   1.0173388840e+02   1.2305520405e+01    0.2688897    0.1756059 -47.13 0.0009017467    1.931    0.482
       185  -8.8153    210.2316    184.3809   9.6940065642e+01   7.5355341319e+00    0.1977338    0.1811151  33.59 0.0006307526    1.217    0.178
       186  -8.3563    202.8002    184.7047   9.8259694640e+01   8.8056993242e+00    0.1878328    0.1572675 -77.34 0.0007503757    1.913    0.477
       187  -9.2039     66.7667    184.4836   1.2330672552e+02   3.0456354780e+01    0.3350287    0.1610488  61.19  0.001037248    1.945    0.486
       188  -8.6057     20.6499    184.2925   1.3164771287e+02   3.5446244754e+01    0.3416019      0.10059  67.60  0.001501138    4.112    0.757
       189  -8.6021    224.1120    183.7222   9.4513724552e+01   5.1867724709e+00     0.179229    0.1598338 -19.91   0.00052026    1.353    0.261
       190  -8.5933    197.0119    183.7217   9.9094690708e+01   9.9540464482e+00    0.1887886    0.1603478 -56.33 0.0007970147    1.618    0.382
       191  -9.2204    174.2676    183.2410   1.0304525409e+02   1.4052818675e+01    0.2815046    0.2100189 -62.30    0.0010188    1.852    0.460
       192  -8.2816     11.5871    183.8160   1.3320080803e+02   3.6341590917e+01    0.1459155    0.0676765  83.15  0.000959881    1.788    0.441
       193  -8.1907      2.2888    183.8793   1.3479591716e+02   3.7112060551e+01     0.168624   0.09013199  54.23  0.001281013    1.464    0.317
       194  -9.1202    241.4339    182.0529   9.1429906791e+01   2.4004762549e+00    0.3245358     0.240571 -61.73  0.001792619    2.921    0.658
       195  -9.0322     44.4853    182.4929   1.2725902530e+02   3.3379645477e+01    0.2641865    0.1352683  69.43  0.001166743    1.768    0.434
       196  -9.2487    147.6684    180.8494   1.0757731866e+02   1.9038129661e+01    0.3197332    0.2222368  82.01  0.001070835    2.061    0.515
       197  -9.6269     25.4172    178.6749   1.3047572480e+02   3.5993659706e+01     0.509392    0.1685901  74.39  0.002220788    4.102    0.756
       198  -8.5477    137.8449    179.5824   1.0924739455e+02   2.0898463623e+01    0.2229339    0.1568385 -86.31  0.001282565    1.936    0.484
       199  -9.4722    191.6036    178.4255   9.9155614992e+01   1.1613564488e+01     0.277977    0.2145395  63.71 0.0006507081    1.594    0.373
       200  -8.3950    169.4195    178.7193   1.0320927855e+02   1.5559059514e+01    0.1970573     0.122246 -49.81 0.0007452864    1.988    0.497
       201  -9.1157     36.0499    177.0309   1.2842161359e+02   3.5243632850e+01    0.4643254    0.1643276  77.19  0.001926104    4.380    0.772
       202  -9.5733    248.4720    176.5882   8.9341311115e+01   1.7782886177e+00    0.3409157    0.2539898 -42.43  0.002139714    1.952    0.488
       203  -8.6240    250.4757    172.6971   8.8312436843e+01   1.8410471604e+00    0.1973292    0.1502049 -13.47 0.0004924334    1.314    0.239
       204  -8.7008    231.1930    176.9696   9.2161218313e+01   4.7112932450e+00    0.2051798    0.1597995 -36.25 0.0005262524    1.624    0.384
       205  -8.5365    217.7797    177.4730   9.4469620476e+01   7.0242890738e+00    0.2047985    0.1610864 -50.05 0.0008521629    1.825    0.452
       206  -8.6662    205.1450    177.7720   9.6674387445e+01   9.2538373253e+00    0.1945181    0.1650323 -40.02 0.0007762695    1.474    0.321
       207  -8.5187    129.1772    177.5749   1.1062037803e+02   2.2660722808e+01    0.2465018     0.169421  81.25 0.0009666067    1.856    0.461
       208  -9.1109     89.0366    176.8463   1.1830556907e+02   2.8892096460e+01    0.2681301    0.1648029 -89.37  0.001073156    1.838    0.456
       209  -9.2663    183.1451    176.0101   1.0026165931e+02   1.3475266306e+01    0.2675908    0.2015357 -50.52 0.0006615124    1.677    0.404
       210  -9.3558    104.3642    174.9757   1.1509485169e+02   2.7005736823e+01    0.4572384    0.2158316  64.32  0.001796975    2.900    0.655
       211  -7.7693     97.5258    177.5433   1.1673844053e+02   2.7562976249e+01    0.1151286   0.09772652  63.27 0.0001336137    1.061    0.057
       212 -10.0416     57.2329    173.2032   1.2410698607e+02   3.3628169376e+01    0.6948479    0.2807157  78.63  0.002758512    4.495    0.778
       213  -8.7936     12.9068    176.6010   1.3260865153e+02   3.7498943171e+01     0.208929   0.09202152  77.14 0.0009993418    1.960    0.490
       214  -7.6691    211.5221    176.5160   9.5359437627e+01   8.2614481683e+00    0.1251849    0.1039857  30.34 0.0002579834    1.038    0.037
       215  -9.3461    158.9339    175.1802   1.0459443130e+02   1.7952247513e+01    0.3480629    0.2375303  78.13  0.001317008    2.247    0.555
       216 -10.7080     75.8796    170.2863   1.2016890355e+02   3.1857902710e+01    0.9559332    0.3512247 -78.80  0.003523753    4.959    0.798
       217  -8.3097    224.5374    174.3614   9.2782758853e+01   6.1857298989e+00    0.1998384    0.1164245 -34.32 0.0006726717    1.963    0.491
       218  -8.5914    193.8475    172.8328   9.7793430108e+01   1.1955698317e+01    0.1999149    0.1522058  22.24 0.0008803909    1.290    0.225
       219  -9.7987    175.7528    171.8201   1.0090437698e+02   1.5421462130e+01    0.3748413    0.2265959 -39.47  0.001836219    1.929    0.482
       220  -8.4438    142.9930    172.8254   1.0726544524e+02   2.1115637207e+01    0.2030286    0.1579531 -83.76 0.0007492237    1.594    0.373
       221  -8.6883    134.6096    171.7562   1.0873104776e+02   2.2723796540e+01    0.2297303     0.168062  79.05 0.0007904399    1.641    0.391
       222  -9.5814    121.3711    170.4310   1.1114041303e+02   2.5142900493e+01    0.3136639    0.2213557 -86.69  0.001167203    1.725    0.420
       223  -9.1036     45.0389    170.9870   1.2626965793e+02   3.5406495321e+01    0.3162695    0.1568013  83.56  0.001562185    2.057    0.514
       224  -8.9235    230.7419    170.1930   9.0992917102e+01   5.5606019938e+00    0.2159178    0.1800436  21.74 0.0007746282    1.047    0.045
       225  -8.4878    205.8045    170.2976   9.5232323416e+01   1.0088271754e+01    0.1911394     0.170014 -39.73 0.0006917595    1.397    0.284
       226  -8.1444    237.1196    169.8255   8.9887646760e+01   4.4677262204e+00    0.1719082    0.1573936  29.84 0.0005382969    1.287    0.223
       227  -8.5023    198.3550    170.2497   9.6533888486e+01   1.1471440437e+01     0.216088    0.1615963  44.52 0.0006430813    1.203    0.169
       228  -9.1785    167.3674    168.9155   1.0197826904e+02   1.7389896355e+01    0.3254459    0.2255408  75.22 0.0009845607    2.156    0.536
       229  -8.5973    149.8107    169.5758   1.0544171055e+02   2.0450060679e+01    0.2203244    0.1632992 -77.36 0.0007691037    1.805    0.446
       230  -8.2623    244.6340    169.1672   8.8565286982e+01   3.2204827610e+00     0.168013    0.1467581 -27.10 0.0005349645    1.440    0.306
       231  -8.4153    218.8663    168.3887   9.2636103516e+01   7.9260555082e+00    0.1872862    0.1682773 -18.00 0.0005635795    1.274    0.215
       232  -8.7611    111.8017    167.7183   1.1266913628e+02   2.7147359755e+01    0.3084207    0.1948831  81.29  0.001379991    2.068    0.517
       233  -8.3200     88.8240    168.7656   1.1741621714e+02   3.0380881573e+01    0.2218103    0.1311401  82.12  0.001055955    2.040    0.510
       234  -8.0219    211.2193    168.2104   9.3910843146e+01   9.3560090886e+00    0.1598333    0.1478896  61.69 0.0007637507    1.378    0.274
       235  -8.9103    185.0709    166.8759   9.8326892822e+01   1.4412223730e+01    0.2295061    0.1698323 -43.85 0.0007010381    1.599    0.375
       236  -8.4249     13.4845    167.9730   1.3203764023e+02   3.9009601858e+01    0.1481147   0.05824903  74.98 0.0008087333    2.423    0.587
       237  -8.9451    192.0044    166.7022   9.7032429988e+01   1.3138698451e+01    0.2246844     0.203037 -72.22 0.0007362139    1.474    0.322
       238 -10.1089     95.1529    163.1607   1.1543821795e+02   3.0505832724e+01    0.7109188    0.3395254  72.92  0.002688848    4.248    0.765
       239  -9.1295     20.4017    166.0329   1.3062407540e+02   3.8760673032e+01    0.3253017    0.1119012  60.88  0.001185714    2.726    0.633
       240  -7.5386    229.2756    166.3177   9.0506460141e+01   6.2758873294e+00    0.1280279   0.08366998  15.72  0.000416101    1.570    0.363
       241  -9.9433    136.7391    164.5251   1.0720475297e+02   2.3578844107e+01    0.5585406    0.2556402  58.45  0.002270238    2.783    0.641
       242  -8.4053    239.8809    164.3316   8.8401455095e+01   4.5932676042e+00    0.1844754    0.1597407 -11.75 0.0005213126    1.251    0.201
       243  -8.4479    233.8839    165.0938   8.9517482334e+01   5.5841633561e+00    0.1727678    0.1622728  13.37 0.0005411704    1.268    0.212
       244  -8.7185    159.5395    164.3521   1.0269849041e+02   1.9534316490e+01    0.2294956    0.1985268  76.26  0.000712836    1.310    0.236
       245  -9.3973     33.7405    163.7321   1.2789385020e+02   3.7931188442e+01    0.4675266    0.1530425  54.46  0.002352056    2.765    0.638
       246  -8.5278    212.9853    163.5439   9.2733372509e+01   9.6234913909e+00    0.2112956    0.1767657 -46.49 0.0006446989    1.556    0.357
       247  -8.5893     57.4115    163.7426   1.2319182698e+02   3.5372502537e+01    0.3154614    0.1497616  28.17  0.001582015    3.084    0.676
       248  -8.6108     60.7040    160.4415   1.2219481476e+02   3.5611448478e+01    0.2958816    0.1505181  72.94  0.001420662    2.235    0.552
       249  -9.0250    246.0132    163.0365   8.7176776844e+01   3.6464770182e+00    0.1855272    0.1580559  16.35  0.000479416    1.106    0.096
       250  -8.3999    204.8084    163.0516   9.4069113897e+01   1.1226196772e+01    0.1782104    0.1716679  42.96 0.0004403628    1.240    0.193
       251  -9.5468      3.6244    162.5168   1.3358240538e+02   4.0819256178e+01    0.3195926    0.1160219  56.24  0.001596609    2.240    0.554
       252  -8.8346    151.6457    161.1805   1.0370021973e+02   2.1490323302e+01    0.2621731    0.2010675 -89.24 0.0009448827    1.729    0.422
       253  -8.9716    177.5179    160.6425   9.8607772184e+01   1.6752311131e+01    0.2681806     0.216197  77.00   0.00106369    1.625    0.385
       254  -9.8848    105.8792    158.4342   1.1257876180e+02   2.9762277235e+01    0.4344295    0.2975535 -83.80  0.001681385    1.666    0.400
       255 -10.0630    250.1379    157.6593   8.5478121278e+01   3.5051410609e+00    0.3413014    0.1658404 -24.73 0.0006106792    2.076    0.518
       256  -9.8259    248.8495    149.7629   8.4091091060e+01   4.6180904266e+00    0.3368748    0.1896386 -28.86   0.00094242    1.804    0.446
       257  -9.2454    247.1148    143.7001   8.3109060023e+01   5.6345545276e+00    0.2590371    0.1668905 -15.61 0.0006760021    1.520    0.342
       258  -8.6065    250.5041    141.0251   8.2019098593e+01   5.3115285223e+00    0.2129648    0.1545538  18.91 0.0004894306    1.238    0.192
       259  -9.3015    243.4682    159.4086   8.6872176739e+01   4.5042006575e+00     0.356418    0.1946831  25.78  0.001239156    1.834    0.455
       260  -8.7735    242.7392    155.0315   8.6120542137e+01   5.1338899727e+00    0.1761574    0.1623424   6.43 0.0004089686    1.231    0.187
       261  -8.7933    239.9930    153.2486   8.6202260501e+01   5.8449606455e+00    0.1599068    0.1501481  25.53 0.0004002646    1.278    0.217
       262  -8.4455    227.3877    159.0442   8.9419567338e+01   7.4937930908e+00     0.235261      0.18314 -45.09 0.0009212043    1.712    0.416
       263  -8.4962    128.0361    159.2530   1.0812837774e+02   2.5992584613e+01    0.2185354    0.1647371  84.69 0.0005928217    1.554    0.356
       264  -8.4308    237.0264    159.0019   8.7826209105e+01   5.7194890155e+00     0.196085    0.1663882  18.35 0.0005848586    1.060    0.057
       265  -8.8501    196.4660    157.8881   9.4583239414e+01   1.3525652088e+01    0.2257821    0.1997597  72.60 0.0007113385    1.434    0.302
       266  -8.5637    188.1464    157.7280   9.6078721134e+01   1.5151743463e+01    0.2084992    0.1749569 -46.07  0.000638198    1.416    0.294
       267  -9.4625    167.5355    157.2511   9.9898653202e+01   1.9171396504e+01    0.3003177    0.2366062 -87.47  0.001052193    1.771    0.435
       268  -8.3813     78.8101    158.5816   1.1824494362e+02   3.3666564379e+01    0.2197157    0.1097592  36.05   0.00114757    2.166    0.538
       269  -8.7126    217.9582    156.5036   9.0516534466e+01   9.5878560708e+00    0.2302614    0.1746952 -45.62 0.0009026935    1.704    0.413
       270  -9.0564    157.5586    156.0633   1.0163898285e+02   2.1243097393e+01      0.25034    0.2035574 -87.81 0.0008269242    1.563    0.360
       271  -9.4114    119.5786    155.3685   1.0926336254e+02   2.8118687174e+01    0.3882552    0.2447438 -83.07  0.001507354    2.246    0.555
       272  -9.4063     81.6952    154.9229   1.1718751373e+02   3.3977176712e+01    0.4052165    0.2251338  71.10  0.001482353    2.142    0.533
       273  -9.2421     49.6026    155.1759   1.2395890796e+02   3.7907864068e+01    0.3378145    0.1564062  68.46  0.001694267    2.432    0.589
       274  -8.0419    204.7355    155.1975   9.2573909802e+01   1.2301848364e+01    0.1829146    0.1612484 -46.98 0.0005628472    1.415    0.293
       275  -8.4129    144.7437    155.0459   1.0402786896e+02   2.3780348383e+01    0.2002072    0.1638277  75.37  0.000711428    1.351    0.260
       276  -9.6270    132.8279    153.1149   1.0614076308e+02   2.6254112435e+01    0.4118985    0.2803162  75.32  0.001280826    1.898    0.473
       277  -8.8703    133.4859    148.5142   1.0521485348e+02   2.6964158851e+01    0.2544959    0.2168199 -47.49 0.0009634263    1.303    0.232
       278  -9.8669     68.0741    153.9036   1.1994936022e+02   3.5969373115e+01     0.392072    0.1935933  65.51  0.001482468    2.318    0.569
       279  -8.3694    232.8179    153.5546   8.7430919196e+01   7.1447153693e+00    0.1996971    0.1451207 -26.23 0.0005587066    1.447    0.309
       280  -8.2961    151.8240    152.6077   1.0216496916e+02   2.2892000467e+01    0.2026596    0.1610231 -56.64 0.0009435079    1.425    0.298
       281  -9.5505     20.1567    152.5572   1.2977472500e+02   4.1331226814e+01    0.2129567     0.119576  71.08 0.0007682696    1.512    0.338
       282  -8.1905    182.6034    151.5638   9.5936452647e+01   1.7147861987e+01    0.2436429      0.15601 -61.29  0.001084953    2.460    0.594
       283  -9.5264     29.2141    150.5589   1.2777449523e+02   4.0896609714e+01    0.4034922    0.1593104  70.49  0.001913675    2.999    0.667
       284  -9.9538    242.5884    150.3058   8.5189947013e+01   5.7079590715e+00    0.3870508    0.2317507  56.64  0.001968533    2.105    0.525
       285  -9.3936    233.7442    147.5950   8.6064917734e+01   7.6946306714e+00    0.2484401    0.2087625   2.26 0.0007722911    1.098    0.090
       286  -8.9776    218.2626    150.7883   8.9322984253e+01   1.0269150463e+01    0.2281646    0.1799111  31.05 0.0003601573    1.104    0.094
       287  -8.9421    189.4659    150.2950   9.4395968821e+01   1.5989095948e+01    0.2596992    0.2273938 -63.90  0.000765292    1.465    0.318
       288  -8.7342    162.7750    150.9392   9.9666498059e+01   2.1098008302e+01    0.2302588    0.1852368 -75.22  0.001049605    1.607    0.378
       289  -8.8251     98.2289    150.6542   1.1307533688e+02   3.2409316775e+01    0.2565494    0.1710187  85.05  0.001336475    1.749    0.428
       290  -8.3699    213.0235    149.9731   9.0067511291e+01   1.1396718718e+01    0.2014688    0.1730356  21.70 0.0004031791    1.018    0.017
       291 -10.0073     40.2547    148.2948   1.2526607210e+02   4.0255761592e+01    0.4534336    0.1832233  64.23  0.001821869    2.880    0.653
       292  -9.0996      2.6931    150.3539   1.3312005865e+02   4.3168510395e+01    0.1765063   0.09575944  77.89  0.001220186    1.452    0.311
       293  -8.4276    198.8157    149.1025   9.2431568104e+01   1.4314653698e+01    0.1869416    0.1774102  70.89 0.0005049137    1.286    0.222
       294 -10.1941     89.1033    146.1182   1.1440409940e+02   3.4647269629e+01    0.5739185     0.306409  83.26  0.002458646    3.148    0.682
       295 -10.2442    148.9756    145.0803   1.0136204415e+02   2.4723315092e+01    0.5359532    0.3589199  85.69  0.001753028    2.502    0.600
       296  -8.8898    150.4500    136.4384   9.9378342497e+01   2.5963569774e+01    0.5516735    0.3399023  -0.31  0.001847794    4.773    0.790
       297  -9.0827     78.1877    147.2637   1.1695397196e+02   3.5952370074e+01    0.2865593    0.1650345  75.74 0.0007859279    2.093    0.522
       298 -10.4943     54.6721    144.0668   1.2172098216e+02   3.9532474850e+01    0.7675567    0.3547267  80.72  0.002923459    3.131    0.681
       299  -9.1499     57.1902    135.6108   1.2016267679e+02   4.0957002332e+01    0.2613968    0.1531845  21.60    0.0013765    2.683    0.627
       300  -8.1610    223.3370    146.9205   8.7663852458e+01   9.7850509037e+00    0.1803015    0.1544801  -2.68 0.0004444228    1.131    0.116
       301  -9.8633    139.0742    144.9933   1.0341148848e+02   2.6586257966e+01    0.3750973    0.2647267 -80.77  0.001212646    1.951    0.487
       302 -10.5436    106.2206    144.1458   1.1034356674e+02   3.2417854021e+01    0.6342009    0.4342094 -89.87   0.00259031    1.759    0.431
       303  -9.0988     13.0424    146.2102   1.3078458930e+02   4.3160544713e+01    0.2546818    0.1209798  69.47  0.001198643    1.894    0.472
       304 -10.2295    242.0506    138.7344   8.2859287170e+01   7.1822257218e+00     0.424516    0.2831112 -45.99  0.002225912    2.039    0.509
       305  -9.0249    242.6911    143.3305   8.3730438777e+01   6.5096909784e+00    0.1878906    0.1566662  48.25 0.0005618224    1.370    0.270
       306  -8.0495    206.7697    146.4043   9.0445866231e+01   1.3117394545e+01    0.1724934    0.1606779  30.36 0.0005630931    1.126    0.112
       307  -8.2577    175.5290    146.1932   9.6242613782e+01   1.9377460002e+01    0.2110813    0.1779664  67.84 0.0007937239    1.358    0.264
       308  -9.8707    124.9896    142.3431   1.0594289347e+02   2.9606949222e+01    0.5525035    0.3264575 -69.94  0.001948462    2.272    0.560
       309  -7.8694    194.4525    143.9516   9.2186802894e+01   1.5935679153e+01    0.1715934    0.1166885 -61.73  0.000536781    2.328    0.570
       310  -8.9119    165.6353    143.9933   9.7761336303e+01   2.1689079816e+01     0.279041    0.1995113  65.11 0.0008154282    1.649    0.394
       311 -10.7319     69.6287    141.4689   1.1808986731e+02   3.8239139220e+01    0.6095325    0.3464804  76.45  0.003196969    2.091    0.522
       312 -10.9458     72.2940    130.8903   1.1602326731e+02   4.0053460667e+01    0.6961827    0.4099427 -48.49    0.0031889    1.951    0.487
       313  -7.9530    235.4842    142.9322   8.4808463127e+01   7.9337860333e+00     0.189912    0.1225005 -24.75  0.001021968    1.561    0.359
       314  -9.4566      2.5141    141.5909   1.3265414185e+02   4.4866731894e+01     0.347649    0.1350014  76.09  0.001835735    2.454    0.592
       315  -8.3739    182.0911    141.7074   9.4065393301e+01   1.8772381977e+01    0.2219971     0.185074 -52.15 0.0006032799    1.415    0.294
       316  -9.2292    240.4449    145.4898   8.4540687765e+01   6.6772058663e+00    0.2246494    0.1766221  -2.67 0.0005104599    1.181    0.153
       317  -9.7310     23.5793    138.3566   1.2796535108e+02   4.3824142484e+01    0.4319679    0.1797664  67.88  0.002163537    2.627    0.619
       318  -7.9467    218.6118    138.7639   8.6757935476e+01   1.1794579184e+01    0.1705734    0.1239769 -35.92 0.0003688247    1.514    0.340
       319  -8.6011    172.2839    138.5496   9.5336148870e+01   2.1260954204e+01    0.2703663    0.2177963 -88.06 0.0008148191    1.698    0.411
       320  -8.7373    139.3910    138.1726   1.0206836409e+02   2.7764562579e+01    0.3121667    0.2003384   2.14  0.001154491    4.009    0.751
       321  -8.3910    207.3723    138.0003   8.8574574106e+01   1.4177696953e+01    0.2261069    0.1915824  79.64 0.0007413044    1.629    0.386
       322  -8.4983    197.3249    137.6156   9.0325222996e+01   1.6290816171e+01    0.2154632    0.2045302 -74.17 0.0006381875    1.308    0.235
       323  -8.4029    162.6953    136.3980   9.6827679374e+01   2.3550692015e+01    0.2322701    0.1663931 -55.43 0.0006654824    1.639    0.390
       324 -10.3980     83.3309    132.7934   1.1372845484e+02   3.8150673585e+01    0.5315707    0.2808694 -73.11  0.001270776    2.113    0.527
       325  -9.4683     39.0525    136.1844   1.2434194687e+02   4.2809548936e+01    0.2379116    0.1351178  72.78 0.0007113251    1.734    0.423
       326  -9.1650    250.6179    129.7051   7.9562443395e+01   6.6136990943e+00    0.4042766    0.1155106 -28.17  0.001469201    3.356    0.702
       327  -9.0501    248.3586    135.4344   8.1158605072e+01   6.3688147409e+00    0.2788349    0.2035813 -24.87  0.000858342    1.367    0.269
       328  -8.6593    246.8440    130.3837   8.0293916576e+01   7.2627286605e+00    0.2319575    0.1679419 -20.06 0.0005931158    1.322    0.244
       329  -8.2306    188.0000    135.9799   9.1730587111e+01   1.8458626831e+01    0.2082199   0.07900106 -36.81 0.0004208452    2.832    0.647
       330  -8.9309    179.4894    133.9812   9.2951239214e+01   2.0531469161e+01    0.3132287    0.2305848 -67.23  0.001047743    1.954    0.488
       331 -10.1319    236.7290    132.7221   8.2412659489e+01   8.9600565900e+00     0.395154    0.2437613 -54.37   0.00176478    2.836    0.647
       332  -8.1643    231.4800    134.0796   8.3568146598e+01   9.8311220585e+00    0.1927921    0.1258908 -25.71  0.000456254    1.535    0.348
       333 -10.1851    132.3871    131.5266   1.0230244362e+02   3.0307609037e+01    0.4915033    0.3482059  89.63  0.001099482    1.965    0.491
       334  -9.1264    112.7749    133.2166   1.0702047796e+02   3.3469978702e+01    0.3126988    0.2184749 -88.75 0.0009970767    1.800    0.444
       335  -9.1428    143.1008    131.7698   1.0000656438e+02   2.8231634276e+01    0.3319765    0.2267791 -71.38 0.0008798243    1.993    0.498
       336 -10.4034     98.1845    130.2906   1.0985968926e+02   3.6437217584e+01    0.6002588    0.2616068 -60.21  0.001708647    2.375    0.579
       337  -8.9534    100.7308    119.9706   1.0738596961e+02   3.8133472496e+01    0.4889324    0.2533798  24.48  0.001843034    3.733    0.732
       338  -8.4857    204.5184    130.2794   8.7405199360e+01   1.5879333815e+01    0.2278946    0.1974855 -50.24  0.000625203    1.398    0.285
       339  -9.7034    153.1207    128.1875   9.7109863842e+01   2.6907551153e+01    0.6440231    0.2498254 -45.32  0.002126047    2.749    0.636
       340  -9.8316     13.0202    129.4594   1.2956694143e+02   4.6487818623e+01    0.4204088    0.1775311  71.17  0.001977294    2.483    0.597
       341  -8.3169    220.5968    129.7645   8.4448571719e+01   1.2608395224e+01     0.180599    0.1252148 -36.71 0.0005527976    1.564    0.361
       342  -8.2832    192.8773    130.1737   8.9540615290e+01   1.8338932827e+01     0.199508     0.190294 -83.54 0.0005439561    1.266    0.210
       343  -9.3331    168.4566    129.4765   9.4188618641e+01   2.3555923853e+01    0.3016162    0.2318346  81.31  0.001061765    1.777    0.437
       344  -8.0481    211.7091    129.1831   8.5869507491e+01   1.4533231112e+01    0.2036989    0.1676955 -49.00 0.0006956172    1.493    0.330
       345 -10.5270     59.9185    125.0890   1.1814041821e+02   4.2817203873e+01     0.702305    0.3575875  81.81  0.002541421    2.880    0.653
       346  -8.3747     58.8450    115.3824   1.1699241458e+02   4.4998142304e+01     0.185349    0.1402893 -36.23  0.001123725    1.756    0.430
       347 -10.7176     44.9530    123.6356   1.2155443807e+02   4.4800678056e+01    0.9540421    0.4167055  75.97  0.003784586    3.944    0.746
       348  -9.9797    117.9795    125.3789   1.0435302959e+02   3.4112607901e+01    0.5030978    0.3196308  76.61  0.001481775    2.340    0.573
       349 -10.3745     28.4319    122.8388   1.2541391650e+02   4.6567265525e+01    0.6460581    0.2821302  81.08  0.003049962    2.852    0.649
       350  -8.9245    228.3032    125.4599   8.2177860614e+01   1.1598029646e+01    0.2246097     0.154901 -45.18 0.0007374831    1.787    0.440
       351  -8.9023    179.2860    124.7751   9.0967727680e+01   2.2070114130e+01      0.24887    0.2414196 -70.52 0.0006675204    1.168    0.144
       352  -9.3826    134.7178    124.4355   1.0034504328e+02   3.1212345886e+01    0.3856968    0.2295946  33.38   0.00177286    1.960    0.490
       353 -10.3087    130.8300    118.6805   1.0000769764e+02   3.3058720331e+01    0.6013189    0.3665991 -60.61  0.001977778    1.921    0.479
       354  -9.0851    243.9819    124.2924   7.9384558052e+01   8.5684695495e+00    0.1842021    0.1584515  12.66  0.000399478    1.017    0.017
       355  -8.2631    188.5109    123.9903   8.8985024570e+01   2.0228786631e+01    0.1887849    0.1201404 -59.50 0.0004993585    2.389    0.581
       356  -9.2624    158.7753    121.7112   9.4491664823e+01   2.6907952007e+01    0.3418736    0.2578248 -86.90 0.0007855468    1.898    0.473
       357  -8.8294     85.2848    122.5864   1.1160373926e+02   3.9974879315e+01    0.3220541    0.2060258  16.46  0.001517752    2.781    0.640
       358  -9.7680     71.6382    120.1614   1.1454318430e+02   4.2380370450e+01    0.5563154    0.3002764  76.62   0.00209694    2.849    0.649
       359  -7.8420    203.1480    122.1412   8.5810428637e+01   1.7370320642e+01    0.1806151    0.1675163 -59.98 0.0003979059    1.314    0.239
       360  -7.6685    195.1579    122.4033   8.7354545141e+01   1.9049277346e+01    0.1854464    0.1322376  60.39 0.0003892808    1.591    0.372
       361  -8.9983    171.9330    121.6497   9.1738405977e+01   2.4153206549e+01    0.2546286    0.2061786 -48.41 0.0005718021    1.356    0.263
       362  -9.8987    141.5747    118.6290   9.7557153173e+01   3.0972633215e+01    0.4399545    0.3109033 -72.06  0.001159501    1.887    0.470
       363  -8.7068    141.3533    113.2969   9.6403888025e+01   3.2021902027e+01    0.4800718    0.2785099  21.99   0.00178894    3.173    0.685
       364  -9.6793      2.9421    117.4170   1.3093435074e+02   4.9660622571e+01     0.444495    0.1735438  75.93  0.002239128    2.747    0.636
       365  -7.8174    231.5889    117.7782   7.9871845016e+01   1.1931142753e+01    0.1897403    0.1211761 -37.77 0.0008901502    1.682    0.405
       366  -8.1663    219.3741    116.2697   8.1560905768e+01   1.4726488509e+01    0.1929786    0.1252095 -37.28 0.0006906622    1.626    0.385
       367  -8.1365    185.9961    116.0863   8.7633065605e+01   2.2034761267e+01    0.2181525    0.1769374 -76.85  0.000577232    1.694    0.410
       368  -9.9139    109.3348    114.1215   1.0413281729e+02   3.7885963555e+01    0.4650577    0.2980594 -81.60  0.001174799    2.259    0.557
       369  -8.8744    108.9716    107.9977   1.0291840897e+02   3.9200052235e+01    0.3205498    0.2372893  -1.59   0.00127853    2.229    0.551
       370  -9.2414    249.6860    114.5910   7.6294752786e+01   8.6175602171e+00    0.3325591    0.2269296 -50.49  0.001681764    2.036    0.509
       371  -8.4100    192.9035    115.1988   8.6090403083e+01   2.0659302645e+01    0.2065381    0.1950113 -71.71 0.0005243444    1.258    0.205
       372  -8.3571    167.3231    114.8012   9.1098880517e+01   2.6312781602e+01    0.1989497     0.177724  58.27 0.0008573708    1.150    0.130
       373  -7.5962    153.2631    115.6331   9.4294105226e+01   2.9145449730e+01    0.1416601    0.1113772 -78.28 0.0003838202    1.648    0.393
       374 -10.1535     92.6805    112.5166   1.0793260628e+02   4.0961363154e+01    0.5463633    0.2995722 -70.94  0.001418975    2.235    0.553
       375  -8.9222     93.7869    104.7816   1.0608224767e+02   4.2409544319e+01    0.3932109    0.2520489   9.06  0.001614969    3.376    0.704
       376 -10.0727     79.0425    112.7761   1.1143144643e+02   4.2932784085e+01    0.5599113    0.3315519  83.03   0.00192574    2.489    0.598
       377  -8.5616     78.6671    105.0152   1.1007884440e+02   4.4638534476e+01    0.2574292    0.2183093  11.09  0.001043565    1.572    0.364
       378 -10.2267    121.3994    111.5762   1.0067007152e+02   3.6232001123e+01     0.664743    0.3688104 -71.68  0.001850333    3.206    0.688
       379 -10.6765    109.9412     99.5495   1.0076033898e+02   4.0758712192e+01    0.8933595    0.4657006  66.43  0.003128263    3.731    0.732
       380  -9.1140    108.5759     92.2717   9.9353551060e+01   4.2494741673e+01    0.5988221    0.2781413  30.41  0.002135448    3.454    0.710
       381  -9.8335    133.6674    109.2697   9.7241632508e+01   3.4328852516e+01    0.6137921    0.2852279 -54.42  0.002145369    2.530    0.605
       382  -8.4693    174.7444    111.8574   8.8863658555e+01   2.5201954050e+01    0.2655338    0.1936152 -56.85 0.0006951951    1.679    0.404
       383  -8.4746    159.3005    111.9774   9.2127669661e+01   2.8530929182e+01    0.2494873     0.200105  79.74 0.0006590112    1.557    0.358
       384 -10.1107     66.1899    109.8868   1.1422811762e+02   4.5271597008e+01    0.5001543     0.277338 -70.25  0.002173319    1.737    0.424
       385  -9.9391     14.2090    111.1767   1.2768818675e+02   5.0163673952e+01    0.3331994    0.1691147  74.82  0.001361399    1.994    0.499
       386 -10.0290    248.6620    107.9010   7.4884438960e+01   9.6482070122e+00    0.3512407    0.2738678 -18.64  0.002006857    1.194    0.162
       387 -10.3488    249.1450    102.6123   7.3554411145e+01   1.0202869644e+01    0.3854204    0.3062489   9.87  0.002198514    1.189    0.159
       388  -8.1659    189.3431    108.1940   8.5069561377e+01   2.2558527659e+01    0.2046703     0.129913 -42.73 0.0004774774    1.693    0.409
       389  -9.3734    150.6770    103.2654   9.1894073136e+01   3.1956158052e+01    0.4192388    0.2881155 -69.78  0.001665805    2.092    0.522
       390 -10.5940     45.9425    102.5801   1.1839407578e+02   4.9190513272e+01    0.7400169    0.3545277  68.54  0.003199544    3.264    0.694
       391 -10.6687     23.0196    102.7515   1.2452971228e+02   5.1266980602e+01    0.6958082    0.3108383  72.18  0.002845851    3.012    0.668
       392  -8.6671    166.6981    104.4856   8.8715518594e+01   2.8243158380e+01    0.2685769    0.2270025 -57.45 0.0005459061    1.332    0.249
       393  -9.4253    139.6970    104.0586   9.4593892904e+01   3.4112523357e+01    0.4248218    0.2682646 -52.18  0.001323118    1.694    0.410
       394  -9.7793      6.7846    102.5927   1.2873360646e+02   5.2480891396e+01    0.4214792    0.1547328 -80.99   0.00214154    2.284    0.562
       395 -10.2823    128.5168    101.6666   9.6655932649e+01   3.6829280042e+01    0.5238826    0.3419085 -40.25  0.001738326    1.586    0.369
       396  -7.7669    175.5520    102.4843   8.6371833651e+01   2.6604197393e+01    0.1440926     0.141416  32.56 0.0008075866    1.054    0.051
       397  -8.5339    159.7495    100.9959   8.9319315009e+01   3.0395531300e+01    0.2580884    0.1957493 -56.41  0.000565221    1.508    0.337
       398  -9.1390     82.0893    100.1156   1.0818855111e+02   4.5191161817e+01    0.3477405    0.2306546  86.58  0.001083716    2.010    0.502
       399  -9.4895     94.9523     97.0046   1.0407673228e+02   4.3856430212e+01    0.3591653     0.219309 -60.72 0.0005741069    1.645    0.392
       400 -10.0871     64.0192     96.0515   1.1231168632e+02   4.8530179209e+01    0.5257905    0.3061874 -88.91    0.0016157    2.400    0.583
       401  -9.0830     64.3743     88.2185   1.1064075162e+02   5.0183277689e+01     0.743413    0.3376773  18.63  0.002455068    5.773    0.827
       402 -10.3371    123.7891     91.9185   9.5369648106e+01   3.9683819519e+01     0.593211     0.530014  -7.00  0.001968528    1.280    0.219
       403  -8.6255    151.2477     95.8337   8.9865038432e+01   3.3197321479e+01      0.28824    0.1919566  21.70  0.001240398    2.072    0.517
       404  -8.2714    176.3434     93.4064   8.3842511161e+01   2.7946812840e+01    0.2453986    0.1727563 -54.18 0.0006073554    1.698    0.411
       405  -8.5120    164.7931     94.0942   8.6432108416e+01   3.0483779215e+01    0.2271696     0.197963 -64.46 0.0005565987    1.313    0.239
       406  -7.5577    188.5021     93.5445   8.1476318572e+01   2.5090618515e+01     0.147252    0.1416003  18.45 0.0008088457    1.027    0.026
       407  -9.4316    138.9331     91.9973   9.1700050857e+01   3.6565212070e+01    0.4193201    0.2768964 -53.89  0.001234417    1.662    0.398
       408  -9.2069     46.0997     92.8041   1.1675717254e+02   5.1296570023e+01    0.3549048    0.1872588  17.87  0.001724688    3.036    0.671
       409  -9.5688      5.2457     92.2777   1.2811392506e+02   5.4754444537e+01    0.3102447    0.1646544  60.76  0.001396819    2.005    0.501
       410  -8.1159    157.8366     91.6634   8.7288565333e+01   3.2487333380e+01    0.2380988     0.174227 -44.20 0.0004627244    1.405    0.288
       411  -9.7176     34.8043     89.9179   1.1950707060e+02   5.3028574282e+01    0.4336962    0.2157372 -85.59    0.0017013    2.342    0.573
       412  -9.2461     22.9353     90.3478   1.2296086285e+02   5.3939314644e+01    0.2416831     0.208456  19.42  0.001503739    1.533    0.348
       413  -7.9657    151.0816     89.1886   8.8125402449e+01   3.4446030727e+01    0.2017016    0.1751023 -77.40 0.0004691729    1.352    0.260
       414 -10.0770     86.3663     85.8825   1.0382002068e+02   4.7573609053e+01    0.6558632    0.3490098 -58.90  0.001657224    1.864    0.463
       415  -8.0629    164.1765     87.2055   8.4693915427e+01   3.1822519687e+01    0.2048011    0.1731703 -61.48 0.0004444009    1.356    0.263
       416  -9.9886     48.5088     84.0058   1.1444899211e+02   5.2959066083e+01     0.549926    0.3209375 -83.52  0.002385251    2.016    0.504
       417  -8.6583    178.0394     85.9602   8.1475236287e+01   2.8782340828e+01    0.2492769    0.1749108  22.75  0.001119524    1.705    0.413
       418  -8.7234    127.6656     84.1033   9.2305792195e+01   4.0430319806e+01    0.4462389    0.2307996  24.63  0.001373575    4.358    0.771
       419  -9.7914    104.6934     83.1564   9.8045496967e+01   4.5059474506e+01    0.4564895    0.2772291 -64.03  0.001049071    2.027    0.507
       420  -8.3170    105.0066     77.4888   9.6416686194e+01   4.6152980983e+01     0.243031    0.1842472  34.17 0.0009666585    1.458    0.314
       421  -7.7202    170.6087     83.8344   8.2397896841e+01   3.0893728341e+01    0.2153073    0.1355495 -45.37 0.0004508108    1.694    0.410
       422  -8.4065    157.9232     84.1388   8.5195556747e+01   3.3800413267e+01    0.2232447     0.203376 -73.63 0.0004335881    1.239    0.193
       423  -9.0902    140.7875     82.5444   8.8666921013e+01   3.7939285553e+01    0.3933901    0.2586972 -57.70  0.001127333    1.836    0.455
       424  -7.7412    185.2914     82.6290   7.9122906111e+01   2.7588528748e+01    0.1550218    0.1165234 -63.40 0.0007024524    1.721    0.419
       425  -9.7220     24.5167     80.1865   1.2099623215e+02   5.6016169276e+01    0.4679255    0.2121429 -84.77  0.001553424    2.589    0.614
       426  -9.2892      9.8191     81.0077   1.2551164538e+02   5.6875421600e+01    0.3010417    0.1519686  65.71  0.001416117    2.374    0.579
       427  -8.6966    150.2931     80.6886   8.5923646788e+01   3.6157450161e+01    0.3038052     0.235431 -71.03 0.0007943137    1.664    0.399
       428  -8.6637    119.4758     80.3377   9.3344028983e+01   4.2820559306e+01    0.2927939    0.2151226 -76.18 0.0006561958    1.846    0.458
       429  -8.9668     74.4582     80.2789   1.0590289704e+02   5.0538937900e+01     0.327778    0.2014208 -74.41  0.001119133    2.036    0.509
       430  -8.3356    166.8197     79.7082   8.2017239728e+01   3.2485136418e+01    0.2485192    0.1976855 -20.77 0.0003752874    1.313    0.239
       431 -10.1319     63.7675     74.5814   1.0775859009e+02   5.3204841005e+01    0.7281107    0.3002567 -67.95  0.002639678    3.543    0.718
       432  -9.4649    233.2756     77.0286   6.9465778662e+01   1.6955714282e+01    0.2545896    0.2193395  21.18  0.000297844    1.141    0.123
       433  -7.9799    157.2885     76.6681   8.3186984525e+01   3.5251542365e+01    0.1514399    0.1185838 -69.24 0.0004467092    1.624    0.384
       434  -8.7685    140.5631     75.3959   8.6649039843e+01   3.9303140762e+01    0.3298527    0.2125754 -50.40 0.0007132296    1.682    0.405
       435  -8.4082    163.4558     73.4330   8.0894793749e+01   3.4342261669e+01     0.266549    0.1319813 -44.58 0.0008448473    2.162    0.537
       436  -9.6243     82.3825     72.6013   1.0157470844e+02   5.0986353420e+01    0.4328824    0.2423494 -63.68  0.000860452    2.082    0.520
       437  -8.8261     83.5728     65.3062   9.9158853877e+01   5.2306774226e+01    0.4381287    0.2590807  -0.87  0.001378188    5.457    0.817
       438  -7.9679    151.4403     73.4883   8.3550171223e+01   3.7168253744e+01      0.14807    0.1455017 -23.16 8.434089e-05    1.032    0.031
       439  -8.5393    115.7156     72.9026   9.2191012198e+01   4.5019217344e+01    0.2644877    0.1888532 -59.13 0.0006804891    1.571    0.364
       440  -8.4353     42.4287     72.7617   1.1405647736e+02   5.6036345227e+01    0.2364369    0.1059044 -67.33 0.0009903887    2.070    0.517
       441  -9.4743    127.9614     75.2954   8.9716088674e+01   4.2054222154e+01    0.3912135    0.2563165 -56.41 0.0007563212    1.761    0.432
       442  -7.6081    175.4396     72.5382   7.8158998910e+01   3.1587573989e+01    0.1506518    0.1453393   7.32 7.761337e-05    1.005    0.005
       443  -9.2655    105.8416     71.3803   9.4434484596e+01   4.7220782443e+01    0.3710187    0.1921474 -49.78  0.001184057    1.907    0.476
       444  -9.4681     94.9100     70.8379   9.7384655996e+01   4.9296432698e+01    0.4251269    0.2165897 -58.93  0.001081402    2.363    0.577
       445  -9.5269     51.5978     69.9849   1.1050394414e+02   5.5661725117e+01    0.4546317    0.2342276 -76.03  0.001474884    2.647    0.622
       446  -9.0797     29.7100     70.0224   1.1759709661e+02   5.7800977300e+01    0.4529778    0.2269622 -24.27  0.001939975    4.067    0.754
       447  -7.3718    170.4943     71.4895   7.8846987336e+01   3.2963246650e+01    0.1512926    0.1464155  10.23 -1.982147e-05    1.003    0.003
       448  -9.0554     16.6615     69.9307   1.2179540056e+02   5.8813134451e+01    0.3353408    0.1620202 -83.09  0.001746612    2.123    0.529
       449  -8.2460     18.5935     62.8024   1.1992217240e+02   6.0216308925e+01    0.3248614    0.1400982 -28.88  0.001326869    4.534    0.779
       450  -8.8175    147.0548     68.3429   8.2987816644e+01   3.9083706738e+01    0.2820836    0.2089437 -42.87 0.0004722256    1.364    0.267
       451  -8.0974    129.8099     69.3895   8.7471943175e+01   4.2763805083e+01    0.2163756    0.1338013  37.38 0.0009474159    1.776    0.437
       452  -8.8598    138.7468     66.5464   8.4388011513e+01   4.1303029263e+01    0.2841216    0.2299355 -55.91 0.0008576578    1.364    0.267
       453  -8.9132    121.6201     66.1052   8.8557110106e+01   4.5112839451e+01     0.310181    0.2278554 -63.59  0.000779394    1.679    0.404
       454  -8.7284     64.1530     63.8858   1.0489513915e+02   5.5428770916e+01    0.4251803    0.2645043 -11.22  0.001872687    3.062    0.673
       455  -8.7165     37.1776     63.9812   1.1387961115e+02   5.8444091374e+01    0.2790847    0.1650678 -85.90 0.0009444507    2.185    0.542
       456  -8.9702    110.2188     63.7681   9.0896508132e+01   4.7864722008e+01    0.2742523    0.2311747 -68.59 0.0006723479    1.368    0.269
       457  -7.4073    187.4722     63.4816   7.3164275930e+01   2.9997494053e+01    0.1507867    0.1463854   2.44 0.0003004535    1.019    0.019
       458  -8.4985    158.2516     62.0004   7.8503834423e+01   3.7490375081e+01    0.2144502     0.192083 -29.12  0.000390004    1.107    0.097
       459  -9.4398     97.7504     60.5007   9.3423606174e+01   5.0851094590e+01    0.3361204    0.2903408 -55.27  0.001341652    1.174    0.149
       460  -9.5975     73.2783     59.4420   1.0066561085e+02   5.5081824548e+01    0.3959532      0.22033 -59.44 0.0009766538    1.907    0.476
       461  -8.1173    164.4613     59.9972   7.6559763925e+01   3.6288189320e+01    0.2268391    0.1487973 -29.84 0.0004173979    1.520    0.342
       462  -8.5340     89.0825     59.6393   9.5751970398e+01   5.2542054686e+01    0.2367356    0.1747413 -54.68 0.0004563942    1.350    0.259
       463  -8.8556    146.9082     59.1665   8.0113703132e+01   4.0683701716e+01     0.231051    0.2052213 -58.76 0.0005413833    1.244    0.196
       464  -9.8977     23.3966     56.4997   1.1700958352e+02   6.1219324147e+01    0.4402469    0.2401816  87.10  0.002110808    2.711    0.631
       465  -9.5359      7.3871     57.1167   1.2275873668e+02   6.2140793550e+01    0.3175588     0.172213 -89.50  0.001214815    1.975    0.494
       466  -8.4420    130.8308     58.0823   8.3607915563e+01   4.4574513061e+01    0.2282705    0.1972871 -63.66  0.000596289    1.322    0.244
       467  -9.0639    139.9683     55.9383   8.0668849572e+01   4.2856197654e+01    0.3703337    0.1943051 -39.78  0.001035432    1.877    0.467
       468  -9.3511    119.1652     55.2689   8.5681780242e+01   4.7611386339e+01    0.4580089    0.2244462 -48.56  0.001597523    2.264    0.558
       469  -9.5175     54.3611     55.6341   1.0588853702e+02   5.8389299702e+01     0.343696    0.1985861 -67.80   0.00114521    1.976    0.494
       470  -8.8312     43.9592     55.2203   1.0941088161e+02   5.9642189481e+01    0.2937078    0.1568657 -67.58  0.001134933    1.948    0.487
       471  -8.6173    105.8421     53.2657   8.8684831996e+01   5.0694867493e+01    0.2440269    0.1828658 -49.44 0.0005650048    1.360    0.265
       472  -9.4202     92.4294     50.6426   9.1766988384e+01   5.3700393345e+01    0.4462155    0.2246224 -50.52  0.001492609    2.083    0.520
       473  -8.5610     92.8417     43.2221   8.9005755167e+01   5.4994913637e+01    0.3996575    0.2126252 -23.63  0.001608455    2.521    0.603
       474  -9.2655    144.1621     49.0746   7.7371972731e+01   4.2983881880e+01    0.2826313    0.2089096  37.34  0.001255121    1.392    0.282
       475  -8.2739    129.9982     49.2864   8.0826954235e+01   4.6264823872e+01    0.2001639    0.1935111  29.45 0.0004034441    1.059    0.056
       476  -8.6958    120.9506     47.4918   8.2512718843e+01   4.8582381190e+01    0.2555969    0.1936825 -47.12 0.0004687049    1.383    0.277
       477  -8.5131    112.1484     46.7756   8.4634104833e+01   5.0581704498e+01    0.2509589    0.1830131 -46.16  0.000684076    1.402    0.287
       478  -8.9566     82.1955     46.5174   9.3571882103e+01   5.6245251255e+01    0.2951429    0.2136841 -52.21 0.0007351914    1.394    0.282
       479  -8.1225    156.2945     46.6561   7.3891442141e+01   4.0378588522e+01     0.156384    0.1165516 -61.23 0.0003061879    1.664    0.399
       480  -7.8069    141.3077     45.3399   7.6730676534e+01   4.4257059200e+01      0.15844    0.1137825  16.04 0.0007042992    1.685    0.406
       481  -8.5021     45.1043     44.6848   1.0600312622e+02   6.1709810037e+01    0.2091576    0.1472951 -60.78 0.0005363812    1.329    0.247
       482  -8.7285     16.7788     44.8846   1.1687052827e+02   6.4157979952e+01    0.2058044     0.135185 -81.77 0.0006737502    1.604    0.377
       483  -8.7981    132.9005     43.6838   7.8129994089e+01   4.6507194171e+01    0.2890456    0.2096257 -40.69 0.0007478552    1.393    0.282
       484  -9.2191     69.7167     41.7419   9.6088797974e+01   5.9119963006e+01    0.3195761    0.2302759 -64.86  0.001073645    1.732    0.423
       485  -9.0914     58.0325     42.4364   1.0049901264e+02   6.0616116146e+01    0.2844647    0.1696158 -62.36  0.001335163    1.962    0.490
       486  -7.7167     33.0310     44.0000   1.1038250572e+02   6.3057542511e+01    0.1655324    0.0699265  27.06 0.0007812618    2.917    0.657
       487  -9.6354      5.0747     42.0679   1.2079305848e+02   6.5450022184e+01    0.3212434    0.1703684 -89.32  0.001366226    2.304    0.566
       488  -8.7478    105.9478     41.4459   8.4434088456e+01   5.2772948580e+01    0.2678561    0.1855063 -48.50 0.0005421047    1.545    0.353
       489  -7.7506    140.2900     41.6370   7.5652636954e+01   4.5072272305e+01    0.1547799    0.1144619 -60.22 0.0005362597    1.698    0.411
       490  -8.4221     36.7876     40.9128   1.0803239026e+02   6.3339087032e+01    0.2186309    0.1523154 -70.54 0.0007264629    1.553    0.356
       491  -8.7591     95.3908     38.0014   8.6262392242e+01   5.5439114926e+01    0.2943445    0.1882036 -50.84 0.0009489569    1.758    0.431
       492  -8.1263     80.6088     36.8133   9.0539644628e+01   5.8303051912e+01    0.1945905    0.1165153 -48.92 0.0005946807    1.703    0.413
       493  -9.4225     26.1561     35.4860   1.1065639187e+02   6.5403507436e+01    0.3145316    0.1889695 -69.71   0.00089523    1.742    0.426
       494  -8.0187    133.3670     36.2290   7.5294049457e+01   4.7542751725e+01    0.2104011    0.1305579 -38.58 0.0005659736    1.614    0.380
       495  -8.1778    125.9493     35.5288   7.6833201957e+01   4.9383722448e+01    0.2253613    0.1858915 -25.26 0.0004957948    1.172    0.146
       496  -8.7054    111.6826     34.6653   8.0235694593e+01   5.2692092822e+01    0.3330793    0.1786915 -44.00  0.001117472    1.967    0.492
       497  -8.6682    119.1828     32.9652   7.7570580990e+01   5.1310677045e+01    0.3014849    0.1781581 -41.83 0.0006228265    1.745    0.427
       498  -8.9504     48.4100     33.5279   1.0103394274e+02   6.3554486384e+01    0.2346416    0.1871116 -66.59 0.0006463757    1.464    0.317
       499  -8.5882     60.6013     32.6372   9.6022561837e+01   6.2149887860e+01    0.2405849    0.1726445 -55.31 0.0006594152    1.485    0.327
       500  -8.6815     72.0650     31.3013   9.1322016434e+01   6.0684732019e+01    0.2249224    0.1730165 -57.36 0.0006581002    1.540    0.351
       501  -7.8359    139.2899     31.6658   7.2228109078e+01   4.6770797229e+01    0.1507156    0.1138599 -58.92 0.0006101318    1.632    0.387
       502  -9.1823    175.6561    247.6156   1.1127000071e+02   6.0116284221e+00    0.2260797    0.1818581  80.80  0.001091852    1.828    0.453
       503  -8.4505    227.4242     28.9625   5.6972684214e+01   2.4249227208e+01    0.2158242    0.1342266 -23.68  0.000353561    1.544    0.352
       504  -8.6216    156.6371    248.5660   1.1427765440e+02   8.6737601403e+00    0.2387316    0.1261634  62.58 0.0009374266    2.531    0.605
       505  -8.8866      3.7677     27.9289   1.1809307654e+02   6.8441050547e+01    0.2030393    0.1310789 -80.37 0.0009292907    1.619    0.382
       506  -7.6963    110.0000     26.9400   7.7615546868e+01   5.4236293979e+01     0.236064   0.07746415 -31.39 0.0007981744    2.913    0.657
       507  -8.8516     91.6912     26.2015   8.2666294105e+01   5.8093764865e+01    0.2993757    0.1874674 -49.04 0.0008797558    1.864    0.464
       508  -8.9487     81.6051     27.5016   8.6478232501e+01   5.9740328256e+01    0.2715027    0.2106164 -58.11  0.000820535    1.635    0.388
       509  -7.8491     34.4173     23.2346   1.0300750364e+02   6.7061605235e+01    0.1642293    0.1005863 -57.99 0.0005590395    1.625    0.384
       510  -8.9816     63.5319     21.0931   9.0180140495e+01   6.3770808641e+01    0.2939788    0.1973581 -52.77 0.0008792943    1.757    0.431
       511  -8.8843     48.3219     21.8555   9.6541529008e+01   6.5743286027e+01    0.2130665    0.1844748 -47.23 0.0007046892    1.231    0.188
       512  -8.0466    120.5255     21.0172   7.2447013711e+01   5.2702990647e+01    0.2219717    0.1353223 -28.74  0.001022127    1.584    0.369
       513  -7.6315     19.5369     21.5385   1.0905606909e+02   6.8712102448e+01    0.1158185   0.09092861 -48.68 0.0001551755    1.050    0.048
       514  -8.9505     74.0130     19.4899   8.5625792547e+01   6.2350435468e+01    0.2483395    0.1669385 -46.62 0.0007453773    1.619    0.382
       515  -8.0908     42.1370     30.1362   1.0232007576e+02   6.4927650552e+01    0.1557178     0.136168 -64.95 0.0003612895    1.313    0.239
       516  -8.0250     87.8291     17.8019   8.0227765238e+01   6.0109485135e+01    0.1797555     0.150731 -42.05 0.0004534535    1.311    0.237
       517  -7.9661     38.8015     18.5995   9.9234852794e+01   6.7456285370e+01    0.1389269    0.1148721  39.59 0.0003882863    1.551    0.355
       518  -7.9988    112.6405     16.8210   7.2672059355e+01   5.5055314370e+01    0.1921414    0.1228289 -34.41 0.0002537281    1.551    0.355
       519  -8.1868     30.0185     15.9986   1.0210976312e+02   6.8847707277e+01    0.1694486    0.1388993 -76.56 0.0006696534    1.716    0.417
       520  -7.8757      7.4945     15.5398   1.1272528027e+02   7.0705567698e+01    0.1118723   0.08561171 -51.62 7.934395e-05    1.055    0.052
       521  -7.8015     17.1906     14.3640   1.0755456219e+02   7.0269729883e+01    0.1290816    0.1045596  33.15 0.0004388587    1.613    0.380
       522  -7.3976    171.7578     13.3501   5.9444410600e+01   4.0588185908e+01    0.1508774    0.1060528 -50.05 0.0003552295    1.577    0.366
       523  -7.3906    119.6957     11.3031   6.8564731419e+01   5.4105602749e+01    0.1391633    0.1095833 -57.70 0.0007009597    1.596    0.373
       524  -8.5805    132.2965    248.1452   1.1796805252e+02   1.2173624381e+01    0.2110547    0.1276146  72.01 0.0006749653    2.123    0.529
       525  -8.1929    113.3953    248.6572   1.2089730178e+02   1.4690058692e+01    0.1462939   0.09156188 -76.00 0.0009384931    2.092    0.522
       526  -8.1247     28.1615     10.4387   1.0060209035e+02   7.0033537672e+01    0.1314173    0.1109388  38.89 0.0004956765    1.588    0.370
       527  -9.1408    103.9176    247.0568   1.2221367268e+02   1.6144928683e+01    0.3046305    0.1622486 -85.55  0.001843774    2.760    0.638
       528  -9.0419    232.8210    247.3491   1.0268253896e+02  -2.2721958055e+00     0.145162    0.1227867  26.54 0.0006670083    1.330    0.248
       529  -8.5750    218.7326    247.6233   1.0478546992e+02  -2.7955006942e-01    0.1803454    0.1166654 -19.90  0.001363596    1.987    0.497
       530 -10.0832    224.0599    243.9243   1.0353024974e+02  -7.3491639184e-01     0.315591    0.2159497 -37.24   0.00220519    2.136    0.532
       531  -9.0050    147.1046    246.1276   1.1550234796e+02   1.0318163752e+01    0.2281133    0.1428114  67.05  0.001575522    1.931    0.482
       532  -8.5435    146.7502    240.4285   1.1499444727e+02   1.1035589055e+01    0.2905397    0.1633796  70.27  0.001405955    2.869    0.651
       533  -8.9958    120.3627    245.7075   1.1958859243e+02   1.4116785350e+01    0.2631299    0.1462805  70.14  0.001399461    2.227    0.551
       534  -8.4768     67.7977    245.6350   1.2754994593e+02   2.0808048877e+01    0.2063613    0.0979904  83.95  0.001361259    2.498    0.600
       535  -8.7868      9.7979    243.7852   1.3577928423e+02   2.7084243059e+01    0.2239788   0.05803362  77.57  0.001085921    4.830    0.793
       536  -8.6421    201.7975    243.1390   1.0677215157e+02   2.5997106660e+00    0.1924215    0.1363257 -50.52  0.001425878    2.279    0.561
