#   1 NUMBER                 Running object number                                     
#   2 MAG_AUTO               Kron-like elliptical aperture magnitude                    [mag]
#   3 X_IMAGE                Object position along x                                    [pixel]
#   4 Y_IMAGE                Object position along y                                    [pixel]
#   5 X_WORLD                Barycenter position along world x axis                     [deg]
#   6 Y_WORLD                Barycenter position along world y axis                     [deg]
#   7 A_WORLD                Profile RMS along major axis (world units)                 [deg]
#   8 B_WORLD                Profile RMS along minor axis (world units)                 [deg]
#   9 THETA_WORLD            Position angle (CCW/world-x)                               [deg]
#  10 FWHM_WORLD             FWHM assuming a gaussian core                              [deg]
#  11 ELONGATION             A_IMAGE/B_IMAGE                                           
#  12 ELLIPTICITY            1 - B_IMAGE/A_IMAGE                                       
         1 -12.5080     43.2811     20.2454   9.3783709924e+01   6.7532169341e+01    0.6433136    0.3870459  11.41  0.002192324    2.333    0.571
         2 -11.8799    216.2379     14.2840   5.1016952282e+01   2.8794552664e+01    0.4531337    0.4346539 -16.56  0.001671115    1.078    0.072
         3 -13.6325    186.5598      5.8837   5.1558554547e+01   3.7452927484e+01    0.9854701    0.5890039 -61.33  0.004322062    1.920    0.479
         4 -11.8063     44.0738      8.4899   8.7462922232e+01   6.9399900979e+01    0.2847894    0.2259588 -30.98 0.0009850928    1.142    0.124
         5 -11.6658     58.2273      7.9628   8.1201072072e+01   6.7359014771e+01    0.4325074    0.2712547  18.48  0.002290804    1.862    0.463
         6 -10.2874    109.5001      8.5312   6.5542624178e+01   5.7063754853e+01    0.1411417    0.1295212   2.90 0.0008096686    1.031    0.030
         7 -11.4355    164.6676      1.7163   5.2793641498e+01   4.3705145194e+01    0.3531506    0.1756078  70.33  0.001458819    1.988    0.497
         8 -11.0580    149.4205    221.3599   1.1115862587e+02   1.1272254829e+01     0.382754    0.1987058 -41.57  0.002211219    2.622    0.619
         9 -12.1490    219.7343    248.0598   1.0333824538e+02  -2.3094373385e+00    0.2514299    0.2256409 -50.76  0.002134548    1.842    0.457
        10 -11.1279     95.5439    223.0498   1.2040928960e+02   1.8932847407e+01    0.2471532     0.171331 -30.10  0.001443376    3.358    0.702
        11 -11.7658    226.1309    221.6111   9.8694132579e+01  -7.4255747834e-01    0.1638924    0.1453472 -12.30 0.0008454331    1.384    0.277
        12 -10.5715    183.6342    222.4065   1.0560030580e+02   5.7729075816e+00    0.2904489    0.1904834  56.90  0.001847291    1.696    0.410
        13 -10.2376    173.7050    221.5192   1.0711896242e+02   7.4471153217e+00    0.1731752    0.1037865 -43.43  0.001087638    2.112    0.527
        14 -10.4884    238.6946    221.3447   9.6723986407e+01  -2.5998108070e+00   0.09265561   0.08483838  53.92 0.0007041889    1.691    0.409
        15 -10.3881    211.3337    217.8891   1.0047253926e+02   1.9284228030e+00    0.2112935    0.1357026 -45.47  0.001334565    2.218    0.549
        16 -12.1210    222.3918    214.3502   9.8179391359e+01   5.7803821166e-01    0.3009277    0.1674345  30.33   0.00182289    1.527    0.345
        17 -10.8720    115.7751    209.2255   1.1556862569e+02   1.8211271866e+01    0.2476337    0.1342873 -69.07  0.001419507    2.286    0.563
        18 -11.4462      4.6921    199.2253   1.3403596213e+02   3.3308689925e+01    0.3001359    0.1110795  56.21  0.001233527    1.957    0.489
        19  -9.8054    177.3196    197.9857   1.0318011529e+02   9.9632865541e+00    0.1727065    0.0964667 -65.97 0.0007049128    4.295    0.767
        20 -10.7119    149.0000    198.0266   1.0823194846e+02   1.4721901491e+01    0.1734635    0.0694171 -49.34 0.0008049509    2.960    0.662
        21 -10.0528    185.5832    203.8013   1.0262937253e+02   7.7881802401e+00    0.1452169    0.1142821 -54.79 0.0009519368    1.697    0.411
        22 -12.3425    159.0843    191.0852   1.0539833696e+02   1.4086592344e+01    0.5863663    0.3969329 -79.61  0.002867034    2.434    0.589
        23  -9.7315    133.0000    195.0424   1.1074783577e+02   1.7814858050e+01    0.1745145   0.06858914 -53.27 0.0008029106    2.946    0.661
        24 -10.1476    214.8738    192.7472   9.5904825671e+01   4.2462973568e+00    0.2079496    0.1352653 -41.58  0.001227464    1.924    0.480
        25  -9.8872    217.4900    188.0055   9.4652163379e+01   4.3789590695e+00    0.1511773    0.1050383 -57.51 0.0008100373    2.524    0.604
        26 -10.7445    183.2584    182.9726   9.9714548909e+01   1.1060153345e+01    0.2925975    0.1713178 -34.71   0.00156689    1.975    0.494
        27 -10.2222    210.5434    182.6912   9.4884453145e+01   6.2521880570e+00    0.2252548    0.1189666 -27.03  0.001147005    2.160    0.537
        28 -10.6649    147.7409    176.9750   1.0534596840e+02   1.8326679650e+01    0.3498709     0.170929 -35.80  0.001533862    3.003    0.667
        29 -10.3915    191.7120    177.1611   9.7188735974e+01   1.0376197346e+01     0.275397    0.1144133 -35.82  0.001211868    2.741    0.635
        30  -9.9381    217.6222    176.2235   9.2506572966e+01   5.8352631891e+00    0.1701918    0.1122729 -16.41 0.0009510372    1.651    0.394
        31 -10.6522    223.5581    183.0418   9.2763315991e+01   3.9435257990e+00     0.175814    0.1152705 -27.43   0.00103448    1.618    0.382
        32 -10.3346    159.3248    174.8230   1.0277597375e+02   1.6623021062e+01    0.2400606    0.1165117 -54.28  0.001084168    2.605    0.616
        33 -11.9226     35.9796    173.2422   1.2696922422e+02   3.5144594115e+01     0.444976    0.1904505  67.63  0.002341416    2.310    0.567
        34 -10.1004    137.6086    178.2231   1.0749669298e+02   1.9870880270e+01    0.1663678     0.119044 -42.01 0.0009612865    1.676    0.403
        35  -9.7864    176.0000    170.0242   9.8789010766e+01   1.4339947964e+01    0.1992632   0.07488914 -41.75 0.0008031778    2.948    0.661
        36 -11.7273     55.6806    167.3482   1.2254931133e+02   3.4102117506e+01    0.4640109    0.2159371  89.81  0.002274035    2.466    0.595
        37 -11.7556    121.0712    166.6923   1.0902949697e+02   2.4760989235e+01    0.5466002    0.1899622 -48.35  0.002179317    3.259    0.693
        38  -9.7418    191.5064    165.5084   9.5081761659e+01   1.2127546981e+01    0.1318236     0.117146  27.14 0.0008105888    1.008    0.008
        39 -10.4155     98.5764    164.7170   1.1338290082e+02   2.8761069261e+01    0.2347567    0.1126562 -56.55  0.001149201    2.135    0.532
        40  -9.5951      6.8101    165.3688   1.3205701434e+02   3.9449550040e+01    0.1112854   0.09618102  45.50 0.0001268554    1.529    0.346
        41 -10.4206    138.2774    163.4509   1.0500434324e+02   2.2379685359e+01    0.3324137    0.1151333 -55.65   0.00120946    3.629    0.724
        42 -10.1504     24.5715    160.2261   1.2823745502e+02   3.8894655213e+01    0.1552684   0.08279464 -70.19 0.0007444551    1.659    0.397
        43 -12.0445    106.0559    156.6667   1.1062805564e+02   2.9184135086e+01    0.5775357    0.3417049 -71.72  0.002931757    1.890    0.471
        44 -10.4779    218.3079    156.1162   8.8461090475e+01   8.3963825570e+00    0.3097271    0.1487594 -38.23  0.001418835    2.219    0.549
        45 -11.0151    167.0956    156.6091   9.8005762646e+01   1.8225127503e+01    0.3108213    0.2319434 -59.13  0.001678925    1.600    0.375
        46 -11.1980     23.1589    153.8319   1.2803985435e+02   4.0339731752e+01    0.1767077    0.1155182  74.80 0.0005878343    1.228    0.186
        47 -10.8239    189.7075    149.8418   9.2304256763e+01   1.4906627162e+01    0.3825788    0.1744081 -46.99  0.001564594    2.629    0.620
        48 -10.9063    118.5620    156.4138   1.0792278950e+02   2.7159336379e+01    0.2350572    0.1697542 -59.46  0.001202053    1.424    0.298
        49 -11.0048    234.0395    146.7032   8.3843978624e+01   6.6887848103e+00    0.1891751    0.1615429  15.37  0.001113505    1.044    0.042
        50  -9.8579    223.5062    146.5204   8.5557547477e+01   8.7319207847e+00    0.1342694    0.1196044   9.38 1.804471e-05    1.031    0.030
        51 -11.4858    106.5462    144.9347   1.0862518982e+02   3.1494614272e+01    0.4283434     0.240363 -87.24  0.001714838    3.074    0.675
        52 -10.6402    148.0036    144.2971   9.9480526720e+01   2.4129820665e+01    0.2853448    0.1752619 -73.48  0.001179786    2.708    0.631
        53  -9.7221     88.2922    167.9454   1.1593889891e+02   2.9659002259e+01    0.1950896    0.0894763 -85.42 0.0007028861    4.167    0.760
        54 -10.1818    181.4249    141.1977   9.2059514796e+01   1.7998451142e+01    0.1975458    0.1302402 -50.82 0.0009480575    1.755    0.430
        55 -10.3969     82.7296    131.7314   1.1192070926e+02   3.8053991875e+01    0.2760701    0.1490251 -83.85  0.001180557    2.536    0.606
        56 -12.3516     98.3582    127.6292   1.0743194110e+02   3.6524900303e+01    0.7036475    0.3631707 -81.80  0.002418943    3.922    0.745
        57 -10.7092     42.9989    122.9849   1.2035803316e+02   4.5052696800e+01    0.2309368    0.1105675  86.73   0.00102504    2.595    0.615
        58 -11.6148    193.1085    118.3423   8.4533522901e+01   1.9376539739e+01    0.5166596    0.4284103 -74.80  0.002103805    1.587    0.370
        59 -10.5166     26.3224    119.6674   1.2411243892e+02   4.7429865877e+01    0.1259284   0.07280019  73.66 0.0005379457    1.702    0.413
        60 -11.4372    141.0350    114.6768   9.4525620396e+01   3.1330836655e+01    0.6289402    0.2348157 -38.61  0.002110093    3.071    0.674
        61 -10.0442    129.6404    117.3194   9.7789883730e+01   3.3085868982e+01    0.1517132    0.1120422  86.91 0.0007043615    1.765    0.433
        62 -10.4729     15.6250    121.1495   1.2690397722e+02   4.8004293238e+01    0.2967828   0.09961172  43.96  0.001465797    2.894    0.654
        63 -10.4734      2.4023    115.2314   1.2960093948e+02   5.0274510299e+01    0.1602455   0.08099037 -88.68  0.000422408    1.555    0.357
        64 -10.6982    108.0072    112.0628   1.0184524033e+02   3.8275298631e+01    0.4911141    0.1840536 -59.71  0.001624625    3.345    0.701
        65 -11.0802     91.7746    110.9907   1.0575498866e+02   4.1275722351e+01    0.4419267    0.1610281 -63.58  0.001446893    3.572    0.720
        66 -10.8933     78.1643    111.9740   1.0951067965e+02   4.3143343447e+01    0.3733004    0.2019084 -82.52  0.001522111    2.707    0.631
        67 -10.8049    174.2931    110.5707   8.6289042665e+01   2.4917251576e+01    0.4374389    0.1970072 -37.44  0.001513619    2.203    0.546
        68 -11.6713    160.0939    111.0553   8.9393047590e+01   2.7977877112e+01    0.5237961    0.3722612 -59.92  0.002435793    1.657    0.397
        69 -11.3592    121.7581    111.1586   9.8235924622e+01   3.5914654893e+01    0.3699025    0.1672476 -53.81   0.00143173    2.272    0.560
        70 -11.3823     14.0374    109.1505   1.2607930985e+02   5.0800429992e+01    0.5523573    0.1657687 -76.25  0.002389495    2.698    0.629
        71 -12.3183    139.5004    104.5128   9.2347222138e+01   3.3709598292e+01    0.4449877    0.3499356  40.10   0.00224527    1.343    0.255
        72 -11.6292    140.0036    100.4907   9.1176832249e+01   3.4417264824e+01    0.4383687    0.2992834  30.26  0.001969241    1.803    0.445
        73 -11.8754     43.9663    100.4784   1.1674060231e+02   5.0090527948e+01    0.6502974    0.3027858 -86.28  0.002645331    3.013    0.668
        74 -12.0104    149.9157    101.5962   8.9186615681e+01   3.2045544079e+01     0.512341    0.1962997 -44.89  0.001773954    2.580    0.612
        75 -11.6104    127.4948    100.6402   9.4220624340e+01   3.6997889679e+01    0.4870376    0.1931891 -47.70  0.001756686    2.442    0.591
        76 -11.0667     81.8882    100.5059   1.0612059794e+02   4.5194617158e+01    0.2282463    0.1804408 -83.91 0.0007676535    1.299    0.230
        77 -12.9136    170.4297     90.9781   8.1809651372e+01   2.9364037204e+01    0.4677906    0.3965235 -89.81    0.0023251    1.430    0.301
        78 -12.0795    107.4815     98.1697   9.8669089992e+01   4.1407941667e+01     0.594362    0.3811081 -73.68  0.002591953    2.081    0.520
        79 -10.9442    150.7401     88.1674   8.5270925268e+01   3.4473335348e+01    0.3707433    0.1319756 -37.02  0.001193412    2.817    0.645
        80 -11.7630     42.3527     87.8186   1.1492762929e+02   5.3185540827e+01    0.4027679    0.2431834 -28.25  0.001493686    2.615    0.618
        81 -10.8679     45.1621     81.8713   1.1285699644e+02   5.4261792452e+01     0.200014    0.1523963 -81.80 0.0005083796    1.262    0.207
        82 -10.9886      6.9904     85.0148   1.2519900677e+02   5.6737840030e+01    0.1812015    0.1059856 -52.19  0.000340443    1.641    0.391
        83 -11.3921    104.4019     83.0291   9.5433716896e+01   4.5264401779e+01    0.3888216    0.2388228 -69.14  0.001607713    2.258    0.557
        84 -10.9320    140.5617     82.2503   8.5892245212e+01   3.7930980043e+01    0.3863268    0.1473273 -37.91  0.001299613    2.579    0.612
        85 -11.5095     86.1331     85.8664   1.0138397212e+02   4.7830868661e+01    0.4981837    0.2428825 -63.49  0.001968324    2.412    0.585
        86 -10.2193      2.1963     77.5763   1.2569490552e+02   5.8701237218e+01    0.1315303    0.1041918 -31.16 0.0006317679    1.633    0.387
        87 -11.0894     81.9531     72.9639   9.9057241762e+01   5.1360332724e+01     0.357372    0.2134387 -78.85  0.001361436    3.126    0.680
        88 -10.3137    115.9887     72.9755   8.9247788948e+01   4.5092820010e+01    0.2458739    0.1841888 -75.17  0.001138499    1.756    0.430
        89 -11.4149    223.5395     71.4290   6.6819391273e+01   1.9711967211e+01    0.2947263    0.2683614 -55.89 0.0006725555    1.188    0.158
        90 -10.7533     51.8372     70.1969   1.0796015050e+02   5.6177515370e+01    0.2814761    0.1653272 -68.03 0.0009362733    1.661    0.398
        91 -10.7372     62.4843     70.0003   1.0438837399e+02   5.4883118592e+01    0.2203419    0.1154667 -54.88  0.001039641    1.611    0.379
        92 -10.5803    194.8613     66.6490   6.9987429405e+01   2.7474101913e+01    0.2819112    0.2103059 -16.56  0.001009068    1.379    0.275
        93 -12.1743     20.5782     51.3513   1.1439622381e+02   6.3420541749e+01    0.6175978    0.2463029 -54.19  0.003083774    1.829    0.453
        94 -11.4681     28.8473     52.9403   1.1162719911e+02   6.2396289246e+01    0.3239082     0.207742 -24.44  0.001552661    1.985    0.496
        95 -13.8462     30.4727     59.6571   1.1274389478e+02   6.0759154273e+01    0.9525771    0.5926296  24.60  0.003134971    2.069    0.517
        96 -11.8620     19.5637     59.2559   1.1663152149e+02   6.1734651134e+01    0.2828207    0.2126949 -42.43 0.0009940938    1.341    0.254
        97 -12.2750     39.9310     51.5566   1.0701783669e+02   6.1637500113e+01    0.6167207     0.193294 -49.16  0.001983475    2.477    0.596
        98 -12.6200    233.1219     60.8534   6.2532779218e+01   1.8902849750e+01    0.6874062    0.4703524  75.29  0.003292669    1.787    0.441
        99 -11.6736      9.9146     58.6258   1.2002664441e+02   6.2525540578e+01    0.4214529    0.1960569  51.44  0.002119906    3.014    0.668
       100 -12.3401    149.4135     52.0827   7.4007615192e+01   4.1299326990e+01    0.4769704    0.3085891  62.27  0.000439198    1.708    0.414
       101 -11.6278    228.2312     51.5551   6.0554629466e+01   2.1317945183e+01    0.2540668    0.2297262 -67.88  0.001379617    1.193    0.162
       102 -10.3501     82.0822     47.0468   9.0361333923e+01   5.6721705707e+01    0.2134252     0.168264 -70.93 0.0006101037    1.656    0.396
       103 -10.6323    156.9150     44.9831   6.9938893454e+01   4.0529421936e+01    0.2566536    0.2223774  56.66 0.0005308133    1.198    0.165
       104 -11.3167      7.3930     43.5000   1.1774150589e+02   6.6021472820e+01    0.4021577    0.2230398  44.27  0.002352366    2.428    0.588
       105  -9.9579    149.2147     43.3857   7.0948010743e+01   4.2728755775e+01    0.2020578    0.1512529  74.19 0.0003114075    1.574    0.365
       106 -10.7883     69.8428     42.3207   9.2731250291e+01   5.9657721610e+01    0.4241339    0.2471113  65.54  0.001626116    3.870    0.742
       107 -12.3132     42.3535     37.3449   1.0132327911e+02   6.4367479620e+01     0.477095    0.3294851 -22.81  0.001980008    1.604    0.377
       108 -11.7395     46.7378     35.5922   9.8876725224e+01   6.4202482431e+01    0.3389329    0.2412141  11.34  0.001357405    1.773    0.436
       109 -10.6509     83.3905     38.0823   8.6391957595e+01   5.8169420032e+01    0.3130963    0.1976995  55.06  0.001500236    2.027    0.507
       110 -11.1183    120.1289     34.3087   7.4160234406e+01   5.1182145156e+01    0.3060241    0.2849611 -63.24 0.0008051398    1.223    0.182
       111 -10.8389    104.0494     30.3432   7.6791506861e+01   5.5380813952e+01    0.5419822    0.2011674  57.55  0.001855984    3.403    0.706
       112 -12.7510     20.4056    238.2682   1.3315951041e+02   2.5399983672e+01    0.5670757    0.1379185  57.08  0.003176368    2.762    0.638
       113 -10.9211    239.7694     20.6840   5.0591108539e+01   2.2232287032e+01    0.2556768     0.236495 -83.31 0.0005671742    1.135    0.119
       114 -10.5164    134.0256     17.9901   6.4273491091e+01   5.0042606071e+01    0.2250885     0.214605  18.95 0.0005493971    1.028    0.027
       115 -11.6006      8.3031    240.3507   1.3496819391e+02   2.6247509195e+01    0.1550005    0.1360996 -87.14  0.001448676    1.706    0.414
       116 -10.2218    205.0000    234.9838   1.0386958239e+02   1.0897971231e+00    0.1439262   0.06145063 -35.80  0.000806544    2.971    0.663
       117 -11.1194     12.6968    227.3707   1.3388003330e+02   2.7848676764e+01    0.1664021     0.117208  72.93 0.0005680843    1.123    0.110
       118  -9.9796    104.4482    224.9908   1.1909872931e+02   1.7406754488e+01    0.1411384    0.1009517 -72.81  0.000835783    1.593    0.372
       119  -9.7949    248.6682    224.3465   9.5683412960e+01  -4.3279725872e+00   0.09117783   0.08338101  50.84   0.00070496    1.763    0.433
