#   1 NUMBER                 Running object number                                     
#   2 MAG_AUTO               Kron-like elliptical aperture magnitude                    [mag]
#   3 X_IMAGE                Object position along x                                    [pixel]
#   4 Y_IMAGE                Object position along y                                    [pixel]
#   5 X_WORLD                Barycenter position along world x axis                     [deg]
#   6 Y_WORLD                Barycenter position along world y axis                     [deg]
#   7 A_WORLD                Profile RMS along major axis (world units)                 [deg]
#   8 B_WORLD                Profile RMS along minor axis (world units)                 [deg]
#   9 THETA_WORLD            Position angle (CCW/world-x)                               [deg]
#  10 FWHM_WORLD             FWHM assuming a gaussian core                              [deg]
#  11 ELONGATION             A_IMAGE/B_IMAGE                                           
#  12 ELLIPTICITY            1 - B_IMAGE/A_IMAGE                                       
         1 -14.0478     29.5738     58.4085   9.3966896748e+01   6.1979806067e+01     1.485744      1.08285  51.69  0.008455605    2.034    0.508
         2 -11.6070    223.3293     15.7120   3.3961898534e+01   2.8089829501e+01    0.3350672    0.2587808  63.11 0.0009720234    1.422    0.297
         3 -12.3091    204.4186     21.2759   3.6972494096e+01   3.1652676424e+01    0.6202031    0.3550459  89.92  0.002302911    1.789    0.441
         4 -13.1254    215.4946     14.4200   3.4354912297e+01   2.9938061900e+01    0.7075869    0.5205759  39.58  0.004251477    1.905    0.475
         5 -11.3835    130.4971     14.8219   4.5282419383e+01   4.9891789732e+01    0.3588763    0.2014321  50.66 0.0008081003    1.571    0.363
         6 -11.4649    115.1013     12.1363   4.7349855090e+01   5.3743851979e+01    0.2919969    0.2284172  53.65 0.0005690252    1.102    0.092
         7 -10.3522    110.5076     13.4633   4.8800583432e+01   5.4671174873e+01      0.27213    0.2161813 -71.70  0.001125326    1.618    0.382
         8 -12.6768    193.0809      8.9640   3.5184998128e+01   3.5568553070e+01     0.612972     0.246453  59.95   0.00185921    2.267    0.559
         9 -11.7605    203.6332      6.7892   3.3685352692e+01   3.3381096998e+01    0.4967554    0.3458279  82.89  0.003067048    1.255    0.203
        10 -12.3215     65.0030     10.7788   6.0311968655e+01   6.4395802281e+01    0.5023758    0.2612718  41.33  0.001495162    1.651    0.394
        11 -13.1253     55.2223      6.4358   6.1829585110e+01   6.6581675968e+01    0.7748562    0.4790978  60.70  0.003130249    2.406    0.584
        12 -10.7654     46.3864     11.3268   6.7706075626e+01   6.7510457838e+01    0.2602921    0.1779275  33.41 0.0009302854    1.332    0.249
        13 -11.4817     37.1432      9.5084   7.0890906504e+01   6.9105764099e+01    0.3350928    0.2493539  -2.17   0.00151336    1.116    0.104
        14  -9.2570    109.2815      8.6457   4.7316031804e+01   5.5385831021e+01    0.1233538   0.09583884 -65.54 0.0007015532    1.659    0.397
        15 -11.2667    185.2020      5.3039   3.5078556957e+01   3.7752472381e+01    0.2540815    0.1550796 -46.38  0.001430911    1.627    0.385
        16  -9.5034    128.1276      5.8088   4.2742977208e+01   5.1261347470e+01    0.1818295    0.1273671  46.51 0.0004255066    1.312    0.238
        17 -10.3082    101.9942      2.8802   4.6743782097e+01   5.7500567893e+01    0.2698961    0.1582119  64.08 0.0008118037    1.571    0.363
        18  -9.4702     29.2042      1.3613   7.0481336637e+01   7.1148895595e+01    0.1487275   0.09589773  38.69  0.000942126    1.671    0.402
        19 -10.5142    178.0701    224.5094   8.7552705484e+01   1.7238911044e+00    0.2025264    0.1161345  35.35 0.0006161468    1.563    0.360
        20 -11.5754     22.3251    248.9962   1.2201213251e+02   1.9246237931e+01    0.2499118    0.2000089  62.98  0.001296844    1.123    0.110
        21 -10.6573    149.6569    224.3135   9.3481001776e+01   6.3326007768e+00    0.2084789    0.1562524  65.38  0.001117118    1.760    0.432
        22 -12.1275    228.7080    217.3367   7.6463310779e+01  -4.8107385981e+00    0.8004549    0.2668367  31.56  0.003240833    3.133    0.681
        23  -9.5008     28.4919    217.5382   1.1883555163e+02   2.4902800730e+01    0.1216683   0.09469421  71.72 8.923955e-05    1.034    0.033
        24 -10.4247     24.9320    214.7970   1.1936450729e+02   2.5861506646e+01    0.2283479    0.1142983 -52.59 0.0009004811    2.516    0.603
        25  -9.6449     45.1866    218.2273   1.1543259323e+02   2.2879757361e+01    0.1762682     0.118606  65.68 0.0006110569    1.319    0.242
        26  -9.6626    176.9725    210.9290   8.5477244605e+01   4.2565953572e+00    0.2021296    0.1693887  71.14  0.001123358    1.710    0.415
        27 -10.0696    193.7539    210.4627   8.1942588045e+01   1.5883318507e+00    0.2492323    0.1203442  40.16   0.00112924    2.020    0.505
        28  -9.8412     70.7112    207.3808   1.0876585711e+02   2.1993235128e+01    0.2230041    0.1475649 -85.49 0.0005731136    1.598    0.374
        29  -9.8735    237.4113    224.7532   7.6204293618e+01  -7.0738420161e+00    0.1618297   0.09751322 -21.29 0.0003735118    1.530    0.347
        30  -9.4433     13.6558    198.3014   1.2054467973e+02   3.0569277621e+01    0.1292761   0.07023842  63.96 0.0007038384    1.680    0.405
        31 -11.3895     49.9188    194.8289   1.1215611445e+02   2.7509734436e+01    0.7718422    0.2226389  31.93  0.002881722    3.447    0.710
        32 -12.4067    161.4451    192.3976   8.5495424080e+01   1.0432965993e+01    0.8326058      0.60105  65.53  0.003082581    1.964    0.491
        33 -10.0532      5.6904    195.9393   1.2206959403e+02   3.1801427666e+01    0.2350389     0.107362  49.46 0.0008059923    1.969    0.492
        34 -11.2053     43.7133    187.4359   1.1282956774e+02   2.9957236097e+01    0.2928854    0.2266739  23.53  0.001334718    1.564    0.360
        35  -9.9788     33.6497    185.8585   1.1504082383e+02   3.1435480923e+01    0.1827481    0.1733825  72.68 0.0005658161    1.192    0.161
        36 -10.6689     37.7224    179.9653   1.1347444205e+02   3.2387975850e+01    0.1900011    0.1574349  86.80  0.001179523    1.042    0.040
        37 -10.4424     58.5627    176.2097   1.0786886191e+02   3.0831760366e+01    0.2896788    0.1969616  87.41 0.0007075248    1.545    0.353
        38 -10.0518     29.0576    176.4431   1.1520891880e+02   3.4126898581e+01    0.2023645    0.1502272 -69.04  0.001215915    1.236    0.191
        39  -9.6114    218.4728    176.5232   7.0603166734e+01   3.3626693079e+00    0.1377672    0.1198095 -11.83 0.0002104614    1.003    0.003
        40 -10.2769     66.4918    194.9864   1.0828723493e+02   2.5361787278e+01    0.2561624    0.1588997  67.69  0.001190313    1.755    0.430
        41 -10.2050     11.4279    174.7328   1.1924907220e+02   3.6147945410e+01     0.319281    0.1613607  85.97  0.001143835    1.901    0.474
        42  -9.6540     76.3302    175.6571   1.0326725119e+02   2.8550621101e+01    0.1519048    0.1008913  70.03 0.0007051037    1.749    0.428
        43 -11.7229     38.0452    174.5111   1.1280571729e+02   3.3655594096e+01    0.2881706    0.1991968  56.72  0.001446752    1.418    0.295
        44 -11.0040     45.7139    172.5422   1.1065788643e+02   3.3276433428e+01    0.3471111    0.1710206  57.08  0.001528983    2.285    0.562
        45 -10.9926     99.2174    165.2985   9.5606951325e+01   2.7492489403e+01    0.3924893    0.3273388  71.46  0.002050699    1.287    0.223
        46 -10.2634     52.8540    162.7461   1.0753854420e+02   3.4827156852e+01    0.3084039    0.1782791 -75.74  0.001124186    1.710    0.415
        47 -12.8775    119.8341    158.0753   8.8821787551e+01   2.5590044279e+01    0.8758128    0.4181064  37.68 0.0008617195    2.106    0.525
        48 -10.8535    168.2143    157.4182   7.6901616238e+01   1.6339625734e+01    0.4164536    0.3018829  43.08  0.001842616    1.401    0.286
        49 -11.1260    219.3280    156.0722   6.6199886292e+01   6.8323180172e+00    0.3457702    0.3275804   4.80  0.001269306    1.118    0.106
        50  -9.2124     23.5098    153.5336   1.1418446245e+02   4.0181965020e+01    0.1308315    0.1091024 -88.11 0.0001197969    1.050    0.048
        51 -11.0177    238.8687    151.7699   6.1906931572e+01   4.1775801895e+00     0.232117    0.2001951  75.75  0.001371025    1.645    0.392
        52 -11.1276     21.9159    159.3773   1.1523976318e+02   3.8901943996e+01    0.4348726    0.2659892  47.39  0.002399301    1.685    0.407
        53 -11.3719    108.7681    146.7713   8.9420611614e+01   3.0296780247e+01    0.6934754    0.3360736  59.13   0.00216239    3.660    0.727
        54  -9.8667     39.7791    148.2065   1.0907931786e+02   3.9914461275e+01    0.2381616    0.1204782  66.03 0.0009540431    2.788    0.641
        55  -9.9181    139.9550    165.6485   8.5300472219e+01   2.0074718128e+01    0.2545414    0.1123329  57.07 0.0007042418    4.376    0.771
        56 -10.3867     55.7695    145.8943   1.0420669110e+02   3.8657787372e+01    0.4533813    0.2178571  64.98  0.001533976    3.782    0.736
        57 -10.1664    148.9266    145.6633   7.8789991346e+01   2.2757716457e+01    0.3621648    0.2439231  84.03  0.001339792    2.808    0.644
        58 -10.5369     89.0224    144.6620   9.4476531435e+01   3.4200384672e+01    0.3395993    0.2757404  10.38  0.001708864    1.482    0.325
        59  -9.8665     99.8430    143.8680   9.1271380057e+01   3.2578700370e+01    0.2290169    0.2119024 -22.60  0.001024072    1.161    0.139
        60 -10.3615    182.9656    142.1307   7.0242191383e+01   1.6506650637e+01     0.355839    0.2140745  54.76   0.00145248    1.965    0.491
        61 -11.1582     22.9051    139.9596   1.1272609649e+02   4.3565152374e+01    0.4092054    0.2540624  28.44 0.0006261104    1.841    0.457
        62  -9.3122      1.0000    136.9714   1.1848052596e+02   4.5894857179e+01    0.2070757   0.05764009 -74.24 0.0006581218    2.877    0.652
        63 -10.3038     83.6706    132.5802   9.3544267181e+01   3.8034995291e+01    0.4307815    0.2261532  62.08  0.001446725    3.420    0.708
        64  -9.0966    161.3231    131.3075   7.2468547343e+01   2.3284337879e+01    0.1579479    0.1226801   0.54 0.0004642651    1.646    0.392
        65 -11.7708     98.4573    127.6340   8.8094800400e+01   3.6751598630e+01    0.6364575    0.4258144  84.70  0.001953563    2.516    0.603
        66 -11.4241     94.8287    121.3833   8.7694819006e+01   3.8888453901e+01    0.4391025    0.3609705  -7.74  0.001146234    1.443    0.307
        67  -9.6103     73.4720    129.9680   9.6052100331e+01   4.0239069893e+01    0.2058883    0.1272774 -86.44 0.0007790358    2.459    0.593
        68  -9.8912     12.6186    129.4940   1.1437157049e+02   4.6933112331e+01    0.2636046    0.1436519  60.30  0.001295662    2.218    0.549
        69 -11.2410     43.8442    123.0029   1.0387190523e+02   4.5752336753e+01    0.7784609    0.4204553  85.35  0.002942942    3.212    0.689
        70  -9.6540    117.3059    125.6497   8.2261186512e+01   3.3692176851e+01    0.1594197    0.1246805  88.05 0.0007042183    1.706    0.414
        71 -10.0542     59.1935    124.7815   9.9393907364e+01   4.3492369625e+01    0.2438277    0.1436318  70.66  0.000951221    2.800    0.643
        72 -10.8924     28.6824    123.2167   1.0865080440e+02   4.7191601677e+01    0.4206329     0.215468  80.90  0.001648244    3.156    0.683
        73 -10.5671    189.7020    123.7844   6.4546114213e+01   1.8739954673e+01    0.2731381    0.2438482  65.84 0.0007274724    1.246    0.197
        74  -9.6368     71.9749    120.6637   9.4532368122e+01   4.2747184618e+01    0.2406868   0.09518424  51.71 0.0007044776    4.297    0.767
        75 -10.3882      3.0084    117.2482   1.1572560160e+02   5.0510061739e+01    0.3125063    0.1476308  87.73  0.001405336    2.498    0.600
        76 -11.7673    162.5805    112.8232   6.7564966356e+01   2.6860612198e+01    0.5898329    0.3279882  47.99  0.001404881    1.839    0.456
        77 -12.1186    154.0615    114.1912   6.9882768519e+01   2.8472677385e+01    0.9242746    0.6266044 -53.93   0.00239075    1.587    0.370
        78 -11.8950    157.7349    104.7212   6.6547472944e+01   2.9588080179e+01    0.5381669    0.4599839 -75.20  0.001662405    1.343    0.256
        79 -10.9807    140.0398    110.2148   7.2264485289e+01   3.2399600336e+01    0.3186253    0.3174054 -70.31 0.0007335249    1.028    0.028
        80 -12.6380    144.8941    105.0330   6.9669673101e+01   3.2413968572e+01    0.8999747    0.7454136  54.60  0.003234393    1.253    0.202
        81 -11.0384    108.7909    109.8377   8.0661837655e+01   3.8990805865e+01    0.8052467    0.2781952 -46.27  0.002612179    2.813    0.644
        82 -10.6816     79.4705    113.4964   9.0523411735e+01   4.3338556543e+01    0.4968474    0.3023925  84.20  0.001653137    3.852    0.740
        83 -10.4169     92.4399    113.3073   8.6440914428e+01   4.1220219043e+01    0.3966527    0.2687911  73.68  0.001467547    2.383    0.580
        84  -9.9302    122.4750    112.9716   7.7622332004e+01   3.5538242005e+01    0.2199405    0.1379588 -69.70  0.000613589    2.484    0.597
        85 -11.9504     20.4095    111.5522   1.0942688192e+02   5.0724551501e+01    0.7569734    0.4052725  64.24 0.0006785796    2.776    0.640
        86 -10.9217     15.0024    112.1717   1.1127441344e+02   5.0970761995e+01      0.61712     0.315585 -89.38  0.002769662    2.448    0.592
        87 -10.1035     67.2625    111.6926   9.4015595204e+01   4.5603453074e+01    0.3453411    0.2002183  73.29  0.001148672    3.985    0.749
        88  -9.8635    133.6667    110.3436   7.3933781865e+01   3.3754609403e+01    0.2449708    0.1921038  88.32   0.00103923    1.730    0.422
        89 -11.1122    165.8306    106.3443   6.5165357472e+01   2.7431692986e+01    0.4255373    0.2624532  48.33 0.0009715648    1.655    0.396
        90 -10.4821     58.3296    105.3771   9.5512359773e+01   4.8331090032e+01    0.3106722    0.2215576 -25.77  0.001557242    1.575    0.365
        91 -11.7953     44.1122    101.1149   9.9418790049e+01   5.1048080629e+01    0.7673532    0.4545534  75.37  0.003018807    3.307    0.698
        92 -10.7721     48.7598     98.8568   9.7285900683e+01   5.1057415081e+01    0.4748299      0.29035 -37.55  0.002240165    1.628    0.386
        93 -13.1020    113.9469    101.8223   7.7004995571e+01   3.9742773326e+01     2.396515    0.4686763  44.74  0.005793747    5.310    0.812
        94 -10.7060    128.9740     92.4623   7.0218895446e+01   3.8519658782e+01    0.5151566    0.3258562  47.01  0.001821677    1.587    0.370
        95 -11.3832     64.7472    102.8186   9.2737660722e+01   4.8071284919e+01    0.3283464    0.3129208  66.57 0.0004733279    1.187    0.157
        96 -11.3094     64.5723     97.1758   9.1382040971e+01   4.9411881220e+01    0.5492497    0.3283413  67.21  0.002029116    3.458    0.711
        97 -10.0581      6.8854    103.7503   1.1266527487e+02   5.3506769105e+01     0.241992    0.1443981  78.59  0.001240677    2.106    0.525
        98 -11.3897    128.1694     97.0734   7.1745242031e+01   3.7752800338e+01    0.4541472    0.3781734  -9.59  0.001166273    1.378    0.274
        99 -10.1881     19.7746     97.8312   1.0727863875e+02   5.4057406836e+01    0.3573769    0.1458423 -75.47  0.001390275    2.966    0.663
       100 -10.5133     76.9688     97.1604   8.7185065108e+01   4.7550667555e+01    0.2362856    0.1988346 -41.33  0.000283568    1.112    0.101
       101 -11.6239    160.4712     95.7812   6.3537243403e+01   3.0719175684e+01    0.3712131    0.3028656  39.00  0.000516196    1.283    0.220
       102  -9.9757    105.0678     93.9463   7.7379656429e+01   4.3221909379e+01    0.2313951     0.219632 -23.28 0.0005059711    1.020    0.020
       103 -10.1417    233.0282     90.4888   4.9473211230e+01   1.5633391483e+01    0.1877488    0.1341555  60.49 0.0004941381    1.563    0.360
       104 -11.2503     88.0393     87.9946   8.0959400553e+01   4.7701886017e+01    0.6002898    0.3498541  65.87  0.002031758    3.781    0.736
       105  -9.1859    176.6930     88.7268   5.8282772094e+01   2.8272768868e+01     0.144586    0.1173336  17.43 0.0003032917    1.545    0.353
       106 -11.7332     44.1586     86.5989   9.5973417861e+01   5.4417766943e+01    0.8238913    0.2468975  24.65  0.002315675    4.029    0.752
       107 -11.7796     44.8821     82.3696   9.4609561165e+01   5.5286294044e+01     0.321639    0.2895558  63.62 0.0003549124    1.402    0.287
       108 -11.2694    104.1323     85.0513   7.5040557079e+01   4.5264440546e+01    0.5670657    0.3142689  41.04  0.001602929    1.820    0.450
       109 -10.7607      5.2247     85.9094   1.1035019411e+02   5.7762964698e+01    0.2295783    0.1192507 -32.97 0.0006307524    1.958    0.489
       110 -10.7906     24.4565     80.9354   1.0206692978e+02   5.7602028747e+01    0.3934717    0.2528361 -87.35  0.001953476    2.270    0.559
       111 -10.4851     74.6962     81.5711   8.3534153853e+01   5.1341831099e+01      0.24921    0.1812977 -67.22  0.001196786    1.812    0.448
       112 -10.7903     61.3604     76.7151   8.6848697057e+01   5.4400429574e+01    0.4579652    0.3088999   3.73    0.0022348    1.823    0.451
       113 -11.1697     15.6949     76.5743   1.0449831379e+02   5.9237289251e+01    0.2591986    0.2266722  -7.68 0.0005116557    1.245    0.197
       114  -9.8262    203.2598     76.4144   5.0504720704e+01   2.4281257130e+01    0.2557343    0.1305857  54.26 0.0009142539    2.026    0.506
       115 -11.0217     82.2767     73.0168   7.8276544605e+01   5.1809690031e+01    0.5127931    0.3613161 -88.10  0.001951058    3.018    0.669
       116 -10.7941     52.5005     71.1425   8.8506835300e+01   5.6777212778e+01     0.313628    0.2455355 -55.44 0.0009361986    1.368    0.269
       117  -9.7772    171.1888     70.6759   5.4475461418e+01   3.2685741545e+01    0.2283637    0.1798277  85.54 0.0006627993    1.421    0.296
       118 -10.0890    100.5548     65.6261   6.9971663979e+01   4.9714557348e+01    0.2444227    0.2097786  24.17 0.0001764285    1.138    0.121
       119 -13.5723      9.5450     49.5792   1.0029913089e+02   6.5357298117e+01    0.4110068    0.3649577 -49.49  0.002065593    1.244    0.196
       120 -11.4167    227.8715    249.1740   8.1987307861e+01  -9.1014921078e+00    0.4997564    0.1511473  32.79  0.002187614    2.958    0.662
       121 -10.7266     15.1735     54.2983   9.9087815682e+01   6.4023279668e+01    0.2876768    0.1899018 -10.73  0.001142604    1.546    0.353
       122 -10.7093    145.0926     64.0235   5.7866198636e+01   4.0010143796e+01    0.2346301    0.2008368  54.64 0.0003169677    1.131    0.116
       123 -11.1767    129.6172     59.5955   6.0073062573e+01   4.4363253250e+01    0.2700008    0.2423423  33.63 0.0003549194    1.098    0.089
       124  -9.8483     95.4921     72.9794   7.3943033506e+01   4.9360087263e+01    0.2188036    0.1410509 -41.92  0.000691152    1.548    0.354
       125 -10.5923     45.9856     57.3760   8.6705478570e+01   6.0368818363e+01    0.3998227    0.2945233  82.36   0.00171666    2.941    0.660
       126 -11.3309      8.3020     65.8438   1.0506255781e+02   6.2057241284e+01    0.4666551    0.2079357  19.00  0.001845666    2.535    0.605
       127 -10.1184    161.7955     53.4228   5.1378762221e+01   3.7632063103e+01     0.248201    0.1362132  64.37 0.0003616941    1.836    0.455
       128 -11.0570    113.4764     50.4666   6.1166368484e+01   4.9458745522e+01    0.3230403    0.2527225 -39.89 0.0007380991    1.366    0.268
       129 -10.3492    241.1944     50.3959   3.9725074317e+01   2.0000254284e+01    0.1731549    0.1103222  87.96 0.0009531936    1.703    0.413
       130 -10.6827     30.4541     46.4284   8.9659147093e+01   6.4216362543e+01    0.2563746    0.1766412 -23.35 0.0007536132    1.290    0.225
       131 -10.9473    145.3145     45.7982   5.2276912613e+01   4.2703119200e+01    0.4667407    0.2344125  73.72    0.0017577    2.761    0.638
       132 -12.0334     74.3849     42.3051   7.0202872590e+01   5.8635811514e+01    0.4625407    0.4054431  54.22  0.002230748    1.420    0.296
       133  -9.7988    197.0847     43.4485   4.3202275540e+01   3.0601532017e+01    0.1924767    0.1245454  68.42  0.000306508    1.493    0.330
       134 -13.5482     42.0000     37.8043   8.1268415386e+01   6.4392450377e+01    0.5489599    0.4220117  13.00  0.001148545    1.216    0.177
       135 -10.7940     81.6241     38.0759   6.6096510449e+01   5.7916012650e+01     0.311194    0.2743989  48.84  0.001611649    1.281    0.220
       136 -10.3015    145.7706     36.1546   4.9227179900e+01   4.3865769853e+01    0.2763489    0.1876496  55.40  0.001084763    1.347    0.257
       137 -10.5258     74.2660     32.6354   6.6435080229e+01   6.0065166223e+01    0.2918441    0.2071183  60.97  0.001539108    1.940    0.485
       138  -9.7837     60.6852     33.3648   7.1713229619e+01   6.2334764451e+01     0.177825    0.1635398  84.45  0.001105229    1.705    0.414
       139 -10.9765    109.2964     31.7210   5.5684820807e+01   5.2965606300e+01    0.2608705    0.2228658  57.88 0.0004085459    1.170    0.146
       140  -9.0523     66.3139     32.3107   6.9148470688e+01   6.1535564384e+01    0.1355097   0.09053242   8.85  0.000703033    1.632    0.387
       141 -11.8604      1.9496     29.5802   9.7731303953e+01   6.9624831380e+01    0.3581539     0.146241 -48.28  0.001193551    1.877    0.467
       142  -9.7132      8.8081     31.6329   9.4870132324e+01   6.8804497347e+01    0.1468011   0.09839428  24.42 0.0009398427    1.706    0.414
       143 -10.0122    196.4628     30.2509   4.0008785916e+01   3.2429183326e+01    0.2282781    0.1605975  73.32  0.000325206    1.325    0.245
       144 -10.9643    176.3000     26.5998   4.1614068388e+01   3.7626635071e+01    0.4109118    0.1986957  58.88   0.00169957    1.880    0.468
       145 -11.3483     37.7565     25.6063   7.8109887712e+01   6.6861641112e+01    0.3813254     0.238091   7.30  0.001115916    1.652    0.395
       146 -12.3127     42.1833     20.8674   7.3994626319e+01   6.6933671471e+01    0.3916443    0.2305334  34.08  0.000396488    1.635    0.388
       147 -10.8856    233.0527    245.4305   8.0458072117e+01  -9.2820583456e+00    0.3843118    0.1500299 -37.82  0.001747867    2.660    0.624
       148 -11.1694    219.3421    247.2187   8.3224785921e+01  -7.7305446321e+00    0.3002643    0.2362892 -63.96  0.001782893    2.660    0.624
       149 -10.3376    199.8304    248.9503   8.7143964418e+01  -5.2974244475e+00    0.4096746    0.1649625  47.00  0.001627018    3.801    0.737
       150 -10.0156     49.0946     25.3486   7.2997788941e+01   6.5303838441e+01    0.2097372    0.1377134  17.25  0.001202989    1.456    0.313
       151  -9.7086    123.3750     23.1418   4.9448079219e+01   5.0723433334e+01    0.2385909    0.1571781  49.99 0.0006681723    1.345    0.256
       152 -11.2077    195.6269     19.9160   3.7573474794e+01   3.3822940283e+01    0.4687715    0.2111336  53.26  0.001927705    2.340    0.573
       153 -10.5246     30.9785     21.2205   7.9364796531e+01   6.8362061220e+01    0.2435484    0.1510251  33.01  0.001268834    1.697    0.411
       154 -12.0991     90.8475     18.8344   5.5701490281e+01   5.8450887182e+01    0.2756673    0.2163238  46.62 0.0002922231    1.153    0.133
       155  -9.6286    238.9989     19.5359   3.3488768141e+01   2.4359130014e+01    0.1738379    0.1046329  81.42 0.0006612627    1.582    0.368
       156 -10.3816    150.8847     17.0001   4.2558298530e+01   4.4793118407e+01    0.2403531    0.1743231  63.83 0.0006951264    1.212    0.175
       157  -9.4127      1.4305     17.4740   9.3436890860e+01   7.1743240824e+01    0.1152168   0.08178103 -24.36 0.0008055678    1.044    0.042
       158 -10.6878     14.3346    249.4446   1.2345144442e+02   1.9990303015e+01    0.1890326   0.09864853  31.40  0.001142291    2.108    0.526
       159 -10.5436    193.7797     15.1669   3.6615317102e+01   3.4766732065e+01    0.1678701    0.1402937  54.58 0.0005476756    1.335    0.251
       160 -11.3815     29.0450    235.7947   1.1998083290e+02   2.1084694997e+01    0.4552821    0.2013889  32.22  0.001512423    2.328    0.570
       161 -11.3325     39.5493    244.8332   1.1859059617e+02   1.8135571876e+01    0.4354984    0.2305337  88.92  0.002501844    1.921    0.479
       162  -9.9058     54.4006    241.9206   1.1552206532e+02   1.6924110387e+01    0.1988598    0.1285607 -59.29  0.001213105    1.802    0.445
       163 -11.3410     37.7637    238.1548   1.1847019994e+02   1.9644078567e+01    0.6051809    0.1883264  57.35  0.002473737    3.387    0.705
       164 -11.9695     17.3189    237.0895   1.2225887474e+02   2.2062918677e+01    0.6146659    0.2432871  60.58  0.003195021    2.234    0.552
       165 -11.6728     15.7622    232.4179   1.2228399911e+02   2.3147784551e+01    0.4406136    0.1615471  55.78  0.001256509    2.306    0.566
       166  -9.5157    166.5277    233.4723   9.1350019424e+01   2.0398090070e+00    0.1303172    0.1112712  22.98 0.0002353751    1.007    0.007
       167 -10.4873    109.0011    232.5632   1.0334438964e+02   1.1194267733e+01    0.2139668     0.182941 -32.78 0.0009088638    1.450    0.310
       168 -11.6229     73.4508    229.0181   1.1049045183e+02   1.7024271638e+01    0.3500886    0.2512134  45.35 0.0009934611    1.224    0.183
       169 -10.0048    127.7619    228.7407   9.8827063644e+01   9.0197224438e+00    0.1892093    0.1118422 -69.96  0.000887941    2.411    0.585
       170 -11.5781     98.3593    224.1992   1.0460868658e+02   1.4447107365e+01    0.5616629    0.3671308  48.82  0.002845862    1.372    0.271
       171 -11.6798     36.0042    223.5109   1.1775309116e+02   2.2821772043e+01    0.3429286    0.2197007  75.99   0.00100939    1.402    0.287
