#   1 NUMBER                 Running object number                                     
#   2 MAG_AUTO               Kron-like elliptical aperture magnitude                    [mag]
#   3 X_IMAGE                Object position along x                                    [pixel]
#   4 Y_IMAGE                Object position along y                                    [pixel]
#   5 X_WORLD                Barycenter position along world x axis                     [deg]
#   6 Y_WORLD                Barycenter position along world y axis                     [deg]
#   7 A_WORLD                Profile RMS along major axis (world units)                 [deg]
#   8 B_WORLD                Profile RMS along minor axis (world units)                 [deg]
#   9 THETA_WORLD            Position angle (CCW/world-x)                               [deg]
#  10 FWHM_WORLD             FWHM assuming a gaussian core                              [deg]
#  11 ELONGATION             A_IMAGE/B_IMAGE                                           
#  12 ELLIPTICITY            1 - B_IMAGE/A_IMAGE                                       
         1 -14.9293    163.9890     43.4351   7.7958394798e+01   3.8883148363e+01     1.300254     1.090637 -10.00  0.004064982    1.404    0.288
         2 -14.9435    180.6368     10.0896   6.6005081613e+01   3.8711514163e+01     1.972005     1.014314  64.88  0.006760849    1.647    0.393
         3  -9.8407     15.4962    246.7095   1.5011600001e+02   2.2055933305e+01    0.1440306   0.07245263  83.11  0.000921494    1.593    0.372
         4 -19.9476     66.6985    171.2326   1.3344319757e+02   3.1625969513e+01     18.11241     7.607568 -66.45   0.07792319    2.209    0.547
         5 -12.2228    153.5553    186.2373   1.1624453484e+02   1.3100399607e+01    0.3108235    0.2720297 -78.67 0.0007326808    1.230    0.187
         6 -10.2374    151.1913    241.8467   1.2569642448e+02   3.0456076685e+00    0.1575013    0.1383273  23.57 0.0005503375    1.297    0.229
         7 -11.2330     30.5788    182.9146   1.4266378317e+02   3.3371464683e+01    0.2117384    0.1697709  40.98 0.0004640445    1.515    0.340
         8 -11.4401    150.9303    181.1273   1.1585980192e+02   1.4698594637e+01    0.2277924     0.195096  76.03 0.0004502221    1.232    0.188
         9 -14.5580    137.0186    170.5289   1.1696587745e+02   1.9785969706e+01     1.743173    0.7879216  53.38  0.006387856    2.468    0.595
        10 -13.6109    142.2419    165.9048   1.1484423886e+02   1.9763818212e+01    0.7545997    0.4831274  74.47 0.0007088034    2.311    0.567
        11 -11.6509    188.0027    174.7238   1.0655955121e+02   8.3846905569e+00    0.3014134    0.1888343 -68.53  0.001178152    2.635    0.620
        12 -10.0471     11.8308    173.9411   1.4563088199e+02   3.7176806826e+01    0.1583183    0.1157673 -69.31 0.0002831931    1.268    0.211
        13 -12.0362    125.8307    171.9077   1.1981544155e+02   2.1658564219e+01    0.3710271    0.3067563 -81.81  0.001215751    1.251    0.200
        14 -11.8779    109.1439    240.0542   1.3344445894e+02   1.0506769302e+01    0.1890853    0.1519146  59.56 0.0004795524    1.038    0.037
        15 -11.5521    163.8348    170.0414   1.1079766549e+02   1.4396674983e+01    0.2376323    0.2050327  81.16  0.001077941    1.288    0.224
        16 -10.9001     28.6210    239.8839   1.4762537290e+02   2.1853439954e+01    0.1478509   0.09682556  79.70 0.0004074163    1.133    0.117
        17 -11.8910    230.5088    167.3268   9.6591543786e+01   1.1639954505e+00     0.474803    0.2129608 -52.69  0.001667275    3.327    0.699
        18 -11.3907    167.2221    175.0782   1.1108103691e+02   1.2636208558e+01    0.2400062    0.1738875 -78.88 0.0008797261    1.910    0.477
        19 -11.2643     25.2823    165.0980   1.4194485492e+02   3.7892401566e+01     0.191345     0.164989 -76.32 0.0005236053    1.190    0.160
        20 -10.9430     21.6416    238.5093   1.4866473149e+02   2.2905204227e+01    0.1094578   0.08789916  72.29 0.0007485141    1.259    0.206
        21 -15.3700    100.5863    243.3542   1.3540061815e+02   1.1276237792e+01    0.7805403    0.6343548 -62.21  0.005212476    1.480    0.324
        22 -10.0901     29.8768    232.4909   1.4691548378e+02   2.3122759996e+01    0.1494633   0.09052079  51.90 0.0009887174    1.468    0.319
        23 -11.2471    188.7223    158.5335   1.0293755215e+02   1.1465782623e+01    0.4701028    0.3398459   6.92  0.002048224    1.991    0.498
        24 -10.7783    189.2227    154.5806   1.0195267429e+02   1.2158193818e+01    0.6191616    0.2846487  35.58  0.002155466    2.701    0.630
        25 -11.5603     23.1477    155.0563   1.4130655507e+02   4.0366169999e+01    0.4466852    0.1942869 -63.61  0.002021969    1.824    0.452
        26 -11.2041    138.6244    250.5359   1.2920741217e+02   3.7590672542e+00    0.1980453     0.125427  38.87  0.001122281    1.446    0.308
        27 -11.8962     22.3949    220.9688   1.4737510422e+02   2.6231303387e+01    0.2212257    0.1292989 -72.00  0.001115065    1.553    0.356
        28 -10.1647    176.8338    154.8333   1.0466582078e+02   1.4813875415e+01    0.2073393    0.1802866 -89.16  0.000479908    1.317    0.241
        29 -12.5860    161.5278    152.9571   1.0765964648e+02   1.8552479468e+01    0.3511197    0.3027736 -38.60  0.001095291    1.211    0.174
        30 -10.8565    217.9826    219.1994   1.0919753907e+02  -5.1448693035e+00    0.1728287     0.146616 -57.73  0.000812993    1.599    0.374
        31 -11.8818    174.3283    148.5057   1.0378796187e+02   1.6697203275e+01    0.3868098    0.3273096 -63.73  0.001154019    1.268    0.211
        32 -11.2989     23.4881    215.4043   1.4678386338e+02   2.7233185859e+01    0.1506702    0.1042046 -75.12  0.001035584    1.346    0.257
        33 -13.3373    107.8171    207.9643   1.2963451709e+02   1.7032886397e+01    0.6855242    0.4279707 -89.71  0.003310292    1.992    0.498
        34 -11.7358      8.0590    138.5612   1.4291612557e+02   4.5333670840e+01    0.3272198    0.2542219   9.70  0.001588475    1.852    0.460
        35 -10.7353    170.9775    137.2788   1.0191523625e+02   1.9833444531e+01    0.2252653    0.2007667  55.14 0.0005717716    1.125    0.111
        36 -12.6218    160.4232    127.9257   1.0205290847e+02   2.4237252060e+01    0.4688514    0.3831273 -56.20  0.001571117    1.249    0.199
        37 -10.1022    104.4706    201.5152   1.2942873106e+02   1.8964386085e+01    0.1372413    0.1192305  73.80 0.0008097445    1.009    0.009
        38 -13.1807     11.3071    206.0521   1.4825823244e+02   3.0401975190e+01    0.3625001    0.2571072  37.27  0.002128169    1.789    0.441
        39 -10.7724      1.8327    139.9657   1.4451689508e+02   4.5463842691e+01    0.1706594    0.1282905 -74.64 0.0006796015    1.048    0.045
        40 -10.6146    133.9661    244.9207   1.2937033002e+02   5.4957794253e+00    0.1307703    0.1172951 -84.15 0.0003367806    1.243    0.195
        41 -10.4089    138.8268    200.0703   1.2187201232e+02   1.3098276776e+01    0.2258614    0.1749134  81.40  0.001180822    1.455    0.313
        42 -10.9494    167.5582    112.5592   9.6538106976e+01   2.5832268602e+01     0.359119     0.241162 -81.81  0.001367447    2.387    0.581
        43 -12.4932    125.1130    241.7128   1.3063768089e+02   7.5564972294e+00    0.4650703    0.1626129 -55.04  0.001976823    3.289    0.696
        44  -9.8244    144.6273    109.2868   1.0106246631e+02   3.1818605448e+01    0.1619988    0.1240337  87.20 0.0007019239    1.714    0.417
        45 -10.8011    205.4313    110.1724   8.8127224116e+01   1.7314095627e+01    0.3292542    0.2210151  44.42 0.0009725044    1.588    0.370
        46 -10.6666    112.2478    196.5992   1.2703958417e+02   1.8682516302e+01    0.3808164    0.2631193   8.68  0.001618492    2.989    0.665
        47 -11.4739    153.4110    193.8344   1.1766500453e+02   1.1566550655e+01    0.3204844    0.2683412  73.74 0.0007226696    1.276    0.216
        48  -9.8583    138.9426    243.2843   1.2822011978e+02   4.9251237135e+00    0.1814226    0.1623843 -74.21 0.0006787206    1.282    0.220
        49 -10.1455    160.4389    243.4872   1.2416365135e+02   1.1610456884e+00    0.1282109    0.1071062  46.57 1.979967e-05    1.011    0.011
        50 -11.0225     12.8665    242.5255   1.5028658078e+02   2.3108898932e+01    0.1867203    0.1115438 -61.92  0.001264276    2.092    0.522
        51 -14.4170    152.4565     57.9892   8.4585973365e+01   3.9567634270e+01     1.245604     1.080742  31.07 0.0009470953    1.209    0.173
        52 -10.1729    161.6810    247.1342   1.2444103418e+02   3.6050225894e-01    0.4612519    0.1846405  31.70  0.001712403    3.521    0.716
        53 -13.0191    168.2721     35.0793   7.4774058884e+01   3.8928934207e+01     0.390159    0.3676995  61.37 0.0008290041    1.060    0.057
        54 -11.3060     13.5006     59.7983   1.2786911440e+02   6.1791503782e+01    0.1801729    0.1687944 -46.07 0.0004148244    1.268    0.211
        55 -10.2255    141.6859     32.8710   7.9121940099e+01   4.5666437161e+01    0.1785401    0.1758451  75.38 0.0004089147    1.095    0.087
