#   1 NUMBER                 Running object number                                     
#   2 MAG_AUTO               Kron-like elliptical aperture magnitude                    [mag]
#   3 X_IMAGE                Object position along x                                    [pixel]
#   4 Y_IMAGE                Object position along y                                    [pixel]
#   5 X_WORLD                Barycenter position along world x axis                     [deg]
#   6 Y_WORLD                Barycenter position along world y axis                     [deg]
#   7 A_WORLD                Profile RMS along major axis (world units)                 [deg]
#   8 B_WORLD                Profile RMS along minor axis (world units)                 [deg]
#   9 THETA_WORLD            Position angle (CCW/world-x)                               [deg]
#  10 FWHM_WORLD             FWHM assuming a gaussian core                              [deg]
#  11 ELONGATION             A_IMAGE/B_IMAGE                                           
#  12 ELLIPTICITY            1 - B_IMAGE/A_IMAGE                                       
         1 -14.8526      3.2912    136.2095   1.4176549490e+02   4.5200308279e+01     5.760051     0.748408 -78.59   0.01828942    6.320    0.842
         2 -13.4776    198.3000     27.2841   6.7223211055e+01   3.2064397786e+01     1.919172     1.394398  21.31  0.007175657    1.522    0.343
         3 -13.3915    213.4988      8.1019   5.9517719073e+01   3.0102738718e+01     1.040159    0.9073993  35.59  0.004134682    1.196    0.164
         4 -10.7033      3.6831      2.9917   1.1935354612e+02   7.3884454469e+01    0.3565174    0.1764669 -24.60  0.002015742    2.116    0.527
         5 -10.5081    121.9893    250.3552   1.2842652103e+02   1.2643857788e+01    0.2662686   0.09424872  46.53   0.00151911    2.077    0.519
         6 -10.6913    248.9447    249.8886   1.0863262965e+02  -4.5779376752e+00    0.3305342    0.1168452  37.60  0.001945073    2.019    0.505
         7 -11.5857    138.8400    250.1549   1.2573320098e+02   1.0435380503e+01    0.4187401     0.144657  40.70  0.002328297    2.102    0.524
         8 -10.7790    139.4962    245.9975   1.2523313212e+02   1.0840757058e+01    0.1670976    0.1292393 -89.69  0.001294694    1.806    0.446
         9 -10.8158    127.1155    250.1099   1.2759241357e+02   1.2001969746e+01    0.1962882     0.138991  39.95  0.001003088    1.146    0.128
        10 -10.3265     98.2976    249.4967   1.3209567799e+02   1.5760277988e+01    0.1642784    0.1461731   9.05  0.001440934    1.712    0.416
        11 -10.7176     47.0116    249.6989   1.3996243275e+02   2.1550514109e+01    0.2765833    0.1132876  73.39  0.001750736    2.660    0.624
        12 -12.7695     33.6210    246.8880   1.4181939835e+02   2.3285116564e+01      1.18907    0.8930653 -32.13  0.009151731    3.222    0.690
        13 -12.8493     47.2447    216.2270   1.3817322301e+02   2.6508890958e+01    0.6948696    0.5984219 -87.58  0.004878975    1.355    0.262
        14 -12.9335     32.0878    234.1824   1.4151660458e+02   2.5271951522e+01    0.2254298    0.1923943  82.53 0.0007743897    1.379    0.275
        15 -13.9886     36.7871    227.6644   1.4048662852e+02   2.5791688424e+01    0.6533782    0.4108565  55.14    0.0024342    1.156    0.135
        16 -12.0485     11.0996    233.7482   1.4466681795e+02   2.7272078114e+01    0.4159276    0.3095349  -5.70  0.003066531    3.558    0.719
        17 -12.5058     12.2111    241.6794   1.4475453143e+02   2.6014818362e+01    0.3847637    0.3226201  66.69  0.003916841    1.380    0.275
        18 -11.2335      9.5449    249.6984   1.4537069430e+02   2.5113348222e+01    0.5917406    0.1052867  37.80  0.003257107    3.670    0.728
        19  -9.9478      2.9914    249.4944   1.4627649662e+02   2.5704462845e+01    0.1826709    0.1262811  46.76  0.001763932    1.392    0.282
        20 -10.2278      2.8012    246.3593   1.4622336591e+02   2.6159571236e+01    0.1991859    0.1213194  39.64 0.0007389491    1.629    0.386
        21 -10.5442    230.6668    249.0004   1.1123297973e+02  -2.0925414478e+00    0.2040934    0.1053171  24.44  0.001364661    1.572    0.364
        22 -11.0590    199.0527    246.9690   1.1583800177e+02   2.4347730903e+00    0.1712592    0.1586178 -10.37   0.00140674    1.483    0.326
        23 -11.9092    161.3337    248.7202   1.2200713511e+02   7.5250397864e+00    0.3695416    0.2288661  41.32  0.002714524    1.168    0.144
        24 -11.9682     20.1893    242.0553   1.4360716419e+02   2.5243414898e+01    0.3959008    0.1891816 -79.26  0.003084005    2.100    0.524
        25 -10.6013    187.0030    241.0053   1.1702457428e+02   4.7348190277e+00    0.1565499    0.1122957  54.28 0.0007688608    1.662    0.398
        26 -12.5018    119.1623    232.3822   1.2727945196e+02   1.5341428087e+01     0.708532    0.1381938  41.74  0.002905763    3.667    0.727
        27 -12.4706     92.7870    227.7580   1.3131033080e+02   1.9444749397e+01     1.056404    0.1247829  45.95  0.003736074    5.265    0.810
        28  -9.4951    248.3180    230.6718   1.0601606074e+02  -2.9732002618e+00   0.09011377   0.07760701  36.60 0.0004596835    1.681    0.405
        29  -9.6855     54.3152    229.2339   1.3776760827e+02   2.3734865401e+01    0.2283448   0.08327583  58.66  0.001150966    2.424    0.587
        30 -10.0694    174.0144    222.5482   1.1686656034e+02   8.7074481397e+00    0.2387617    0.1697002  61.85  0.001566739    1.867    0.464
        31 -11.3896     57.2856    212.1603   1.3620835772e+02   2.6078893287e+01     1.163158     0.167442  52.35  0.003485898    8.099    0.877
        32 -10.5529     59.0088    207.7970   1.3560794723e+02   2.6600100928e+01    0.4456653    0.1451029  59.49   0.00203636    3.528    0.717
        33  -8.7762     92.2144    214.3048   1.3026447432e+02   2.1542508692e+01     0.175542   0.09367512  65.85  0.001033357    2.071    0.517
        34  -8.7947    152.5302    213.0468   1.1938822408e+02   1.3177658282e+01    0.1309372    0.1147689 -46.22 6.929781e-05    1.440    0.306
        35 -12.3206      9.8770    207.0376   1.4392471023e+02   3.1558773537e+01    0.5553858    0.3036325  34.31  0.002965372    1.941    0.485
        36 -11.7692     59.2206    200.0493   1.3500762878e+02   2.7875252779e+01    0.2361182    0.1864296  85.34 0.0005428854    1.183    0.155
        37 -10.7672     29.6532    130.5881   1.3523238572e+02   4.4348046584e+01    0.3175807    0.1552612  51.59  0.000746044    2.016    0.504
        38 -12.5597     21.1104    126.0459   1.3686400562e+02   4.6029711607e+01     1.423597    0.3123271  51.34  0.004992037    5.483    0.818
        39 -13.4555     10.6382    157.4712   1.4147244688e+02   4.0416059689e+01     4.044754     1.074991  73.19   0.01165883    8.726    0.885
        40 -11.4789    238.5475    247.5912   1.0986367279e+02  -3.0328968945e+00    0.2407654    0.2201369  40.93  0.002076185    1.827    0.453
        41 -13.1269     62.8444    176.6026   1.3235927309e+02   3.1645201800e+01    0.4079978    0.2427563 -47.53  0.001566016    2.317    0.568
        42 -10.3210     11.7141    195.5106   1.4315322726e+02   3.3343231173e+01    0.2422182    0.1225822  55.64 0.0008419558    1.502    0.334
        43 -10.3568     96.8006    153.1861   1.2235452186e+02   3.1702947506e+01    0.2741471    0.2633613  66.04 0.0008327438    1.115    0.103
        44  -9.4441     99.8737    148.8532   1.2101075041e+02   3.2103842476e+01    0.2182858    0.1812056  31.72 0.0003768367    1.318    0.241
        45 -12.0391     85.3871    152.1986   1.2477812995e+02   3.3520886676e+01    0.2548561    0.2213383 -50.10  0.001098922    1.327    0.246
        46 -12.1131     67.5229    143.5865   1.2772983441e+02   3.7608732415e+01    0.6059749    0.3493493  62.48  0.002683909    1.866    0.464
        47 -10.0893    109.1627    137.5637   1.1698689816e+02   3.2916165101e+01     0.376947    0.2589003 -21.20  0.001505039    2.338    0.572
        48 -10.4931     95.9727    135.2511   1.1972731404e+02   3.5453239147e+01    0.2114551    0.1947022 -45.51 0.0002953421    1.203    0.169
        49 -12.0072     65.7825    191.3816   1.3310016870e+02   2.8620222753e+01     0.215324    0.1923183  83.25 0.0004077619    1.204    0.170
        50  -8.4470     79.1738    131.4103   1.2319664468e+02   3.8668573958e+01     0.171416    0.1082794  51.97 0.0004476617    1.600    0.375
        51  -8.8250    115.3069    129.9971   1.1411785700e+02   3.3425879299e+01    0.2133131    0.0973464 -33.80 0.0007014195    4.077    0.755
        52  -9.0213    106.3339    124.1680   1.1516954006e+02   3.6125128106e+01    0.1748991    0.1581535 -69.72 0.0003747861    1.092    0.084
        53  -8.7341    168.0546    113.0697   9.8167752760e+01   2.6442914830e+01     0.225291     0.184726 -83.39  0.001059378    1.727    0.421
        54  -9.0099     41.3918     96.3092   1.2774956446e+02   5.0850014735e+01    0.1972303    0.1290036  56.84 0.0005541345    1.714    0.417
        55  -8.7909     15.3641    197.6830   1.4262204749e+02   3.2657685989e+01    0.1315375   0.07423937  76.57 0.0005971834    1.405    0.288
        56 -10.0407    158.2170     76.7711   9.0381139727e+01   3.5048631654e+01    0.2175319    0.1764279  12.23 0.0005251826    1.334    0.251
        57 -10.8705     76.3802    178.2456   1.2979897696e+02   2.9694770010e+01    0.1985116    0.1771728  73.10 0.0003589033    1.110    0.099
        58 -11.3231    172.0490    248.3957   1.2026708810e+02   6.0700997755e+00    0.2628926    0.1607087  47.63  0.001874972    1.422    0.297
        59 -11.3403    152.3907    249.2755   1.2348967253e+02   8.6958934536e+00    0.3312204    0.1154168  38.74  0.001799406    2.164    0.538
        60  -9.2149     97.1078    174.1187   1.2510456093e+02   2.7679589731e+01    0.1887574    0.1241098  68.71 0.0007030011    1.640    0.390
        61 -12.0009     84.3854    168.8149   1.2710958362e+02   3.0417512299e+01    0.6000595    0.5690514  14.25  0.004365417    1.362    0.266
