#   1 NUMBER                 Running object number                                     
#   2 MAG_AUTO               Kron-like elliptical aperture magnitude                    [mag]
#   3 X_IMAGE                Object position along x                                    [pixel]
#   4 Y_IMAGE                Object position along y                                    [pixel]
#   5 X_WORLD                Barycenter position along world x axis                     [deg]
#   6 Y_WORLD                Barycenter position along world y axis                     [deg]
#   7 A_WORLD                Profile RMS along major axis (world units)                 [deg]
#   8 B_WORLD                Profile RMS along minor axis (world units)                 [deg]
#   9 THETA_WORLD            Position angle (CCW/world-x)                               [deg]
#  10 FWHM_WORLD             FWHM assuming a gaussian core                              [deg]
#  11 ELONGATION             A_IMAGE/B_IMAGE                                           
#  12 ELLIPTICITY            1 - B_IMAGE/A_IMAGE                                       
         1 -14.9507     68.4282    144.3937   1.0370423599e+02   3.7382845271e+01     5.032325     2.674897  67.58   0.01212802    3.223    0.690
         2 -14.4916    202.6070     38.6045   4.3511245070e+01   3.0396757395e+01     2.068525     1.431703  31.27  0.008049176    1.974    0.493
         3 -14.3966    215.2583     25.9412   3.8916002420e+01   2.9027195946e+01     1.289143    0.9988578  25.41  0.007451896    1.808    0.447
         4 -12.7702    240.3607      3.1594   3.1712684666e+01   2.6055617629e+01    0.7371026    0.3272026  77.05  0.003868589    2.142    0.533
         5 -11.2917     56.1778      5.7483   6.4279686636e+01   6.6985263208e+01    0.2792393    0.1965223  54.77    0.0012531    1.876    0.467
         6 -10.6762      2.4026      3.5498   9.0565771592e+01   7.3954005297e+01    0.3028096    0.1059535 -38.91  0.001589569    2.180    0.541
         7 -10.6241     33.5155    226.6887   1.2109093011e+02   2.2733501552e+01    0.1828658    0.1546509  82.01 0.0006567385    1.142    0.124
         8 -11.9486    139.5735    248.7827   1.0230525320e+02   4.5328975629e+00    0.4126121    0.3266161 -83.23  0.002627149    1.755    0.430
         9 -11.3009    116.6591    248.8715   1.0683865667e+02   7.8777798059e+00    0.4363562    0.2476101  71.95  0.002045751    3.020    0.669
        10 -13.1107      7.9181    188.2645   1.2363405234e+02   3.3254199965e+01    0.6163009    0.2956116 -56.73  0.003346878    2.210    0.548
        11 -13.6910     24.0554    225.9883   1.2283150882e+02   2.3851801338e+01     1.161552    0.4278411  69.33  0.002206159    3.163    0.684
        12 -15.7347      7.5847    157.3413   1.2141482755e+02   4.0315553007e+01     5.888323     1.705446 -77.02   0.02377648    2.910    0.656
        13 -13.2500     57.9796    241.4121   1.1751449251e+02   1.7091239374e+01    0.5678183    0.3291276  63.66 0.0005121441    1.578    0.366
        14  -8.9377     60.3475    220.0460   1.1524654108e+02   2.0995459713e+01    0.1739414    0.1414341 -59.12 0.0008124482    1.424    0.298
        15 -15.9978     41.7540    249.1841   1.2104398989e+02   1.7544048635e+01     11.31749     3.557415  25.14   0.02555074   15.236    0.934
        16 -11.6370     48.2878    217.2930   1.1747228399e+02   2.3003561734e+01    0.5271648    0.4073885  38.12  0.002331519    1.362    0.266
        17 -10.4910     49.2166    224.0944   1.1784368099e+02   2.1505605044e+01    0.3627651     0.160477 -59.41 0.0004030317    2.401    0.583
        18 -10.2221    113.3236    206.6405   1.0220138985e+02   1.6321154141e+01    0.2756157    0.1894016  66.51  0.001406195    1.734    0.423
        19 -11.6763    193.8002    195.8699   8.2764889555e+01   4.8210006967e+00     1.119849    0.6614923 -67.41    0.0034912    5.887    0.830
        20 -11.9275    203.3018    199.0555   8.1448908538e+01   2.6850600358e+00    0.4341124    0.2902611  21.55  0.002296217    1.453    0.312
        21 -10.9252     61.6735    199.4618   1.1292610466e+02   2.5213016499e+01    0.3279416    0.2191232 -64.11 0.0006015442    1.481    0.325
        22  -9.6080     66.2934    194.4016   1.1132022347e+02   2.5753654033e+01    0.2551211    0.1574982  28.53 0.0009189711    1.816    0.449
        23 -14.2484     50.1524    191.7201   1.1470303036e+02   2.8327136097e+01     2.009249      1.11926  82.58  0.009739729    2.007    0.502
        24 -11.3326    109.5606    201.5882   1.0232759738e+02   1.7965392567e+01    0.2952441    0.2583072  -9.29  0.001728696    1.394    0.283
        25 -14.1359     40.8024    200.6998   1.1761476865e+02   2.7379723577e+01      2.07164    0.9929907  69.56  0.009830408    2.367    0.578
        26  -9.3842    128.4382    195.2767   9.7015725671e+01   1.6226918110e+01    0.1856862    0.1369289 -69.72 0.0009443459    1.621    0.383
        27  -9.2515     72.1528    188.1632   1.0920581347e+02   2.6397550385e+01    0.1805748    0.1377023  74.54 0.0004124249    1.305    0.234
        28  -9.3394     69.7441    183.7874   1.0922282126e+02   2.7722062204e+01    0.1826342       0.1379  76.00 0.0003544556    1.331    0.249
        29 -11.2037    150.5539    178.9023   8.8955541705e+01   1.5774276802e+01    0.4734829    0.2928292 -71.14  0.001860648    2.792    0.642
        30 -10.0263     99.3898    180.7991   1.0159273511e+02   2.4136177242e+01    0.2452424    0.2212259  35.29 0.0005820571    1.138    0.122
        31 -11.1782    144.1418    178.6467   9.0405452961e+01   1.6993608834e+01     0.311823    0.2856967 -16.64  0.001200049    1.123    0.109
        32 -11.2134     41.9207    177.2426   1.1510019370e+02   3.2571437841e+01    0.4852905    0.3403887  -5.74  0.001581312    2.302    0.566
        33 -12.0732     66.0360    175.9210   1.0910148687e+02   3.0042615148e+01    0.4337892    0.2812247 -39.34  0.002161073    1.958    0.489
        34 -12.1056     70.6057    170.8752   1.0727016067e+02   3.0641345566e+01    0.3368368    0.3073663 -38.44 0.0009137919    1.259    0.206
        35  -9.4994    204.4706    175.9903   7.6648850850e+01   6.4814750724e+00    0.2160567    0.1313809 -37.24 0.0006004953    1.587    0.370
        36  -9.8494    196.8288    175.1496   7.8025530807e+01   8.0040782283e+00    0.2638542    0.2392719   9.39  0.001524531    1.062    0.058
        37  -9.8976    187.9882    173.8103   7.9592190923e+01   9.8693661235e+00    0.3713357    0.1967494 -62.77  0.001104022    5.059    0.802
        38 -12.9590     86.8434    154.7978   1.0046062700e+02   3.2216882252e+01     1.900667     1.051019 -59.63  0.003243019    1.738    0.425
        39 -12.4021     79.6322    161.4356   1.0350837885e+02   3.1665633634e+01     0.603925    0.4104721  64.84  0.000515195    1.703    0.413
        40 -13.6518     67.4612    157.1634   1.0605475811e+02   3.4368418874e+01    0.5922936    0.4726318 -48.91  0.002109864    1.284    0.221
        41  -9.2062     53.6276    220.5525   1.1666370456e+02   2.1706386570e+01    0.1762661    0.1125749  64.52 5.872145e-05    1.423    0.297
        42  -9.8118    187.5120    151.5408   7.4860944918e+01   1.4266667733e+01    0.1503744    0.1386138  -8.62  0.000809141    1.007    0.007
        43 -11.1206    133.6354    144.2574   8.5866097671e+01   2.6580140802e+01     1.148589    0.2964603 -54.02  0.002667987    5.774    0.827
        44 -10.7189    174.2865    148.7285   7.7105254368e+01   1.7476844841e+01    0.3488166    0.2870364 -70.02   0.00170913    1.571    0.363
        45  -8.8456    110.3385    148.6806   9.2953508109e+01   2.9857171273e+01    0.1558547    0.1177953  75.71 0.0007049651    1.710    0.415
        46  -9.2785     34.6016    171.7385   1.1627022820e+02   3.4617529951e+01    0.1731731    0.1056083 -86.20 0.0003952649    1.523    0.343
        47 -11.6138     29.3726    144.3271   1.1451591473e+02   4.1696387386e+01    0.4322326    0.3442024  28.89  0.002678425    1.477    0.323
        48 -12.1238     25.4859    137.8093   1.1476941137e+02   4.3620689152e+01    0.4304252    0.3018821  64.90   0.00247814    1.537    0.349
        49 -10.3956     31.5671    137.7204   1.1306482594e+02   4.3118274073e+01    0.2676273     0.196759  34.53 0.0009528012    1.543    0.352
        50 -10.9258    101.0581    140.2251   9.3723553758e+01   3.3480771434e+01    0.5713252    0.3604686 -22.10  0.002268415    2.437    0.590
        51 -11.3180     80.7603    140.7527   9.9552147900e+01   3.6561794996e+01    0.4881003    0.2929968  67.17  0.001972878    2.504    0.601
        52 -12.2891     88.3938    139.9492   9.7227241448e+01   3.5604850342e+01    0.2921056    0.2524873 -44.62 0.0004632424    1.141    0.124
        53 -10.2311    110.6510    130.3825   8.8851616927e+01   3.4152165400e+01    0.3756694    0.2763904   7.18  0.001016021    1.792    0.442
        54 -10.2865    105.9323    130.6939   9.0253208069e+01   3.4926203476e+01    0.3604691    0.3070821 -55.02   0.00133627    1.148    0.129
        55 -10.9813    137.8543    169.3372   9.0105402845e+01   2.0150326160e+01    0.4613531     0.329135  67.56  0.002086302    1.909    0.476
        56 -10.2269    160.4999    126.9698   7.5062267733e+01   2.4886735768e+01    0.2486469     0.151033 -42.37 0.0008484194    1.605    0.377
        57 -10.8213     97.9843    126.4660   9.1563955049e+01   3.7320471007e+01    0.3204776    0.2580137  -8.13  0.001106801    1.498    0.332
        58  -9.5907    157.4884    159.9879   8.3472652791e+01   1.8457316676e+01    0.2077598    0.1360137 -70.47 0.0008098864    2.488    0.598
        59 -10.0884    116.8482    124.4559   8.5699328424e+01   3.4388849124e+01    0.3003052    0.1983502 -15.52  0.001177119    2.284    0.562
        60 -11.2857    135.7472    127.9097   8.1452145274e+01   2.9866989226e+01    0.5386775    0.1973882 -48.75  0.001735802    2.773    0.639
        61 -11.0766     33.5496    156.2771   1.1484277976e+02   3.8409525684e+01    0.3124391    0.2442354  62.13 0.0009840482    1.289    0.224
        62  -9.0382     86.4677    119.9464   9.3483347178e+01   4.0785249185e+01    0.2231422    0.1390395 -53.13  0.000308791    1.499    0.333
        63 -10.0201    107.3434    119.1413   8.7087011701e+01   3.7406806498e+01    0.2268124    0.2047736   8.08 0.0003343851    1.177    0.151
        64  -9.4766    168.0766    113.0138   6.9727603548e+01   2.6116109956e+01    0.2526738    0.1965117 -79.88  0.001129513    1.791    0.441
        65 -10.6979     39.9006    113.2128   1.0671977735e+02   4.8378634600e+01    0.2028368    0.1752251  86.40 0.0008470798    1.252    0.201
        66 -10.2179    205.4204    110.2572   6.1418940785e+01   1.8426221745e+01    0.2998231    0.2596384  34.84  0.001003028    1.239    0.193
        67 -11.3661     33.4548    108.6354   1.0797285057e+02   5.0089110566e+01    0.3815199    0.2473492 -66.31  0.001956613    1.341    0.254
        68  -9.5688    114.7875    109.7941   8.2524311188e+01   3.8152325975e+01    0.2682504    0.1699787  -8.62 0.0009551729    2.809    0.644
        69 -10.0908    134.6736    105.7472   7.5930926184e+01   3.4968072333e+01    0.4414169    0.1424469 -41.92  0.001339405    3.055    0.673
        70 -14.8533      9.6793    207.8602   1.2448690559e+02   2.8904277027e+01     1.331907    0.9994851 -48.20  0.004335536    1.815    0.449
        71 -10.6587     42.2096    103.9002   1.0416339588e+02   5.0418780884e+01    0.2118364    0.1986398  12.77 0.0006756153    1.221    0.181
        72 -10.7925     36.0524    101.2567   1.0571165957e+02   5.1642250629e+01    0.2830275    0.2511829  83.69  0.001019128    1.282    0.220
        73 -11.2124    241.4324    100.1681   5.3172818704e+01   1.2750583129e+01    0.3579586    0.1119362 -38.46  0.001305784    2.683    0.627
        74 -16.1865      8.4228    241.3817   1.2643247288e+02   2.2411013287e+01     4.623315     2.249526  21.47   0.02519354    3.359    0.702
        75  -9.5532    125.0537     92.0649   7.4623029018e+01   3.9898737595e+01    0.2462947    0.1966095 -84.12 0.0008465344    1.762    0.433
        76  -9.9272     41.7078     91.8900   1.0174039532e+02   5.3332520067e+01    0.1894177    0.1556694 -54.21 0.0004933092    1.075    0.070
        77 -10.2774     52.9793     90.6860   9.7431958379e+01   5.2392464632e+01    0.2763015    0.1641983 -37.62  0.001325053    1.620    0.383
        78 -13.6685     68.5107    243.3256   1.1566649935e+02   1.5431999055e+01    0.9130938    0.5229976  79.89  0.001710711    1.989    0.497
        79  -9.0064    156.6466     88.3609   6.5551218358e+01   3.3549318338e+01    0.1639573    0.1224267 -75.79 0.0007021344    1.871    0.466
        80  -8.9142     75.0638     84.7936   8.8044181940e+01   5.0742244963e+01    0.1831831    0.1152717  33.66 0.0004846814    1.693    0.409
        81  -9.8182    159.1561     82.1542   6.3188746918e+01   3.4110646819e+01    0.2307018    0.2080418   9.40 0.0004713673    1.183    0.155
        82  -9.7407    112.3061     81.9653   7.5194451748e+01   4.4618851272e+01    0.2666421    0.2180367  77.65 0.0009069198    1.677    0.404
        83 -10.2726    243.0799     77.5015   4.7780934423e+01   1.5983550864e+01    0.1826065    0.1324874  63.76  0.001017778    1.556    0.357
        84  -9.7421     51.7055     64.1311   9.0368003586e+01   5.8387426853e+01    0.2075525    0.1795161  30.97 0.0005909031    1.347    0.258
        85  -9.9422      1.5955     62.2474   1.1057039712e+02   6.2907176645e+01    0.1856662   0.07815486 -54.79  0.000957222    1.674    0.403
        86 -10.5754     13.4915     59.9490   1.0503108498e+02   6.2787768849e+01    0.2458339    0.1784244 -51.49 0.0004617194    1.121    0.108
        87 -12.1234    193.4775     44.8904   4.6387964649e+01   3.1730685203e+01    0.5801139    0.4542364  53.03 0.0009088195    1.317    0.240
        88 -11.5399    125.1748    244.1839   1.0460477413e+02   7.4320457217e+00    0.3639591    0.2062644 -65.53  0.001909759    2.358    0.576
        89 -10.1357    142.8183     40.0300   5.3668309939e+01   4.4685694146e+01    0.2329552    0.1945705  59.54 0.0003033018    1.155    0.134
        90  -9.3491    172.5119    238.5312   9.4341671863e+01   1.1846302681e+00    0.1980186    0.1240511 -58.80  0.001027883    2.451    0.592
        91 -10.6513      2.0281     24.8533   9.9915750163e+01   7.0420529056e+01    0.2031137    0.1318713 -44.99 0.0006163249    1.236    0.191
        92 -11.0923    139.2180     44.9131   5.6042337539e+01   4.4889059168e+01    0.3841785    0.2865658 -78.08 0.0005706602    1.824    0.452
        93  -9.2750    189.5146     14.9998   3.8958937138e+01   3.6219750214e+01    0.1808194    0.1267639 -29.91 0.0005366334    1.535    0.348
        94  -9.6363     44.3000    229.9480   1.1925612211e+02   2.0902484119e+01    0.2054023    0.1204855  63.80  0.001237553    1.507    0.336
        95  -9.8590     77.2930    226.4881   1.1238107673e+02   1.7520119033e+01    0.1979285    0.1560492 -80.08 0.0005814826    1.298    0.229
