#   1 NUMBER                 Running object number                                     
#   2 MAG_AUTO               Kron-like elliptical aperture magnitude                    [mag]
#   3 X_IMAGE                Object position along x                                    [pixel]
#   4 Y_IMAGE                Object position along y                                    [pixel]
#   5 X_WORLD                Barycenter position along world x axis                     [deg]
#   6 Y_WORLD                Barycenter position along world y axis                     [deg]
#   7 A_WORLD                Profile RMS along major axis (world units)                 [deg]
#   8 B_WORLD                Profile RMS along minor axis (world units)                 [deg]
#   9 THETA_WORLD            Position angle (CCW/world-x)                               [deg]
#  10 FWHM_WORLD             FWHM assuming a gaussian core                              [deg]
#  11 ELONGATION             A_IMAGE/B_IMAGE                                           
#  12 ELLIPTICITY            1 - B_IMAGE/A_IMAGE                                       
         1 -11.6605    192.9006     40.2348   5.0386892648e+01   3.1925730988e+01    0.9332862    0.9169648  76.28  0.003815883    1.091    0.084
         2 -11.4871    201.1770     31.4859   4.6835460904e+01   3.0989998220e+01    0.7281808    0.6454183 -27.52  0.001477138    1.240    0.194
         3 -11.2954    224.5860      4.9225   3.7646001666e+01   2.8365044620e+01    0.8714451    0.5677413  81.61  0.004941706    1.410    0.291
         4  -9.5377      5.2060      5.6798   9.5564431867e+01   7.3307309355e+01    0.3760042   0.08008324 -40.49  0.001590483    3.311    0.698
         5  -8.3631    120.3652      8.7852   5.2783825622e+01   5.3801511038e+01    0.2964886    0.1645097  58.10  0.001138077    1.595    0.373
         6  -7.2522    125.2362      1.6560   4.9124982509e+01   5.3259083531e+01    0.1250187   0.09700588 -55.48 0.0002167744    1.556    0.357
         7  -7.1900    124.2663    206.2964   1.0458011852e+02   1.4696918116e+01    0.1195436    0.1038157  -1.10 0.0006919791    1.513    0.339
         8  -7.7111    102.0828    250.5465   1.1412148599e+02   1.0231261685e+01    0.1788265   0.09134369  43.38 0.0005951286    1.547    0.353
         9 -14.3933     50.4844    202.9004   1.1962957353e+02   2.6249517756e+01     7.097243     2.201998  52.80   0.01970516    3.056    0.673
        10 -16.5715     10.3858    242.7508   1.2938114257e+02   2.2960636036e+01     3.400724     2.499324  72.79   0.02792913    1.114    0.102
        11  -9.3533    212.2458    201.7417   8.5872815155e+01   3.1827769394e-02     0.349563    0.2739271  54.71 0.0005711035    1.655    0.396
        12  -9.1290    212.9943    197.0083   8.4852949069e+01   6.2937531692e-01    0.2479148    0.1843271  24.01  0.001419706    1.219    0.180
        13  -9.4638    213.7076    192.1804   8.3803544061e+01   1.2582167827e+00    0.2740811    0.2271496 -38.58 0.0005455517    1.371    0.270
        14 -10.3756    243.3604    199.9710   7.9872303420e+01  -4.7989087836e+00    0.2520796    0.2143236  31.68 0.0003606173    1.338    0.252
        15  -8.6533     85.0787    199.3350   1.1203969985e+02   2.2339793187e+01    0.2187708    0.1656387  87.54 0.0003784672    1.279    0.218
        16  -7.4561    135.7996    200.9516   1.0133300837e+02   1.3750269443e+01    0.1649359    0.1084395 -52.89 0.0003596166    1.691    0.409
        17  -7.7493     92.4414    218.3023   1.1267627969e+02   1.7421350434e+01    0.1534763    0.1106839  89.78 0.0004097614    1.437    0.304
        18  -7.5159    223.4544    192.4569   8.2025302218e+01  -4.6847763869e-01    0.1332598    0.1127881   7.09 2.373021e-05    1.010    0.010
        19  -9.0778    112.7079    190.7277   1.0483487239e+02   1.9787830427e+01    0.2966154    0.2166061  87.67 0.0009532605    1.583    0.368
        20 -10.0426    181.2642    188.0342   8.9467812488e+01   7.8549650650e+00    0.2503822    0.2331971 -21.53  0.000349648    1.133    0.118
        21  -8.6773    183.4981    215.3237   9.3815906440e+01   2.8532998046e+00    0.3160279    0.1766247 -55.34  0.001485621    2.632    0.620
        22  -8.6962    239.7506    188.0032   7.8213285747e+01  -2.5310660166e+00     0.222951    0.1785791  32.98 0.0003782324    1.295    0.228
        23  -8.5512    133.4993    187.8513   9.9744609126e+01   1.6761099092e+01    0.2419375    0.1858801  38.12 0.0003368549    1.244    0.196
        24  -8.2299    128.9822    185.6769   1.0039616405e+02   1.8018631658e+01    0.2986824    0.2104861  84.24  0.001436953    1.899    0.473
        25  -8.3322     72.9136    185.7566   1.1307648262e+02   2.7014674454e+01    0.3610799    0.2043901 -57.74  0.001009153    1.817    0.450
        26  -7.8315     82.6495    182.5223   1.1047024790e+02   2.6332867337e+01    0.3549477    0.1735617  66.83  0.001398207    2.911    0.656
        27 -10.0360     49.6615    179.3223   1.1754379158e+02   3.1460376832e+01    0.6122288    0.2791553  65.48  0.001628564    2.592    0.614
        28  -9.9285     46.0465    177.2308   1.1813357354e+02   3.2355256393e+01    0.5452322    0.2573214  58.17  0.002631126    2.150    0.535
        29  -9.4553     78.9885    169.7485   1.0957762217e+02   2.9762780179e+01    0.2865502    0.2386399 -44.66 0.0006971721    1.438    0.305
        30  -8.2849    104.5788    173.1335   1.0398771841e+02   2.4973243382e+01    0.2962535    0.2171504 -72.82   0.00154599    1.418    0.295
        31  -8.6132    188.0928    170.7727   8.4655304247e+01   9.6836829523e+00     0.409398    0.1854555 -48.76  0.001577759    2.582    0.613
        32  -8.4589    202.2927    172.0876   8.2037360527e+01   6.6920983070e+00    0.2332782    0.1924183  40.59 0.0001852481    1.222    0.182
        33  -7.5775    111.4564    167.9504   1.0148319281e+02   2.4961106004e+01    0.2096383    0.1386998 -59.78 0.0005147068    1.540    0.351
        34  -9.0591     67.0382    167.3388   1.1210856299e+02   3.1996569498e+01     0.233357    0.1874793 -74.12 0.0003806263    1.151    0.131
        35  -8.1477     56.9606    166.8941   1.1445575976e+02   3.3406935603e+01    0.2167642    0.1344424  71.78  0.001117755    1.682    0.406
        36  -8.0285    129.8564    164.8774   9.6521492810e+01   2.2305531742e+01    0.2036406    0.1947519 -24.56 0.0003495116    1.159    0.138
        37  -9.5772     85.6395    161.7350   1.0676114330e+02   3.0629153772e+01    0.4995981    0.3736485  26.26  0.002192444    1.619    0.382
        38 -11.1525     75.1246    156.4202   1.0856152157e+02   3.3437528696e+01    0.4216948    0.3579428 -72.91 0.0007501338    1.097    0.088
        39  -9.7674     74.9436    174.8003   1.1122755653e+02   2.9187380133e+01    0.3402585    0.2597416 -38.53  0.001033958    1.744    0.427
        40 -12.4206     57.3731    241.3440   1.2138462701e+02   1.7920783537e+01    0.4628111    0.3174218  74.15 0.0004391051    1.215    0.177
        41  -7.2358    135.0000    160.9733   9.4543290309e+01   2.2181902855e+01    0.2252403   0.08461037 -50.57 0.0004166402    2.745    0.636
        42  -8.7982     69.3050    160.8806   1.1067098143e+02   3.3198166805e+01    0.2341596    0.1714814  55.51 0.0009733967    1.335    0.251
        43  -7.9863     63.7106    156.9079   1.1149772537e+02   3.4885513628e+01    0.2600444    0.1448156  62.75 0.0009307038    2.056    0.514
        44  -8.0439    225.2265    224.8128   8.7537312444e+01  -5.3250999769e+00    0.1648103    0.1438009  16.29 0.0004356527    1.196    0.164
        45  -8.7520     91.6572    155.4539   1.0422413474e+02   3.1161762847e+01    0.3122065    0.2240836 -48.57 0.0007201746    1.476    0.322
        46  -8.3513     95.2086    152.0569   1.0272631714e+02   3.1387471552e+01    0.3226694    0.2354434  88.87  0.001593664    1.562    0.360
        47  -9.4171     24.0482    153.1787   1.2078027449e+02   4.0148303533e+01    0.2664857    0.1752158   9.44  0.001506372    2.359    0.576
        48  -8.7658      4.0980    151.1184   1.2527449360e+02   4.2244024662e+01    0.1698587    0.1327995 -73.23 0.0003694313    1.192    0.161
        49 -11.4207     56.2927    128.4646   1.0907761444e+02   4.2671563943e+01     1.030206    0.3396668  50.03  0.003369328    4.314    0.768
        50 -12.2543     67.8069    143.9034   1.0848325713e+02   3.7451149443e+01     1.466399    0.8954148 -81.64   0.00407534    1.786    0.440
        51  -9.3339    223.7895    206.9754   8.4673971802e+01  -2.6614841821e+00    0.2981845    0.2643363 -87.14   0.00162925    1.948    0.487
        52  -9.3611     43.0085    147.5777   1.1546519147e+02   3.9583836698e+01    0.2929699    0.1637974  69.93  0.001414694    2.062    0.515
        53  -7.4461    159.8656    144.1633   8.5097296579e+01   2.0762884292e+01    0.2047212    0.1779103   5.56 0.0003646383    1.293    0.227
        54  -9.3250    106.0221    139.4191   9.7481098479e+01   3.2526426644e+01    0.4363197    0.3825446  13.16  0.001572955    1.364    0.267
        55  -9.8216     93.2483    139.6320   1.0092563072e+02   3.4665724561e+01    0.2711434    0.2509833 -53.61 0.0003668482    1.115    0.103
        56 -11.2106     60.3141    134.7325   1.0900659431e+02   4.0651625152e+01    0.9604931    0.4150611  59.99  0.003269566    3.974    0.748
        57  -9.5332     26.9151    140.3418   1.1869457650e+02   4.2897128854e+01    0.4878296    0.1719842  38.48  0.001988102    2.850    0.649
        58  -9.9051      4.5135    140.1970   1.2427413188e+02   4.4703378947e+01    0.3072307    0.1813639  44.17  0.001888374    1.820    0.450
        59  -7.3611     44.6699    138.3113   1.1379152496e+02   4.1622012387e+01    0.1369533   0.08922231  72.05 0.0003462623    1.670    0.401
        60  -9.4439      2.9929    131.1756   1.2384089781e+02   4.6879691977e+01    0.2341817    0.1142836 -63.42  0.001302137    1.651    0.394
        61  -7.1943     87.3090    133.6541   1.0136695283e+02   3.7062710040e+01    0.1516704    0.1088433  80.13  0.000565635    1.702    0.413
        62 -10.1426     36.5624    132.2525   1.1512880991e+02   4.3917888811e+01     0.448473    0.1861808 -68.33  0.002016778    2.019    0.505
        63  -8.0408    113.0608    130.7241   9.3737436678e+01   3.3284539211e+01    0.2093049    0.2004929  39.19 0.0006232345    1.094    0.086
        64  -8.5482    100.9040    126.7055   9.6153194966e+01   3.6450201353e+01    0.2606677    0.1963271 -37.85 0.0005489218    1.441    0.306
        65 -10.1515     20.7096    146.7931   1.2094632084e+02   4.1927385296e+01    0.3513167    0.2226331  58.25  0.001156005    1.584    0.369
        66  -8.4984    118.2017    132.7072   9.2816633239e+01   3.1843603447e+01    0.3015326    0.2257683 -84.99 0.0007834621    1.694    0.410
        67  -8.1141    109.9440    148.4695   9.8278367958e+01   2.9699634677e+01    0.2281798    0.1429631  41.88  0.001032622    1.597    0.374
        68  -8.5006    148.0954    120.6322   8.2259256327e+01   2.8369351487e+01    0.2633229    0.2170405 -36.15 0.0002900936    1.233    0.189
        69  -7.6810    109.2696    119.9708   9.2282772286e+01   3.6516424967e+01    0.2158781    0.1828626 -54.91 0.0004408956    1.141    0.123
        70  -9.5457    204.6066    118.0312   6.9263129771e+01   1.6107795011e+01    0.2566429    0.2436408  22.44 0.0005202094    1.080    0.074
        71  -7.6619    110.9006    115.8713   9.0833980269e+01   3.7162505861e+01    0.1978034    0.1749585 -87.11            0    1.237    0.191
        72  -7.5963    209.6687    114.1186   6.7344084896e+01   1.5696841011e+01    0.2135766    0.1838037 -30.30 0.0006177746    1.107    0.097
        73  -9.1688     24.7007    112.2739   1.1564269478e+02   4.9763004851e+01     0.317563    0.2049356  54.51 0.0009655068    1.786    0.440
        74  -9.6293     43.4200    111.2901   1.0985785848e+02   4.8277513081e+01    0.4072688    0.2107913  73.62  0.001533115    3.598    0.722
        75  -8.7585    112.3290    106.5787   8.8062900611e+01   3.9021316191e+01    0.3433648    0.2325169  65.52  0.001035325    1.979    0.495
        76  -8.5280     39.6431     97.8183   1.0850860854e+02   5.1872197477e+01    0.3982592    0.1574382  45.04  0.001613511    3.243    0.692
        77  -8.1998     93.8613     95.9471   9.0656624312e+01   4.4885415274e+01      0.21554    0.1975053 -44.26 0.0002913866    1.025    0.025
        78  -7.6152    150.9759     94.2642   7.4435429130e+01   3.3263098675e+01     0.207917    0.2037926 -31.62 0.0003527757    1.010    0.009
        79  -8.0466      3.3233     83.9756   1.1809502404e+02   5.7743094138e+01    0.1746144    0.1236652 -64.74 0.0006184009    1.074    0.069
        80  -7.9553    126.4586     80.8703   7.6731222668e+01   4.1585748923e+01    0.3694766    0.2262528  14.37  0.001277202    3.054    0.673
        81 -10.2746    109.5826     75.3916   7.9795493951e+01   4.6296131601e+01    0.2649314    0.2541834  -9.04 0.0002457367    1.013    0.012
        82  -7.3444    121.3695     73.5304   7.5818970869e+01   4.4154747865e+01    0.1507408    0.1424472 -23.60 5.871736e-05    1.034    0.033
        83  -8.6015    205.6766     70.1288   5.6636423477e+01   2.4277202191e+01    0.3666125    0.2384141 -23.10  0.001644732    1.746    0.427
        84  -8.3132    180.0675     60.9088   5.8442618788e+01   3.2133974841e+01    0.2241987    0.2205238  53.92 0.0004246569    1.051    0.049
        85 -10.4567    181.5926     49.7650   5.4910384996e+01   3.3454087278e+01    0.4040766    0.3560045 -64.67  0.001001955    1.145    0.126
        86  -7.4852    154.9676     48.4882   5.9488909391e+01   4.0421376901e+01    0.2131402    0.1434764  58.15  0.000119073    1.438    0.305
        87 -10.1414    112.8980    248.0768   1.1189664433e+02   9.0397912918e+00    0.2052687    0.1810657  62.65 0.0003604154    1.147    0.129
        88  -7.8134    168.9870    236.7512   9.9907191386e+01   1.9758117874e+00    0.1755877    0.1366565  33.82 0.0004094882    1.057    0.054
        89  -9.5263    215.3436     25.7124   4.3635708110e+01   2.8219094816e+01     0.274532    0.1389256 -48.00   0.00125433    1.876    0.467
        90  -7.4064    174.0254     19.0824   4.6975861764e+01   3.9348889471e+01    0.1605565    0.1536378 -86.66 0.0005595162    1.058    0.055
        91  -8.1772    166.0807     18.4635   4.7954772355e+01   4.1448667938e+01    0.2022658    0.1880887   9.73   0.00119435    1.211    0.174
        92  -8.4141    133.3280     15.6421   5.2681405385e+01   4.9998136927e+01    0.2120139    0.2110016  14.99 0.0003197612    1.103    0.094
        93  -7.5313    116.5121     12.4995   5.5056297875e+01   5.4351703524e+01    0.1386326    0.1191602  36.65 -2.693796e-05    1.044    0.043
        94 -10.3473    135.5399    231.3694   1.0565773587e+02   8.2850685405e+00    0.3479647    0.3188134 -65.56  0.002402402    1.296    0.228
        95  -9.0341    157.6707    220.0441   9.9695107293e+01   6.5102112108e+00     0.178226    0.1647989  31.50  0.001164922    1.091    0.083
        96 -11.0159    145.6921    223.8106   1.0263715265e+02   7.8960046027e+00    0.6513052    0.2649798  38.31  0.002868786    2.151    0.535
