#   1 NUMBER                 Running object number                                     
#   2 MAG_AUTO               Kron-like elliptical aperture magnitude                    [mag]
#   3 X_IMAGE                Object position along x                                    [pixel]
#   4 Y_IMAGE                Object position along y                                    [pixel]
#   5 X_WORLD                Barycenter position along world x axis                     [deg]
#   6 Y_WORLD                Barycenter position along world y axis                     [deg]
#   7 A_WORLD                Profile RMS along major axis (world units)                 [deg]
#   8 B_WORLD                Profile RMS along minor axis (world units)                 [deg]
#   9 THETA_WORLD            Position angle (CCW/world-x)                               [deg]
#  10 FWHM_WORLD             FWHM assuming a gaussian core                              [deg]
#  11 ELONGATION             A_IMAGE/B_IMAGE                                           
#  12 ELLIPTICITY            1 - B_IMAGE/A_IMAGE                                       
         1 -15.7179    137.4098     23.9443   5.5890034075e+01   4.8175973444e+01     4.424298     3.601642 -58.05   0.01276465    1.320    0.243
         2 -18.0469    236.2004     30.7444   4.4609312093e+01   2.1276219163e+01      10.6145     7.578654   7.97   0.05487199    1.593    0.372
         3 -13.8072    106.4757     22.8391   6.2611417179e+01   5.6238743698e+01    0.8037497    0.4906193 -18.89  0.003103719    1.826    0.452
         4 -13.1925    104.7147     18.3163   6.1004745441e+01   5.7314277260e+01    0.5660991    0.3236218 -27.11  0.001913871    1.728    0.421
         5 -12.3863    206.4342     22.0866   4.5064918462e+01   2.9624237411e+01    0.4777096    0.2241544 -22.52  0.001607035    2.035    0.509
         6 -10.6832    163.8176     15.9586   4.8285872006e+01   4.1890660283e+01    0.3644739    0.3046161   0.52  0.001331466    1.289    0.224
         7 -13.8070    185.9562     85.7745   6.6943617226e+01   2.6522823373e+01     7.712911     1.259993 -35.87   0.01990904    5.147    0.806
         8 -16.7458    248.2191     83.1027   5.6912633263e+01   1.2913693185e+01     10.19621     2.680893 -16.29   0.01963643   11.598    0.914
         9 -11.6137    207.7975     11.7785   4.1738115235e+01   3.0293948663e+01    0.2116608    0.1983942  44.88 0.0005676972    1.136    0.120
        10 -11.7339    216.4705      8.2500   3.9899126373e+01   2.8361487439e+01    0.3213755    0.2415498   4.35  0.001656945    1.491    0.329
        11 -10.4606    206.1790      4.7820   3.9708391793e+01   3.1366663211e+01    0.1268734    0.0929181 -46.85 0.0003948293    1.300    0.231
        12  -9.5667    181.3320      3.2458   4.1550792167e+01   3.8265559810e+01     0.151174    0.1037394  43.73 0.0004867693    1.547    0.354
        13 -14.0055     69.0542    145.0198   1.0575590713e+02   3.8194814035e+01     1.316502    0.8562602  71.28  0.003855718    1.460    0.315
        14 -12.9493    192.4827    153.4577   8.1079555473e+01   1.5343995652e+01    0.4196446    0.2382295 -47.66  0.002116066    2.351    0.575
        15 -12.3809    189.6721    148.3486   8.0613216329e+01   1.6561395773e+01    0.2515974    0.2084883  60.36 0.0008936417    1.381    0.276
        16 -12.0759    181.9196    149.3491   8.2209481124e+01   1.7901430524e+01    0.2569086    0.1865366 -29.80 0.0004499392    1.550    0.355
        17 -12.1324    172.1661    149.7366   8.4101976540e+01   1.9705895577e+01    0.3088797    0.2485649  55.18  0.001730659    1.249    0.199
        18 -11.3375    133.8843    145.9773   9.1139118367e+01   2.7519461006e+01    0.7420405    0.2024229 -54.34  0.002312624    5.339    0.813
        19 -10.2326    132.3071    138.6378   9.0173189396e+01   2.9111864514e+01    0.2150917    0.1602046 -61.30  0.001024384    1.517    0.341
        20 -13.8710     49.8875    164.5823   1.1208060094e+02   3.6766655880e+01    0.6541529    0.5262722  -3.54 0.0009631061    2.261    0.558
        21 -11.0554    145.2460    146.9893   8.8931888039e+01   2.5241631998e+01    0.4694793    0.2612344  63.50  0.002087645    2.411    0.585
        22 -14.7258     57.0271    159.8528   1.1009457936e+02   3.6816927627e+01     1.310216    0.9502369  34.52   0.00333074    1.551    0.355
        23 -11.1027    170.5750    136.4373   8.1833041485e+01   2.2030086616e+01    0.2816878    0.2074066  76.82  0.001448699    1.911    0.477
        24 -11.2706    132.6341     97.6097   8.1265912319e+01   3.6729561136e+01    0.5112338    0.2572024 -44.91  0.002133958    2.052    0.513
        25 -11.2816    136.0000    129.4898   8.7619969323e+01   3.0061146421e+01    0.8045244    0.1609436 -49.50  0.002186829    6.029    0.834
        26 -10.9176    135.2355    121.0859   8.6073589688e+01   3.1754090082e+01    0.4683961    0.1963659 -47.83  0.001531581    2.573    0.611
        27 -11.0793    135.0000    112.5054   8.4257512022e+01   3.3403878019e+01    0.4796789     0.189902 -45.26  0.001832326    2.679    0.627
        28 -11.7097    134.6138    106.0969   8.2868448049e+01   3.4693457687e+01    0.6548207     0.252718 -46.13  0.002436578    2.716    0.632
        29 -10.4144    166.0330    134.6791   8.2368270785e+01   2.3215067000e+01     0.193501    0.1584515  43.35   0.00040297    1.098    0.090
        30  -9.5483     98.0129    132.9797   9.7079238920e+01   3.6267026214e+01     0.154879    0.1350687  69.05 0.0003816375    1.003    0.003
        31 -12.4967    160.8935    128.3415   8.2092669648e+01   2.5281147162e+01    0.4548546    0.3328123 -35.17  0.001883352    1.517    0.341
        32 -11.9140    172.1081    123.4005   7.8791584744e+01   2.3758375712e+01    0.4629591    0.2766854 -68.55  0.001735091    3.626    0.724
        33 -13.6047     63.0212    154.9680   1.0826607350e+02   3.7012782616e+01    0.4900346    0.3360763  76.59  0.001345027    1.315    0.239
        34 -12.0980    178.0016    109.1285   7.4375647416e+01   2.4742697245e+01    0.4363316    0.2716357 -41.55  0.001367543    1.709    0.415
        35 -11.0038    127.5180    105.7556   8.4472085208e+01   3.6228609479e+01    0.3603445    0.1751383 -54.44  0.001455428    2.338    0.572
        36 -10.3387    140.8068    105.1576   8.1214173936e+01   3.3559057183e+01    0.2094516    0.1905784  83.44 0.0004497263    1.143    0.125
        37 -10.9336    112.3250    104.3100   8.7913170419e+01   3.9541045017e+01    0.2544987    0.2194487  82.25 0.0007567964    1.168    0.144
        38 -11.5202    156.5038    101.6305   7.6885984660e+01   3.0759822737e+01    0.4509969     0.288085 -40.52  0.001953953    1.632    0.387
        39 -13.4399    167.8564     87.2515   7.0777656137e+01   3.0582900295e+01    0.9857477    0.6812083  23.51  0.004463581    1.838    0.456
        40 -12.2506    154.5805     95.8823   7.5835091646e+01   3.2195755870e+01    0.6580554    0.4449834  46.65  0.002434251    1.430    0.301
        41 -12.2089    158.7187     84.6653   7.1938220956e+01   3.3177884291e+01    0.5611762    0.5066712  47.11  0.002340976    1.084    0.077
        42 -11.2698    145.6246    101.5735   7.9249053751e+01   3.3175067055e+01    0.2977484    0.2506528  31.60 0.0006699128    1.269    0.212
        43 -12.8358    152.3473     86.3254   7.3762086350e+01   3.4387488515e+01    0.4252172    0.3041543 -45.09 0.0006891908    1.440    0.306
        44  -9.7708    113.5091     95.0593   8.5411537324e+01   4.1198182204e+01    0.2021737    0.1396261 -50.65 0.0003187019    1.464    0.317
        45 -11.7364    138.9359     91.3484   7.8154812447e+01   3.6537393598e+01    0.3153996    0.2774891  84.87 0.0006598398    1.220    0.180
        46  -9.8009    142.3827    180.6710   9.4817408614e+01   2.0416017482e+01    0.1264416   0.08270834  66.48 0.0007014118    1.862    0.463
        47 -10.6881    200.6344     88.7808   6.5203457938e+01   2.2650629473e+01    0.3586933    0.2328699 -39.27   0.00172375    1.579    0.367
        48 -11.7470    165.5308    103.5145   7.5474407202e+01   2.8421612879e+01    0.3738551      0.26608 -66.59   0.00175085    1.913    0.477
        49 -11.1795    124.9232     77.0863   7.7590111805e+01   4.2372298316e+01    0.3136901    0.2609154  66.59 0.0007131596    1.242    0.195
        50 -10.9392     87.5532     76.7914   8.8018296125e+01   4.9994584490e+01     0.273925    0.2127287  89.62 0.0007815736    1.463    0.316
        51 -11.8085     86.5003     73.4817   8.7429519622e+01   5.0899243404e+01    0.3107385    0.2541556   1.25  0.001303115    1.737    0.424
        52 -11.8359    152.2801     74.5637   7.0404949079e+01   3.6450140921e+01    0.5501392    0.2729412  53.25   0.00218056    1.973    0.493
        53 -11.4913    109.8155    224.0091   1.0558256416e+02   1.9178075286e+01    0.2038386    0.1178535  44.22  0.001406537    1.258    0.205
        54 -10.9202    105.1782     54.1047   7.5575915218e+01   5.1168000347e+01    0.3482073    0.1804998 -47.80  0.001043387    1.927    0.481
        55 -11.3240    168.9270     39.7121   5.5935756816e+01   3.7576689040e+01    0.2532163    0.2110356 -32.96 0.0003202435    1.182    0.154
        56 -10.3505    190.0131     36.2307   5.1543949445e+01   3.2375544703e+01    0.2284254    0.1968204 -25.77 0.0005759193    1.136    0.120
        57 -13.3516    213.0434     58.7252   5.5121243543e+01   2.3701540315e+01    0.5968607    0.3969398  50.86  0.002026863    1.527    0.345
        58 -11.0841     94.1278     30.3713   6.9573062523e+01   5.7893156370e+01    0.2536772    0.1600231 -40.34 0.0008297568    1.516    0.340
        59  -9.2432    205.2818    223.6752   8.9876043629e+01   5.3633694043e+00   0.09176084   0.07336087  53.01 0.0002852046    1.595    0.373
        60 -14.4106      6.2582    189.8497   1.2230850725e+02   3.6587837978e+01     1.596723    0.5793696  85.25  0.009414173    2.445    0.591
        61 -10.9937    201.8836     25.1363   4.6518247677e+01   3.0498673938e+01    0.2136651    0.1943876 -30.17 0.0005595915    1.059    0.056
        62 -14.9456     22.7286    181.5789   1.1881577125e+02   3.6522022742e+01    0.8381355    0.6076733  52.29  0.003692673    1.200    0.167
        63 -10.9472    159.9288     20.9926   5.0741772729e+01   4.2400273068e+01    0.2209129    0.2135334  19.93 0.0003174031    1.062    0.058
        64 -12.6965    192.7458    194.5856   8.7866954353e+01   1.0254216698e+01    0.7804385     0.459934 -64.24  0.003200753    5.931    0.831
        65  -9.4329    148.2782    193.6704   9.5472278311e+01   1.7591531706e+01    0.1111178   0.08032804  66.09 0.0006128405    1.598    0.374
        66 -11.2191    203.1695    191.3372   8.5668868619e+01   8.9271120823e+00    0.1920229    0.1154084  31.13 0.0009592377    1.398    0.285
        67 -14.0274    166.0554     71.9994   6.6794739712e+01   3.3500513742e+01     1.206445    0.6488701 -33.10  0.003842271    1.870    0.465
        68 -11.8846      8.0413    169.2892   1.2125450174e+02   4.0109040491e+01    0.2083059    0.1125849  76.00  0.000873092    1.436    0.304
        69 -10.6830    202.1904    248.2155   9.3288021627e+01   3.6422088198e+00    0.1481833   0.09417195  30.39 0.0004376797    1.141    0.124
        70 -11.3859    246.7479    163.7285   7.4284113653e+01   4.6510359406e+00    0.4598211     0.205632  19.81  0.002052017    3.089    0.676
        71 -14.5966    196.8815     67.9922   6.0144855064e+01   2.6447242515e+01     1.247342     1.177716  60.61  0.007039403    1.102    0.093
        72 -10.4618    177.3070    169.6502   8.6643408445e+01   1.5947513848e+01    0.1169033   0.09408185  75.49 0.0007042966    1.707    0.414
