#   1 NUMBER                 Running object number                                     
#   2 MAG_AUTO               Kron-like elliptical aperture magnitude                    [mag]
#   3 X_IMAGE                Object position along x                                    [pixel]
#   4 Y_IMAGE                Object position along y                                    [pixel]
#   5 X_WORLD                Barycenter position along world x axis                     [deg]
#   6 Y_WORLD                Barycenter position along world y axis                     [deg]
#   7 A_WORLD                Profile RMS along major axis (world units)                 [deg]
#   8 B_WORLD                Profile RMS along minor axis (world units)                 [deg]
#   9 THETA_WORLD            Position angle (CCW/world-x)                               [deg]
#  10 FWHM_WORLD             FWHM assuming a gaussian core                              [deg]
#  11 ELONGATION             A_IMAGE/B_IMAGE                                           
#  12 ELLIPTICITY            1 - B_IMAGE/A_IMAGE                                       
         1 -13.3150     26.5462     37.6324   7.6094429901e+01   6.9854713814e+01    0.7878078    0.6215925 -20.44  0.001348685    1.290    0.225
         2 -12.3799     57.0693     34.8339   5.7062988567e+01   6.5557821563e+01    0.6931599    0.4311626 -20.01  0.002983955    2.161    0.537
         3 -10.1201      5.1694     11.8687   8.1417129053e+01   7.7626529441e+01    0.2468739    0.1753388 -51.59  0.001084712    1.285    0.222
         4 -11.7657     27.5286      3.0120   5.4512060207e+01   7.6392247553e+01    0.3220151    0.2658271  63.80  0.001121856    1.657    0.397
         5 -10.0103     33.5895      1.2021   4.8748059517e+01   7.5527384632e+01     0.491619    0.1440636  49.33  0.001789343    3.238    0.691
         6 -10.9052     13.0385     23.1792   7.9815225339e+01   7.4508959023e+01     1.390873    0.6248185  -6.78   0.00490431    4.023    0.751
         7 -10.7719     18.2568     16.6002   7.1876323017e+01   7.5356970441e+01    0.4779663    0.2758298 -20.70  0.002237561    2.151    0.535
         8 -11.4806     11.7431     14.4865   7.6443772779e+01   7.6498804875e+01    0.5340046    0.2995706  -5.03  0.002400957    2.257    0.557
         9 -11.5961     19.6021      3.6048   6.1529077565e+01   7.7582434365e+01    0.5916721    0.3841013  28.93  0.003281645    1.501    0.334
        10 -11.0113      9.2665      8.5463   7.5217319313e+01   7.7956751320e+01    0.3729111    0.2659117  33.30  0.001607458    1.539    0.350
        11 -10.9377     11.0023      3.4205   6.9737291368e+01   7.8758707414e+01    0.2676566    0.2407656 -68.44  0.000873781    1.478    0.323
        12 -11.3657      2.1360     23.6184   8.9469607066e+01   7.5183782256e+01    0.5244786    0.2476088 -56.82  0.002423743    1.754    0.430
        13 -11.9452      3.3121     16.6379   8.5622765248e+01   7.6711826339e+01    0.4760721    0.3462837  71.45  0.002668588    1.905    0.475
        14 -11.4699    197.9342     27.5046   2.3131756064e+01   3.2191813434e+01    0.4384636    0.2825955 -20.55  0.001487071    1.613    0.380
        15 -12.4287    164.5444      7.0495   2.0071942183e+01   4.2152293722e+01      1.59576    0.3528441 -29.68  0.005573147    3.410    0.707
        16 -10.0355    159.4791     17.0519   2.3772170228e+01   4.2468190736e+01    0.3228021    0.2062079 -58.20  0.001557422    1.536    0.349
        17 -10.8572    186.3078     21.9870   2.2631427018e+01   3.5432002232e+01     0.419731    0.1647851 -28.18  0.001529885    2.298    0.565
        18 -13.2939    238.0898     17.5560   1.7917991208e+01   2.4936021893e+01    0.3304049    0.2495999 -52.46 0.0006804125    1.099    0.090
        19 -11.9040    234.8337     10.3422   1.6443837290e+01   2.6241003542e+01    0.2965328     0.236284 -21.19 0.0005019154    1.329    0.247
        20 -11.9559    233.1344      6.1525   1.5565734899e+01   2.6953195830e+01    0.4384485     0.189765 -83.92  0.001964164    2.611    0.617
        21 -12.5640    132.2904     18.8433   2.7905181053e+01   4.9317599921e+01    0.5260614    0.3179941  71.60 0.0005572134    1.581    0.368
        22 -11.6096    129.2885     11.1124   2.5379756213e+01   5.0892436449e+01    0.5035473    0.3468201 -72.83  0.001233303    1.517    0.341
        23 -11.1921     28.7503     19.7905   6.5541034187e+01   7.3326202181e+01     0.337593    0.2334923 -23.62 0.0003451956    1.531    0.347
        24  -9.9357     35.0449     14.8135   5.7974128954e+01   7.3211412033e+01    0.4194497     0.259548   4.16  0.001817791    2.468    0.595
        25 -12.2945     30.8629     12.7904   5.9477464590e+01   7.4265047512e+01    0.3319514    0.2894773 -54.45 0.0003523066    1.403    0.287
        26 -10.9158    120.6596     16.7281   2.8954871125e+01   5.2618893852e+01    0.3928137    0.3001566   8.95  0.001368031    1.598    0.374
        27 -11.5338     51.7647     14.9187   4.8415311616e+01   6.9959433678e+01    0.5371662    0.4420639  39.86  0.002563574    1.148    0.129
        28  -9.9326     74.2131      1.9588   3.1793861140e+01   6.6196529794e+01    0.3603702    0.2139404 -67.68  0.001562488    2.408    0.585
        29 -10.2863     76.1018     15.3456   3.8863173864e+01   6.4310894712e+01    0.3638941    0.2382412  34.25  0.001159424    1.636    0.389
        30  -9.7947     74.2002      6.7650   3.4613519735e+01   6.5740980413e+01    0.3028128    0.1911272  14.70 0.0006894823    1.988    0.497
        31 -11.1829     70.7870     14.6861   4.0296417674e+01   6.5681088041e+01    0.4275885    0.3121481 -24.84  0.001893926    1.440    0.306
        32 -11.7137     76.6075     10.4086   3.5964791008e+01   6.4756843034e+01    0.6623343    0.2592137  56.00  0.002606531    2.215    0.548
        33 -11.5027     60.6312     13.4822   4.3482854105e+01   6.8210145978e+01    0.4633329    0.4168439 -50.46  0.002534267    1.265    0.209
        34 -11.0767    155.2445     10.6594   2.2114207526e+01   4.4167221565e+01    0.5729818    0.2115972 -34.12  0.002328382    2.374    0.579
        35 -10.1608    226.4753     12.4620   1.7360466496e+01   2.7679157911e+01    0.2606393   0.09852867 -26.88  0.001234845    2.256    0.557
        36 -10.2764    176.7604     11.4422   2.0390015182e+01   3.8750949225e+01    0.3422541    0.1587969 -60.97  0.001246789    2.245    0.555
        37 -10.2815    138.6227     11.4887   2.4284388096e+01   4.8394024508e+01    0.3227865    0.1728681 -43.51  0.001467603    1.812    0.448
        38  -9.5691    206.3208     10.9118   1.8135809191e+01   3.2023018312e+01    0.1659762    0.1362128 -42.88 0.0003407446    1.081    0.075
        39 -11.7113    145.7771      7.2487   2.1933745620e+01   4.6915768299e+01    0.5478669    0.3360308 -16.05    0.0026812    1.829    0.453
        40 -11.6722    148.6665      2.1079   1.9856503934e+01   4.6607768710e+01    0.3727048    0.2294031 -47.94 0.0002628224    1.538    0.350
        41 -10.3286    108.3685     10.0699   2.8292001860e+01   5.6555355237e+01     0.280604    0.2073861  -8.27  0.001338111    1.555    0.357
        42 -10.4867     36.3596      7.2302   5.1727251529e+01   7.4165477744e+01     0.352915    0.2441269  52.71  0.001313402    1.587    0.370
        43 -10.1384    118.8687      8.4950   2.5854327804e+01   5.3907030310e+01    0.3879651    0.2108017 -69.00 0.0009639402    2.239    0.553
        44 -12.0040    212.9666      5.5302   1.6393990257e+01   3.1095508585e+01    0.6633176    0.3209216 -50.71  0.003024895    1.716    0.417
        45 -10.2305    100.0284     13.4079   3.1485590226e+01   5.8424392950e+01    0.2246397    0.1929578  16.24 0.0007160665    1.288    0.224
        46  -9.6415     65.0213      8.1271   3.8464022133e+01   6.7836268036e+01    0.2101039    0.1613693 -63.35 0.0009412996    1.645    0.392
        47 -11.8252    244.1519      3.5576   1.4525041708e+01   2.5101023358e+01    0.4947552    0.1210179 -40.62  0.002317815    2.471    0.595
        48 -10.1452     91.7997      6.8148   3.0084804670e+01   6.1234115292e+01    0.2459231    0.1892634  18.55 0.0004405554    1.466    0.318
        49 -10.3752     90.9638      2.1693   2.7894639786e+01   6.1863724579e+01    0.2097122     0.193704 -11.27 0.0002685108    1.178    0.151
        50  -9.2556     43.2496      7.5680   4.7884589944e+01   7.2759034800e+01    0.1324195    0.1016946 -58.16 0.0003333948    1.770    0.435
        51 -10.6776    222.9210      5.4268   1.5870017726e+01   2.9044046787e+01    0.2038579     0.148737 -29.10  0.001327913    1.281    0.220
        52  -9.9877     68.6492      5.8705   3.5825009922e+01   6.7202671551e+01      0.18594    0.1693293 -17.52 0.0004186852    1.165    0.142
        53 -10.1166    171.7135      4.6108   1.8737857632e+01   4.0598330895e+01    0.2775214    0.1301943 -42.67  0.000912002    1.866    0.464
        54 -10.5328    168.0599      1.9431   1.8194986734e+01   4.1723783548e+01     0.233099    0.1705803 -80.96  0.000339645    1.268    0.211
        55  -9.1412    109.3424      5.2658   2.5979826342e+01   5.6734361576e+01    0.1478585   0.09477565  44.77 0.0006539928    1.601    0.376
        56 -10.3454     59.9923      5.4000   3.8607876452e+01   6.9327477071e+01    0.3416345    0.1552024  62.71  0.001413359    2.232    0.552
        57  -9.8364    201.6546      3.6347   1.6519733419e+01   3.3709577984e+01     0.256343     0.126691  62.25  0.001116102    2.206    0.547
        58 -10.0204    125.9585      2.8206   2.2560997329e+01   5.2509315732e+01    0.2166847    0.1701742  48.29 0.0006786281    1.325    0.245
        59 -10.5878    236.7474      1.8568   1.4439703037e+01   2.6641030935e+01    0.2412409    0.1009469 -61.03  0.001257644    2.182    0.542
        60  -8.9316    183.3542      1.3171   1.6965716035e+01   3.8088537519e+01    0.1276485   0.09151693  42.34 0.0007046145    1.744    0.427
        61  -9.1207    155.5267      1.4510   1.9028902790e+01   4.4904601706e+01     0.131731    0.1215898  88.90  0.000206816    1.084    0.078
        62  -9.7800    141.0010      1.7648   2.0474947774e+01   4.8626292721e+01    0.1777304    0.1064648  78.47 0.0002940479    1.553    0.356
        63  -9.8802    244.3698    178.4194   5.0875868712e+01   4.7384299969e+00    0.2195628     0.078381 -21.63 0.0009441093    3.360    0.702
        64 -11.2257    247.5397    249.8142   6.1350281391e+01  -2.9729458242e+00    0.2442423    0.1322795  -0.15   0.00183756    1.443    0.307
        65 -12.4777    226.0153    246.6393   6.4161201013e+01  -6.4244887835e-01    0.5264591    0.2782483 -12.08  0.003656588    1.723    0.420
        66 -12.2747    233.0347    246.4508   6.3054245927e+01  -1.3075392900e+00    0.3659929    0.2156724 -16.60  0.002814673    1.447    0.309
        67 -10.0163     72.1598    250.2321   9.3376966367e+01   1.5937144733e+01    0.1596782    0.1257216  19.17 0.0007902557    1.251    0.201
        68 -11.7020     18.5823    237.0409   1.0392765719e+02   2.3358884509e+01    0.4837697    0.2216587  39.71  0.002954314    1.519    0.342
        69 -12.6381      6.9617    245.3398   1.0653774053e+02   2.2899719083e+01    0.6170295    0.3805039  55.17  0.004007083    1.263    0.208
        70 -11.6255     14.4132    244.7315   1.0501813970e+02   2.2388986124e+01    0.3045124    0.1829756  85.33  0.001473871    1.802    0.445
        71 -12.0853     22.4917    248.6626   1.0349781879e+02   2.1036404066e+01    0.4241637    0.1982682  35.92  0.002471796    1.481    0.325
        72 -10.6307     17.3543    247.2805   1.0449411928e+02   2.1710956150e+01    0.1550932    0.1346087  53.60  0.000460892    1.222    0.181
        73 -10.3946     22.6088    179.6535   1.0051185332e+02   3.4445063501e+01    0.4064487    0.1421585  41.59   0.00142766    2.202    0.546
        74  -9.7725    118.5106    177.5039   7.4924463710e+01   2.2947951730e+01    0.1357937    0.1199854  22.84 0.0008105403    1.015    0.015
        75 -10.4508     18.3982    172.9367   1.0128413506e+02   3.6324909743e+01    0.2338363    0.1440717  41.02  0.001185622    1.378    0.274
        76 -11.0905     35.5782    161.1379   9.5544470414e+01   3.7511629545e+01    0.3669673    0.2757351 -15.73 0.0003579398    1.752    0.429
        77 -11.1743     37.2332    165.9975   9.5477280864e+01   3.6196184510e+01    0.4146191    0.2386717  75.81  0.002042808    1.866    0.464
        78 -11.5694     33.2764    166.1761   9.6633938635e+01   3.6547321583e+01    0.2434937    0.2051329  53.53 0.0003077795    1.035    0.034
        79 -10.0246     26.3653    169.5198   9.8851692099e+01   3.6417398625e+01    0.2707038    0.1178508  23.47  0.001222676    2.210    0.547
        80  -9.5144    177.0102    168.7377   6.0465345114e+01   1.5357670680e+01    0.1586829    0.1026616  32.90  0.000368149    1.464    0.317
        81 -10.8768      5.3796    168.1383   1.0465986858e+02   3.8433011032e+01    0.1979096    0.1688051  12.77 0.0009253006    1.354    0.261
        82 -11.7894     51.6640    162.2331   9.0910120875e+01   3.5515649606e+01    0.6748978    0.4359236 -86.45  0.002895567    1.688    0.408
        83  -8.8614     93.3177    166.7155   7.9718018475e+01   2.8951069761e+01    0.1415401   0.09897176  57.65 0.0002824246    1.586    0.370
        84 -10.0101    187.3649    165.6943   5.7912019006e+01   1.4232319671e+01    0.1143727    0.1041336  77.36 0.0007037233    1.742    0.426
        85  -9.7706     67.2495    165.2356   8.6752986375e+01   3.2904790509e+01    0.2344629   0.08133096  39.14 0.0008897642    2.431    0.589
        86  -9.2129    210.6443    166.2028   5.3894655003e+01   1.0704928071e+01    0.1676634   0.09680182 -22.92 0.0007199745    1.609    0.379
        87  -9.8693      9.9024    162.6761   1.0314800464e+02   3.9376175154e+01     0.186086    0.1586626 -13.86  0.001180214    1.476    0.322
        88  -9.1131    221.3085    161.2670   5.1243803088e+01   9.8624050903e+00    0.1188602   0.07804468   1.82 0.0002350142    1.537    0.349
        89  -9.0231    117.4771    159.4743   7.2167527971e+01   2.6711807803e+01    0.1404235    0.1289022  31.15 0.0008094338    1.035    0.034
        90 -11.5748     21.1054    156.7944   9.9520807262e+01   3.9889738434e+01    0.5408063    0.3709272 -11.23  0.002872331    1.970    0.492
        91  -9.7491    235.8822    153.3040   4.7548775976e+01   8.8777245113e+00    0.2040253    0.1311836 -33.20 0.0009810037    1.431    0.301
        92  -9.7213    216.2306    154.6124   5.0779816875e+01   1.1490845307e+01    0.1575743    0.1033924  23.68 0.0002681545    1.540    0.351
        93 -10.7156     11.0171    153.0470   1.0232848049e+02   4.1592241132e+01    0.3274328    0.2001384  27.87  0.001651303    1.574    0.365
        94  -9.7471    176.8317    150.0455   5.6865262954e+01   1.8409418336e+01    0.1858099    0.1816044 -30.06 0.0006125667    1.270    0.213
        95 -10.0281     20.5815    147.1884   9.8998603428e+01   4.2280937713e+01    0.3493809    0.1572876  59.82 0.0009866492    2.233    0.552
        96  -9.8089    207.4861    146.5202   5.0605513419e+01   1.3958382370e+01    0.1269886    0.1055524  -8.85 0.0002071797    1.009    0.009
        97  -9.5830     41.1212    146.1437   9.2376312186e+01   4.0589785871e+01     0.194664      0.13944  53.23 0.0004222475    1.311    0.237
        98  -9.4193     33.2975    146.6956   9.4925326196e+01   4.1254163239e+01    0.1446364   0.08857721  58.10 0.0003197936    1.585    0.369
        99 -10.2127    216.8189    145.1721   4.8829208433e+01   1.2708582518e+01    0.1752842    0.1269489  -1.74 0.0005337743    1.336    0.251
       100 -10.3296      7.0168    145.1418   1.0313737902e+02   4.3804308405e+01    0.3008957    0.1506811  20.30   0.00146251    2.044    0.511
       101  -9.7953    187.5020    144.0633   5.3600012702e+01   1.7579063613e+01    0.1930894    0.1616336  21.13 0.0003942525    1.161    0.139
       102 -10.7830     76.2774    142.4391   8.0783140525e+01   3.7014143839e+01    0.2709807    0.2400331  59.14 0.0001374693    1.110    0.099
       103  -9.9868    240.0514    140.0765   4.4420800371e+01   9.9771756156e+00    0.1780946    0.1404533 -16.58 0.0004343437    1.029    0.028
       104 -10.2446     13.6730    139.9234   1.0069725185e+02   4.4633779642e+01    0.1891133    0.1555033  75.19  0.000656092    1.088    0.081
       105  -9.5554    144.2276    137.0710   6.1122187984e+01   2.6515970977e+01    0.1981521    0.1783681 -26.46 0.0005043352    1.105    0.095
       106 -10.5467      9.3254    136.2368   1.0188595470e+02   4.5868226473e+01      0.20355    0.1793669 -71.28 0.0002850363    1.177    0.150
       107 -10.6012      2.8874    135.1856   1.0395267182e+02   4.6541836280e+01    0.3198825    0.1571656 -74.85  0.001538431    1.877    0.467
       108  -9.3227     88.3353    135.6537   7.5886223870e+01   3.6762656982e+01    0.1573093    0.1104375  67.27 0.0007048873    1.772    0.436
       109 -10.0044     20.7633    134.4781   9.7923778936e+01   4.5461317938e+01     0.248088    0.1705106 -87.73 0.0007305627    1.380    0.275
       110 -11.3140     54.2262    132.4613   8.6303068052e+01   4.2501686292e+01    0.4970175    0.2332715  25.45  0.001164668    2.200    0.546
       111 -10.2745     79.5505    131.9289   7.7907734587e+01   3.9050621830e+01    0.2610575    0.2064451  41.83 0.0007885352    1.210    0.174
       112 -11.2209     73.5738    128.9342   7.9273770553e+01   4.0699678654e+01    0.4225348    0.2907698  44.60  0.001621652    1.410    0.291
       113 -12.2167     36.8840    130.8815   9.2021128040e+01   4.4894996724e+01    0.4344138    0.2711998 -55.77 0.0006693242    1.633    0.388
       114 -10.4936     66.8699    127.8987   8.1303433283e+01   4.1944941790e+01    0.2713686    0.1950766  39.81  0.001336695    1.333    0.250
       115  -9.5538     56.7406    126.6717   8.4536996571e+01   4.3647279322e+01    0.1952753    0.1240591  38.14 0.0002826227    1.502    0.334
       116 -11.0302     14.8689    125.5511   9.9216247661e+01   4.8209344547e+01    0.3939036    0.2305405  19.64  0.001957672    1.808    0.447
       117 -11.5217     10.6439    122.1041   1.0045586488e+02   4.9394202460e+01     0.448066    0.2693809  88.18  0.002262326    1.562    0.360
       118  -9.4142    219.3615    124.3134   4.4135953453e+01   1.5219561633e+01    0.1303485   0.08763772   4.32 0.0007041742    1.754    0.430
       119 -10.6733    241.3014    134.3069   4.3118665271e+01   1.0531378600e+01    0.2042655     0.163072 -23.59 0.0004505377    1.114    0.102
       120 -10.6404    243.6712    122.1019   4.0367544928e+01   1.1732629704e+01    0.1743321    0.1211857 -24.21 0.0006246237    1.148    0.129
       121 -10.5070     19.8906    121.4718   9.7037700127e+01   4.8888379378e+01    0.3031536    0.1623879 -71.40  0.001418235    1.727    0.421
       122 -10.0289     70.5784    121.1836   7.8798002387e+01   4.3075084319e+01    0.2423843    0.1775778  25.16 0.0007340062    1.433    0.302
       123 -11.3416     52.7142    115.8739   8.4130003994e+01   4.6941858010e+01    0.4702947    0.2903189  81.63 0.0002670789    2.084    0.520
       124 -10.3499      1.3842    118.6206   1.0357858697e+02   5.0842740357e+01    0.2410647    0.1139525 -82.79 0.0002976451    1.903    0.475
       125  -9.7142     77.8644    118.0931   7.5703870226e+01   4.2697212800e+01    0.2138133    0.1887957  70.60  0.001122738    1.184    0.156
       126 -11.4221     30.1553    117.6965   9.2809808355e+01   4.8988258933e+01    0.3532012    0.2104646   3.35 0.0006980193    2.166    0.538
       127  -9.6711    179.3188    116.2971   4.8964017284e+01   2.3574626224e+01    0.2125635    0.1707223 -32.28 0.0007257668    1.164    0.141
       128 -10.5758    182.7796    114.0174   4.7789817723e+01   2.3284415728e+01    0.2619199    0.2230921  -3.98 0.0007264957    1.174    0.148
       129  -9.7536     86.2727    116.0598   7.2476816505e+01   4.1781125325e+01    0.2120792    0.1912177 -66.62 0.0004650799    1.141    0.123
       130 -11.1656     15.8931    115.0942   9.7907371252e+01   5.0860532357e+01    0.2827369    0.2365362  74.77 0.0004513809    1.110    0.099
       131 -12.7531     17.3849    109.5168   9.6761917029e+01   5.2220875767e+01    0.9016999    0.5361927  10.22  0.004344807    1.940    0.484
       132 -10.5471     72.0070    115.9729   7.7254814224e+01   4.4155581039e+01    0.3585541     0.285225 -83.37  0.001791103    1.388    0.279
       133 -10.9073    249.5539    111.8680   3.7573611104e+01   1.2139077269e+01    0.2335446    0.1703728 -29.18 0.0005847964    1.107    0.097
       134 -10.7481     94.0655    112.4017   6.9119625032e+01   4.1259780000e+01    0.3363999    0.3146258  38.72  0.001809788    1.052    0.049
       135  -9.0964    121.3031    111.7045   6.0939015072e+01   3.6127429840e+01    0.1481978    0.1209562  83.90 0.0003812074    1.578    0.366
       136 -11.5703     54.9228    108.9640   8.2018551032e+01   4.8435689974e+01    0.4846105    0.3306152 -62.70 0.0009488132    1.434    0.303
       137 -10.1151     51.6738    103.8274   8.2248024246e+01   5.0200394937e+01    0.2240926    0.2040358 -26.18  0.000652022    1.200    0.167
       138 -11.2435      2.2092    107.5951   1.0256952444e+02   5.3664821513e+01    0.4959861    0.2188633 -70.62  0.002216744    1.991    0.498
       139 -10.3334     41.5620    108.4211   8.7065448263e+01   5.0243477910e+01    0.2382952    0.2259294  59.85 0.0001561747    1.047    0.045
       140 -10.0957     84.9276    107.5436   7.0931760893e+01   4.4065382195e+01    0.3032242    0.2018389 -41.74  0.001353342    1.609    0.378
       141  -8.7157    100.4746    107.5175   6.5905637283e+01   4.1183484924e+01    0.1508017    0.1487312  27.94 3.528294e-05    1.012    0.012
       142 -11.4267     24.8524    105.9725   9.3352960268e+01   5.2562992452e+01    0.4336276    0.3303784 -22.82 0.0009553026    1.551    0.355
       143 -10.2872    111.6469    105.8383   6.2129629995e+01   3.9347229389e+01    0.3015595    0.1926402  37.45            0    1.587    0.370
       144 -10.2726    119.3013    103.7581   5.9418101477e+01   3.8222682954e+01    0.4291832    0.2050136 -35.57  0.001530817    2.475    0.596
       145  -9.6467      9.6571    104.7324   9.9369938455e+01   5.4005902680e+01    0.1370757   0.09355351 -40.70 0.0001501439    1.606    0.377
       146 -10.4060     37.7930    102.5035   8.7557657462e+01   5.2222324995e+01    0.3350355    0.2334214  62.57  0.001631209    1.555    0.357
       147 -11.8065     62.0497     99.1062   7.7176721208e+01   4.9940566848e+01     0.462243    0.3254604 -42.53 0.0009888196    1.507    0.336
       148 -10.3470    144.3831     98.9461   5.1791565038e+01   3.3832789217e+01    0.3261468    0.2393358 -64.00  0.001006697    1.709    0.415
       149  -9.9557    107.8655     99.6612   6.1584018735e+01   4.1472702567e+01     0.210374     0.190286  52.78 0.0003970484    1.118    0.105
       150 -10.0241     33.9585     97.8188   8.8336528332e+01   5.3867343157e+01    0.3042047    0.1813236 -55.79  0.001409967    1.592    0.372
       151 -10.6498     21.4960     98.4780   9.3732754615e+01   5.4833983845e+01    0.2512207    0.2212867 -84.72 0.0006875122    1.056    0.053
       152 -10.0326      9.7906     99.2085   9.8780406348e+01   5.5459232822e+01    0.2006556    0.1615239  68.76 0.0007200696    1.201    0.168
       153  -9.7155     41.7087     97.1336   8.4950122102e+01   5.3194002893e+01    0.2567654    0.1310781  61.61 0.0009437933    2.735    0.634
       154 -10.8524     15.8133     96.8836   9.5956835010e+01   5.5685479609e+01    0.3651698    0.1252314  36.87     0.001393    2.751    0.636
       155 -10.3498    101.4923     95.5492   6.2386025039e+01   4.3686873697e+01    0.3301621     0.150001  42.23  0.001210544    2.184    0.542
       156 -11.5553    160.5071     90.5834   4.6062573099e+01   3.1820012993e+01    0.5901496    0.4776706 -69.09  0.003045085    1.481    0.325
       157 -10.8344    156.5966     83.6295   4.4910218918e+01   3.3884003514e+01    0.5206553    0.4222649 -22.06   0.00271315    1.284    0.221
       158 -10.2828    227.4716     92.9912   3.6168775728e+01   1.8120937725e+01    0.1974038    0.1695775 -62.36 0.0005860537    1.384    0.278
       159 -10.1217     37.6758     91.6810   8.5594205698e+01   5.5089029582e+01    0.2427382    0.2017308  -4.09 0.0006997238    1.373    0.272
       160  -9.8692     38.4608     87.4327   8.4369614588e+01   5.6114853331e+01    0.5133674    0.1778403 -56.19  0.001850076    2.530    0.605
       161 -10.0117     25.4236     91.1530   9.0915618818e+01   5.6452109133e+01    0.2621174    0.1616494  87.90 0.0006904322    1.767    0.434
       162 -10.1398      1.6333     92.2268   1.0163742265e+02   5.7731466624e+01    0.1977142     0.105802 -69.10 0.0008038376    1.640    0.390
       163 -10.4990     55.5735     90.6730   7.7747007260e+01   5.3047003292e+01    0.3027471    0.1891903  35.99  0.001363888    1.600    0.375
       164 -10.5658     10.4669     90.8699   9.7584460080e+01   5.7631404999e+01    0.2231969    0.1918981 -13.16  0.000458285    1.310    0.237
       165  -9.0616    184.5594     90.6173   4.1708811219e+01   2.6672211969e+01    0.1353565    0.1248649 -43.53 2.405903e-05    1.083    0.077
       166 -10.7392     83.7143     88.6865   6.6350788395e+01   4.8772488885e+01    0.3493748    0.2765493  68.11   0.00166265    1.483    0.326
       167 -10.5962     97.3281     88.9796   6.1814844984e+01   4.6003550245e+01    0.3185509    0.2021927  42.69  0.001039027    1.566    0.362
       168  -9.6707     74.2383     89.0406   6.9924990717e+01   5.0432787699e+01    0.1965414    0.1266423 -52.83 0.0003268375    1.540    0.351
       169 -10.1866     47.8778     88.3131   8.0428732198e+01   5.4721992635e+01    0.2315015     0.193036 -78.64 0.0003004483    1.228    0.186
       170 -11.1897     22.4886     87.0733   9.1574927250e+01   5.7786229189e+01    0.3681837    0.2218035 -57.99 0.0004557589    1.524    0.344
       171 -11.6286     66.0807     85.3548   7.2065752864e+01   5.2734927247e+01    0.6086079    0.4685063 -49.43  0.002209202    1.285    0.222
       172  -9.0328     42.6421     87.3432   8.2491124328e+01   5.5641753798e+01    0.1598221    0.1056557  63.75 0.0007035701    1.829    0.453
       173 -10.1436      9.7682     86.2129   9.7348719500e+01   5.8908765830e+01    0.3172688    0.1605111  45.45  0.001067023    2.069    0.517
       174  -9.6534      5.0659     86.0855   9.9513596811e+01   5.9193960129e+01    0.2015283    0.1581303 -50.75 0.0003577542    1.254    0.203
       175 -11.4806    166.6737     83.4839   4.2934014815e+01   3.1652515524e+01     0.736693    0.3222514  55.77   0.00289718    2.447    0.591
       176 -11.5603     30.3841     81.9986   8.6943087973e+01   5.8406825276e+01    0.3668305    0.2971091 -67.63 0.0005108672    1.162    0.140
       177  -9.7197    107.4727     84.5296   5.7308720448e+01   4.4817521431e+01    0.2455632    0.1463016  35.63 6.548381e-06    1.856    0.461
       178  -9.5705    116.9855     83.5465   5.4261347039e+01   4.2915752796e+01      0.22833    0.1502799  48.10 0.0006361302    1.518    0.341
       179 -11.1561     74.4059     82.4351   6.7948935207e+01   5.1982108705e+01    0.3743742    0.2903652  39.84  0.001045482    1.291    0.226
       180 -10.6718     41.8446     81.5117   8.1488039510e+01   5.7250366474e+01    0.3875798    0.2504363  61.04  0.001256507    1.900    0.474
       181 -10.0157     38.1498     77.2057   8.2165618941e+01   5.8807699223e+01    0.3647124    0.1877757  30.37  0.001171952    1.963    0.491
       182 -10.8604     21.5860     81.5622   9.1059682390e+01   5.9320675164e+01    0.3279022    0.2093994 -45.13   0.00160618    1.565    0.361
       183 -10.1914      7.3579     81.2189   9.7878119905e+01   6.0365246016e+01    0.3443362    0.2315173 -53.28   0.00182285    1.400    0.286
       184 -10.0292      2.8324     78.4921   9.9763085173e+01   6.1302654358e+01    0.3011556    0.1585772 -73.23  0.001432978    1.654    0.396
       185  -9.3771     88.9322     77.9425   6.1221659695e+01   5.0181421494e+01    0.2883571    0.1702427  65.92  0.001036083    2.686    0.628
       186 -10.7751     11.9145     56.9891   9.1457236888e+01   6.6435324608e+01      0.37401    0.2282036  58.17 0.0006656967    1.979    0.495
       187 -11.9237     12.1133     47.4646   8.9069080993e+01   6.8830009463e+01    0.7472185     0.409824 -75.64  0.002729585    1.864    0.463
       188 -11.6663      7.4538     73.2393   9.6782722612e+01   6.2465910828e+01    0.6936492    0.2998222  17.38  0.002989328    2.462    0.594
       189 -12.5311      3.3338     64.2147   9.7711314758e+01   6.5023307756e+01     1.150921    0.5684402 -87.54  0.005160101    2.042    0.510
       190 -14.3904     16.6553     67.4477   9.0928285151e+01   6.3408787673e+01    0.7256137    0.5299295 -75.48  0.001330294    1.303    0.232
       191 -11.7133     10.9890     61.8953   9.2994688921e+01   6.5230226573e+01    0.3280312    0.2436187  55.00 0.0002812787    1.494    0.331
       192 -11.6942      3.4750     48.4779   9.4974478715e+01   6.9059134608e+01     0.639128    0.3774989 -77.74   0.00282892    1.605    0.377
       193 -11.3588      7.0370     42.8871   9.1319185079e+01   7.0282863418e+01     1.083706    0.2115056 -72.23  0.003053061    5.116    0.805
       194 -10.0828    184.3233     76.2429   3.7988512349e+01   2.8914182886e+01    0.3111017    0.1455231 -37.20   0.00133645    1.909    0.476
       195 -10.9085     99.8323     76.4920   5.7119437176e+01   4.8176307971e+01     0.269925    0.2151999 -45.06 0.0002510535    1.262    0.207
       196 -12.5160     50.8405     68.5999   7.3709765085e+01   5.9262089539e+01    0.5574352    0.4955762  68.36  0.001877266    1.246    0.197
       197  -9.9544    107.5356     74.4937   5.4092049713e+01   4.6872042147e+01    0.1515373    0.1510595  52.36 -5.607847e-05    1.005    0.005
       198 -11.1577    167.7751     73.3721   3.9905974410e+01   3.3026604498e+01    0.2925123    0.2297529 -43.59 0.0003353303    1.212    0.175
       199 -11.8103     44.5959     74.7058   7.8452889510e+01   5.8634298212e+01    0.3506265    0.2742904  64.84  0.001768516    1.477    0.323
       200  -9.0293    115.2667     71.6660   5.0940432554e+01   4.5650239052e+01    0.1540391      0.11971 -72.62 0.0003957253    1.586    0.369
       201 -11.5206    122.7059     67.0356   4.7423822572e+01   4.4753765956e+01    0.3815341    0.2448089 -40.01 0.0003636804    1.550    0.355
       202 -10.3562    120.4303     60.8513   4.5884987748e+01   4.6404938573e+01    0.3813431    0.2378351  54.77  0.001672486    1.592    0.372
       203  -9.9080     43.3728     67.6254   7.7013951529e+01   6.0570170884e+01    0.2344878    0.2074412  68.39 0.0006024245    1.252    0.201
       204  -9.1781    149.2298     66.9796   4.1451620411e+01   3.8382745034e+01    0.1887447    0.1193326 -35.39 0.0002418412    1.537    0.349
       205 -10.6164    140.0517     66.0537   4.3051524694e+01   4.0742542929e+01    0.2262774    0.2162909  78.64 0.0006473064    1.057    0.054
       206 -10.9812     81.8797     64.8602   5.9284217077e+01   5.4480151337e+01     0.443205    0.3031214  30.48  0.001531179    1.638    0.390
       207 -10.5302     76.9511     62.1029   6.0148835525e+01   5.6083540619e+01    0.3003054    0.2186211  53.48  0.001408413    1.459    0.314
       208 -11.7978      8.2577     32.1105   8.7280065418e+01   7.2827834135e+01    0.5025375    0.3800472  70.03  0.002135072    1.666    0.400
       209 -12.0732     30.1062     62.4213   8.2392087081e+01   6.3486011760e+01    0.6355577    0.6119601  54.62  0.003797077    1.113    0.101
       210 -11.1731     44.7807     43.7945   6.7653683547e+01   6.5942221463e+01    0.5089802    0.3425588 -73.07  0.001605202    2.155    0.536
       211 -11.7346     44.8613     38.1694   6.5070869724e+01   6.7123947435e+01    0.2958551    0.2457297  53.72 -0.0006383859    1.385    0.278
       212 -12.9403     38.2479     49.6340   7.3671360691e+01   6.5598667390e+01    0.8603365    0.7534772   5.45  0.003668716    1.177    0.151
       213 -11.5771     34.8248     42.3171   7.2777437493e+01   6.7742921098e+01    0.9369477    0.4838606 -17.74  0.003037122    4.207    0.762
       214 -10.2636     27.4561     51.2785   8.0548207088e+01   6.6533437641e+01    0.7166009    0.3905862 -70.21  0.003144874    2.034    0.508
       215  -9.2885    160.5072    249.4655   7.5739160011e+01   6.0532474901e+00    0.1120658   0.07984929  14.93 -5.160686e-07    1.059    0.055
       216 -10.7873     18.2652     30.9840   7.9151703087e+01   7.2263973563e+01    0.5498226    0.2516624  25.75  0.002454043    2.220    0.549
       217  -9.3777    130.9876     64.9810   4.4726748936e+01   4.3119702946e+01    0.1829044    0.1667177 -39.85 0.0003589629    1.092    0.084
       218 -11.4218    155.9808     63.4256   3.9077180594e+01   3.7333280468e+01    0.2826568    0.2531604  62.37  0.000373289    1.149    0.130
       219  -9.6319    210.8499     62.5110   3.0917427278e+01   2.5254270700e+01    0.2296411    0.1485437  -1.56  0.001126931    2.179    0.541
       220 -11.8792    201.9830     62.5821   3.1975042899e+01   2.7068984315e+01    0.2401421    0.1993998 -34.91 0.0001557073    1.070    0.066
       221  -9.7681    113.5136     60.9856   4.7746150916e+01   4.8056180148e+01    0.2220663    0.1488432 -41.06 0.0004967203    1.496    0.332
       222 -11.2928     46.4808     59.3567   7.2787225263e+01   6.2136033162e+01    0.6242722    0.2798628 -51.42  0.002477317    2.103    0.525
       223 -10.1307    169.0268     60.0166   3.5839794346e+01   3.4755371168e+01    0.2084201    0.1948378 -44.58 0.0003287797    1.015    0.015
       224 -11.9715    130.6518     50.3086   3.9786438295e+01   4.5608055425e+01    0.7363349     0.572203 -72.80  0.002070208    1.467    0.318
       225  -9.8130    138.0220     60.0523   4.1535166081e+01   4.2227812397e+01    0.2215594    0.1946335 -72.64 0.0003176025    1.198    0.166
       226 -12.2850    133.6107     58.1146   4.1838172416e+01   4.3629777769e+01    0.2824035    0.2595785  70.17 0.0003369871    1.091    0.083
       227 -10.9125     98.1360     60.0076   5.1899630731e+01   5.1873844072e+01    0.2822283    0.2383208  44.52 0.0003810303    1.175    0.149
       228 -12.3069    105.1076     52.4460   4.6935155680e+01   5.1605291695e+01    0.4161993    0.3445681 -89.35 9.696931e-05    1.408    0.290
       229 -10.6416    100.2550     55.5549   4.9562623780e+01   5.2212040365e+01    0.3961785    0.2050107  40.64 0.0009967097    2.116    0.527
       230 -10.5624    102.5825     47.4619   4.5710358269e+01   5.3075471698e+01    0.4334113    0.2434888  40.09   0.00176031    1.975    0.494
       231  -9.9091    127.3857     58.9636   4.3536850605e+01   4.5025088302e+01    0.2222407    0.1949451  58.25 0.0001155038    1.135    0.119
       232 -11.0983     86.2105     58.7595   5.5432135027e+01   5.4809986283e+01    0.3971978    0.2026694  46.37  0.001571726    1.938    0.484
       233 -10.9187     58.2536     58.7939   6.6872982904e+01   6.0362011999e+01    0.3480898    0.2836726  32.07  0.001088725    1.246    0.197
       234  -9.5983     69.7274     58.6447   6.1760566792e+01   5.8268348956e+01    0.1530263    0.1171402 -12.94 0.0006388068    1.642    0.391
       235  -9.8428    167.7392     69.4530   3.8792287236e+01   3.3642975293e+01    0.2016241    0.1425783  58.86 0.0003854902    1.486    0.327
       236 -10.6877     80.9466     55.5454   5.6103988038e+01   5.6598832403e+01    0.4713894     0.309258  -5.59  0.001795918    2.696    0.629
       237 -10.1583    115.4843     56.4998   4.5608962426e+01   4.8370241713e+01    0.3056895    0.1485638  55.36  0.001001391    2.041    0.510
       238  -9.7802     75.0498     56.1032   5.8600553511e+01   5.7732004271e+01     0.224943    0.1961185   6.75 0.0005365651    1.273    0.214
       239  -9.3616    230.2586     55.0068   2.7131748745e+01   2.2391180086e+01    0.1625827   0.08970108 -30.52 0.0007406864    1.508    0.337
       240 -10.5307    182.1196     54.8108   3.2427499618e+01   3.2455715806e+01    0.2165567     0.180039 -33.17 0.0003419597    1.133    0.118
       241  -9.4613    176.6814     55.7057   3.3437168236e+01   3.3582877629e+01    0.1369375    0.1067228  23.67 0.0002835059    1.608    0.378
       242 -10.3167     89.7981     54.5883   5.2562617188e+01   5.4821656069e+01    0.2183297    0.1444096  61.90 0.0006374341    1.721    0.419
       243  -9.8959     61.8931     53.0098   6.2960048467e+01   6.0977769631e+01    0.2572459    0.1712905 -54.41 0.0009628842    1.599    0.374
       244  -9.3512    153.6962     52.6843   3.6136844933e+01   3.9504341612e+01    0.1452706    0.1122513  23.05 0.0007024329    1.621    0.383
       245  -9.5012    120.0099     52.4796   4.3003848115e+01   4.7929655926e+01    0.2107727     0.119331  35.35  0.000351398    2.286    0.562
       246 -10.6760     75.7144     50.7895   5.6186448328e+01   5.8664203145e+01    0.5841587    0.2594183  39.85  0.002150126    2.380    0.580
       247  -9.5907     78.4639     47.4491   5.3714749610e+01   5.8713599220e+01     0.243542     0.145319 -38.44 1.573648e-05    1.712    0.416
       248  -9.5692     56.9995     43.9916   6.1427589307e+01   6.3780110503e+01    0.2127045    0.1783908  85.92  0.001086052    1.567    0.362
       249 -12.0342     36.9747    242.8771   1.0029183455e+02   2.0687805551e+01    0.5146109    0.2761111  78.96  0.002514058    2.152    0.535
       250 -11.3604     51.8214     47.0654   6.5335886150e+01   6.4065555980e+01    0.7200201     0.302338 -50.00  0.002739222    2.384    0.581
       251 -10.6648     57.1740     50.5466   6.4154552965e+01   6.2373075474e+01    0.3115669    0.2420026 -64.32  0.001553494    1.490    0.329
       252 -10.9018     61.2590     47.8852   6.1120439638e+01   6.2175826654e+01    0.5390825    0.2866188  40.39  0.001719381    1.882    0.469
       253  -9.8170     88.8308     50.1544   5.1113988176e+01   5.5873327872e+01     0.225016    0.2060079  87.35 0.0004546462    1.198    0.165
       254  -9.7853     82.6568     46.1061   5.1586047704e+01   5.8026327059e+01     0.438097      0.14279 -37.68  0.001392286    3.206    0.688
       255  -9.5968    143.1868     45.7716   3.5733978623e+01   4.3117777659e+01    0.1924816    0.1698628  20.81 0.0006176527    1.302    0.232
       256 -10.0809    120.5866     45.6444   4.0340654848e+01   4.8871530504e+01    0.3706324    0.2514689  22.04 0.0007650792    2.058    0.514
       257  -9.3731    121.5055     41.4415   3.8546964310e+01   4.9268965105e+01     0.244093    0.1502347 -15.83 0.0008214416    2.073    0.518
       258 -10.4637    112.8835     45.1079   4.2002070259e+01   5.0900973577e+01    0.3604649    0.2717861  22.77  0.001158313    1.644    0.392
       259  -9.4318    171.3638     44.7555   3.0968545213e+01   3.6305052457e+01    0.1819532    0.1298617 -16.91 0.0009126164    1.563    0.360
       260 -10.4833    150.5473     44.2049   3.3929592739e+01   4.1485438810e+01    0.5132993    0.2396322 -58.90  0.001791785    3.089    0.676
       261 -10.1992    148.0759     38.9197   3.2577172651e+01   4.2818984478e+01     0.223859    0.1975878 -70.18 0.0004529137    1.111    0.100
       262 -11.0221     95.8643     42.7701   4.5777766257e+01   5.5497441609e+01    0.4225494    0.2982547  -5.85 0.0004475812    1.930    0.482
       263  -9.1697    217.9861     43.2191   2.5410121768e+01   2.6162429902e+01    0.1431483     0.102004  75.63 0.0003667315    1.586    0.369
       264 -10.3927     61.7585     40.8587   5.7754510345e+01   6.3483949804e+01    0.5852882    0.2078983  47.72  0.001995962    2.948    0.661
       265 -10.8098     72.6810     42.7675   5.3927555847e+01   6.0850738488e+01    0.3273246    0.2790861  70.83  0.001704303    1.349    0.259
       266 -11.7857     75.4277     34.9920   4.9233492599e+01   6.1615604069e+01    0.5195754    0.3537324  29.69  0.001128598    1.683    0.406
       267 -11.0770     79.5903     28.2715   4.4439639817e+01   6.1709919092e+01    0.4434828    0.2744446 -24.49  0.001206774    1.794    0.442
       268 -10.7489     67.3777     41.1906   5.5414964582e+01   6.2272672590e+01    0.2490506    0.2198711 -47.35 0.0006917195    1.184    0.156
       269 -10.5954     67.4347     35.9851   5.2926613371e+01   6.3212286112e+01    0.4689287    0.3292062 -66.94  0.002112198    2.058    0.514
       270  -9.2620    163.0311     42.0121   3.1295455177e+01   3.8681123444e+01    0.1647189    0.1543067 -66.91 0.0009562367    1.016    0.015
       271 -10.0405    130.3652     41.2603   3.6603072736e+01   4.7023997901e+01    0.2469728    0.1758654  23.46  0.001125078    1.840    0.456
       272  -9.9489     89.6017     41.3022   4.7123448048e+01   5.7250465186e+01    0.2642392    0.1819012  64.91 0.0006635889    1.591    0.372
       273 -10.8206     80.6701     37.2883   4.8378413523e+01   6.0026154634e+01    0.4675281    0.2956727 -67.42  0.001852928    2.580    0.612
       274 -10.8985     82.4586     34.3087   4.6361273032e+01   6.0094373049e+01    0.3195682    0.2898476  74.73 0.0009291178    1.178    0.151
       275 -10.7403    225.2609     38.0957   2.3554550235e+01   2.5288393696e+01    0.2408159    0.1282413 -44.04 0.0009342684    1.550    0.355
       276  -9.2375    160.0003     38.2127   3.0531547104e+01   3.9917176062e+01    0.1811115    0.1122174  68.75 0.0003570578    1.633    0.387
       277 -10.9367    101.1912     36.5124   4.1583551224e+01   5.5167443517e+01    0.3118706    0.2640463   6.21 0.0004525441    1.362    0.266
       278 -10.2146    248.1323     36.8129   2.1615452397e+01   2.1148474925e+01    0.1781135    0.1217143 -47.22 0.0004601746    1.201    0.168
       279 -10.8837    111.0631     34.5311   3.8229356891e+01   5.2943714702e+01    0.3589865    0.3208723  89.05  0.001009601    1.147    0.128
       280  -9.6240      1.4761     36.9696   9.3870285902e+01   7.2013776541e+01    0.1964041    0.1147251 -68.38 0.0006796786    1.523    0.343
       281  -9.1990    237.3037     36.2950   2.2233994861e+01   2.3173680018e+01    0.1069688   0.08821338  12.00 0.0002315244    1.579    0.367
       282 -10.0709    193.5616     35.1362   2.5611869034e+01   3.2318735191e+01    0.4200318    0.1231985 -47.65  0.001002978    3.355    0.702
       283  -9.7534    171.7889     36.2775   2.8363729488e+01   3.7269588919e+01    0.2853804     0.135784  46.01  0.001165173    2.559    0.609
       284  -9.7137    164.8289     36.6487   2.9372934420e+01   3.8920214874e+01    0.1963332    0.1274744  86.09 0.0007358073    1.698    0.411
       285 -10.0150    128.7745     35.9195   3.4950289303e+01   4.8173309254e+01    0.2166142    0.1950545  33.01 0.0004759623    1.211    0.174
       286 -10.3182    177.8646     34.1775   2.7014845975e+01   3.6065093784e+01    0.2935123    0.1924574 -21.03  0.001486799    1.614    0.380
       287 -10.6562    140.1233     33.9707   3.2184132906e+01   4.5494517369e+01    0.2451007    0.2009353 -63.62 0.0003540953    1.228    0.186
       288  -9.7773    135.1458     34.8838   3.3376318133e+01   4.6661814312e+01    0.2281228    0.1840551 -66.91 0.0006411177    1.283    0.220
       289 -10.0986    202.0404     34.0328   2.4505657123e+01   3.0564503918e+01    0.1926141    0.1662252 -46.98 0.0003548696    1.015    0.015
       290 -10.6283    206.3408     31.9713   2.3585813563e+01   2.9862933585e+01    0.3194971    0.1324415  50.66  0.001371003    2.992    0.666
       291  -9.5174     34.3231     33.6907   6.9232648561e+01   6.9702541004e+01    0.2590198    0.1686134 -62.96  0.001195539    1.853    0.460
       292  -9.7402     30.6363     32.3552   7.0995265887e+01   7.0503497717e+01    0.3150638    0.2185115  53.33 0.0009053844    1.868    0.465
       293 -11.2620    221.6388     31.8722   2.2331813215e+01   2.6688561931e+01      0.23278     0.173883 -38.34  0.000290576    1.117    0.104
       294 -10.3111    122.0991     32.7899   3.5092705073e+01   5.0324489540e+01    0.5273156    0.1916386  60.97  0.001875991    2.546    0.607
       295  -9.1996    161.2658     32.3979   2.8504775160e+01   4.0319551900e+01    0.1408645    0.1058362  21.67 0.0006975979    1.726    0.420
       296 -10.7534    101.8183     29.4242   3.8348350772e+01   5.6024392976e+01    0.4309349    0.2987448 -53.43  0.002037386    1.610    0.379
       297 -10.3014     71.7377     29.4576   4.7922173472e+01   6.3359276011e+01    0.3994865    0.2041376 -48.94 0.0009201505    2.382    0.580
       298 -10.3795     49.7305     29.0503   5.7790149345e+01   6.8041905656e+01    0.4592743    0.2612513 -29.55  0.001631946    1.998    0.500
       299 -11.7331     28.6376    245.6894   1.0213920747e+02   2.0985102605e+01    0.4256969    0.2076514  70.53  0.002582059    2.167    0.538
       300  -9.7279    125.0251    245.7225   8.2178275518e+01   1.0655184329e+01    0.1464105   0.07695315  29.47  0.000506398    1.428    0.300
       301 -10.7335     73.0087    244.5038   9.2802817011e+01   1.6754754511e+01    0.2500745    0.1646595  12.85  0.001544422    1.634    0.388
       302 -12.9591     75.6357    238.7509   9.1822813459e+01   1.7404011994e+01     0.549077    0.5118727  11.48  0.003893282    1.262    0.208
       303 -10.1022    109.8989    249.3590   8.5577868806e+01   1.1886109858e+01     0.170647    0.1493394  50.18  0.001316913    1.351    0.260
       304 -10.1366    195.3814    238.4392   6.8085844822e+01   3.4370308493e+00    0.1953159    0.1363707  -2.68  0.001054885    1.195    0.163
       305 -10.4813    159.9992    235.6676   7.4160515282e+01   7.8732842796e+00    0.1656402    0.1142539  19.78 0.0004583783    1.108    0.097
       306  -9.9267     23.9168    232.1812   1.0262282106e+02   2.3752516144e+01    0.2725464    0.1280757  22.22  0.001293323    1.987    0.497
       307  -9.1308    115.6714    235.3197   8.3008828455e+01   1.3294661520e+01    0.1171462   0.07513227  48.61 0.0007047663    1.686    0.407
       308 -10.8775     87.5008    233.3036   8.8819238594e+01   1.6960097622e+01    0.2554689    0.1268955  45.12  0.001410069    1.782    0.439
       309 -10.8091     30.4842    234.2275   1.0129131542e+02   2.2792274220e+01    0.3694425    0.1498105  61.09  0.001941511    2.416    0.586
       310  -9.0561    144.7485     30.2958   3.0151867568e+01   4.4760044691e+01    0.1807748    0.1701775  -2.22 0.0001559284    1.188    0.158
       311 -10.3041    144.9597     26.5418   2.8812113750e+01   4.5150808430e+01    0.4084206     0.171933  64.69   0.00132572    2.229    0.551
       312 -10.2879    184.1734    230.2233   6.8948744180e+01   5.6939686165e+00    0.1970666   0.09908501  -0.95 0.0009597918    2.884    0.653
       313 -10.9382    162.8244     28.4889   2.7061566301e+01   4.0390097144e+01    0.2564262    0.2261624 -50.04 0.0004312459    1.066    0.062
       314 -11.2470    238.3724     26.9331   2.0029031234e+01   2.3951239955e+01    0.3648497    0.1978059 -12.83  0.001251717    2.284    0.562
       315 -10.3303    156.8425     28.1177   2.7702323965e+01   4.1932626972e+01    0.2248787    0.1865634  81.37 0.0003047085    1.182    0.154
       316 -10.0296    139.5870     27.5541   2.9984824398e+01   4.6423795718e+01    0.2379852    0.1993482 -74.20 0.0006891717    1.186    0.157
       317 -11.3528    112.5001     27.0642   3.4810688151e+01   5.3570104733e+01    0.3601448    0.3090847  21.52  0.001925447    1.310    0.237
       318  -9.9106    246.6628     27.3098   1.9616938961e+01   2.2389000075e+01    0.1246151    0.0643317 -52.48 0.0003723983    1.683    0.406
       319 -10.6441    214.7670     25.5950   2.1294013586e+01   2.8762950239e+01    0.2839315     0.245878  38.20  0.001167158    1.457    0.314
       320  -8.9959    179.7036     27.2656   2.4786932128e+01   3.6418081839e+01     0.137608   0.08942249 -60.16 0.0002737521    1.512    0.339
       321  -9.7756    123.3113     26.8974   3.2547529301e+01   5.0758765778e+01    0.2477313    0.1967403  89.78  0.001276183    1.299    0.230
       322 -10.2908    226.4599     23.6226   2.0009923835e+01   2.6586790748e+01    0.2933451    0.1364839 -30.40  0.001417741    1.770    0.435
       323  -9.6973    203.8241     24.3265   2.1799867955e+01   3.1231186682e+01    0.2428493     0.078995 -28.88 0.0009860073    2.580    0.612
       324  -9.7054     72.2902     25.1591   4.5487023837e+01   6.3893719128e+01    0.3866853    0.1710862  43.48  0.001492678    2.281    0.562
       325 -10.5945     22.5571     24.1275   7.2627728684e+01   7.3289725260e+01    0.3017264    0.2105379 -11.47 0.0005754781    1.600    0.375
       326  -9.6881     24.1601     20.3825   6.9326700885e+01   7.3854251875e+01    0.1813218    0.1666298  -0.79 0.0004253862    1.064    0.060
       327  -9.2205     59.4996    229.0020   9.4642062627e+01   2.0827837405e+01    0.1414841   0.08849134 -37.66 0.0008073123    2.345    0.574
       328  -9.7874    151.5266    228.4827   7.4896613014e+01   9.8853331537e+00    0.1177469   0.09081823  18.26 0.0002016198    1.011    0.011
       329 -10.8089    165.5114     16.5367   2.2975869610e+01   4.1008826218e+01    0.2756631    0.1986865  58.19 0.0005970707    1.456    0.313
       330 -11.5589    159.0364     23.9038   2.6051168969e+01   4.1854702634e+01    0.4401527    0.2681534 -72.61 0.0003410588    1.818    0.450
       331 -10.3872    161.5334     20.4972   2.4659481039e+01   4.1594218130e+01    0.2797725    0.2254875 -17.50 0.0008138231    1.361    0.265
       332 -10.6343      4.3613    225.6687   1.0663657411e+02   2.6577426409e+01    0.3025097     0.177247 -62.56  0.001933548    2.193    0.544
       333  -9.3657     97.3169     23.6867   3.6922504177e+01   5.7935292436e+01    0.2312164    0.1486875  69.35 0.0003964847    1.582    0.368
       334 -11.0153     93.9887     22.0757   3.7039761095e+01   5.8991663130e+01    0.2513456    0.2382494  57.03 0.0003404757    1.003    0.003
       335 -11.1007     59.2055     21.3988   4.8820692893e+01   6.7402582425e+01    0.4051026    0.2871459  73.45 0.0006621576    1.946    0.486
       336  -9.9151     54.2777     23.0238   5.2085857326e+01   6.8186898453e+01    0.2169723    0.1774341  41.83 0.0001739403    1.186    0.157
       337 -10.7785     83.8804     21.5577   3.9673814128e+01   6.1606042102e+01    0.4181292    0.2478586  45.65  0.001641655    1.637    0.389
       338  -9.3539    190.6700    226.6844   6.7293363502e+01   5.3648112799e+00    0.1171318   0.06898162   2.32 0.0007045717    1.680    0.405
       339 -10.4837     67.6310    236.0602   9.3349999613e+01   1.8729862243e+01    0.2372762    0.1442539  23.72  0.001461193    1.449    0.310
       340 -10.0648    113.3855    223.0875   8.2171137594e+01   1.5505846541e+01    0.2379282    0.1267773  52.27  0.001199277    2.381    0.580
       341 -10.7807    194.5518     16.8072   2.0508198132e+01   3.4064632236e+01    0.2819562    0.1814119  80.07 0.0005475399    1.593    0.372
       342 -11.0625     15.4944    221.9965   1.0410095587e+02   2.6352983265e+01    0.2830365    0.1302489  37.10 0.0009714317    1.582    0.368
       343  -9.4465    142.3244    220.6788   7.5749630992e+01   1.2184361905e+01    0.1146139   0.08425032  49.14 0.0005331136    1.680    0.405
       344  -9.7721     99.5840     20.4276   3.4854199392e+01   5.7752540177e+01    0.2827141    0.1472171 -52.74 0.0007151187    2.384    0.581
       345  -9.9424     74.3820     21.0209   4.2526098925e+01   6.3992097947e+01    0.2332026    0.1911797  70.78 0.0005516227    1.314    0.239
       346 -10.8124     66.7269     20.7536   4.5256868896e+01   6.5821016380e+01    0.4105556    0.2460683  71.08  0.001136239    2.287    0.563
       347  -9.8324     33.9447     19.7271   6.1866443382e+01   7.2530379263e+01    0.2035557    0.1610776 -36.78 0.0001960341    1.241    0.195
       348  -9.5068    126.3119    220.6416   7.9102433368e+01   1.4253330324e+01    0.1188678   0.08401055  53.03 0.0007042945    1.741    0.426
       349 -11.8720     89.4075    249.3982   8.9761285592e+01   1.4191680574e+01     0.312552    0.1933087  27.06 0.0009729294    1.257    0.205
       350 -10.6979     21.8303    219.8382   1.0260532093e+02   2.6212443894e+01    0.1780263    0.1589672  39.34 0.0006039296    1.197    0.165
       351  -9.3764    145.3922     20.2510   2.6549668710e+01   4.5740746437e+01    0.1465502   0.09729458  44.76 0.0006952388    1.680    0.405
       352 -10.5922     24.1018    216.0707   1.0193338327e+02   2.6730269648e+01    0.1784691    0.1432664  48.55 0.0004752424    1.039    0.037
       353 -10.9408     42.4242     19.0224   5.6074954671e+01   7.1173608420e+01    0.4589322     0.216975  46.66  0.001271872    2.163    0.538
       354  -9.6396    211.8400    219.1640   6.2556591220e+01   3.8025076526e+00    0.1567728    0.1006873   0.11 0.0009994106    1.309    0.236
       355 -10.0941    108.5492     17.3614   3.1486660215e+01   5.5756728833e+01    0.2435101    0.1942894  22.72 0.0008143589    1.437    0.304
       356  -9.5636    120.7753    219.4255   8.0145804533e+01   1.5160451345e+01    0.1689002   0.09877076  20.74 0.0007014668    1.573    0.364
       357 -10.0241    192.0000    217.9861   6.5802356574e+01   6.2860420356e+00    0.1677832   0.05958477 -38.51 0.0008105189    2.999    0.667
       358  -9.8316     38.2708    217.3640   9.8733503184e+01   2.5152183968e+01    0.2226108   0.09973522  22.55 0.0009263908    2.118    0.528
       359 -11.9252     10.6328    216.5019   1.0501224313e+02   2.7800063965e+01    0.4672436    0.2531008  15.21   0.00268477    2.044    0.511
       360 -11.2766     11.5821    209.2276   1.0456429885e+02   2.9141483694e+01    0.4267853    0.1903473  74.68  0.002265021    2.221    0.550
       361 -12.2522      5.6550    208.8792   1.0592549154e+02   2.9682792659e+01    0.5016986    0.2845752 -78.73  0.003080875    1.901    0.474
       362 -10.7543      1.4874    210.9987   1.0693238993e+02   2.9584724064e+01    0.2640053    0.1476547 -88.34  0.001045812    1.828    0.453
       363 -10.4038      1.6026    206.7540   1.0680580141e+02   3.0413902371e+01    0.2038453    0.1519387  65.28 0.0008198601    1.155    0.134
       364  -9.4942     83.8747     13.5891   3.5569835838e+01   6.2578499741e+01    0.1963398    0.1331402  79.88 0.0005468503    1.665    0.399
       365 -10.9841     29.1442    215.4923   1.0074591993e+02   2.6381919595e+01    0.2487239    0.1790064  40.17  0.001151488    1.100    0.091
       366  -9.6193    136.6132    215.7076   7.6292717605e+01   1.3690912221e+01    0.1274442   0.08247587   3.38 0.0007013329    1.765    0.433
       367 -10.8563    169.5240    212.1663   6.9127138526e+01   9.8929751835e+00    0.2508968    0.1757519 -14.63  0.001211056    1.428    0.299
       368 -10.2687    108.9719    211.9308   8.1867718187e+01   1.7948261893e+01    0.4305768    0.1057329  37.81  0.001474992    3.142    0.682
       369  -8.9577     79.7044    211.3276   8.8566593748e+01   2.1747651960e+01    0.1277792   0.07951757  53.92 0.0004715049    1.630    0.386
       370 -11.1706    237.1038    209.2698   5.7028426325e+01   2.0887208735e+00    0.1838492    0.1108649 -11.83 0.0006756881    1.356    0.263
       371 -10.1766    173.6602     20.3071   2.3326077307e+01   3.8619034206e+01    0.1478346   0.08722813 -59.51  0.000523167    1.683    0.406
       372  -9.0351     40.2839     10.3713   5.1598448666e+01   7.2952382429e+01    0.1411512   0.09869201   6.67 0.0007016691    1.704    0.413
       373  -9.6636    184.7997    208.4433   6.5677053658e+01   8.4292504291e+00    0.1681472   0.09197088  19.68 0.0009410178    1.683    0.406
       374 -11.2422    192.5231     20.2855   2.1622833711e+01   3.4174587471e+01    0.3007223    0.2115271 -59.06  0.001721907    1.300    0.231
       375 -10.0768    247.4008    206.1774   5.5019668787e+01   1.3130937524e+00    0.1982448    0.0792777 -36.45  0.001108066    2.636    0.621
       376 -11.0739     19.7693    200.7277   1.0229029213e+02   3.0169178277e+01    0.5613822     0.168833 -72.44  0.002450333    3.370    0.703
       377 -10.7571    175.2302    202.2776   6.6529363020e+01   1.0543931917e+01     0.223436    0.1697597  25.29 0.0004434987    1.190    0.159
       378 -11.0701     88.7688    240.9271   8.9201250787e+01   1.5579270255e+01    0.2023308    0.1472886 -41.77  0.001382409    1.780    0.438
       379  -9.0570     53.2507    202.3267   9.4160391028e+01   2.6554862350e+01    0.1106994   0.09238778 -28.04 0.0002703918    1.545    0.353
       380  -9.5289    238.5367    200.5293   5.5426966711e+01   2.8939764977e+00    0.1099787   0.07834554  -2.77 0.0002551535    1.019    0.018
       381  -9.6439     58.2266    196.0111   9.2398974233e+01   2.7288408530e+01    0.2133119     0.121446 -15.72 0.0008625435    3.549    0.718
       382  -9.8745    215.4969    194.1417   5.8005817016e+01   6.3824775143e+00    0.1616137   0.09637318 -26.69  0.001008967    1.522    0.343
       383 -11.5948     15.6814    192.9999   1.0296520732e+02   3.2130696975e+01    0.3606671    0.2316268  24.32  0.001353449    1.498    0.333
       384 -10.0252    186.6709    192.7013   6.2821722663e+01   1.0355811413e+01    0.1258172   0.07994205   2.09  0.000260081    1.639    0.390
       385  -9.1134     38.6835    190.6895   9.6976799476e+01   3.0508190536e+01    0.1171653   0.09427375 -26.49 0.0007032626    1.637    0.389
       386  -9.9794    163.4339    188.7289   6.6696814412e+01   1.4231783879e+01    0.2206734    0.1218439 -46.07   0.00113869    2.102    0.524
       387  -9.9798    244.7617    188.1962   5.2483588812e+01   3.5721517189e+00    0.1537012   0.09729895  -3.39 0.0004768931    1.327    0.246
       388  -9.2487    226.3188    188.3248   5.5286187311e+01   5.7545002494e+00    0.1192038   0.07055673  -0.79 0.0004082787    1.675    0.403
       389  -9.7558     61.9725    184.7172   9.0378528393e+01   2.9231025534e+01    0.1865232    0.1586571  43.86  0.001157144    1.013    0.013
       390 -12.0814     15.9914    181.7000   1.0237886397e+02   3.4553208042e+01    0.4910105    0.2348392  43.42  0.002245483    1.680    0.405
       391  -9.8759    167.5147    183.0170   6.4907695662e+01   1.4535802281e+01    0.1813597    0.1198984 -36.71  0.001027142    1.574    0.365
       392  -9.6652    142.7097    183.6768   7.0283711496e+01   1.8141020268e+01    0.1320028   0.09372998  -3.91 0.0003317972    1.609    0.379
       393  -9.6599      1.7984    180.1577   1.0603691846e+02   3.5978562661e+01    0.1475051    0.1388724 -53.48  0.000719238    1.334    0.250
