#   1 NUMBER                 Running object number                                     
#   2 MAG_AUTO               Kron-like elliptical aperture magnitude                    [mag]
#   3 X_IMAGE                Object position along x                                    [pixel]
#   4 Y_IMAGE                Object position along y                                    [pixel]
#   5 X_WORLD                Barycenter position along world x axis                     [deg]
#   6 Y_WORLD                Barycenter position along world y axis                     [deg]
#   7 A_WORLD                Profile RMS along major axis (world units)                 [deg]
#   8 B_WORLD                Profile RMS along minor axis (world units)                 [deg]
#   9 THETA_WORLD            Position angle (CCW/world-x)                               [deg]
#  10 FWHM_WORLD             FWHM assuming a gaussian core                              [deg]
#  11 ELONGATION             A_IMAGE/B_IMAGE                                           
#  12 ELLIPTICITY            1 - B_IMAGE/A_IMAGE                                       
         1 -10.3922    155.9511     12.3770   7.4076795758e+01   4.4395450961e+01     0.391248    0.2428048  10.50  0.001685039    2.063    0.515
         2 -11.7366    196.1506     10.8985   6.8550011981e+01   3.3929641467e+01    0.2380292    0.1836095 -23.46  0.001274544    1.293    0.227
         3  -9.6762    188.9392     11.9659   6.9651965503e+01   3.5686800861e+01     0.157801    0.1340247 -25.40 0.0003044889    1.180    0.152
         4 -11.5938    106.8428      8.7212   8.2091432106e+01   5.7578490616e+01    0.2796381     0.230608 -43.24 0.0008561581    1.329    0.247
         5 -12.0640    208.6111      4.1921   6.5395816147e+01   3.1408204287e+01    0.3711873     0.235912  -9.70  0.001399883    1.747    0.428
         6 -11.7293    196.5964      4.8262   6.6658100984e+01   3.4383640225e+01    0.3462531     0.233593 -54.42  0.001644532    1.482    0.325
         7 -13.3367     60.2362    174.0275   1.3868721127e+02   3.2502508016e+01    0.3800133    0.3293603 -80.35 0.0009695676    1.239    0.193
         8 -18.9753    228.2160     75.0045   8.2629110938e+01   1.8734182906e+01     15.70974     7.462288 -34.30   0.06972954    1.896    0.473
         9 -11.3722    120.1276    111.9267   1.1397110395e+02   3.6219000286e+01    0.3279525    0.2066972  62.17  0.001431541    2.008    0.502
        10 -10.7789    142.2846    109.0369   1.0773396096e+02   3.2342141301e+01    0.2656245    0.2056404  55.62 0.0001983561    1.348    0.258
        11 -10.5385     23.5152    104.9601   1.4128792101e+02   5.1314408882e+01    0.2497937    0.1600374  74.44  0.001337069    1.524    0.344
        12 -13.7233    165.9322    102.2634   1.0066034377e+02   2.8492367812e+01     1.094121     0.439547 -35.30  0.003982241    2.591    0.614
        13 -13.5894    152.4789     92.0231   1.0092129872e+02   3.3318524787e+01    0.8645503    0.6703267  16.65  0.004196399    1.518    0.341
        14 -13.8651    162.7503     82.8883   9.6092304050e+01   3.2573540554e+01     1.003704    0.7023888 -37.01  0.004752727    1.426    0.299
        15 -10.9923    112.2955    103.9202   1.1417675197e+02   3.9390965203e+01    0.2875678    0.2157706  34.83   0.00112071    1.384    0.278
        16 -12.4486    121.3473    101.5771   1.1116126511e+02   3.8114685700e+01    0.4413856    0.3671341   9.01  0.002276278    1.445    0.308
        17 -11.7186    143.4486     99.4796   1.0503594714e+02   3.3922265495e+01    0.3526554    0.2952512 -20.59 0.0006325133    1.293    0.226
        18 -11.0405    131.1171     96.2086   1.0723075460e+02   3.7192611682e+01    0.3084647    0.2624271 -74.62 0.0005155211    1.379    0.275
        19 -12.1355    169.1188     76.7880   9.3011349521e+01   3.2090704307e+01    0.3070754    0.2753702 -43.36 0.0004422762    1.151    0.131
        20 -10.3216    113.3323     94.9800   1.1165426935e+02   4.1074825001e+01    0.2034511    0.1851477 -47.55 0.0003762823    1.102    0.093
        21 -14.3492     66.7622    168.1614   1.3662848653e+02   3.2863491460e+01     0.942729    0.6770021  42.23  0.003037653    1.269    0.212
        22 -11.5641    136.2101     88.7931   1.0392354236e+02   3.7546048851e+01    0.3595668    0.3028487  65.48 0.0007579126    1.307    0.235
        23 -12.5887    147.8704     82.3056   9.9249843439e+01   3.6134672311e+01    0.3535382    0.2815344 -36.60 0.0006027087    1.260    0.207
        24 -13.8687     71.5251    161.9347   1.3483855453e+02   3.3507689651e+01     0.790296    0.5201566  55.38  0.001741759    1.369    0.270
        25 -10.9831    142.9490     79.3232   9.9541570422e+01   3.7811430441e+01    0.2126374    0.1914176  42.66 0.0003882197    1.101    0.092
        26 -12.2622    189.5173    148.3513   1.0637795881e+02   1.6129905711e+01    0.3115039    0.2328899 -68.65  0.001575793    2.310    0.567
        27  -9.7414    112.8660     71.7984   1.0516739962e+02   4.5934957740e+01    0.1981907    0.1762366 -81.70 0.0003003899    1.289    0.224
        28 -13.6418    159.9197     67.3994   9.2101199222e+01   3.5851076947e+01    0.6708638    0.5035226  56.34  0.001633389    1.357    0.263
        29 -11.9356    121.9543     68.2162   1.0148296233e+02   4.4658722389e+01    0.4123342    0.2581783  47.59    0.0018277    1.602    0.376
        30 -11.9740    188.4466     59.1180   8.4251550745e+01   3.0093455636e+01    0.8747833    0.6867272  -4.66  0.004414595    1.389    0.280
        31  -9.7535    215.3089    174.0341   1.0660348652e+02   8.1029999947e+00    0.1609464    0.1321873   5.92 0.0002559574    1.078    0.072
        32 -10.7350    133.5300    145.1408   1.1757105006e+02   2.7127133329e+01    0.6148291    0.1393675 -54.29  0.001374504    8.961    0.888
        33 -10.2906     89.0770    170.6875   1.3180220788e+02   2.9387460684e+01    0.1752111    0.1407335  46.35 0.0003296357    1.105    0.095
        34 -10.5001    160.8086    138.9407   1.1026563671e+02   2.3127068673e+01    0.2626405    0.1775714  66.28 0.0009167196    2.114    0.527
        35  -9.0783    101.6829    136.7096   1.2376614732e+02   3.4319824647e+01    0.1290886    0.1075667  -6.75 0.0004107814    1.597    0.374
        36 -11.9851     76.2900     51.1487   1.1018813489e+02   5.7243089181e+01    0.4519015    0.2104388  27.21  0.001592818    3.374    0.704
        37 -11.4661    207.5414     43.8841   7.6988119877e+01   2.7429112776e+01     0.262181      0.22966 -33.90 0.0004493596    1.082    0.076
        38 -10.0419    203.2140     43.1652   7.7352769629e+01   2.8573149108e+01    0.2989338    0.2185535 -72.30 0.0009278923    1.637    0.389
        39 -11.8107    205.6221     38.8802   7.5793863452e+01   2.8503358011e+01     0.542896    0.4185887  75.16  0.002868456    1.397    0.284
        40 -10.3587     35.3061     49.3308   1.2657434691e+02   6.3317466814e+01    0.2394829     0.180718 -73.33  0.001391359    1.357    0.263
        41 -10.8125    135.9163    129.9658   1.1400944846e+02   2.9577462398e+01     0.411883     0.163016 -46.67  0.001571591    2.685    0.628
        42 -12.5920    201.6870     48.9338   7.9237997560e+01   2.8220183397e+01    0.4586392    0.3480024  35.74  0.001684949    1.428    0.300
        43 -12.8186    160.5396    128.1373   1.0801346098e+02   2.5069341842e+01    0.4625909    0.3921812 -47.87  0.001677314    1.302    0.232
        44 -11.3714    212.2473     46.7927   7.7202788443e+01   2.5940591892e+01    0.1996869    0.1885922  81.80  0.000646448    1.132    0.117
        45  -9.8325    164.9867     45.4480   8.4080437716e+01   3.7941459847e+01    0.2143842    0.1964336 -27.03 6.257776e-06    1.085    0.078
        46 -11.2821    138.2380    103.6029   1.0736133084e+02   3.4239662967e+01    0.2921258    0.2402048  28.45  0.001043899    1.272    0.214
        47 -10.8814    175.8560     38.2858   7.9868593954e+01   3.6105732050e+01    0.2149539    0.1869751 -46.91 0.0002887397    1.164    0.141
        48 -12.0961    136.0068    121.3698   1.1213006918e+02   3.1226926516e+01     0.606873    0.3769171 -63.03  0.002654364    2.179    0.541
        49 -12.6479    134.5500    107.6072   1.0926919224e+02   3.4221772555e+01     1.182634    0.2961075 -45.77  0.003422301    4.162    0.760
        50 -10.8050    203.8991     30.6161   7.3593919490e+01   2.9892621100e+01    0.2973689    0.1655978 -50.87  0.001114538    1.923    0.480
        51 -11.6264     99.8527     30.6625   9.3944229418e+01   5.6258283697e+01    0.2537895    0.2019748 -14.01 0.0008678041    1.299    0.230
        52 -10.8530    212.2390     27.8163   7.1828178521e+01   2.8151236993e+01    0.3113952    0.2300779 -32.88  0.001194376    1.260    0.206
        53 -10.4018    195.7165     29.3136   7.4212486804e+01   3.2096402065e+01     0.180646    0.1608032 -41.38  0.001002134    1.088    0.081
        54 -12.2397    102.2481     22.3803   8.9600608747e+01   5.6949629253e+01    0.3845851    0.3427888 -59.63  0.002119394    1.301    0.232
        55 -11.7232    156.0292    116.4755   1.0634279200e+02   2.8082809915e+01    0.2623885    0.2026511 -17.36 0.0005954545    1.481    0.325
        56 -15.3796     30.8791    195.4430   1.4645545263e+02   3.1633453380e+01      2.24385     1.144511  32.23   0.00959565    1.895    0.472
        57 -10.8707    192.2505    193.9081   1.1403680907e+02   9.3271770670e+00     0.510217    0.2879693 -61.65  0.001764176    7.215    0.861
        58 -13.1027     45.8702    173.3815   1.4184810950e+02   3.4266438067e+01     0.414428    0.3579871  60.23  0.003063687    1.122    0.109
        59 -13.8881     11.2663    205.2619   1.5066805654e+02   3.1698952272e+01    0.8921754     0.519218  39.80  0.006551733    1.471    0.320
        60 -13.0923     67.9158    144.5027   1.3361261236e+02   3.7619963117e+01     3.162951     1.154626  59.20  0.009130519    4.881    0.795
