#   1 NUMBER                 Running object number                                     
#   2 MAG_AUTO               Kron-like elliptical aperture magnitude                    [mag]
#   3 X_IMAGE                Object position along x                                    [pixel]
#   4 Y_IMAGE                Object position along y                                    [pixel]
#   5 X_WORLD                Barycenter position along world x axis                     [deg]
#   6 Y_WORLD                Barycenter position along world y axis                     [deg]
#   7 A_WORLD                Profile RMS along major axis (world units)                 [deg]
#   8 B_WORLD                Profile RMS along minor axis (world units)                 [deg]
#   9 THETA_WORLD            Position angle (CCW/world-x)                               [deg]
#  10 FWHM_WORLD             FWHM assuming a gaussian core                              [deg]
#  11 ELONGATION             A_IMAGE/B_IMAGE                                           
#  12 ELLIPTICITY            1 - B_IMAGE/A_IMAGE                                       
         1 -12.7974    243.9319     83.8773   1.1516951858e+01   1.4520301630e+01     2.634722     1.133972 -52.39   0.01122122    3.004    0.667
         2 -13.6372    243.9991    124.3897   2.0157916605e+01   9.0879816228e+00     2.782703     2.009379  19.16   0.01135708    1.559    0.358
         3  -7.9124    108.8674     13.5085   9.9945683466e+00   5.5999138421e+01    0.1930575    0.1917822   4.10 0.0002919738    1.101    0.092
         4  -8.4856     92.5276     14.0285   1.4023710932e+01   6.0242712470e+01    0.2492534    0.1929728  83.44 0.0003454933    1.396    0.284
         5  -8.6253      9.8271    224.9234   8.5677612460e+01   2.5923291776e+01     0.150262    0.1394632  52.42 0.0005667226    1.315    0.239
         6  -7.3223     40.0270    220.4973   7.8888333860e+01   2.3796685175e+01    0.1738476     0.096573  33.00 0.0004707173    1.486    0.327
         7  -8.1565    238.4291    218.1720   3.8050408256e+01  -1.8375008705e+00    0.1323169   0.08998149 -30.90 0.0007503635    1.676    0.403
         8  -9.5800     93.7127    213.8009   6.6031278630e+01   1.8465124158e+01    0.2112419     0.202186  24.15 0.0006267194    1.194    0.162
         9  -7.8833    184.7225    199.2785   4.4354219090e+01   7.5344462748e+00    0.1706996    0.1434288  13.97  0.001133852    1.090    0.082
        10  -7.8526     37.7795    192.8293   7.7684992011e+01   2.9696993214e+01    0.1691635    0.1597796  44.77  0.001021587    1.214    0.176
        11  -8.0703    228.8512    190.4920   3.5038320450e+01   2.5719541120e+00    0.1613566    0.1401959   1.65 0.0005926109    1.287    0.223
        12  -8.9320    218.5699    183.2137   3.5460194214e+01   4.9098456637e+00    0.1733986   0.09768435 -20.12 0.0009516047    1.729    0.422
        13 -10.4642    195.9945    170.7362   3.7171174324e+01   1.0075165221e+01    0.4145325    0.3180708 -20.30  0.001732236    1.218    0.179
        14  -8.6084    218.4870    172.0727   3.3445402739e+01   6.4351272066e+00     0.197958    0.1685081  41.46 0.0005987589    1.527    0.345
        15  -8.3902    111.8727    170.7091   5.5856923639e+01   2.4290997669e+01    0.2746701    0.2048131 -22.30 0.0007604937    1.718    0.418
        16  -9.8100    231.1756    168.5014   3.0718844443e+01   5.0868428241e+00    0.3525263    0.1647339 -40.95   0.00177053    2.339    0.572
        17  -9.5799    203.8152    167.2996   3.5089577619e+01   9.3530847807e+00    0.5168164    0.3551034 -14.54  0.002969536    1.417    0.294
        18  -7.2113     50.9345    170.0333   7.2280841023e+01   3.3343728472e+01    0.1594832    0.1357861  53.82 0.0002939604    1.024    0.023
        19  -9.3983    185.8858    169.2794   3.8820405344e+01   1.1940245399e+01    0.3593328    0.1479903  41.80  0.001535905    2.406    0.584
        20 -10.3537    249.0003     78.9149   9.8987939032e+00   1.4274012239e+01     0.577311    0.2856975 -32.33 0.0006773745    1.629    0.386
        21 -12.2564    249.3623    139.6198   2.2505618758e+01   6.2657094908e+00     2.529625    0.6970772 -28.70   0.00946908    3.647    0.726
        22 -12.2056    240.9411     95.9053   1.4494435706e+01   1.3442801935e+01    0.9979776     0.895479  70.14  0.006859678    1.392    0.282
        23 -12.0840    241.2872    116.6888   1.8911857545e+01   1.0563173111e+01     1.627457    0.8529267  -6.84   0.00670146    3.420    0.708
        24  -9.2775    164.5463    156.4485   4.0685507650e+01   1.7813489574e+01    0.4649191    0.3078688  -2.46  0.002137128    2.064    0.516
        25  -8.1469    147.8751    154.5836   4.4048411130e+01   2.1213785029e+01    0.2832785    0.1985173 -65.24  0.001325949    2.011    0.503
        26  -8.3030    156.7776    152.9973   4.1694035848e+01   1.9870304065e+01    0.1833017    0.1158838 -41.51 0.0005135255    1.643    0.391
        27  -8.4821    134.3480    148.4954   4.6074487001e+01   2.4956744722e+01    0.3475825    0.1483885 -50.36  0.001300801    2.569    0.611
        28  -9.5060    222.8436    164.7531   3.1347589354e+01   6.8020247459e+00    0.2511629    0.2355534  -6.27 0.0008301695    1.326    0.246
        29 -10.3908    196.4621    137.7046   3.0398031591e+01   1.5210404078e+01    0.4821455    0.3629232   4.01   0.00264497    1.438    0.304
        30  -7.0617     33.2975    137.2528   7.4167484789e+01   4.3394970070e+01    0.1276669    0.1032874 -35.57 0.0002337924    1.494    0.331
        31  -9.2585    190.6657    132.8626   3.0401042101e+01   1.7077691613e+01    0.3883727     0.176998  39.93  0.001634715    2.294    0.564
        32  -9.4299     22.6315    132.7548   7.7235137450e+01   4.5557636320e+01    0.2357853    0.2157689  72.75 0.0002475236    1.051    0.048
        33  -8.4591    171.0870    121.0506   3.1507601147e+01   2.3002312354e+01    0.2112138    0.1984341  -6.48  0.001195347    1.020    0.019
        34  -7.9442    184.0957    119.8210   2.8651734143e+01   2.0567388201e+01    0.2009985    0.1853319 -52.27 0.0004697146    1.197    0.164
        35  -9.1618    203.3293    118.7811   2.4991550066e+01   1.6971028715e+01    0.2923887    0.1552714 -28.17  0.001328755    1.866    0.464
        36 -10.9544    209.0202    116.1467   2.3461895615e+01   1.6307918285e+01     0.791661    0.5282885 -70.68  0.003575273    2.756    0.637
        37  -8.9656    193.4988    114.7039   2.5729954889e+01   1.9545175836e+01    0.3393471    0.2085393  47.66  0.001156625    1.726    0.421
        38  -8.5067    188.1916    114.2724   2.6576518053e+01   2.0684598521e+01    0.2546139     0.180408  36.07 0.0008865503    1.505    0.335
        39  -8.3852     12.5643    114.6419   7.9062232816e+01   5.1042396811e+01    0.2825435   0.06640574 -61.75 0.0009557284    3.360    0.702
        40  -8.6094     58.4960    113.5322   6.1891005299e+01   4.6512790517e+01     0.296438    0.2490736 -61.05  0.001095779    1.176    0.150
        41  -9.7311     54.5413    111.8962   6.3024187971e+01   4.7486189696e+01    0.3966217    0.3168301 -49.77  0.002046206    1.291    0.225
        42  -9.9854     49.9238    110.7781   6.4531307051e+01   4.8388513341e+01     0.392056    0.2689636  31.83   0.00190047    1.479    0.324
        43  -8.6126    186.6982    164.5676   3.7757331068e+01   1.2561353223e+01    0.2534433    0.1190452  35.24  0.001021143    2.078    0.519
        44  -9.0519     41.0246    110.0590   6.7765243104e+01   4.9657086722e+01    0.3271862      0.19112  37.51 0.0008424098    1.685    0.407
        45  -9.1480    170.5687    106.0432   2.7912292685e+01   2.5829605705e+01    0.3730691    0.2665713 -46.98  0.001203067    1.425    0.298
        46  -8.0497    174.2233    114.2003   2.9217333149e+01   2.3584364757e+01    0.1960809      0.17523 -82.39 0.0008650162    1.355    0.262
        47  -7.5777    155.4455    107.4919   3.1482578100e+01   2.8885260568e+01    0.1494347     0.145216  -8.24  6.33294e-05    1.017    0.017
        48  -8.9289    154.8138    161.2903   4.3785161688e+01   1.8679692031e+01    0.4083655    0.2275014  27.77  0.001806129    1.916    0.478
        49  -7.1152    101.7149    247.2946   6.7575804263e+01   1.1743607410e+01     0.114677   0.07061058  49.92 0.0001768526    1.543    0.352
        50  -7.4644    140.8539     96.2046   3.1836712406e+01   3.4393280040e+01    0.2049899    0.1806791   3.08 0.0003606383    1.289    0.224
        51 -11.0771    236.1886    110.5752   1.8277980719e+01   1.2252777962e+01    0.7167251    0.4584861 -26.63 0.0005106719    1.353    0.261
        52  -7.7647    124.6303     77.2342   3.0303730426e+01   4.1989022087e+01    0.2263501    0.1863759 -58.13 0.0003786578    1.288    0.223
        53  -9.9616    238.5153     64.1087   7.6558228626e+00   1.8076955206e+01    0.3113463    0.2326382  29.36 0.0009772727    1.796    0.443
        54  -9.6802    245.8960     62.5410   6.6031155635e+00   1.6899408422e+01    0.2736472    0.1993491  57.23  0.001106061    1.656    0.396
        55  -8.2608    164.0006     62.2171   1.6992738703e+01   3.4863424655e+01    0.2427416    0.2020981 -37.39 0.0003727994    1.180    0.153
        56  -8.1288    246.3254     58.2916   5.6219385045e+00   1.7345602087e+01    0.1123006   0.09091415   9.74 0.0007016342    1.616    0.381
        57  -9.1344    218.0227     56.1176   7.8647107287e+00   2.3212000001e+01    0.5249547    0.1870671 -53.36  0.001829974    3.662    0.727
        58  -9.3631    248.0936    243.3902   4.0311689852e+01  -5.4336355285e+00    0.1730504    0.1033338  -7.99 0.0006736003    1.320    0.242
        59  -7.7194    201.4673     39.5241   5.3801677980e+00   2.8991969033e+01    0.2318327    0.1308275 -15.14  0.001029836    2.291    0.563
        60  -8.5952    204.5663     35.5243   4.0143834820e+00   2.8771154710e+01    0.2583733    0.2204812  38.75 0.0007771833    1.451    0.311
        61  -8.2545      9.0141    162.4555   8.3461039899e+01   3.9325655197e+01    0.1847431    0.1163948  26.71 0.0006462915    1.603    0.376
        62  -7.4380    117.9994     15.2751   8.9565901531e+00   5.3359450249e+01    0.1891681    0.1196372  68.59 0.0006819622    1.453    0.312
        63  -8.8162      3.0459    227.0445   8.7156180214e+01   2.6117854628e+01     0.245431    0.1211493 -60.31  0.001404588    2.746    0.636
