#   1 NUMBER                 Running object number                                     
#   2 MAG_AUTO               Kron-like elliptical aperture magnitude                    [mag]
#   3 X_IMAGE                Object position along x                                    [pixel]
#   4 Y_IMAGE                Object position along y                                    [pixel]
#   5 X_WORLD                Barycenter position along world x axis                     [deg]
#   6 Y_WORLD                Barycenter position along world y axis                     [deg]
#   7 A_WORLD                Profile RMS along major axis (world units)                 [deg]
#   8 B_WORLD                Profile RMS along minor axis (world units)                 [deg]
#   9 THETA_WORLD            Position angle (CCW/world-x)                               [deg]
#  10 FWHM_WORLD             FWHM assuming a gaussian core                              [deg]
#  11 ELONGATION             A_IMAGE/B_IMAGE                                           
#  12 ELLIPTICITY            1 - B_IMAGE/A_IMAGE                                       
         1 -14.9428     68.4118    144.4319   1.0297760040e+02   3.7546572632e+01         4.96      2.59085  75.12  0.005364097    3.790    0.736
         2 -13.8152    226.2077     19.5702   3.6185520355e+01   2.6849856145e+01     0.892999    0.8155572  55.35  0.002607827    1.385    0.278
         3 -13.9999    209.7239     35.8621   4.1641520933e+01   2.8613567017e+01     1.585738     1.276658  -4.29  0.007497634    1.746    0.427
         4  -9.9306    128.7761      7.6232   4.5250570910e+01   5.1549200531e+01    0.2551387    0.1788788 -79.53 0.0008072982    1.748    0.428
         5  -9.8235    125.5220      5.5013   4.5115011496e+01   5.2515028226e+01    0.2211603    0.1861841  88.63  0.000535018    1.265    0.210
         6 -10.6453      2.3252      4.3225   9.1332083734e+01   7.4095303880e+01    0.3032399    0.0768362 -46.17  0.001370161    3.218    0.689
         7 -11.7464    247.7952      2.2104   3.0945463086e+01   2.4170989215e+01    0.4906889    0.2163076  82.37  0.002587321    2.142    0.533
         8 -11.7807    183.7961    216.0744   8.7289960191e+01   2.1861710741e+00     0.362322    0.2264911  40.35  0.001490507    1.496    0.331
         9 -10.1476    140.0076    250.0008   1.0131161146e+02   3.5834882724e+00    0.1959432    0.1352823  59.41  0.001132097    1.656    0.396
        10  -9.9310    135.0531    250.5039   1.0236835599e+02   4.2626757037e+00    0.1925969    0.1016167  38.67 0.0004808188    1.527    0.345
        11 -13.5867     86.4296    226.6405   1.0967997097e+02   1.6007738826e+01     1.058552    0.6657337 -64.20   0.00593632    1.735    0.424
        12 -14.0443      3.3754    179.9382   1.2368399251e+02   3.5850473408e+01     2.330548    0.5820899 -79.77  0.008952007    3.511    0.715
        13 -15.7533     55.0458    247.0521   1.1782585153e+02   1.6277841947e+01     9.819823     2.833473  27.84   0.01135005   10.818    0.908
        14 -10.3259    110.0007    201.6824   1.0128826123e+02   1.7556518234e+01    0.2255663    0.1945986 -71.18  0.001303673    1.234    0.190
        15  -9.8584    150.6052    179.1012   8.7906519555e+01   1.5168555721e+01    0.4436645    0.2630866 -74.76  0.001557744    3.446    0.710
        16  -9.3583     99.3484    180.9795   1.0072596396e+02   2.3939147983e+01     0.196161    0.1806033 -78.97 0.0005464865    1.091    0.084
        17  -9.8435    144.2417    179.2663   8.9437814806e+01   1.6335689240e+01    0.2597061    0.2267053   5.51 0.0009076933    1.264    0.209
        18 -12.1591     60.9774    177.9067   1.0989073941e+02   3.0338060219e+01    0.4451349    0.3478932 -27.75  0.002434236    1.783    0.439
        19 -11.9726     66.1137    172.5887   1.0790275931e+02   3.0930042853e+01     0.320073    0.2816218 -41.20 0.0006367289    1.349    0.259
        20 -10.9855    193.2667    195.2668   8.1604283875e+01   4.1720922494e+00    0.8679177    0.4582095 -63.93  0.002446805    6.704    0.851
        21 -13.5606     63.2161    158.9721   1.0673932615e+02   3.4640046251e+01    0.5578604    0.4195871 -40.00  0.001762898    1.566    0.361
        22 -11.8458     75.8933    163.2058   1.0398349402e+02   3.1835705039e+01    0.4080958    0.2851433  43.42 0.0003585654    1.418    0.295
        23 -12.9265     83.0066    156.5510   1.0097657550e+02   3.2402332387e+01     1.104174    0.8898864 -45.60  0.001401673    1.328    0.247
        24 -13.5263     33.0213    205.1131   1.1907542804e+02   2.7433633337e+01    0.8079553    0.4817153 -44.14  0.004263975    2.515    0.602
        25 -10.7307    134.1075    146.3064   8.5216924077e+01   2.5684320724e+01    0.8881643    0.2113433 -53.78  0.002021589    5.904    0.831
        26 -10.4468    137.2644    169.3726   8.9222229811e+01   1.9824380547e+01    0.4750742    0.2736747 -67.25  0.001837273    2.478    0.597
        27  -9.4809     72.9592    172.9223   1.0619695449e+02   2.9899784783e+01    0.2032648    0.1797922  80.50            0    1.037    0.035
        28 -13.8266     17.8702    218.4220   1.2307441040e+02   2.6183512278e+01    0.9145507    0.4516962  50.45  0.002528009    1.670    0.401
        29  -9.7003    174.8718    149.1117   7.6035368189e+01   1.6636717963e+01    0.2326365    0.2152514 -89.24 0.0006686643    1.253    0.202
        30 -11.9097     31.9181    144.1148   1.1328577323e+02   4.1885173113e+01    0.5483169    0.3131101  18.09  0.002735161    2.248    0.555
        31  -9.7779    100.9184    139.0816   9.2635218024e+01   3.3728797278e+01     0.370488    0.2503671  -2.84  0.001458602    2.541    0.606
        32 -12.4366     85.7652    141.0248   9.7361089924e+01   3.5805205125e+01    0.3186924    0.2717042 -47.22 0.0004488248    1.189    0.159
        33 -10.6325     97.7768    142.4255   9.4218219554e+01   3.3462059353e+01    0.3826799    0.3078586  19.37  0.001070105    1.443    0.307
        34 -10.9312     24.0858    133.6079   1.1417506531e+02   4.5170183246e+01    0.2852859      0.17781  57.99  0.001232096    1.772    0.436
        35 -10.9239    107.4546    131.2585   8.9058904367e+01   3.4433874354e+01    0.5369468    0.3469423  39.04  0.002339997    1.571    0.363
        36 -10.6432    136.0000    124.9543   7.9716917100e+01   3.0174564949e+01    0.3765402    0.1831253 -46.17    0.0013948    2.053    0.513
        37 -15.4674      7.4045    240.4545   1.2614551915e+02   2.2843959557e+01     1.972436     1.603527 -84.83   0.01566456    1.356    0.263
        38 -11.2094     96.4389    127.3201   9.1359359932e+01   3.7382297530e+01     0.341478    0.2794344 -13.09 0.0009501954    1.496    0.331
        39 -10.1824    116.0640    125.1297   8.5180681042e+01   3.4237252383e+01    0.2466634    0.2167202 -10.28  0.001226856    1.294    0.227
        40 -10.4564    124.9592    153.9289   8.9220729503e+01   2.5716110567e+01    0.2401444    0.2185171 -81.99  0.001250298    1.163    0.140
        41  -9.7148    106.2536    119.8173   8.6705106359e+01   3.7389992493e+01    0.2112616    0.2037151 -76.91 0.0003802304    1.057    0.054
        42  -9.2575    168.0632    113.2268   6.8909920327e+01   2.5562703721e+01    0.2596949    0.1869308  85.04  0.001076162    2.042    0.510
        43 -10.0123    205.3508    110.4535   6.0677224200e+01   1.7692765605e+01    0.3208533    0.2369843  41.31  0.001137753    1.475    0.322
        44 -10.6112    134.1526    105.3881   7.5115305798e+01   3.4905503682e+01    0.4091185    0.1782808 -51.02  0.001384402    2.556    0.609
        45  -8.8147     67.3147    105.6546   9.5496499739e+01   4.7270435840e+01    0.1463455    0.1117931  78.49 0.0006366919    1.715    0.417
        46  -8.9734     63.5081    101.4786   9.5789592002e+01   4.8794990574e+01    0.1448637    0.1288594 -38.45 0.0007340427    1.066    0.062
        47  -8.9353    130.2970     96.3023   7.3619873262e+01   3.7693232087e+01    0.1560414    0.1242876   2.87 0.0002689953    1.580    0.367
        48 -11.0112     53.0676     90.8631   9.6869158721e+01   5.2634106937e+01    0.3436991    0.1908171 -56.22  0.001609045    1.644    0.392
        49 -10.1541     41.6431     92.1403   1.0131214189e+02   5.3622462930e+01    0.1976934    0.1831519  34.40 0.0004644808    1.233    0.189
        50 -10.3347    250.0154     87.9872   4.8691134675e+01   1.2222355079e+01    0.1659431    0.1359249 -45.90 0.0005314969    1.046    0.044
        51  -9.0712    160.6616     81.7102   6.2026394777e+01   3.3448688128e+01    0.1558486    0.1201845  20.72 0.0003224071    1.641    0.391
        52  -9.0175    130.4458     65.4777   6.4274160189e+01   4.3589434487e+01    0.1479614    0.1443345  62.66 4.229351e-05    1.052    0.050
        53  -9.1538     44.8109     60.8382   9.1664301355e+01   6.0170458701e+01    0.1589238    0.1553468  61.97 0.0003978564    1.322    0.244
        54 -10.8563     13.4542     60.1145   1.0488643981e+02   6.3121305783e+01    0.2336411    0.1842658 -52.14 0.0004297522    1.109    0.098
        55  -9.0588     57.6956     60.3348   8.6258813775e+01   5.8617390272e+01    0.1253324    0.1098305  86.93 0.0007038577    1.665    0.399
        56  -9.0749     24.7737     57.6608   9.9282907009e+01   6.2816727562e+01    0.1585592    0.1087335  29.02 0.0004330749    1.682    0.405
        57 -16.2916     32.5934    182.7755   1.1727724199e+02   3.2520528164e+01     9.224349     3.562261  79.71    0.0313166    4.347    0.770
        58 -13.5722    200.6880     41.7402   4.4210090688e+01   2.9976382444e+01     1.218994    0.8721936  37.38  0.003554836    1.826    0.452
        59 -14.8398      9.1235    207.3858   1.2415346287e+02   2.9337905184e+01     1.218629     1.081457 -27.27  0.006887986    1.740    0.425
        60 -12.3962    217.3026     28.3878   3.9037218196e+01   2.7802334074e+01    0.4588883    0.3720748  47.31  0.001101248    1.526    0.344
        61 -10.2342     11.9883     53.0112   1.0370551118e+02   6.4698387133e+01    0.1491851    0.1192363 -37.08 0.0005027119    1.030    0.029
        62 -10.5420    135.9195     42.4089   5.5485115223e+01   4.5875680547e+01    0.2719006    0.2392808 -80.10 0.0004590597    1.270    0.212
        63  -8.8404    135.4115     34.1627   5.2878108784e+01   4.7092393553e+01    0.1774544    0.1301236 -45.21  0.000306694    1.506    0.336
        64 -10.0611    189.8282     15.3364   3.8813673806e+01   3.5800289643e+01    0.2205234    0.1647055 -52.06 0.0007714845    1.318    0.241
        65 -10.6290    209.1425    198.3990   7.9003256780e+01   9.2406767465e-01    0.2507603    0.1919168 -42.26 0.0008686905    1.460    0.315
        66  -9.7780    198.5250    222.9190   8.5478622983e+01  -1.3118521986e+00    0.1975489    0.1513435  25.48 0.0004433641    1.131    0.116
        67  -9.8207     59.3926    197.1672   1.1249642107e+02   2.6065844621e+01    0.1838853    0.1467652  81.70   0.00096488    1.123    0.110
