#   1 NUMBER                 Running object number                                     
#   2 MAG_AUTO               Kron-like elliptical aperture magnitude                    [mag]
#   3 X_IMAGE                Object position along x                                    [pixel]
#   4 Y_IMAGE                Object position along y                                    [pixel]
#   5 X_WORLD                Barycenter position along world x axis                     [deg]
#   6 Y_WORLD                Barycenter position along world y axis                     [deg]
#   7 A_WORLD                Profile RMS along major axis (world units)                 [deg]
#   8 B_WORLD                Profile RMS along minor axis (world units)                 [deg]
#   9 THETA_WORLD            Position angle (CCW/world-x)                               [deg]
#  10 FWHM_WORLD             FWHM assuming a gaussian core                              [deg]
#  11 ELONGATION             A_IMAGE/B_IMAGE                                           
#  12 ELLIPTICITY            1 - B_IMAGE/A_IMAGE                                       
         1  -9.3712    110.9889     92.2296   1.0820324272e+02   4.1912136378e+01    0.1930654    0.1187116  40.76 0.0005796151    1.672    0.402
         2  -7.8959     96.6784    250.7083   1.3353746903e+02   1.6111576161e+01   0.08605125   0.06689078  27.01 0.0005129083    1.609    0.378
         3  -9.0778     89.5942    249.9983   1.3459242003e+02   1.7050801645e+01    0.2260659    0.1029108  42.14  0.001030864    1.592    0.372
         4  -8.8580     74.0620    250.4908   1.3701711526e+02   1.8779353301e+01    0.2346004   0.06760941  39.58  0.001301065    2.548    0.608
         5  -9.5692     50.4688    249.8353   1.4053473004e+02   2.1401343648e+01     0.391513    0.1222451  39.73  0.002430814    2.352    0.575
         6  -9.4275     19.4563    249.2017   1.4500131393e+02   2.4461410028e+01    0.1905674    0.1019393  55.27 0.0008627138    1.232    0.188
         7 -10.7163      3.2066    242.7378   1.4710209424e+02   2.6745957337e+01    0.4901823    0.1462599  67.69  0.003158332    2.692    0.629
         8  -9.8597     15.2129    240.5292   1.4533472499e+02   2.6037474616e+01    0.3846917    0.1698418  79.86  0.002913971    2.000    0.500
         9  -8.8031     15.7387    230.9751   1.4494849299e+02   2.7364538625e+01    0.2190333    0.1424065  78.77  0.001975808    1.264    0.209
        10  -9.3401     11.7430    232.7327   1.4559777544e+02   2.7453155670e+01    0.2534517    0.1031286  83.27  0.001795892    2.232    0.552
        11  -8.6136      9.9960    244.2920   1.4618990026e+02   2.5961541490e+01    0.1602531   0.07781702  69.83 0.0006698627    1.547    0.353
        12 -10.0045      4.1468    248.9760   1.4712583854e+02   2.5810456606e+01    0.3336697   0.08027904  45.00  0.002260656    2.320    0.569
        13  -9.4089      9.3478    239.6629   1.4615144140e+02   2.6664334182e+01      0.23331    0.1235027 -78.16  0.001694297    1.959    0.490
        14 -10.0119      5.6709    235.5149   1.4656343612e+02   2.7562793001e+01    0.2713948   0.09958854  43.93  0.001625035    1.889    0.471
        15  -9.2355     13.2257    248.1634   1.4584593011e+02   2.5151241606e+01    0.1672679   0.08176341  50.53 0.0008020598    1.367    0.269
        16  -9.0516      9.1766    247.8521   1.4640226689e+02   2.5541302120e+01    0.1857989   0.09951951  50.77 0.0006915173    1.280    0.219
        17  -9.5157     64.0570    248.3724   1.3842120666e+02   2.0164825197e+01    0.3015895    0.1090739  40.84   0.00193597    2.022    0.505
        18  -7.8721     38.4462    249.4794   1.4228679322e+02   2.2651093014e+01    0.1362588   0.05252245  47.79 0.0009691765    1.711    0.416
        19  -9.3837     34.0669    248.3193   1.4287777556e+02   2.3231315403e+01    0.2558386   0.09620701  50.64  0.001404075    1.745    0.427
        20  -8.7508     25.9957    249.1612   1.4407139092e+02   2.3873813861e+01    0.1432759   0.07080594  57.33 0.0008214262    1.369    0.270
        21  -8.3814     99.9934    247.4773   1.3278371571e+02   1.6119526210e+01    0.1555645     0.070912  42.32 0.0009870651    1.582    0.368
        22  -8.3752     57.4891    247.4713   1.3936853926e+02   2.0989496363e+01    0.1694523   0.04915425  46.84  0.001017731    2.225    0.551
        23  -8.5942    183.1479    245.1659   1.1915616650e+02   5.1846086086e+00    0.1361357    0.1044666  44.99  0.001070294    1.318    0.241
        24  -7.9016    141.3179    245.6963   1.2599439330e+02   1.0967974915e+01    0.1019112   0.06313968  56.57 0.0006261251    1.626    0.385
        25  -9.4058     44.6184    244.4083   1.4115683349e+02   2.2735026343e+01      0.35866    0.1000276  37.36  0.002045311    2.888    0.654
        26  -8.2416     24.4942    244.5267   1.4412583305e+02   2.4648427910e+01   0.09004898    0.0583866  60.37 0.0008099225    1.025    0.025
        27  -8.8204     20.8024    244.7306   1.4466514814e+02   2.4954866332e+01     0.186514   0.08632798  56.42 0.0008589183    1.455    0.313
        28  -8.7975     20.4856    240.4700   1.4456829786e+02   2.5579146508e+01    0.1841283   0.09472812  60.93  0.001023987    1.356    0.263
        29  -8.0377     22.5362    237.5240   1.4416503322e+02   2.5812556026e+01    0.1350739   0.08291605  70.50 0.0006690448    1.236    0.191
        30  -8.2214     96.0026    244.4861   1.3319823063e+02   1.6996295620e+01    0.1248946   0.07656306  23.46 0.0008083251    2.399    0.583
        31  -8.9736     82.9136    244.1829   1.3525143391e+02   1.8601534121e+01    0.2412619    0.1034948  40.67  0.001579694    1.761    0.432
        32  -8.4465     32.5094    241.5184   1.4283891198e+02   2.4320999225e+01    0.1573472   0.04839492  46.54 0.0006766933    2.077    0.519
        33  -9.7562     29.2090    243.0500   1.4338512213e+02   2.4417792317e+01    0.3428559    0.1528025 -67.52  0.002541526    2.643    0.622
        34  -8.4012     26.2171    240.4104   1.4372651447e+02   2.5066253766e+01     0.175677   0.06209677  53.47 0.0007345139    1.900    0.474
        35  -9.2019     37.9515    240.5369   1.4198599077e+02   2.3935057673e+01    0.2324433   0.08945259  52.81  0.001236271    1.795    0.443
        36  -8.5845    188.3257    239.5116   1.1764452068e+02   5.0187628809e+00    0.1471434   0.09961981 -32.13  0.001077489    1.964    0.491
        37  -9.0734     71.1780    239.2626   1.3679080533e+02   2.0620684496e+01    0.2708138   0.09865355  41.64  0.001673286    2.000    0.500
        38  -9.2272    165.9771    236.6257   1.2098604424e+02   8.5554687487e+00    0.1901067    0.1666148 -36.99  0.001580444    1.560    0.359
        39  -8.5657    152.3992    238.1731   1.2341353139e+02   1.0314353419e+01    0.1194826    0.1010405 -81.84 0.0009539525    1.710    0.415
        40  -8.5801    135.5946    236.7801   1.2606842760e+02   1.2828705052e+01    0.1201328   0.09694675  89.66 0.0008671838    1.655    0.396
        41  -9.5731     44.9162    236.7206   1.4075372675e+02   2.3785759738e+01    0.3104193   0.07082095  48.43  0.001718383    2.721    0.632
        42  -8.8326     35.4648    236.4640   1.4218694635e+02   2.4755342068e+01     0.112074   0.07664648 -74.11 0.0001145511    1.710    0.415
        43  -9.0556     93.5462    235.8559   1.3295395944e+02   1.8454215993e+01    0.2137935     0.107643  47.05  0.001456143    1.452    0.311
        44  -8.8505     80.3491    236.0671   1.3511711660e+02   2.0011018521e+01     0.208289    0.1042912  46.76   0.00145271    1.449    0.310
        45  -9.9207    142.4453    234.1698   1.2465691852e+02   1.2199583919e+01    0.2399363    0.1533461  68.96  0.001533392    2.260    0.558
        46  -8.1545    109.5335    233.4974   1.3011787391e+02   1.6751177172e+01    0.1039734   0.07729744  48.61 0.0001123003    1.010    0.010
        47  -8.9329     28.0245    232.3989   1.4314922392e+02   2.6048876367e+01    0.1744224   0.08065413  65.71  0.001278878    1.719    0.418
        48  -8.4520     20.4599    233.4867   1.4433002885e+02   2.6580938192e+01    0.1560838   0.04718095  46.33 0.0009480974    2.115    0.527
        49 -10.3259    149.0730    230.1985   1.2311105987e+02   1.1749202517e+01    0.2270105      0.19974 -53.25  0.001861372    1.537    0.349
        50  -8.4817    123.6291    231.8044   1.2759565898e+02   1.5102999795e+01    0.1242395   0.09480428 -88.26 0.0006314431    1.698    0.411
        51  -8.1094    117.3259    232.2992   1.2870496455e+02   1.5885408769e+01   0.09635156   0.07317539  21.72 0.0004379425    1.634    0.388
        52 -10.6110    135.9692    229.9993   1.2532215211e+02   1.3634897068e+01    0.2137035    0.1593389 -55.06  0.001627043    1.785    0.440
        53  -9.8836     10.6997    226.2430   1.4554899543e+02   2.8496881080e+01    0.4225191    0.1553158  64.33  0.002873693    2.092    0.522
        54  -8.6844      1.3923    227.1801   1.4696073931e+02   2.9125519233e+01    0.1217211   0.06701963  86.72 0.0006053541    1.540    0.351
        55  -9.2162      9.4699    220.5432   1.4555246150e+02   2.9459006602e+01    0.2158493   0.06455701  51.51  0.001016664    2.175    0.540
        56  -9.9241      7.0022    216.2147   1.4579309523e+02   3.0327672185e+01    0.2100402   0.09656697  52.04   0.00108541    1.538    0.350
        57 -10.2274      2.0920    212.1453   1.4642915494e+02   3.1356637605e+01    0.3630737    0.1516207  73.69  0.002559342    1.920    0.479
        58  -9.1970      1.4567    218.5059   1.4671242971e+02   3.0423622040e+01      0.16049   0.09654888  81.50 0.0006659083    1.326    0.246
        59  -9.2216      3.4080    222.2121   1.4652345859e+02   2.9704599705e+01    0.2218333    0.1233803  66.99 0.0009939407    1.267    0.211
        60  -9.4886      5.4909    229.9360   1.4643422520e+02   2.8386273155e+01    0.2051664    0.1108529  54.62 0.0009807327    1.270    0.213
        61  -8.8556      5.5010    225.9967   1.4631964469e+02   2.8967078702e+01    0.1684551   0.07503343  57.18 0.0006602702    1.534    0.348
        62  -9.3908     31.6760    229.0370   1.4245011756e+02   2.6200205474e+01    0.1890258   0.07866576  51.60  0.000752237    1.682    0.405
        63  -8.1366    250.6291    227.3066   1.0601208188e+02  -2.8093791825e+00   0.09460424   0.07727122  40.42 0.0007033603    1.761    0.432
        64  -8.9078    166.0839    225.8611   1.1970149361e+02   9.7893124896e+00    0.1711415    0.1568787  29.25  0.001390656    1.246    0.197
        65  -9.3435    122.1260    223.8438   1.2707991904e+02   1.6379272642e+01    0.1701709    0.1184909  55.80 0.0008247977    1.281    0.219
        66  -9.5038     72.4115    223.1670   1.3553860252e+02   2.2798097608e+01    0.4256475    0.1592157  35.55  0.002371219    2.488    0.598
        67  -8.6471    128.3251    223.6354   1.2598227686e+02   1.5546714141e+01    0.1113607    0.0695939  62.48 0.0007039065    1.795    0.443
        68 -10.3646     13.3535    216.4061   1.4480978445e+02   2.9766969807e+01    0.2826774     0.103613  54.66   0.00130032    1.918    0.479
        69  -9.9446     16.9741    223.4802   1.4450090944e+02   2.8371580280e+01    0.2886858   0.07640839  36.42  0.001675477    3.000    0.667
        70  -9.9448    151.4419    221.3283   1.2169478918e+02   1.2520723538e+01    0.2091814    0.1656822  23.28   0.00127226    1.292    0.226
        71  -8.2026     86.4765    231.4706   1.3378952796e+02   1.9927233974e+01    0.1006183   0.07524019  52.57 0.0008092494    1.034    0.032
        72  -9.8995    143.0267    219.9214   1.2300771687e+02   1.3940488284e+01    0.3132958    0.1360682  56.50  0.001429387    3.288    0.696
        73  -9.1968    130.9769    218.9592   1.2502516364e+02   1.5810437737e+01     0.133979    0.1066785  45.26   0.00100288    1.035    0.034
        74  -8.8715    197.8483    217.1469   1.1310590018e+02   5.9641599161e+00    0.1693621    0.1331486  38.04 0.0005967626    1.231    0.187
        75  -9.5011    122.9985    214.5038   1.2596753495e+02   1.7568604465e+01     0.224019    0.1233149 -81.90  0.001115154    3.710    0.730
        76  -9.3421     19.6908    215.6820   1.4378120235e+02   2.9329612073e+01    0.1926809   0.05436384  51.13  0.001148901    2.379    0.580
        77  -9.3207    174.3388    213.9725   1.1674432603e+02   9.9734417769e+00    0.2018557    0.1393855  50.78  0.001289132    1.481    0.325
        78  -9.2314    146.0170    213.8194   1.2176299549e+02   1.4315293455e+01    0.1707396    0.1657658  57.24 0.0008585352    1.262    0.207
        79  -8.2136     83.9519    214.7486   1.3292581262e+02   2.2698041730e+01    0.1371742   0.07268475  40.68 0.0007034841    1.556    0.357
        80  -8.8667    134.7498    213.5807   1.2375725941e+02   1.6012290267e+01    0.1662153    0.0830202  47.16 0.0009532375    1.639    0.390
        81  -8.8485    112.8172    212.6188   1.2759954678e+02   1.9261493725e+01    0.1659482   0.07804237  47.28 0.0009522425    1.703    0.413
        82 -10.3786      9.8449    155.3315   1.4274563096e+02   4.0645474933e+01    0.2934483    0.1362666  60.73  0.001726441    1.866    0.464
        83 -13.0195     25.1889    186.9524   1.4152682771e+02   3.3587071802e+01     1.348654    0.7789168 -89.12  0.009815888    1.514    0.340
        84  -8.4996     77.7572    207.5722   1.3344121732e+02   2.4573279300e+01    0.1557516   0.07403784  48.36 0.0009499429    1.660    0.398
        85  -8.3082     50.6468    206.3311   1.3814362521e+02   2.7833087664e+01    0.1117224   0.05467497  61.84 0.0007046201    1.780    0.438
        86  -8.3312    105.1994    205.5766   1.2827267349e+02   2.1368697285e+01    0.1572151   0.09244314  31.80 0.0009497141    1.758    0.431
        87  -8.4747     87.7750    204.3781   1.3135488825e+02   2.3845072739e+01    0.1503164   0.09006619  33.59 0.0009530474    1.685    0.407
        88 -11.0868    246.6808    201.9559   1.0259830417e+02  -1.9448638163e-02    0.4464931    0.2217928  10.67  0.002326213    2.306    0.566
        89 -12.5424      8.8765    163.5519   1.4336454332e+02   3.9163288858e+01     1.022124    0.3900672  58.88  0.005982127    2.249    0.555
        90  -9.1743    143.2133    201.9742   1.2080546493e+02   1.6393913726e+01    0.2211438    0.1428033  42.41  0.001391717    1.242    0.195
        91  -9.1314    111.4792    202.5009   1.2678906376e+02   2.0980990228e+01    0.1990068   0.09641407  31.10  0.001031026    2.287    0.563
        92 -12.7754      5.6526    171.8232   1.4436040786e+02   3.7884608612e+01     1.602538    0.4924349  73.36  0.007672737    3.507    0.715
        93  -9.8531     18.5312    201.2141   1.4337198249e+02   3.1751781559e+01    0.2004795   0.09962135  58.58  0.001448005    1.524    0.344
        94  -8.7170    132.9875    200.7000   1.2255650833e+02   1.8133974702e+01    0.1726881    0.1267681  41.69 0.0006919927    1.107    0.097
        95  -9.8459    221.8636    209.1345   1.0784309769e+02   3.0914672577e+00    0.3183659    0.1805468  -1.02  0.001804628    2.161    0.537
        96  -9.2490    167.3031    199.8203   1.1604663195e+02   1.2901446323e+01    0.2147417    0.1365349  46.27  0.001058399    1.389    0.280
        97  -9.1985    100.2347    200.5746   1.2868681522e+02   2.2826812272e+01    0.1564428   0.09424707  33.04 0.0009583211    1.670    0.401
        98 -11.2787    206.8419    196.6365   1.0842255244e+02   6.8458717961e+00    0.2636534    0.2102386  26.57  0.001529262    1.084    0.077
        99  -9.0331    179.2336    197.8613   1.1356894318e+02   1.1225025264e+01    0.2565944    0.1478108 -46.75  0.001446573    2.333    0.571
       100 -10.7897    242.4278    133.5733   8.9920108326e+01   8.1128296522e+00    0.4267739    0.2653399  -6.49  0.001428406    1.572    0.364
       101 -14.1879    236.8566    183.0987   1.0091458655e+02   3.4150274094e+00     2.349571     1.400797  34.40   0.01390053    1.372    0.271
       102  -8.9289     96.9784    183.0216   1.2743887998e+02   2.6191296063e+01    0.2168971    0.1408379 -13.94 0.0009676747    4.205    0.762
       103 -12.3000      8.7207    204.1610   1.4511116386e+02   3.2095242310e+01    0.7643172    0.3571009  47.69   0.00568413    1.624    0.384
       104  -8.6475    121.4980    186.4903   1.2298499024e+02   2.2081798401e+01     0.119396   0.09954134  49.81 6.617546e-05    1.024    0.024
       105  -8.6256    113.0371    181.7093   1.2406307884e+02   2.4136037262e+01    0.1738089    0.1349996  44.21 0.0007627438    1.117    0.105
       106 -12.3337    248.3925    132.4517   8.8692742339e+01   7.1292013784e+00     2.248991    0.3058886 -29.40  0.006030436    6.143    0.837
       107 -12.5887      4.7304    192.1077   1.4533593318e+02   3.4407287402e+01     1.308432    0.5075888  76.78  0.008154224    2.250    0.556
       108  -8.7454    125.9736    211.0000   1.2505192601e+02   1.7649889694e+01    0.1916803   0.05141221  40.05  0.000804112    2.954    0.661
       109  -8.9540    122.1603    179.1661   1.2188893489e+02   2.3195329545e+01    0.1704646    0.1293481  61.54 0.0009401276    1.330    0.248
       110  -9.8829      3.3941    153.8439   1.4396215326e+02   4.1392321486e+01     0.287718    0.1788285  72.96  0.001499231    1.269    0.212
       111  -8.7581    136.7951    177.1657   1.1864167341e+02   2.1221323565e+01    0.1695489    0.1377707  20.25  0.001070722    1.340    0.254
       112 -13.1053    245.5757    144.5220   9.1800760334e+01   6.2286809786e+00     1.361135    0.8847973  32.65  0.007638159    1.362    0.266
       113  -9.8530    100.9960    175.9573   1.2579495812e+02   2.6870747256e+01     0.168328    0.1418806  58.04  0.001162827    1.032    0.031
       114  -8.9740     98.1166    210.1438   1.3000604020e+02   2.1608395381e+01    0.1597693    0.1291031  40.19  0.000777009    1.216    0.178
       115  -8.9857     65.9270    211.0000   1.3579362795e+02   2.5412567161e+01    0.2843252   0.04777353  36.22  0.001065256    5.061    0.802
       116  -8.8320    126.2492    194.1445   1.2302482759e+02   2.0145932117e+01    0.2382053    0.1251588  57.06  0.001240406    2.135    0.532
       117 -11.6014    248.2619    166.8336   9.5942700755e+01   3.2606694694e+00    0.8220437    0.5219415 -11.69  0.004845369    1.469    0.319
       118 -11.5796      4.4308    180.7438   1.4495405076e+02   3.6386333990e+01    0.9147599    0.2556643  63.45   0.00462426    3.262    0.693
       119  -8.4899    128.6933    166.3180   1.1868340279e+02   2.4365462858e+01    0.1258589   0.09235371  69.16 0.0007029881    1.632    0.387
       120  -9.7344    114.0140    192.9417   1.2523565592e+02   2.2135174050e+01    0.3077672    0.1448386  43.14  0.001668306    1.748    0.428
       121  -9.3289    196.8343    208.6436   1.1204390229e+02   7.0749596091e+00    0.1913289    0.1450325   3.19 0.0008609431    1.372    0.271
       122  -8.9357    164.6158    208.9332   1.1779888764e+02   1.2121855518e+01    0.2030796    0.1632869  54.42  0.001424453    1.355    0.262
       123 -10.1344     18.1481    206.6601   1.4366577682e+02   3.0896515154e+01    0.1921934    0.1191865  84.36   0.00103467    1.352    0.260
       124  -9.8286    151.1777    206.6101   1.1993182254e+02   1.4516271563e+01    0.2724962    0.1627025  55.39  0.001589233    1.808    0.447
       125 -10.2693      7.5271    149.4655   1.4289662579e+02   4.1945727128e+01    0.4118281    0.1175214  35.45  0.002205118    3.018    0.669
       126  -9.9417      4.4939    146.9803   1.4338834668e+02   4.2640944605e+01    0.2412659    0.1175374  55.91  0.001235835    1.788    0.441
       127 -13.7959    247.2335    155.5001   9.3834217937e+01   4.6795655177e+00     2.455496     0.876903  39.71   0.01064065    2.454    0.592
       128  -8.9419    142.0132    183.5196   1.1852544199e+02   1.9360813292e+01    0.1974287    0.1034046  41.27  0.001036524    1.604    0.376
       129  -8.9030    125.3682    145.1946   1.1592501344e+02   2.8747244053e+01    0.1723078    0.1251332 -63.88 0.0004457566    1.592    0.372
       130  -9.5158      6.7516    141.6259   1.4261521263e+02   4.3539727429e+01     0.144563    0.1090848 -88.75  0.001123839    1.086    0.079
       131  -8.1348    130.6789    185.3039   1.2101504741e+02   2.0871354486e+01    0.1207938   0.08407933  63.97 0.0003152232    1.633    0.388
       132  -8.2776     17.6581    141.3167   1.4023272714e+02   4.2810587734e+01    0.1158318   0.06203901  65.30 0.0007048625    1.711    0.416
       133  -7.9735     12.3236    144.6391   1.4160777433e+02   4.2546876752e+01     0.116315   0.05879671  66.50 0.0007042438    1.780    0.438
       134  -8.4558    110.0040    139.5164   1.1849033697e+02   3.2370416799e+01    0.1777057    0.1156143  13.06 0.0008093384    2.483    0.597
       135  -9.7466      4.1172    135.9926   1.4285521491e+02   4.4840020457e+01    0.2730562    0.1372843  62.65  0.001733401    1.783    0.439
       136 -10.8136    232.1238    131.7973   9.1261545262e+01   1.0309285495e+01     0.391545    0.2515891 -21.11  0.001815644    1.487    0.327
       137 -12.0647    238.7740    123.2825   8.8175298620e+01   1.0087411037e+01    0.9894474    0.4678983  -8.92  0.003831882    2.823    0.646
       138  -8.9998      2.2573    127.4251   1.4275599584e+02   4.6692634153e+01    0.1989027    0.1057929  64.66  0.001012356    1.701    0.412
       139  -8.1217    144.6794    128.3433   1.0817938046e+02   2.8424408015e+01    0.1404525    0.1125438  83.75 0.0007049941    1.725    0.420
       140  -8.8037    219.6283    126.6825   9.2291479935e+01   1.3468289826e+01    0.2365498    0.1500014  13.36  0.001118476    1.715    0.417
       141  -9.0791    227.1012    123.2944   9.0169745247e+01   1.2412166488e+01    0.3367708    0.1972393   6.93  0.001488176    2.069    0.517
       142  -8.5970      7.5166    124.4963   1.4134955514e+02   4.6964964097e+01    0.1097351     0.082289  83.37 8.687533e-05    1.065    0.061
       143  -8.2937    109.3042    123.3389   1.1567953278e+02   3.5741859933e+01    0.1349919    0.1058881 -15.04 0.0007039819    1.674    0.403
       144  -8.1427      3.6630    116.3072   1.4169199409e+02   4.8910276526e+01    0.1132432   0.06313527  66.47 0.0004462925    1.677    0.404
       145  -9.0960    231.0350    113.1809   8.7070927396e+01   1.2945391327e+01    0.3749672    0.1932955 -18.78  0.001524554    1.963    0.491
       146  -8.7122    132.2020    113.7905   1.0791616599e+02   3.3590421058e+01    0.2372304    0.1609427  85.04 0.0009531529    2.811    0.644
       147  -9.1809     10.0028    133.0144   1.4136259955e+02   4.5048687192e+01    0.1336952   0.09849326  89.54 0.0006904865    1.060    0.057
       148  -9.5910    240.9725    108.0216   8.4170195792e+01   1.1571024742e+01    0.3511793    0.1904683 -13.83  0.001578124    1.870    0.465
       149  -8.1764    135.3467    107.6669   1.0568280460e+02   3.4180328803e+01    0.1474001    0.1171225  86.40 0.0007049243    1.767    0.434
