#   1 NUMBER                 Running object number                                     
#   2 MAG_AUTO               Kron-like elliptical aperture magnitude                    [mag]
#   3 X_IMAGE                Object position along x                                    [pixel]
#   4 Y_IMAGE                Object position along y                                    [pixel]
#   5 X_WORLD                Barycenter position along world x axis                     [deg]
#   6 Y_WORLD                Barycenter position along world y axis                     [deg]
#   7 A_WORLD                Profile RMS along major axis (world units)                 [deg]
#   8 B_WORLD                Profile RMS along minor axis (world units)                 [deg]
#   9 THETA_WORLD            Position angle (CCW/world-x)                               [deg]
#  10 FWHM_WORLD             FWHM assuming a gaussian core                              [deg]
#  11 ELONGATION             A_IMAGE/B_IMAGE                                           
#  12 ELLIPTICITY            1 - B_IMAGE/A_IMAGE                                       
         1 -13.3063    168.8960     10.5495   6.6893632467e+01   4.1141012744e+01     1.762937     1.455642 -66.57  0.009043946    1.255    0.203
         2 -11.6748    199.9400      6.5122   6.2455756514e+01   3.3778428059e+01     1.014617    0.7568992 -65.86  0.005694073    1.343    0.255
         3 -11.1073    185.6101      2.3569   6.2500351115e+01   3.7638222895e+01    0.9510349    0.2162895  67.46  0.003182736    3.647    0.726
         4  -8.6826    188.0702     16.3361   6.6524284929e+01   3.5746335383e+01    0.2804359    0.1894752   2.08 0.0009583363    1.775    0.437
         5  -8.1022    112.0700     10.3918   7.6321604741e+01   5.5886714678e+01    0.2036089    0.1614285  51.46  0.000508965    1.183    0.155
         6  -9.4591    127.5078      2.4971   6.9837302314e+01   5.2653816517e+01    0.4658336    0.2789499  59.81  0.001822427    1.521    0.343
         7  -8.9596    125.6395      7.7120   7.2355142618e+01   5.2674008732e+01    0.7498549    0.3046751 -32.38  0.002934429    2.419    0.587
         8  -9.7654    121.1603      4.6786   7.1904192737e+01   5.4112974470e+01    0.6929967     0.445191 -72.39   0.00311453    2.106    0.525
         9  -7.2678      4.7318      8.2263   1.2659998939e+02   7.5250294364e+01   0.09613442   0.09232447  65.44 0.0006703005    1.412    0.292
        10  -7.4893     67.4938      5.9823   8.7444496754e+01   6.6786393940e+01    0.1746452    0.1092821 -48.54 0.0005763192    2.204    0.546
        11  -8.1376     71.9896      5.3892   8.5383509429e+01   6.5905611496e+01    0.2182984    0.1423857  35.78 0.0005438599    1.442    0.307
        12  -9.0884    101.0225    176.0072   1.2671448707e+02   2.5938932133e+01    0.1782186    0.1613895  35.95 -0.005334738    1.033    0.032
        13  -9.2634    195.0394    135.5524   9.8082712752e+01   1.7294334142e+01    0.3400309     0.331059  72.76  0.001812721    1.406    0.289
        14  -8.9028    185.0896    132.7887   9.9418565121e+01   1.9596842129e+01    0.3099639    0.2172821  24.03 0.0008855354    1.427    0.299
        15  -8.5662    139.5130    127.5145   1.0841953046e+02   2.9299390117e+01    0.3469687    0.2408611  25.30  0.001656618    1.528    0.345
        16  -9.9465     40.4215    110.4214   1.3425515645e+02   4.8304104266e+01    0.4580172    0.4067924   9.70  0.002022188    1.301    0.232
        17  -7.1676    129.9715    107.0018   1.0589165833e+02   3.5315942739e+01    0.1685124     0.160486  -8.47 0.0009121432    1.015    0.015
        18 -11.9474    226.1974     95.0143   8.3151061567e+01   1.7350076406e+01      1.13227     1.070199  46.83  0.007208099    1.273    0.215
        19  -8.7750    185.6176     92.7886   8.9390497412e+01   2.6058370651e+01    0.2185782    0.1263871 -40.81 0.0009556671    1.736    0.424
        20  -7.4758    245.4291     92.4358   7.9868322168e+01   1.4084727590e+01    0.1299938    0.1072482 -17.81 1.135989e-05    1.010    0.010
        21  -8.4741    180.9806     91.0157   8.9801728015e+01   2.7357570755e+01    0.2303781    0.1676585  14.58  0.001093423    1.584    0.369
        22  -8.4857    127.9678     90.9966   1.0206433134e+02   3.8994285339e+01    0.2236887    0.2079681  -4.29  0.001185929    1.052    0.049
        23  -8.8323    148.9269     89.8069   9.6383478382e+01   3.4680824419e+01    0.2533544    0.2143766 -28.80 0.0004342927    1.151    0.131
        24  -8.3935     84.4537     89.0267   1.1478485232e+02   4.7740813647e+01    0.2260561    0.1394355 -50.15  0.000390618    1.551    0.355
        25  -8.6331    192.2447     88.1148   8.6910040769e+01   2.5355130342e+01    0.2164169    0.1808254  -1.65 0.0002669298    1.184    0.155
        26  -9.1158    176.3416     87.5713   8.9763968285e+01   2.8948965523e+01    0.2644763    0.1931711  48.97 0.0008766544    1.426    0.299
        27  -9.4492    183.5455     83.1850   8.7150637435e+01   2.8045517479e+01    0.3742149    0.1420652 -29.64  0.001307433    2.632    0.620
        28  -8.3699    131.5208     84.5087   9.9204547758e+01   3.9521297749e+01    0.1521752    0.1480411 -15.09 3.398447e-05    1.052    0.050
        29  -8.5170     72.4576     82.4777   1.1722154420e+02   5.1179255900e+01    0.2154594     0.134865  45.88 0.0006326904    1.778    0.437
        30  -9.0474    104.6734     82.6677   1.0638411736e+02   4.5488242007e+01     0.429601    0.1747829  52.03  0.001366365    3.359    0.702
        31  -8.5031    209.4908     82.0713   8.2414576451e+01   2.2545654098e+01    0.2134448     0.188207  40.46 0.0006776652    1.217    0.178
        32  -7.8431      9.4969     82.6095   1.4150256806e+02   5.7502329589e+01    0.1248818    0.1066323 -71.85 9.055287e-05    1.027    0.026
        33 -10.2833    212.1729     92.4998   8.4682312271e+01   2.0494225485e+01    0.7394149    0.5613843 -54.99  0.002932738    1.654    0.395
        34  -9.0376    170.6610     79.0233   8.8463217960e+01   3.1640702203e+01    0.2103451    0.1887576 -24.72  0.000532202    1.069    0.064
        35  -9.9466    235.3683     73.6305   7.6633722318e+01   1.8376945129e+01    0.3251437    0.1873962 -44.96  0.001291533    1.792    0.442
        36  -8.1516    216.4511     77.0774   8.0062309351e+01   2.1774810410e+01    0.2049476    0.1599056 -24.68  0.001133754    1.143    0.125
        37  -9.3541    220.2150     75.8798   7.9214442182e+01   2.1151703678e+01    0.3435343    0.1808071  44.79  0.001277587    2.065    0.516
        38 -10.7464     72.4952     71.5112   1.1405658744e+02   5.3716308742e+01    0.3621577    0.3236091 -64.92  0.001999976    1.200    0.167
        39  -7.4671     36.6989     77.6963   1.2986593983e+02   5.6761215097e+01    0.1406837   0.09124129 -37.91 0.0007005792    1.591    0.371
        40  -8.3364    191.3450     76.4196   8.3859719259e+01   2.7334501321e+01    0.2884721    0.1047927  42.00 0.0009606964    3.235    0.691
        41  -9.6240    238.9705     75.7358   7.6701487404e+01   1.7407702506e+01    0.3203503    0.1988461  -3.88  0.001591503    1.889    0.471
        42 -10.7585    134.2587     74.4868   9.5390607090e+01   4.0823709592e+01    0.4308804    0.3575502  -7.50  0.002141104    1.284    0.221
        43  -8.8189    122.3381     74.7607   9.8683571260e+01   4.3432475817e+01    0.2755937    0.2141887  11.14 0.0007769627    1.502    0.334
        44  -8.4274    247.1130     74.1380   7.5338498009e+01   1.6054496398e+01    0.1936027    0.1558167  -7.95 0.0003384023    1.176    0.150
        45  -9.5340    228.0096     74.2540   7.7736751689e+01   1.9767772377e+01    0.1855257    0.1715994  -9.58 0.0006236917    1.075    0.070
        46  -8.4941    173.3768     74.2245   8.6518784532e+01   3.1787167669e+01    0.2265341    0.1293411 -40.19  0.000960675    1.731    0.422
        47  -8.7371     66.5173     74.0774   1.1709625020e+02   5.4037582706e+01    0.2215771    0.1346206 -53.24 0.0006799244    1.540    0.351
        48 -11.0536    151.7511     68.9905   8.9430263941e+01   3.7731273048e+01    0.6401496    0.4064998 -31.97  0.002843662    1.539    0.350
        49 -10.2719    145.8569     71.8901   9.1703503608e+01   3.8619049398e+01    0.4424365    0.2604238 -57.37  0.001264333    2.471    0.595
        50  -9.4321    113.6056     72.9290   1.0061025127e+02   4.5680010281e+01    0.3098624    0.2338789  52.32  0.001473007    1.438    0.304
        51 -10.7921     81.3450     70.3705   1.1041930116e+02   5.2502006034e+01    0.3907422    0.3132518 -31.61  0.001685701    1.227    0.185
        52  -9.6340      7.2358     66.9521   1.4032818193e+02   6.1475453802e+01    0.4283452    0.3131495  79.56  0.001836783    1.425    0.298
        53  -8.6407     39.6746     70.9720   1.2712553566e+02   5.8121509782e+01     0.221204    0.1937852  30.11 0.0003079976    1.273    0.215
        54  -9.4490     12.1566     70.3407   1.3872857609e+02   6.0396139369e+01    0.3655297    0.2708694 -37.36  0.001744219    1.377    0.274
        55  -9.4226    122.4972     65.5064   9.5581484948e+01   4.5159812223e+01    0.2848125    0.1947079 -45.93 0.0008349002    1.533    0.348
        56 -10.9516     60.3560     67.4845   1.1759264416e+02   5.6460335251e+01    0.4352165    0.3742777  71.54  0.001531357    1.432    0.302
        57 -10.4188     59.6686     62.5042   1.1634018856e+02   5.7707098580e+01    0.3698844    0.2705917  15.79  0.001890368    1.546    0.353
        58 -10.3353    232.1169     68.8181   7.5841178974e+01   1.9633943710e+01    0.4217511    0.2508158  68.09 0.0004600597    2.169    0.539
        59 -10.6398    232.5446     64.9581   7.4818246212e+01   2.0031204299e+01    0.6338252    0.3415799  85.12  0.002523811    3.694    0.729
        60 -12.3396    138.0579     64.5052   9.1182824365e+01   4.1738760626e+01     1.230404    0.8627316  32.20  0.005616624    1.541    0.351
        61 -10.5072    182.5738     66.3953   8.2511849139e+01   3.0841203668e+01    0.4217875    0.4067887  40.00  0.002312871    1.095    0.086
        62  -9.7715     67.6567     66.7768   1.1445764226e+02   5.5550878549e+01    0.1990427    0.1814381  -7.54  0.000653285    1.114    0.102
        63  -8.5025    242.8469     68.9821   7.4593623804e+01   1.7495706671e+01    0.2089016    0.1810926 -49.71 0.0008119305    1.255    0.203
        64  -9.0680    194.3366     64.1539   7.9900325496e+01   2.8433972706e+01    0.4008253    0.2302137  17.11  0.001536924    2.796    0.642
        65  -9.0785     99.8314     64.1052   1.0192930988e+02   5.0327518201e+01    0.4296505     0.382046  39.26  0.001645281    1.161    0.139
        66  -8.7607     32.6021     65.6037   1.2889783748e+02   6.0105475942e+01    0.2454534    0.1217442  -2.05  0.000966499    3.220    0.689
        67  -9.7669    125.4463     62.5274   9.3755526816e+01   4.5032047675e+01    0.3537302    0.1818962 -43.45  0.001379675    2.007    0.502
        68  -8.1807    213.2027     63.1255   7.6832434203e+01   2.4341502817e+01    0.2042251    0.1748544  -5.14 0.0006334266    1.156    0.135
        69 -10.7472     15.7006     65.4050   1.3635912675e+02   6.1412463121e+01    0.6355397     0.391216  70.68  0.003244283    2.019    0.505
        70 -10.4804     70.3269     62.4342   1.1199723596e+02   5.6106990592e+01    0.4708392    0.1985411  35.55  0.001805167    2.514    0.602
        71 -10.5737    220.0326     60.0099   7.5098791051e+01   2.3265080261e+01    0.4731539    0.3043027   1.82   0.00225828    1.964    0.491
        72 -10.9121    226.7199     59.5403   7.4143398672e+01   2.1905884608e+01    0.4872347     0.325918 -71.45  0.002431256    2.104    0.525
        73  -7.8259      1.6990     60.6238   1.4186842864e+02   6.3251520064e+01    0.2130407    0.1058037 -46.66 0.0005676141    1.791    0.442
        74  -9.6221     31.5033     58.8963   1.2773576382e+02   6.1827924807e+01    0.5209609     0.233373 -22.02  0.001810605    4.032    0.752
        75 -10.7948    149.8940     57.9074   8.6241810442e+01   3.9993813626e+01    0.6457376    0.4774246  46.35  0.003110025    1.352    0.260
        76  -8.6218     37.9925     57.9858   1.2448911203e+02   6.1420947788e+01    0.2133196    0.1639236  73.44  0.001137731    1.715    0.417
        77  -9.4683    176.1583     56.6737   8.0711804428e+01   3.3784562129e+01    0.2671081    0.1900959 -39.20 0.0009070735    1.377    0.274
        78  -9.6387     90.8180     57.0071   1.0243488548e+02   5.3565641777e+01    0.5854719    0.2218056  43.58  0.002055657    2.722    0.633
        79 -10.5382     96.7968     52.9249   9.8863994771e+01   5.3144082392e+01    0.6907944    0.4984914  62.45  0.002643155    1.782    0.439
        80  -8.8728    216.7711     55.8025   7.4396196155e+01   2.4502672298e+01    0.2155007     0.176174  15.33  0.001034417    1.346    0.257
        81  -8.3580    212.7447     55.8837   7.4937377898e+01   2.5378429825e+01    0.2485232     0.189088  51.66 0.0006879596    1.416    0.294
        82  -7.3528    170.4631     56.5066   8.1678243565e+01   3.5188713690e+01    0.1482126    0.1411067 -33.98 0.0008087845    1.059    0.056
        83  -8.5697     47.9748     55.8117   1.1927519397e+02   6.0799401397e+01    0.2156997    0.1533576  59.14 0.0006199889    1.943    0.485
        84  -7.8511     28.3242     56.2892   1.2855512466e+02   6.2731135006e+01    0.1399614   0.08678195 -35.24 0.0003165453    1.609    0.379
        85  -8.0543      6.2022     56.5730   1.3915851283e+02   6.4062154132e+01     0.164526     0.111325 -21.28 0.0005990251    1.649    0.393
        86  -9.9324    222.8755     54.2902   7.3241169739e+01   2.3368725094e+01    0.3979415     0.148891 -44.54  0.001516363    2.787    0.641
        87  -8.9482    186.3398     55.0078   7.8506449755e+01   3.1575913799e+01    0.2657694    0.2048322  46.51 0.0007420214    1.342    0.255
        88  -9.3219     84.9552     55.0312   1.0379708968e+02   5.5102289366e+01    0.2459568    0.1785794  -4.20  0.001133127    1.720    0.419
        89  -8.9099    248.1815     54.1641   7.0432092797e+01   1.8218048264e+01    0.1815384    0.1291303 -45.41 0.0005582978    1.347    0.258
        90 -10.4898     63.5923     52.6836   1.1134989707e+02   5.9311808439e+01    0.4018469    0.2786488  55.63  0.001549177    1.945    0.486
        91 -10.2935    179.0751     48.6168   7.7733630412e+01   3.4195732885e+01    0.6415057    0.3618284  26.84  0.002527949    2.509    0.601
        92 -10.1026    151.9254     50.1834   8.3213527389e+01   4.0682753757e+01    0.4151839    0.3238681  47.43  0.002065256    1.278    0.217
        93 -11.2251    144.4241     49.3343   8.4515196664e+01   4.2669809055e+01    0.6399518    0.4842445  74.14  0.003006372    1.574    0.365
        94  -8.2738     22.4955     53.0666   1.3055133834e+02   6.3966086982e+01     0.206111    0.1132482 -63.50  0.001023334    1.561    0.360
        95  -9.6837    207.4294     50.3924   7.4123646982e+01   2.7265037009e+01     0.437838    0.3562417  52.17  0.001743734    1.315    0.239
        96  -8.5075    212.9881     49.1247   7.3065405315e+01   2.6168854226e+01    0.2067162    0.1976146  83.61 0.0003589766    1.153    0.133
        97  -7.6383    131.6441     51.2909   8.8186146029e+01   4.5493081043e+01    0.1536368    0.1215485 -74.40 0.0007028079    1.683    0.406
        98  -9.4775     83.8676     50.9555   1.0264812529e+02   5.6125024733e+01     0.308187    0.2077274  41.20  0.001459069    1.535    0.349
        99  -9.3751    172.5337     49.4233   7.9078748177e+01   3.5688353517e+01    0.4282316    0.2656412  14.52  0.001748175    2.302    0.566
       100 -10.1543     76.1129     46.1292   1.0369878754e+02   5.8536659463e+01    0.5452248    0.2040314 -38.98 0.0006582217    2.623    0.619
       101  -9.7837    237.2082     47.9403   7.0017568801e+01   2.1117518166e+01    0.2866157    0.1677243 -24.55  0.001488411    1.513    0.339
       102  -9.7691    181.6363     52.3629   7.8467641254e+01   3.3065892514e+01    0.3057489    0.2154411  37.72 0.0008052879    1.530    0.346
       103  -9.2411     36.1221     47.8869   1.2233067786e+02   6.3976391929e+01    0.3063655    0.1425269 -35.86  0.001280155    2.321    0.569
       104  -9.5111     64.5291     44.2729   1.0772567810e+02   6.0930974993e+01    0.2841075    0.1942329  54.14 0.0008703123    1.947    0.486
       105  -9.5090     45.4301     47.4064   1.1763467684e+02   6.3023020323e+01    0.2077739    0.1893492  33.92  0.001244717    1.256    0.204
       106  -8.1393    247.4803     46.4957   6.8650296699e+01   1.9221651305e+01    0.1274884    0.1069064 -31.90 4.750695e-05    1.016    0.015
       107  -8.7183    203.7744     45.2214   7.3146641779e+01   2.8745275573e+01    0.4787938    0.2487868  57.42  0.002142885    1.989    0.497
       108 -10.0197    206.6139     36.7703   7.0407409153e+01   2.9093372270e+01    0.5445824    0.3555351 -17.66  0.001927597    1.542    0.351
       109  -9.6313    199.5450     28.1490   6.8757571306e+01   3.1724976003e+01    0.3871523     0.357878 -69.12  0.002087561    1.097    0.089
       110 -10.7136    198.5059     38.1503   7.1791210490e+01   3.0832884537e+01    0.8208877    0.4781587 -39.06  0.003207634    1.603    0.376
       111 -10.2205    193.8425     30.1557   7.0020175262e+01   3.2872104615e+01    0.5383543    0.4362331 -23.28  0.002788251    1.196    0.164
       112  -9.2008    125.9461     45.8912   8.7629556908e+01   4.7736793737e+01    0.2615984    0.2222333 -43.11 0.0009395073    1.239    0.193
       113  -8.2678    104.2339     46.3728   9.3923966235e+01   5.2727708369e+01    0.2022726    0.1446126  57.87 0.0009342616    1.586    0.369
       114  -9.7979     71.4403     44.8349   1.0505014196e+02   5.9636228602e+01     0.331098    0.2517709  80.13  0.001528484    2.246    0.555
       115  -7.7999    116.0000     44.9398   8.9908245676e+01   5.0266850986e+01    0.2527581   0.08492435 -33.17 0.0008033971    2.949    0.661
       116  -7.4325    112.8516     43.9697   9.0413916843e+01   5.1164328777e+01    0.3291784    0.1933489  25.82  0.001109673    2.258    0.557
       117  -8.7264    190.8078     42.8140   7.4194660908e+01   3.2103862020e+01      0.34462    0.2843843  28.49  0.001872971    1.315    0.240
       118  -8.8842    220.2507     43.4202   7.0668145830e+01   2.5240902381e+01    0.2471067     0.122771  58.88 0.0009558222    2.134    0.531
       119  -9.9933    133.8451     39.2048   8.3212418877e+01   4.6801481968e+01    0.3121511    0.2462722  30.08  0.001161268    1.310    0.237
       120  -8.6330    155.6297     42.3821   7.9817438330e+01   4.0873117797e+01    0.2575966    0.1971071 -75.61 0.0006212924    1.648    0.393
       121 -10.0425    153.4967     37.9495   7.8688030943e+01   4.2011558905e+01    0.5076511     0.339332 -76.02  0.001861617    2.134    0.531
       122  -8.8692     27.9532     38.5800   1.2346664768e+02   6.6901711862e+01    0.2221028    0.2060421  76.45  0.001410299    1.350    0.259
       123  -9.1420     25.8603     50.3310   1.2817097302e+02   6.4357289147e+01    0.1961312    0.1613242  48.74  0.001168475    1.472    0.321
       124  -8.0019     11.6533     47.6769   1.3472372355e+02   6.5951081018e+01    0.1419917   0.07438234 -40.84 0.0004698972    1.740    0.425
       125  -7.5294     95.9985     36.4725   9.2463871696e+01   5.6234821004e+01    0.1937086    0.1363481  80.84 0.0007043721    2.394    0.582
       126  -7.8582     89.4999     35.9805   9.4437150055e+01   5.7729276992e+01    0.2076713    0.1252581  -7.88 0.0008083687    2.405    0.584
       127  -8.8259    153.8938     33.0788   7.6908013084e+01   4.2540638499e+01     0.228513    0.2009426 -62.42 0.0006267579    1.238    0.192
       128  -8.0017      6.9564     29.7934   1.3282555240e+02   7.0390340631e+01    0.1747543    0.1381935 -49.74  0.000253333    1.010    0.010
       129  -9.1736     69.5200     26.6811   9.7742487883e+01   6.3340991006e+01    0.2572894    0.2153478   7.16 0.0002136014    1.147    0.129
       130  -8.1593    139.1522     26.1467   7.7138946557e+01   4.7184119527e+01    0.2016472    0.1742302 -63.45 0.0003901237    1.296    0.229
       131  -9.2060    249.6905    241.6053   1.0761621056e+02  -3.5512028532e+00    0.3196747    0.1484505 -16.54  0.002058418    2.079    0.519
       132  -7.9788    185.4245    243.1963   1.1842847999e+02   3.9452254937e+00    0.1192035    0.1041719 -31.11 0.0009495876    1.629    0.386
       133  -8.1212    248.6010    229.7042   1.0603509327e+02  -2.3521685941e+00    0.1663404    0.1124377  35.66  0.001172288    1.865    0.464
       134  -7.9416    150.9490     20.3313   7.2854153919e+01   4.4799903060e+01    0.2027227     0.179976  59.52 0.0005259098    1.103    0.093
       135  -7.1418     74.6387     20.7119   9.2692787034e+01   6.3283449290e+01    0.1507058    0.1016538  15.87 0.0006685232    1.690    0.408
       136  -7.7834     15.2177     18.0202   1.2328994550e+02   7.2482908446e+01    0.1677394     0.132521 -40.95  0.001058416    1.043    0.041
       137  -8.2644     56.0200    220.0269   1.4093602857e+02   2.3311710812e+01    0.1554122    0.1460862  71.19            0    1.235    0.190
       138  -8.8188     55.9918    215.7118   1.4065440526e+02   2.4063002250e+01    0.2089051    0.1428511 -81.88  0.000774247    1.604    0.376
       139  -7.9845    101.0332    214.8990   1.3131087740e+02   1.8906231943e+01    0.1668044    0.1225819  47.48  0.001110793    1.202    0.168
       140 -10.2716    123.9950    206.0088   1.2550947153e+02   1.7302780858e+01    0.1724899    0.1425934  32.03            0    1.001    0.001
       141  -8.1607    139.0039    199.0482   1.2143252497e+02   1.6292890612e+01    0.1743306    0.1477221  26.66  0.001156211    1.021    0.020
       142  -8.6916    133.0005    199.0312   1.2269659950e+02   1.7168897437e+01    0.1747778    0.1466151  31.81            0    1.035    0.034
       143  -8.6386    222.9870    187.9762   1.0340862744e+02   5.3990841981e+00    0.1741433    0.1315768   7.05  0.001163282    1.010    0.009
