#   1 NUMBER                 Running object number                                     
#   2 MAG_AUTO               Kron-like elliptical aperture magnitude                    [mag]
#   3 X_IMAGE                Object position along x                                    [pixel]
#   4 Y_IMAGE                Object position along y                                    [pixel]
#   5 X_WORLD                Barycenter position along world x axis                     [deg]
#   6 Y_WORLD                Barycenter position along world y axis                     [deg]
#   7 A_WORLD                Profile RMS along major axis (world units)                 [deg]
#   8 B_WORLD                Profile RMS along minor axis (world units)                 [deg]
#   9 THETA_WORLD            Position angle (CCW/world-x)                               [deg]
#  10 FWHM_WORLD             FWHM assuming a gaussian core                              [deg]
#  11 ELONGATION             A_IMAGE/B_IMAGE                                           
#  12 ELLIPTICITY            1 - B_IMAGE/A_IMAGE                                       
         1 -11.0596      8.9609     25.9831   1.2659709911e+02   6.8824049971e+01     0.401802    0.1610074 -52.93  0.001618947    1.741    0.426
         2 -11.7194     60.7983     23.9720   1.0285092950e+02   6.3910814630e+01    0.5236511    0.2176928 -49.75  0.002105968    2.723    0.633
         3 -11.3657     25.8555     19.8274   1.1642661926e+02   6.8843932266e+01    0.6224496    0.2795535 -27.32  0.002734063    3.075    0.675
         4 -11.6694     26.5899     13.8520   1.1356805810e+02   6.9931180013e+01    0.3043182    0.2533895  57.27 0.0005945305    1.829    0.453
         5 -10.5026    107.9087     17.6621   8.4236931121e+01   5.6040697137e+01    0.3853165    0.2026277 -17.06 0.0008279675    1.996    0.499
         6 -10.0381    104.2818     18.7286   8.5718730971e+01   5.6697957972e+01    0.2850179    0.1585618  -4.40 0.0008494429    2.369    0.578
         7 -11.3808    131.1284     14.8456   7.7370210799e+01   5.0892629624e+01    0.3893202      0.30104  35.68  0.001820516    1.242    0.195
         8 -10.4531    133.3083     11.6774   7.5572580044e+01   5.0701027830e+01    0.2536392     0.171675  47.79  0.001151587    1.409    0.290
         9 -10.1675     99.5785     13.4099   8.4594945247e+01   5.8425942109e+01    0.3626943    0.1937019 -36.75  0.001616102    1.877    0.467
        10  -9.7848    175.6908     11.9646   6.8367797707e+01   3.9552508335e+01    0.2035702    0.1848541  -7.48 0.0003442588    1.085    0.078
        11 -10.3432    118.8974     10.6146   7.8288163234e+01   5.4358768053e+01    0.3746774    0.1658823 -40.68  0.001421285    2.562    0.610
        12 -12.0179     80.8772      7.1115   8.7245860988e+01   6.3080600881e+01    0.5208644    0.3288457   1.84 0.0006099716    1.763    0.433
        13  -9.8255      8.5674      8.2686   1.2064806369e+02   7.2441651081e+01     0.238851    0.1439253   5.26  0.001334091    2.073    0.518
        14 -10.4615    127.2125      5.6747   7.4256045687e+01   5.2851938761e+01    0.3494971     0.152959 -35.56  0.001014746    2.343    0.573
        15 -11.1679     75.2451      4.9897   8.8047016322e+01   6.4432322271e+01    0.3568414     0.204177 -19.02 0.0009796057    1.631    0.387
        16  -9.6006     60.0962      5.2396   9.3869043615e+01   6.7055782232e+01    0.3335347    0.1037325  43.31  0.001289017    3.484    0.713
        17 -11.8678     27.0056      3.2532   1.0822462538e+02   7.1813664647e+01     0.383722    0.2752655  10.78  0.001689448    1.557    0.358
        18  -9.9159    117.4323      4.1415   7.5689927873e+01   5.5403324069e+01    0.2474767     0.175288  43.96  0.001249742    1.333    0.250
        19  -9.6735     91.6975      4.0362   8.2281267127e+01   6.1259939199e+01    0.1981044    0.1579273  -9.24 0.0004233922    1.121    0.108
        20  -9.1880    100.7164      3.6887   7.9582865104e+01   5.9336574416e+01    0.1469747   0.09609157  19.43 0.0003985434    1.572    0.364
        21 -10.2070     12.2126    238.2250   1.4639333119e+02   2.7334836805e+01    0.1261462   0.06383298  62.29 0.0005600635    1.333    0.250
        22 -10.2300    243.4158    247.5114   1.1216013271e+02  -2.8875895390e+00    0.1597255    0.1113715  26.27   0.00066782    1.081    0.075
        23 -10.9692    246.8233    250.1438   1.1201814156e+02  -3.5324259308e+00     0.421546    0.1055277  37.86   0.00214875    2.711    0.631
        24 -10.5830    250.4882    244.0952   1.1068977071e+02  -3.5853439197e+00    0.2744294    0.1386853 -20.51  0.001922245    2.286    0.563
        25 -12.3809    226.6472    246.5452   1.1447277035e+02  -5.3126131502e-01     0.519174    0.3323795  27.64  0.004040148    1.110    0.099
        26 -11.7036    179.9755    243.9674   1.2120354044e+02   6.2753431191e+00    0.2276112    0.1316251  54.20  0.001048185    1.875    0.467
        27  -9.4013    168.2359    250.6310   1.2372303498e+02   7.2478453470e+00    0.1413501    0.0689443  36.85 0.0003739138    1.562    0.360
        28 -10.3622    127.9391    249.6519   1.2978850604e+02   1.2831157286e+01    0.1371213    0.1290274  36.00  0.001091768    1.383    0.277
        29  -9.8505     72.5858    250.1707   1.3817012152e+02   1.9586769306e+01    0.1034281   0.08140655 -66.21 0.0009397249    1.749    0.428
        30 -11.6786     27.8085    246.1534   1.4445825490e+02   2.4798511624e+01    0.2842568    0.1373183 -86.50  0.002272128    2.014    0.504
        31 -12.4758     21.2487    248.8702   1.4547286327e+02   2.5043265392e+01    0.4300487     0.114199  48.44  0.002871211    2.210    0.548
        32 -11.5140     14.4088    244.6847   1.4628722299e+02   2.6237211475e+01    0.2068756   0.09011702  86.12   0.00148688    2.070    0.517
        33 -10.9687    160.0445    235.6698   1.2340341736e+02   1.0016514408e+01    0.2113044    0.1434503  32.33 0.0008444811    1.300    0.231
        34  -9.9319    135.6723    236.7067   1.2739655862e+02   1.3335538445e+01   0.09696771   0.06944662  25.61 0.0004185388    1.625    0.385
        35  -9.4464     50.2729    240.3531   1.4094405436e+02   2.3350628274e+01   0.07208587   0.06926704  84.18  0.000471318    1.638    0.389
        36 -10.6480    167.0897    233.8388   1.2207596419e+02   9.2043322846e+00     0.185131    0.1376831  40.23 0.0008071237    1.017    0.016
        37 -11.4705    153.3793    233.6500   1.2424945293e+02   1.1206484136e+01    0.1830233    0.1477333  12.44 0.0007337927    1.542    0.352
        38  -9.6603     53.6529    234.6969   1.4013947184e+02   2.3787205071e+01   0.07682563   0.07088256  31.73 0.0007040178    1.691    0.409
        39 -10.0317     79.5264    231.2767   1.3590051160e+02   2.1340577793e+01    0.1778554    0.1011981  46.07 0.0005826391    1.347    0.258
        40  -9.4517     12.8342    231.1263   1.4607449733e+02   2.8298561469e+01    0.1082533    0.0878101  72.41  0.001072286    1.326    0.246
        41  -9.6847    236.0270    230.3167   1.1090107410e+02  -5.1711272611e-01    0.1519106   0.09946577  27.88 0.0005468329    1.072    0.067
        42 -10.0841    169.8537    229.1137   1.2108350767e+02   9.3303295531e+00    0.1468436    0.1055423  27.05  0.001073283    1.317    0.241
        43 -10.6432    144.6490    227.4406   1.2499682231e+02   1.3212080066e+01    0.2178372    0.1012319 -59.46  0.001221296    3.344    0.701
        44  -9.9473     86.3263    233.4989   1.3498211190e+02   2.0209965431e+01    0.1671367   0.09672848  75.77  0.001177286    1.889    0.471
        45 -10.5129    129.8440    226.8487   1.2736705817e+02   1.5391612742e+01     0.320786    0.1345224  53.14  0.001759611    2.248    0.555
        46 -10.3939    190.4218    226.4564   1.1744838741e+02   6.5560905004e+00    0.1781721    0.1487439  13.90 0.0006910437    1.247    0.198
        47  -9.4759    139.9954    227.4290   1.2575878931e+02   1.3880833182e+01    0.1648683   0.08001407  42.90 0.0006962668    1.556    0.357
        48 -10.3255     88.1018    227.1496   1.3422330663e+02   2.0881069293e+01    0.1448113    0.1201123  45.51   0.00122516    1.291    0.225
        49 -10.6531     66.5866    226.5126   1.3763692329e+02   2.3536147389e+01    0.2402782    0.1117396  48.38  0.001331113    1.582    0.368
        50  -9.7106      6.6815    227.3163   1.4684847283e+02   2.9392427009e+01   0.09617493   0.04036311  61.86 0.0007039602    1.655    0.396
        51 -10.5310     81.4735    224.7193   1.3511519938e+02   2.2043195645e+01    0.1943062    0.1383799  66.52 0.0009006349    1.172    0.147
        52  -9.5132     25.0040    226.0000   1.4407890863e+02   2.7942483605e+01    0.1381514   0.04075444  37.39 0.0007966933    2.903    0.656
        53 -10.4388    181.8503    223.1390   1.1840383547e+02   8.2063484628e+00    0.2140189    0.1275985 -22.78  0.001339865    2.416    0.586
        54 -10.8734     13.1348    222.1647   1.4572172161e+02   2.9599895232e+01    0.1449366    0.1143056  71.79  0.000342856    1.247    0.198
        55 -11.4110    141.4682    221.3878   1.2486421577e+02   1.4441206815e+01    0.4303032    0.2388876  22.59   0.00226571    2.964    0.663
        56 -11.0059    123.4577    221.4327   1.2788316310e+02   1.7007148803e+01    0.2299401    0.1657498  43.52  0.001042684    1.134    0.118
        57  -9.1472     51.6639    222.6705   1.3977775871e+02   2.5758230805e+01   0.07742508   0.07580961  -7.87 0.0007052037    1.729    0.422
        58 -10.1092    165.7432    220.6041   1.2072959072e+02   1.0934818751e+01    0.1644443     0.130411 -16.54 0.0005479455    1.662    0.398
        59 -10.3992    174.0502    220.0025   1.1928106977e+02   9.7467591336e+00    0.1727614    0.1303357  38.74 0.0006148083    1.019    0.019
        60  -9.9422     21.8620    220.1755   1.4431865556e+02   2.9112770387e+01    0.1092467   0.08801598  68.23 0.0003908084    1.254    0.202
        61  -9.8700    250.3439    219.0627   1.0711176465e+02  -1.6352871693e+00    0.1474048    0.1068416  11.94 0.0005734852    1.143    0.125
        62  -8.8835    233.6624    219.3223   1.0966829755e+02   7.7428796161e-01   0.09539692   0.08056182  50.34 0.0007050625    1.715    0.417
        63 -11.0517    192.5260    216.6575   1.1580439886e+02   7.2889629074e+00    0.3283399    0.1820607  21.39  0.001871977    2.127    0.530
        64  -9.6189     49.8580    218.3671   1.3981754376e+02   2.6603609025e+01    0.1254757   0.07997917  35.75 0.0006122175    1.724    0.420
        65 -10.6041     10.0553    216.9916   1.4600512536e+02   3.0656782730e+01    0.2460289    0.1142385  58.04  0.001755911    1.504    0.335
        66 -10.7476    201.6508    215.8058   1.1420210208e+02   5.9704302368e+00    0.2089547    0.1404067  28.68  0.001012158    1.201    0.168
        67  -9.5341    137.2001    215.6197   1.2494360614e+02   1.5826866657e+01    0.1586981   0.08449238  36.09 0.0009441769    1.697    0.411
        68  -9.5034     30.9845    215.4839   1.4268496994e+02   2.8970713514e+01    0.1458191   0.04065456  53.69  0.000810439    2.586    0.613
        69 -10.6635    169.9017    213.4421   1.1912905278e+02   1.1165597468e+01    0.1737421     0.163815   0.85  0.001236804    1.282    0.220
        70 -10.9278    208.9894    212.1671   1.1249194201e+02   5.2135553289e+00     0.198417    0.1428179  22.22 0.0004780698    1.179    0.152
        71  -9.7655    142.7865    213.3844   1.2373334518e+02   1.5301708597e+01    0.1547889   0.08544695  36.59 0.0004580398    1.590    0.371
        72 -11.3469     20.4538    211.2253   1.4416320324e+02   3.0630017024e+01     0.279516    0.1180876  73.41 0.0008082181    2.065    0.516
        73 -10.5047    217.8982    207.7664   1.1039836425e+02   4.2754719315e+00    0.3207053    0.1498256 -12.06   0.00146777    3.776    0.735
        74 -11.9601      4.4724    207.3925   1.4653450013e+02   3.2630559244e+01    0.3559808    0.1874274  67.52  0.002837424    1.358    0.264
        75  -9.3161    150.3007    205.3081   1.2144762224e+02   1.5251669378e+01    0.1078427   0.08043814  18.95 0.0004559027    1.599    0.375
        76  -9.2796    139.7775    208.0202   1.2362057831e+02   1.6483899991e+01    0.1217204   0.09335355 -55.04 0.0006600674    1.630    0.386
        77  -9.5595    238.5270    201.4367   1.0613128915e+02   1.6816983188e+00    0.1174977   0.08384631  21.93 0.0001320786    1.052    0.049
        78 -10.6768    210.3094    200.8727   1.1056577042e+02   6.2063002707e+00    0.1547315    0.1503128 -28.78  0.001097191    1.485    0.327
        79  -9.8895    205.8319    201.2103   1.1135817045e+02   6.8912410170e+00     0.163122     0.113415  19.40 0.0007586075    1.332    0.249
        80 -11.1262    227.3207    196.7314   1.0713296135e+02   3.9092762415e+00     0.299536    0.1636755  16.50 0.0008662853    2.021    0.505
        81 -11.4518    232.0032    191.7304   1.0554644040e+02   3.6677119671e+00    0.3539357    0.1754193  21.62  0.001813121    2.191    0.543
        82 -11.8377    192.2907    195.1335   1.1270092336e+02   9.8104459520e+00    0.3025971    0.2674351  84.36  0.002103369    1.706    0.414
        83  -9.8850    202.9976    195.9810   1.1101359891e+02   7.9442976713e+00    0.1829125    0.1444228  27.24 0.0007113827    1.018    0.018
        84 -11.6135    215.6020    193.9824   1.0858966515e+02   6.0988999963e+00    0.3084504    0.1695433 -28.83   0.00166568    2.076    0.518
        85 -10.2162    163.3277    191.1031   1.1719112936e+02   1.5126343361e+01    0.2070104    0.1077844 -34.71  0.001088558    2.524    0.604
        86  -9.2156     60.2736    192.6772   1.3630244915e+02   2.9596364601e+01    0.1081366   0.06204594  67.93 0.0002598399    1.576    0.365
        87  -9.7039    198.6424    191.1974   1.1098931865e+02   9.2289207134e+00    0.1535122    0.1064308 -15.31 0.0009493763    1.679    0.404
        88 -11.7313    187.4581    189.3991   1.1263895858e+02   1.1328628482e+01    0.3055768    0.1689608 -29.25  0.001684653    2.226    0.551
        89  -9.9507    250.4756    190.0441   1.0235940024e+02   8.9663379012e-01    0.1583331    0.1016829 -16.55 0.0006061764    1.560    0.359
        90 -10.1668    218.2968    187.5146   1.0706331347e+02   6.3673071791e+00    0.1987734    0.1041531 -28.82  0.001096448    2.137    0.532
        91 -10.0801    166.5413    183.4769   1.1545721896e+02   1.5659747833e+01    0.2046471    0.1395306  37.20 0.0009304411    1.254    0.202
        92  -9.4002     61.6163    184.8266   1.3541979779e+02   3.0794256554e+01    0.1482027   0.08682319 -89.57 0.0009496423    1.711    0.416
        93 -12.0773     16.5869    182.9841   1.4350006279e+02   3.5675084308e+01    0.3100885    0.2074797  68.73  0.002075287    1.106    0.096
        94 -11.5460    249.1657    182.3227   1.0119373432e+02   1.8432575819e+00    0.3717321    0.1700388  22.23  0.001799277    2.395    0.582
        95 -10.2059    236.4869    182.4635   1.0321583027e+02   3.8913917524e+00    0.1219592   0.09352872  19.98 0.0001980578    1.005    0.005
        96  -9.6179     58.4666    182.4629   1.3581167482e+02   3.1571414089e+01    0.1060777   0.08524325  70.23 0.0002543253    1.037    0.036
        97  -9.2806    205.5308    190.4495   1.0969456598e+02   8.1655469123e+00    0.1219747   0.09465892  26.58 0.0002013834    1.034    0.033
        98 -11.7263    224.1766    178.3043   1.0447593488e+02   6.4052092399e+00    0.2826192    0.2197518  24.73 0.0005114724    1.033    0.032
        99 -10.4985      2.1442    180.1249   1.4590418899e+02   3.7366719305e+01    0.1616231    0.1047512  63.12 0.0005301164    1.168    0.143
       100 -12.0502    244.3358    177.7549   1.0111789832e+02   3.0834953789e+00    0.3291006    0.1798179  -7.38  0.001769081    2.011    0.503
       101 -11.0408    200.4331    176.2401   1.0816050981e+02   1.0767434021e+01    0.2523584    0.1675062  20.42  0.001125152    1.516    0.340
       102  -9.3757     70.1923    177.5956   1.3313890396e+02   3.1054749108e+01    0.1317837   0.09862343  35.86  0.000409105    1.496    0.332
       103 -10.4903    241.6198    173.2469   1.0071335507e+02   4.0013721271e+00    0.1646254    0.1011978  -8.36 0.0009457583    1.638    0.389
       104  -9.7957    193.3237    172.3358   1.0873228517e+02   1.2531070155e+01    0.1317253   0.08709363  15.63 0.0007050944    1.714    0.416
       105  -9.3271     59.6417    171.8252   1.3465645965e+02   3.3355390114e+01    0.1532537   0.08909456 -86.94 0.0009438967    1.708    0.414
       106  -9.7350     74.4891    171.4940   1.3168330754e+02   3.1626104908e+01    0.1123656   0.09378975  70.37 1.381651e-05    1.020    0.019
       107 -10.3448    196.9971    169.2499   1.0751961963e+02   1.2282707989e+01    0.1713018   0.09448903  42.56  0.000728431    1.573    0.364
       108  -9.9264     12.3595    169.2119   1.4355795317e+02   3.8497906457e+01    0.1417867   0.07161649  85.75  0.000381371    1.633    0.388
       109  -9.8358      4.5774    167.7592   1.4492923161e+02   3.9384833155e+01    0.1865009   0.07388835 -77.80  0.001146643    2.090    0.522
       110  -9.8190    209.9961    166.3277   1.0468244753e+02   1.0318230134e+01    0.1834546    0.1417866  29.29 0.0004542424    1.085    0.078
       111 -10.6113     54.8290    160.9854   1.3460731433e+02   3.5936674601e+01    0.2435862    0.1570386 -33.12  0.001338732    3.032    0.670
       112 -10.5001     40.8825    165.1287   1.3779157690e+02   3.6638409443e+01    0.1618377    0.1112547  71.03            0    1.204    0.169
       113  -9.1645    229.4942    164.5298   1.0102505406e+02   7.0505540683e+00    0.1295335    0.1013387  17.91 0.0001524522    1.041    0.039
       114 -11.2603    246.5116    162.4786   9.7875135866e+01   4.3129101938e+00    0.1991591     0.171975  37.59  0.000801021    1.392    0.282
       115 -11.3317    247.8313    158.8320   9.6946049954e+01   4.4764248876e+00    0.3985197    0.2276833 -29.37  0.002207427    1.828    0.453
       116 -10.7155     36.0433    161.5116   1.3847182419e+02   3.7806182255e+01    0.3067562    0.1477653 -80.73  0.001834341    1.877    0.467
       117  -9.4447    200.0514    162.7890   1.0577296951e+02   1.2586291077e+01    0.1728642   0.09207375  44.10 0.0004597614    1.673    0.402
       118 -10.4219    238.1835    158.8242   9.8482414596e+01   6.1646995275e+00    0.1841529    0.1248402  15.89 0.0006006699    1.331    0.248
       119  -9.7498     48.3481    158.7156   1.3572928178e+02   3.7082370705e+01    0.1174873   0.06670175  65.55 0.0003110276    1.651    0.394
       120  -9.9738      7.9858    158.4586   1.4381621103e+02   4.0844234498e+01     0.127401   0.09119006  41.79 0.0004414464    1.514    0.340
       121 -10.5623     23.0336    156.2803   1.4070404710e+02   4.0014899499e+01    0.3265223    0.1496401  45.27  0.002033849    1.944    0.486
       122  -9.5290     23.7114    152.6677   1.4031085010e+02   4.0653689363e+01    0.1643227    0.1233718 -78.62 0.0005776225    1.234    0.190
       123  -9.7127    217.5388    154.8342   1.0113582338e+02   1.0387719685e+01    0.2577429   0.08103929  44.17 0.0009930568    2.796    0.642
       124  -9.9346    197.0626    153.5204   1.0451733076e+02   1.4408891145e+01    0.2065943    0.1172655  43.75  0.001032072    1.590    0.371
       125  -9.3922    151.5271    153.0608   1.1325096945e+02   2.2995513211e+01     0.170884    0.1147161 -74.48 0.0008017361    2.452    0.592
       126 -10.4681      9.9395    152.5406   1.4309788671e+02   4.1817855431e+01    0.2079105    0.1113555  62.17 0.0007589262    1.571    0.363
       127 -10.0436    205.2833    152.2916   1.0278078894e+02   1.3019613489e+01    0.2259028    0.1577455 -21.14  0.001258328    1.500    0.333
       128 -10.4641    178.3525    151.4275   1.0762307554e+02   1.8267367445e+01    0.2808778    0.2226108  57.06  0.001596088    1.403    0.287
       129  -9.7830     92.8152    148.3608   1.2497760325e+02   3.3528789923e+01    0.1670325    0.1123403  31.90 0.0007246473    1.699    0.411
       130  -9.3177    233.6185    147.1752   9.6848029102e+01   8.3439406248e+00    0.1813345    0.1115474 -10.89 0.0009446264    1.666    0.400
       131 -10.5261    206.9982    145.9873   1.0117912881e+02   1.3546276863e+01    0.2519098    0.1730736  41.31 0.0007476658    1.336    0.252
       132  -9.5004     37.5003    146.4766   1.3690112774e+02   4.0596847268e+01    0.1113229    0.0885412  82.43 0.0001578501    1.002    0.002
       133  -9.8023    215.6704    145.6871   9.9580346597e+01   1.1916707033e+01     0.141559   0.09082972  16.52 0.0007043631    1.672    0.402
       134 -10.8758      7.7605    145.3987   1.4311584578e+02   4.3368509974e+01    0.2197918    0.0965583  52.59  0.001121214    1.995    0.499
       135 -10.8369      2.9156    143.8938   1.4402798495e+02   4.4015915085e+01    0.1920056     0.173283 -64.03  0.001107993    1.466    0.318
       136 -10.6634    212.1914    141.7686   9.9361531847e+01   1.3109340983e+01     0.420249    0.1902417  37.06  0.001824529    2.116    0.527
       137 -10.1384     37.3374    141.9579   1.3651742970e+02   4.1520896764e+01    0.1918122    0.1288875  56.14  0.001295866    1.377    0.274
       138 -11.3897     12.4254    141.1961   1.4186730852e+02   4.3842465104e+01    0.2241273    0.1632384 -44.71  0.001414679    1.923    0.480
       139 -10.0479    236.1011    138.8511   9.4665518620e+01   8.8796816685e+00    0.1863834    0.1730131   8.23 0.0006366113    1.240    0.194
       140 -11.8657     57.7833    138.5914   1.3155291696e+02   4.0042180613e+01    0.3176532    0.1878998  65.56 0.0005793214    1.746    0.427
       141  -9.8761     44.2299    138.2395   1.3460197554e+02   4.1589085605e+01    0.2721972    0.1229888  83.95  0.001240013    2.931    0.659
       142  -9.8156     41.4719    135.5027   1.3494141772e+02   4.2431507324e+01    0.1553338    0.1059234  41.15 0.0001560659    1.547    0.354
       143 -11.6220      3.6469    135.7976   1.4339693879e+02   4.5562669371e+01    0.4328655    0.1861739 -58.38  0.002263394    2.427    0.588
       144 -12.0014      9.1228    136.8056   1.4227997868e+02   4.4968457505e+01     0.204493    0.1619744  89.82 0.0002545771    1.102    0.093
       145 -10.0051     22.2453    136.5260   1.3938031078e+02   4.3989969609e+01    0.1878816   0.08990221  39.80  0.001128739    2.073    0.518
       146  -9.9044    138.3428    135.2750   1.1265969416e+02   2.8525903355e+01    0.2519695    0.1559681  33.61  0.000769392    1.734    0.423
       147  -9.8514     79.5177    133.0654   1.2574354300e+02   3.8458750771e+01    0.1791026    0.1134451 -64.93 0.0004127605    1.505    0.336
       148 -11.9524     36.3246    130.7579   1.3563464161e+02   4.3917596609e+01    0.3685689    0.2358047 -82.07  0.001544483    1.328    0.247
       149 -10.3078     74.1721    129.1666   1.2642655307e+02   3.9980037737e+01    0.2032346    0.1858399 -73.06 0.0007380616    1.127    0.112
       150 -10.5464    249.5540    130.2206   9.0632311169e+01   7.3641188339e+00     0.226514    0.2128605 -38.03  0.001457141    1.465    0.317
       151 -10.2118    125.4315    129.9982   1.1449729408e+02   3.1852226474e+01    0.3724888    0.1825726  26.16   0.00130159    3.842    0.740
       152  -9.4635     60.0781    128.5470   1.2972858642e+02   4.1861017112e+01    0.1604559    0.1125681  42.93 0.0004232675    1.480    0.324
       153  -9.7850      1.3252    126.7317   1.4333484603e+02   4.7545805179e+01    0.2056091   0.07670011 -83.76   0.00110404    2.154    0.536
       154 -10.6343     44.4633    125.8385   1.3314983457e+02   4.4146813652e+01     0.183237    0.1557294  54.04 0.0003787592    1.249    0.199
       155 -10.5601    219.5609    124.5049   9.4220227561e+01   1.3964485127e+01    0.2562685    0.2078316  11.52   0.00056689    1.118    0.105
       156 -11.6957     10.0162    122.6074   1.4104678292e+02   4.7799813833e+01    0.3075258    0.2739791  20.22  0.002494117    1.561    0.359
       157  -9.6889     20.7282    121.7415   1.3843378752e+02   4.7171762566e+01    0.1486106    0.1013222  77.38 0.0003985631    1.279    0.218
       158  -9.5052     56.3241    121.6582   1.2969663347e+02   4.3754499335e+01    0.1286498   0.08125771  74.04 0.0007050892    1.730    0.422
       159  -9.5973    221.6212    120.1691   9.2851972585e+01   1.4124588590e+01    0.1994391    0.1227881 -12.83 0.0009432374    1.714    0.417
       160  -9.4509    166.5023    118.9846   1.0305811435e+02   2.5893565021e+01    0.2028412    0.1400318 -35.37 0.0004460101    1.494    0.331
       161 -10.5113     54.1703    117.7409   1.2968233828e+02   4.4837028373e+01    0.2145746    0.1879838  25.26 0.0008858918    1.438    0.305
       162 -10.4254     10.7459    102.5274   1.3909172840e+02   5.1999756108e+01    0.2402012    0.1537363  69.96  0.001588981    1.497    0.332
       163 -11.1263     18.2104    116.3599   1.3853713743e+02   4.8505230115e+01    0.2566475     0.173552 -64.37  0.001211089    1.365    0.268
       164 -10.3702     19.7833    112.9837   1.3781385488e+02   4.9102762196e+01    0.2436454    0.1204519 -67.15 0.0005923247    1.646    0.392
       165 -12.1928     16.5129    108.5856   1.3819945535e+02   5.0291773321e+01    0.3447399    0.2709359 -88.18  0.000625286    1.028    0.027
       166 -10.1262    179.3138    116.2109   9.9762875500e+01   2.3657924506e+01    0.2383251    0.1820857  33.80 0.0004723335    1.262    0.207
       167 -10.9980     35.2442    114.1586   1.3402529576e+02   4.7539505381e+01    0.3454314    0.1641569 -74.08  0.001706098    1.807    0.447
       168 -10.5267     38.4414    111.4791   1.3286404272e+02   4.7819346585e+01    0.1631671    0.1596543  72.50 0.0006637629    1.271    0.213
       169 -10.1141    103.4816    113.4601   1.1638942337e+02   3.8930712149e+01    0.1318426    0.1261707 -79.47 -6.091885e-06    1.015    0.015
       170  -9.7050     66.7279    112.9708   1.2571531479e+02   4.4378934003e+01    0.1703993    0.1390822 -75.45 0.0001868023    1.092    0.084
       171 -10.1196     42.3793    110.4945   1.3170472987e+02   4.7650339375e+01    0.2046753    0.1550789 -71.93 0.0003272291    1.122    0.109
       172  -9.8109    167.1638    109.1293   1.0053326623e+02   2.7445923620e+01    0.2257714    0.1914843   8.87 0.0006498756    1.236    0.191
       173 -10.3806    242.0186    108.1780   8.6666168829e+01   1.1478337455e+01    0.2002078    0.1659338 -81.96 0.0006016085    1.943    0.485
       174  -9.6373    133.0122    107.6823   1.0785946343e+02   3.4758678365e+01    0.2029499    0.1866067  37.83  0.001158971    1.089    0.082
       175 -11.0702     23.4161    107.0235   1.3624122090e+02   5.0100085531e+01    0.2399914    0.1655025 -76.44 0.0005043975    1.160    0.138
       176 -11.2286      4.0520    106.0940   1.4115240142e+02   5.1666733126e+01     0.309871    0.2576862  50.69  0.002452039    1.379    0.275
       177 -10.0367     76.4176    107.0397   1.2210606258e+02   4.4391044041e+01    0.2001087    0.1153634 -59.95 0.0004558101    1.589    0.371
       178  -9.0476     49.6450    107.3270   1.2932023024e+02   4.7593129025e+01    0.1294995   0.08226509  72.93 -3.318952e-06    1.773    0.436
       179  -9.0409    126.7063    106.7262   1.0914618732e+02   3.6162466552e+01    0.1350383    0.1107676   0.78 0.0006933985    1.521    0.343
       180  -9.7630    223.1970    103.8925   8.8616563279e+01   1.5984319819e+01    0.2063033    0.1852586 -28.63 0.0005232029    1.219    0.180
       181 -10.0212     92.7046    103.3606   1.1702734552e+02   4.2787067418e+01    0.3789116    0.2350311 -76.35  0.001712255    2.153    0.536
       182 -11.5127     70.2478    102.7011   1.2294444594e+02   4.6161390504e+01    0.3614452    0.2091113  26.13  0.001082066    2.267    0.559
       183 -10.3989    247.5060    102.4757   8.4450494323e+01   1.1056404800e+01    0.1405254    0.1177274   2.75 0.0001653039    1.019    0.019
       184 -10.2678     80.0156    101.7326   1.2009104988e+02   4.5037146911e+01    0.1756933    0.1642931 -75.12 0.0002593217    1.040    0.039
       185  -9.8540    120.1980    101.2749   1.0943768242e+02   3.8478198513e+01    0.2203364    0.1775086  19.08 0.0006949772    1.475    0.322
       186  -9.9619     36.6529    101.2686   1.3194848552e+02   5.0219918121e+01    0.1965373     0.156145  43.15 0.0008030625    1.427    0.299
       187 -10.1342     27.9601    100.9539   1.3428880258e+02   5.1053078155e+01     0.166155    0.1369792 -82.02            0    1.036    0.035
       188 -10.5477      4.0315    100.6765   1.4068338281e+02   5.2824249424e+01    0.2693305    0.1331038  43.50  0.001519504    2.146    0.534
       189 -11.5000     20.8768     98.5503   1.3592831187e+02   5.2142771665e+01    0.3786359    0.1878899 -86.59  0.001389915    1.913    0.477
       190 -10.0879     92.5911     96.7032   1.1557403173e+02   4.4223184192e+01     0.274022    0.1190855 -48.82  0.001142437    2.160    0.537
       191 -10.3353     80.0059     96.6942   1.1903548610e+02   4.6131397683e+01    0.1733622    0.1636482 -86.21 0.0003197207    1.065    0.061
       192 -12.3513      8.6077     94.4057   1.3883833708e+02   5.3896329550e+01    0.3377108    0.1730106 -60.98  0.002041681    1.640    0.390
       193 -10.4607    109.4215     93.3459   1.1024152985e+02   4.2073282623e+01    0.2632345    0.1295872 -44.14 0.0006936398    1.978    0.494
       194 -10.7414      1.8422     93.0953   1.4056943059e+02   5.4582839425e+01    0.3284248     0.102363 -62.80  0.001640533    2.381    0.580
       195  -9.1660    171.2960     91.3520   9.4986018171e+01   2.9557919446e+01    0.1576132    0.1138303   9.73 0.0007033653    1.686    0.407
       196  -9.4032    115.6799     91.2858   1.0806704897e+02   4.1342784031e+01    0.1400125    0.1124461  88.59  0.000298253    1.594    0.373
       197 -10.6042     96.4969     90.3696   1.1298914188e+02   4.4933484738e+01    0.3039553    0.2074252  -5.04  0.001333051    2.593    0.614
       198 -10.5961     61.9563     98.5133   1.2444809817e+02   4.8126942266e+01    0.2644203    0.1691044  24.59  0.001317705    2.019    0.505
       199  -9.3095     73.3329     88.7394   1.1918387364e+02   4.8805573705e+01    0.1283101   0.09756203  76.81 0.0002120528    1.573    0.364
       200  -9.3958      7.0376     88.5448   1.3864797858e+02   5.5269662154e+01    0.1283579    0.1084334  43.19 0.0003365642    1.441    0.306
       201 -11.3925     46.6564     83.9133   1.2614410858e+02   5.3095033414e+01    0.6178036    0.3409773 -70.43   0.00258839    1.668    0.400
       202 -10.9225     85.5004     82.6568   1.1417122400e+02   4.8345076852e+01    0.4411587    0.2091767 -55.81  0.001754918    2.033    0.508
       203  -9.1974      1.2862     85.6360   1.3998786580e+02   5.6230017012e+01    0.1155562   0.06674509  75.08 0.0007021584    1.692    0.409
       204 -10.8911    118.2171     83.1142   1.0518076269e+02   4.2498624873e+01    0.2959028    0.2481304   2.89  0.001039554    1.398    0.285
       205 -11.2212     75.4603     81.5562   1.1686781382e+02   5.0076741283e+01    0.3638732    0.1883787 -57.49   0.00169438    1.785    0.440
       206 -11.0771     71.5219     79.1335   1.1746402764e+02   5.1156014558e+01    0.4200258    0.2383659 -48.07 0.0007167007    1.594    0.373
       207 -10.4216     74.4335     76.4671   1.1589971931e+02   5.1328244764e+01    0.2575807    0.1851034 -46.64 0.0005584941    1.268    0.211
       208 -11.4694     24.4122     78.6816   1.3210507482e+02   5.6269833509e+01     0.374639    0.2151505  85.53  0.001062313    1.967    0.492
       209 -11.6025     19.9180     82.1778   1.3403127801e+02   5.5826029002e+01    0.3466699    0.2172339  86.40  0.001326518    1.585    0.369
       210 -10.9591     15.8311     81.4245   1.3516878218e+02   5.6277893033e+01    0.2867035    0.1815351 -54.78   0.00140148    1.434    0.303
       211  -9.3298    130.3278     82.3404   1.0184014331e+02   4.0207375926e+01    0.1537073    0.1155846   1.97 0.0007051532    1.736    0.424
       212  -9.9867      2.4544     72.0503   1.3808533891e+02   5.9140925742e+01    0.2224274    0.1182839 -57.95   0.00136802    1.545    0.353
       213 -11.5621      3.1743     78.1541   1.3860470230e+02   5.7763165703e+01    0.5018921     0.331055  54.40  0.003412299    1.691    0.409
       214 -11.2983      6.8630     73.7840   1.3691261590e+02   5.8521932586e+01    0.4300058    0.2012748  13.99  0.002373633    3.036    0.671
       215 -11.1820     69.1666     67.6831   1.1521939646e+02   5.3965442985e+01    0.4326464    0.2559905 -46.74  0.001492612    1.495    0.331
       216 -11.1324     59.0116     76.5597   1.2073162045e+02   5.3340817031e+01    0.3686214    0.2641683 -87.84   0.00111094    1.679    0.404
       217 -11.8183     62.5502     72.1336   1.1852955133e+02   5.3875285956e+01    0.3867183    0.3236336 -72.33  0.001689145    1.189    0.159
       218 -10.3031     54.7596     72.5494   1.2114656164e+02   5.4731372511e+01    0.2143264    0.1572395 -67.81 0.0004336999    1.262    0.208
       219 -10.7413    150.7644     78.5266   9.5796724246e+01   3.6456631668e+01     0.276392    0.2335472 -55.97 0.0002658368    1.336    0.252
       220 -10.9185     67.1746     85.1066   1.2018394743e+02   5.0428185785e+01    0.2041608    0.1636126 -42.23 0.0006184284    1.268    0.212
       221 -11.2196     77.4905     71.8536   1.1372537028e+02   5.1877677188e+01    0.4169587    0.2787517  51.23  0.001674336    1.769    0.435
       222 -11.4882    108.2931     75.0174   1.0553383484e+02   4.6021764829e+01    0.5301583    0.2838022 -33.32  0.001601725    2.085    0.520
       223 -10.6520     40.5617     73.1063   1.2589679738e+02   5.6117988713e+01    0.3456008    0.2042117 -74.60  0.001212825    1.657    0.397
       224 -11.3669    152.0887     72.2755   9.3592392741e+01   3.7245530500e+01     0.376928    0.2515767  45.92  0.001083724    1.507    0.337
       225 -11.5132     99.3664     65.8391   1.0529532873e+02   4.9516563965e+01    0.3933396    0.1898638  44.51  0.001478027    2.248    0.555
       226 -10.1827    115.8819     70.8352   1.0217862767e+02   4.5378051198e+01    0.3273887    0.1954987 -45.37  0.001277973    1.620    0.383
       227 -11.8182     49.7480     69.5627   1.2208157357e+02   5.5957611488e+01    0.4149042    0.2858429 -37.42  0.002381682    1.539    0.350
       228  -9.0506    215.4789     70.4888   8.0931219671e+01   2.2258839540e+01    0.1490275    0.1371821  -7.70 1.185173e-05    1.036    0.034
       229 -10.7561     37.3798     67.6293   1.2578940121e+02   5.7639551525e+01     0.339234     0.182389 -45.40  0.001802388    1.765    0.433
       230 -10.9341     41.0442     63.7990   1.2366677450e+02   5.8138468439e+01    0.2639823    0.1478887 -85.83  0.001193583    2.691    0.628
       231 -10.9181     31.1878     66.3654   1.2762760575e+02   5.8470900817e+01    0.2946703    0.1820797 -67.06 0.0008361194    1.333    0.250
       232 -11.0121     25.6515     68.3620   1.2989926903e+02   5.8475371184e+01     0.282865    0.1935209 -31.20   0.00174164    1.764    0.433
       233 -11.1229     21.1025     66.2747   1.3105092828e+02   5.9279893193e+01    0.2700128    0.1749842  43.80  0.001628908    1.851    0.460
       234  -9.5056    137.3036     70.3175   9.6474246080e+01   4.0950297800e+01    0.1541719    0.1163126   7.00 0.0007025827    1.625    0.384
       235 -10.9594    130.5268     65.5606   9.6645403601e+01   4.3305756937e+01    0.5442704    0.2184764 -46.52  0.001868685    2.767    0.639
       236 -10.0324      6.9217     67.9604   1.3608627695e+02   5.9804296441e+01    0.1701391    0.1350214 -68.32  0.001238231    1.080    0.074
       237  -9.8684     14.2819     66.5792   1.3341556531e+02   5.9673416165e+01    0.2658464     0.163488 -23.56  0.001002564    2.243    0.554
       238 -11.2240      2.2641     65.0850   1.3722684194e+02   6.0682511696e+01    0.3968008   0.08857801 -59.03  0.001746397    2.813    0.644
       239  -9.0244    146.7018     66.2781   9.2939482967e+01   3.9528762714e+01    0.1459045    0.1209027 -71.04  0.000230709    1.537    0.349
       240 -11.5125    120.1832     64.5915   9.9030866987e+01   4.5693464989e+01    0.5573341    0.3500113  -7.52  0.002174403    2.605    0.616
       241 -10.3841    165.8115     64.7671   8.8242918458e+01   3.5223498166e+01    0.2563116    0.1992932 -14.54 0.0003362461    1.308    0.235
       242 -10.0774    138.1496     65.1867   9.4625323754e+01   4.1677989139e+01    0.2038918     0.181197 -68.82 0.0004902341    1.333    0.250
       243 -11.2248     84.2191     63.1666   1.0907892898e+02   5.2663610750e+01    0.4823903    0.3282389 -63.39    0.0023947    1.703    0.413
       244 -10.5014     86.1373     58.1210   1.0686670449e+02   5.3378777333e+01    0.3434089    0.2333812 -52.88 0.0007854968    1.452    0.311
       245 -10.8155     76.7861     65.1637   1.1204474887e+02   5.3405532261e+01     0.335139     0.178325  50.69  0.001497318    2.399    0.583
       246 -11.0511    174.3490     63.8016   8.6206633103e+01   3.3279709896e+01    0.2820663    0.2648091 -83.48  0.000603946    1.245    0.197
       247 -11.2636     94.6672     68.8717   1.0762233568e+02   4.9736469077e+01    0.7218126    0.1901341 -45.16  0.002274875    3.479    0.713
       248 -10.6434     51.6471     62.3845   1.1964726185e+02   5.7323858205e+01    0.2628009    0.1549967 -32.53  0.001311351    2.035    0.509
       249 -11.1307     11.0623     62.3207   1.3380747587e+02   6.0814969776e+01    0.2721159    0.1621749 -56.34 0.0008271695    1.361    0.265
       250 -11.1410     64.8030     59.9435   1.1445976434e+02   5.6218023994e+01    0.5616649    0.1918373  43.43  0.002136596    3.553    0.719
       251 -10.1995     71.9495     61.7325   1.1259948555e+02   5.4842281498e+01    0.2202946    0.1920751 -44.11 0.0002017671    1.017    0.016
       252 -10.3257     70.5006     58.4780   1.1209399410e+02   5.5735970360e+01    0.2584171    0.1760852 -46.74 0.0007243814    1.276    0.216
       253 -10.4095     32.5987     61.2001   1.2602286457e+02   5.9496651992e+01    0.3478597    0.1647373 -45.59  0.001484153    1.956    0.489
       254 -10.7056     27.2716     61.2295   1.2791404702e+02   5.9934191040e+01    0.4138151    0.1809705  21.71  0.002047641    3.003    0.667
       255  -9.8403    183.9326     61.2897   8.3588925016e+01   3.1275098861e+01    0.2136691    0.1894913  38.22 0.0003937482    1.121    0.108
       256  -9.4302    191.6865     63.6834   8.2921265025e+01   2.9000076128e+01    0.1616258    0.1120315  20.07 0.0002288917    1.644    0.392
       257 -11.5403     57.7348     59.2250   1.1667623149e+02   5.7284992805e+01    0.3866141     0.232233 -53.62  0.002040769    1.415    0.293
       258 -11.5714    135.7462     50.6571   9.0268279685e+01   4.4711671732e+01     0.468805    0.3336824 -69.12 0.0008993329    2.118    0.528
       259 -10.8008    137.0250     57.7704   9.2431351591e+01   4.3223160506e+01    0.4915449    0.2976897  18.12  0.001572103    2.525    0.604
       260 -10.8322    137.5394     54.5336   9.1193853782e+01   4.3651806029e+01    0.2731183    0.2466597  36.29 0.0005033962    1.123    0.109
       261 -10.0770     18.1210     59.2923   1.3077524645e+02   6.1038235117e+01    0.2287146    0.1403885 -75.08  0.000584513    1.408    0.290
       262 -10.9036    122.9399     56.6688   9.5634387802e+01   4.6559314151e+01    0.4483472    0.3078513  81.90  0.001843409    2.546    0.607
       263 -10.0029    156.4987     66.5184   9.0795858248e+01   3.7183685343e+01    0.1527383    0.1462685  -9.97 -4.11814e-05    1.035    0.034
       264  -9.2802    170.3149     57.7158   8.5061578152e+01   3.5204747649e+01    0.1512803     0.120927 -65.25 0.0001913636    1.580    0.367
       265  -9.6513    114.8026     57.3320   9.8066592149e+01   4.8159377376e+01    0.1993453    0.1327714  36.59  0.000251448    1.619    0.383
       266  -9.7361    117.6215     54.7426   9.6393013577e+01   4.8042289791e+01     0.229386    0.1404476 -34.35 0.0003412672    1.551    0.355
       267  -9.6875     80.7562     57.0415   1.0824453303e+02   5.4477431525e+01    0.1909936    0.1592309 -41.31 0.0003860688    1.064    0.061
       268 -10.8916     99.7962     55.9154   1.0190601768e+02   5.1387766854e+01    0.5215162    0.2014234  40.47  0.001917045    2.895    0.655
       269  -9.3326    149.5299     55.5869   8.8754295045e+01   4.0642128522e+01    0.1517173    0.1449087  -0.56 2.649054e-05    1.026    0.025
       270 -11.5561     38.3809     51.7626   1.2157733467e+02   6.1037028060e+01    0.5732059    0.3194455 -42.76  0.003090243    1.640    0.390
       271 -10.4911     44.8305     51.1963   1.1900777072e+02   6.0502203473e+01    0.2870077    0.1786303 -41.16  0.001123449    1.471    0.320
       272 -10.4153     46.0866     46.9908   1.1727933805e+02   6.1263182815e+01    0.2157135    0.1615124 -59.48 0.0003240951    1.224    0.183
       273 -12.4731    128.0305     51.3589   9.2443522922e+01   4.6361590344e+01    0.4718299    0.3223888 -18.23 0.0003986279    1.572    0.364
       274 -11.9169      4.4225     52.7838   1.3456098041e+02   6.3281370293e+01    0.5285885    0.2357441 -23.82  0.002570609    3.523    0.716
       275 -11.2856     13.0150     49.8857   1.3077464904e+02   6.3441472965e+01    0.3179456    0.1472192 -58.18  0.001383849    1.579    0.367
       276 -11.8973      8.6804     45.9558   1.3164167001e+02   6.4553738861e+01    0.4313804    0.3343815 -47.53  0.001641118    1.218    0.179
       277 -10.2357    157.5245     52.6563   8.6009075928e+01   3.9152102668e+01    0.2753852    0.2073578   1.32  0.001038754    1.473    0.321
       278  -9.3994     96.1899     52.8607   1.0193889251e+02   5.2645433760e+01    0.1913827    0.1562836 -15.22 0.0002929895    1.274    0.215
       279 -10.4533     87.0878     52.7878   1.0476910258e+02   5.4280991549e+01    0.2648898     0.195379  49.84 0.0009397864    1.584    0.369
       280  -9.8905     83.0347     51.5123   1.0564133958e+02   5.5216895529e+01    0.2139999     0.168445 -40.20 0.0003057067    1.131    0.116
       281 -10.4554     73.2047     51.6917   1.0899315590e+02   5.6740127293e+01    0.3051339    0.2553708 -86.53  0.001732478    1.583    0.368
       282 -11.4930     51.8244     49.2215   1.1581497995e+02   6.0135015681e+01    0.5125312    0.2437128 -55.76  0.001749826    1.851    0.460
       283 -11.0821    145.5827     46.4804   8.6471313832e+01   4.3031913727e+01    0.4531806    0.2167145 -41.49  0.001537949    2.175    0.540
       284 -11.8728    142.5535     46.4893   8.7165228872e+01   4.3764302116e+01    0.6171588    0.3693467 -28.89  0.002518778    1.615    0.381
       285 -10.5455    114.9305     49.3760   9.5214411104e+01   4.9567004742e+01    0.2930638    0.2292001 -22.23 0.0009019792    1.244    0.196
       286 -11.2477    101.9901     49.5186   9.8988386648e+01   5.2172861248e+01    0.3927791    0.2621405  63.79  0.001789055    2.118    0.528
       287  -9.0620    104.3201     46.2990   9.7110722309e+01   5.2297944945e+01    0.2335833    0.1314463  36.46 0.0004829403    1.988    0.497
       288 -10.1670     76.8157     50.1797   1.0725046936e+02   5.6488222472e+01    0.1925048    0.1490218 -23.65   0.00105603    1.324    0.245
       289 -10.2575    162.9607     47.6843   8.3187190592e+01   3.8536795326e+01    0.2134348    0.1950544  40.01 0.0004358428    1.098    0.090
       290 -10.6330    154.6235     47.8281   8.4964216294e+01   4.0603615481e+01    0.2267398    0.1980458 -27.77 0.0004628899    1.123    0.110
       291 -10.0704    157.5344     46.4809   8.3881502253e+01   4.0077518549e+01    0.2377698    0.1377405  44.74 8.941881e-06    1.727    0.421
       292 -10.3257     91.8522     46.1414   1.0086623708e+02   5.4713043544e+01    0.2173372    0.1859208 -56.80 0.0009368236    1.319    0.242
       293  -9.3862     22.8572     46.1707   1.2609273156e+02   6.3586185627e+01    0.1635469    0.1066894 -48.84 0.0003773055    1.266    0.210
       294  -9.6547      7.2027     40.9698   1.3117286478e+02   6.5719357188e+01    0.2270848     0.123599 -63.74 0.0009225409    1.352    0.260
       295  -9.8318    233.1437     45.1668   7.1220065640e+01   2.1159014066e+01    0.2130683    0.1792156   8.37 0.0004638092    1.181    0.154
       296  -9.7446    123.4908     38.5312   8.8836784870e+01   4.9489076763e+01    0.1515142    0.1377442  -1.06 6.786331e-05    1.031    0.030
       297 -10.9754    122.2549     44.2478   9.1339224530e+01   4.8848250565e+01    0.5812752    0.2703605 -37.88 0.0007427085    2.044    0.511
       298 -10.3018    119.2195     39.7408   9.0423848172e+01   5.0260266765e+01    0.2834181    0.2060193 -10.80 0.0008007648    1.464    0.317
       299 -10.3112     98.7967     44.4013   9.8053734619e+01   5.3726131377e+01    0.2656752    0.1989587   4.52 0.0006273225    1.592    0.372
       300 -10.0050     86.4014     44.8966   1.0215821013e+02   5.5921953958e+01     0.223436     0.162306  33.95 0.0008576649    1.513    0.339
       301  -9.9036     74.8036     43.5755   1.0558301678e+02   5.8108358391e+01      0.17338    0.1324984  52.85 0.0008643807    1.644    0.392
       302 -11.2714     64.0548     41.5477   1.0868787639e+02   6.0119317978e+01    0.2675729    0.1912701 -40.74  0.001500477    1.194    0.162
       303 -11.2952     68.7416     37.8786   1.0559255441e+02   6.0146999322e+01    0.4556028     0.216353 -37.52  0.002026587    1.924    0.480
       304 -10.2374     56.1793     42.6345   1.1201463693e+02   6.0965325227e+01    0.2254907    0.1548641 -53.24 0.0009050628    1.327    0.246
       305  -9.7305    163.3034     42.3219   8.1264255452e+01   3.9213338393e+01    0.1628521    0.1131456  21.05 0.0003127218    1.634    0.388
       306 -10.3627     23.8533     41.4578   1.2445879500e+02   6.4529751401e+01    0.2148978     0.179297 -54.20  0.001275618    1.071    0.066
       307  -9.7201    112.3272     42.0000   9.3177791893e+01   5.1390703740e+01    0.3111129   0.08432506  50.54 0.0009315754    3.909    0.744
       308 -11.1124     94.1342     40.3460   9.7936716238e+01   5.5346537729e+01    0.5383616    0.2532363  46.08  0.001659865    2.319    0.569
       309 -10.1702     44.1620     39.9550   1.1576677750e+02   6.2949526974e+01    0.2746792    0.1558357 -57.16  0.001204487    1.592    0.372
       310  -9.4441     28.9424     40.9405   1.2223148777e+02   6.4226910575e+01    0.1426339    0.1113773 -51.51 0.0009320354    1.011    0.011
       311 -10.1275    226.3492     40.5646   7.0747388377e+01   2.3327321839e+01    0.2456908    0.1480409  70.99 0.0008012067    1.917    0.478
       312 -11.7325     82.6734     36.8587   1.0029239565e+02   5.8061680477e+01    0.3650931    0.3287966  49.93 0.0009920419    1.334    0.250
       313  -9.4328     19.3882     37.8154   1.2531719176e+02   6.5643121113e+01     0.174705   0.08107882 -53.15 0.0005234946    1.594    0.373
       314 -10.0073      1.3346     37.8547   1.3293521157e+02   6.6683144418e+01    0.1685713   0.06978035 -59.93 0.0004341041    1.660    0.398
       315  -9.9796    111.0787     34.8889   9.0723973180e+01   5.2824384297e+01    0.2768125    0.2210399 -53.25 0.0003533108    1.487    0.327
       316  -9.8329    112.1987     31.6259   8.9082767994e+01   5.3090577443e+01    0.4192694    0.2005289  50.44  0.001707539    2.163    0.538
       317 -11.0292    102.0197     36.9323   9.4164867731e+01   5.4389357776e+01    0.3220339    0.2071861  48.81 0.0006931587    1.692    0.409
       318 -10.7804    105.8525     34.1489   9.1909672816e+01   5.4056762288e+01    0.3685288    0.2926954 -23.92  0.001105951    1.161    0.139
       319 -11.0271     24.4083     35.5217   1.2252257426e+02   6.5752103933e+01    0.2264062    0.2189475  85.74 0.0005941697    1.299    0.230
       320 -10.9715     76.3217     33.8104   1.0125093175e+02   5.9698500602e+01    0.2530109    0.1963878  23.12  0.001136434    1.413    0.292
       321 -10.8206     31.7506     33.9343   1.1887801395e+02   6.5453671723e+01    0.2630967    0.1777519   9.97 0.0009048285    1.883    0.469
       322 -10.2489     14.4996     34.0099   1.2636978329e+02   6.6788202899e+01    0.2131415     0.118398  63.87  0.001022174    3.339    0.700
       323 -10.4195      9.2129     33.5590   1.2856092039e+02   6.7205513640e+01    0.2863432    0.1345024 -60.76  0.001485674    1.546    0.353
       324  -9.5152      1.5266     31.4912   1.3144085822e+02   6.8041934106e+01    0.1525867    0.1123251  -0.99 0.0001559738    1.755    0.430
       325 -11.7766      5.8265     30.4256   1.2925745090e+02   6.8058293542e+01    0.3753527    0.2071879 -54.21 0.0002314714    1.321    0.243
       326  -9.8224    176.6654    249.6619   1.2233817290e+02   6.1719306898e+00    0.1022707   0.06314038  23.01 0.0007051714    1.748    0.428
       327 -10.6712     97.5057     32.2584   9.3616568840e+01   5.6075776095e+01    0.2937906    0.2219765   4.89 0.0005860354    1.457    0.314
       328 -10.8964     54.5519     32.9011   1.0906075638e+02   6.3116620415e+01    0.4605922    0.2449581 -20.70  0.001904192    3.002    0.667
       329 -10.2952     56.6664     27.1095   1.0586028623e+02   6.3932623179e+01    0.2488643    0.1580492 -52.46  0.001306586    1.656    0.396
       330 -11.3556    145.2195     31.6251   8.1064093752e+01   4.5268456525e+01    0.2692102    0.2643453  -0.10  0.000280702    1.091    0.084
       331  -9.2027     90.3964     31.4896   9.5529479435e+01   5.7590296538e+01    0.1428951    0.1232382 -18.52 0.0001285416    1.027    0.026
       332 -10.7549     81.8169     29.0066   9.7319406184e+01   5.9593552202e+01    0.3804575    0.2445157 -57.74  0.001741671    2.263    0.558
       333 -10.3306     50.0691     28.2196   1.0901308204e+02   6.4598093996e+01    0.3390325    0.1341522 -38.65  0.001365527    2.293    0.564
       334 -11.2153    151.8782     27.0503   7.7961533226e+01   4.4169594312e+01    0.5358054    0.2585399  67.70  0.001986324    2.471    0.595
       335 -10.0570    124.3847     28.0914   8.4450656437e+01   5.0834487265e+01    0.2469629    0.1891869  32.42 0.0004673978    1.305    0.234
       336 -11.6009     70.5346     26.3896   1.0019400208e+02   6.1971743328e+01    0.4528477    0.2108607  33.32  0.001951408    2.589    0.614
       337 -10.4136    131.8504     26.1367   8.1873786455e+01   4.9313373329e+01    0.2116106    0.1987766 -27.18            0    1.124    0.110
       338 -10.0699    137.2672    247.0105   1.2811995945e+02   1.1892978534e+01    0.1342917    0.1060587  46.51 0.0006857298    1.106    0.096
       339 -10.0055    113.4548     25.4283   8.6146279627e+01   5.3729154694e+01    0.2258206    0.2048719  -3.04 0.0005396546    1.012    0.012
       340 -10.0491    112.7885     22.1209   8.4901413002e+01   5.4342473918e+01     0.255449    0.2157577   9.86 0.0006198831    1.128    0.113
       341 -10.6677     99.8003     22.9821   8.8921102677e+01   5.7052548878e+01     0.369907    0.2895248  16.08  0.001889529    1.297    0.229
       342 -10.3736     54.2451     23.3086   1.0520491346e+02   6.4965250024e+01    0.2554261    0.1743535 -17.92 0.0005690553    1.541    0.351
       343 -10.4467     17.5176     23.9433   1.2191796996e+02   6.8689216230e+01    0.1926276    0.1616454 -20.15 0.0004004072    1.292    0.226
       344 -10.5644     84.1269     22.3636   9.3585894036e+01   6.0259778527e+01    0.2643206    0.1958371   7.44  0.000551577    1.455    0.313
       345  -9.6813     86.7343     19.0069   9.1170153440e+01   6.0278031922e+01    0.2039995    0.1601143 -20.92 0.0005402091    1.132    0.116
       346  -9.2712     48.6688     23.3261   1.0754897231e+02   6.5700147848e+01    0.1194486   0.09954473 -73.17 0.0005820922    1.708    0.415
       347 -10.8942      6.3852    245.2585   1.4741127151e+02   2.6862732242e+01    0.2094679   0.09445928  77.80 0.0008861033    1.781    0.439
       348 -11.6470      8.4087    241.5568   1.4702796901e+02   2.7200210697e+01    0.2969062    0.1181866  68.51  0.002229036    1.890    0.471
       349 -10.3914    124.2357     21.5896   8.1787635640e+01   5.1748721335e+01    0.2481659    0.2145433   2.07 0.0001391591    1.083    0.077
       350 -11.3692     67.0402     21.0613   9.9103602790e+01   6.3450695545e+01    0.3343793    0.2568167  11.40  0.001816816    1.392    0.282
       351 -10.5684    136.9676     20.0699   7.8278721195e+01   4.8819333734e+01     0.225145    0.2095085   7.03 0.0003356034    1.020    0.020
       352  -9.8129    115.3872    244.5139   1.3128726335e+02   1.5094874244e+01    0.1281693   0.09425204 -67.62   0.00106164    1.766    0.434
       353  -9.8149     45.1135     20.5310   1.0786299893e+02   6.6663977502e+01    0.1670903    0.1243128  25.60 0.0005739352    1.552    0.356
       354  -9.5023     35.1510     20.3421   1.1226557957e+02   6.7838954007e+01    0.1577463    0.1115736  39.88 0.0009531173    1.842    0.457
       355 -10.9356    217.3610     16.2403   6.4583148626e+01   2.8150081680e+01    0.5159895    0.1986471  53.74  0.001869321    2.488    0.598
       356 -11.3021    147.2277    244.2469   1.2631263016e+02   1.0848631449e+01    0.2720242   0.08730262  41.46 0.0009775899    2.277    0.561
       357  -9.7657     18.9397     18.8514   1.1940757441e+02   6.9614145286e+01    0.2329659    0.1603862  21.04   0.00151745    1.795    0.443
       358  -9.4606     19.8285     15.3908   1.1761072195e+02   7.0228274103e+01    0.2406614    0.1332129 -28.89 0.0006369299    1.837    0.456
       359 -10.3184      5.0240     18.4475   1.2620765028e+02   7.0608775997e+01    0.1967627    0.1148794 -58.43  0.001044374    1.272    0.214
       360  -9.7340    159.9041     18.3465   7.3192057307e+01   4.3098539318e+01    0.2104503     0.183263  45.79 0.0004697373    1.118    0.105
       361  -9.1542    151.4978     18.5574   7.4782164878e+01   4.5278710919e+01    0.1509826    0.1409544  18.16 5.973256e-05    1.007    0.007
       362 -10.1944      9.8413     16.6504   1.2316249795e+02   7.0694809265e+01    0.1975912    0.1151881 -49.77 0.0004469893    1.249    0.200
       363 -10.3825    110.0573    243.3464   1.3201826494e+02   1.5929746295e+01    0.1804577    0.1142861  79.19  0.001323183    1.959    0.490
       364  -9.1518     86.6414    244.7172   1.3572007483e+02   1.8662134198e+01   0.08487391   0.06730387  29.64  0.000701772    1.671    0.402
       365 -10.2633     76.3912     16.2860   9.3393001901e+01   6.2622372753e+01    0.2186784    0.1773575  30.88 0.0006332219    1.297    0.229
       366 -10.2945     71.9235    243.8583   1.3789427281e+02   2.0496761178e+01    0.1340039    0.1065331  50.42 0.0006665151    1.272    0.214
       367  -9.5841    115.1831     13.1978   8.0342061772e+01   5.4938080483e+01    0.1950592    0.1700357 -47.43 0.0007318431    1.345    0.256
       368  -9.7715     64.5191     13.1950   9.6281481343e+01   6.5137760410e+01    0.2051198    0.1758723  59.34  0.001235228    1.653    0.395
       369 -11.6476     34.7186    241.3465   1.4327756408e+02   2.4794532147e+01    0.3366029     0.175784  42.64   0.00268523    1.593    0.372
       370 -10.5599     31.7253    237.2179   1.4354196763e+02   2.5668009839e+01    0.2268329   0.09488638  66.70 0.0009791484    1.971    0.493
       371  -8.8827     51.3160     11.3176   1.0076492119e+02   6.7454856904e+01    0.1327707   0.08736835 -10.60 0.0003382426    1.652    0.395
       372 -10.0096     81.7506     17.3790   9.2060007809e+01   6.1472060525e+01    0.3491184    0.1728198 -22.84   0.00120721    2.087    0.521
       373 -10.4206     28.6538    232.8993   1.4381630759e+02   2.6583326303e+01     0.378534   0.08308147  41.99  0.002168403    2.876    0.652
       374  -9.0134     24.6875     26.7114   1.1953689273e+02   6.7562242296e+01     0.123872   0.07371619 -34.34 0.0002704274    1.584    0.369
       375 -12.2705    155.8129    241.5579   1.2469979956e+02   9.9546196246e+00    0.3336225    0.1737116  36.33  0.001433862    1.560    0.359
       376 -11.3889     19.7921    238.0987   1.4530799449e+02   2.6669789985e+01    0.3485874    0.1281273  43.93  0.002502772    1.941    0.485
       377 -10.0147     88.6412    241.1398   1.3516677988e+02   1.8893131487e+01    0.1097287   0.08555789 -60.93  0.000939382    1.751    0.429
       378 -11.4208     74.0565    238.5051   1.3723748920e+02   2.0978264779e+01    0.4225219    0.1733583  47.49  0.002812377    1.728    0.421
       379 -10.9104     73.8416    233.0643   1.3691823717e+02   2.1759394965e+01    0.2044987    0.1359639  64.61  0.001035622    1.203    0.169
       380 -10.6219    174.2260    238.5981   1.2148917156e+02   7.6535203836e+00    0.3074308     0.130871  35.10  0.001764315    1.988    0.497
       381 -11.4931    177.5126    234.9894   1.2055390954e+02   7.5608890244e+00    0.2570163    0.1608626  21.50  0.001368413    1.780    0.438
