#   1 NUMBER                 Running object number                                     
#   2 MAG_AUTO               Kron-like elliptical aperture magnitude                    [mag]
#   3 X_IMAGE                Object position along x                                    [pixel]
#   4 Y_IMAGE                Object position along y                                    [pixel]
#   5 X_WORLD                Barycenter position along world x axis                     [deg]
#   6 Y_WORLD                Barycenter position along world y axis                     [deg]
#   7 A_WORLD                Profile RMS along major axis (world units)                 [deg]
#   8 B_WORLD                Profile RMS along minor axis (world units)                 [deg]
#   9 THETA_WORLD            Position angle (CCW/world-x)                               [deg]
#  10 FWHM_WORLD             FWHM assuming a gaussian core                              [deg]
#  11 ELONGATION             A_IMAGE/B_IMAGE                                           
#  12 ELLIPTICITY            1 - B_IMAGE/A_IMAGE                                       
         1 -14.7410      8.0062    151.4648   2.9257908451e+02   5.9799664053e+00    0.5936604    0.3059945  62.26   0.04580335    3.204    0.688
         2 -12.8732      4.2099    171.0096   2.9273977620e+02   5.7745626654e+00   0.09989379   0.02257506 -58.66  0.006547563    3.724    0.731
         3 -13.3899    193.8018     28.1886   2.8967478881e+02   6.3363726862e+00   0.07078523   0.06347629 -41.08   0.00707161    1.114    0.103
         4 -13.4688    209.1967      8.3376   2.8937608515e+02   6.4768352527e+00   0.07112481   0.05111349 -20.22  0.007464439    1.660    0.397
         5 -12.8241      3.5676     10.0190   2.9178557349e+02   7.6484213085e+00   0.09876692   0.02286329 -57.30  0.006587354    3.597    0.722
         6 -11.4482     13.5838      3.5749   2.9162987910e+02   7.6654885058e+00   0.01773342   0.01551726 -58.19  0.002122158    1.129    0.114
         7  -9.1051     57.4899    240.4850   2.9253281588e+02   4.6598096510e+00   0.01177691  0.006593281   9.26  0.001026878    2.316    0.568
         8  -9.8496    249.6412    249.9937   2.9035594526e+02   3.4377902977e+00   0.01199987  0.007251519  26.06  0.001179899    1.669    0.401
         9 -11.3564    139.4829    249.6792   2.9163381513e+02   4.0794230448e+00   0.02451502  0.009793174  31.14  0.002018852    2.381    0.580
        10 -11.6162    126.7625    248.9900   2.9177761656e+02   4.1609819493e+00   0.02029571   0.01610702 -47.27  0.002309846    1.249    0.200
        11 -10.9969    101.5266    247.1177   2.9205995955e+02   4.3285657351e+00   0.01567318   0.01255115  86.47  0.001754029    1.429    0.300
        12 -10.9562     35.1776    245.9998   2.9282525569e+02   4.7242696524e+00     0.035019   0.02044385 -57.84  0.003449293    1.653    0.395
        13  -9.8133     29.3712    249.2911   2.9291238169e+02   4.7194369547e+00   0.01592867    0.0106439 -63.36  0.001657532    1.492    0.330
        14 -10.1461      2.7598    249.1525   2.9322122378e+02   4.8741791227e+00   0.01706329   0.01269379 -63.82  0.001876888    1.342    0.255
        15  -9.5130     13.0395    240.4894   2.9305015406e+02   4.9157906086e+00  0.009943115  0.006518067  26.11 0.0006118201    1.536    0.349
        16 -11.0306    139.3712    245.7661   2.9161177602e+02   4.1255428476e+00   0.01670971  0.009779874 -61.01  0.001468611    1.676    0.403
        17 -10.2923    173.5015    222.0864   2.9107357503e+02   4.2031546807e+00   0.01780175   0.01240797  62.50  0.001822411    1.732    0.423
        18 -12.6010      9.4469    207.4668   2.9289571352e+02   5.3204871552e+00    0.0505091   0.03453884  -2.21  0.003425942    1.814    0.449
        19  -8.7023     94.5996    216.8521   2.9196017000e+02   4.7204027733e+00  0.009309115   0.00635782 -82.71 0.0006239922    1.744    0.427
        20  -8.9081    152.6115    213.0716   2.9126263488e+02   4.4288610768e+00  0.009120578  0.008015837 -58.83 0.0003945665    1.125    0.111
        21 -11.4924     62.6225    199.9017   2.9223138858e+02   5.1020720529e+00    0.0183292    0.0120643 -34.15  0.001307383    1.710    0.415
        22 -10.9288     18.7412    199.2998   2.9273887367e+02   5.3619691496e+00   0.01967911   0.01159015  46.54  0.001037679    1.831    0.454
        23  -9.7890    194.3077    197.5925   2.9068523038e+02   4.3671258099e+00   0.02591951    0.0116053 -85.24   0.00141545    6.326    0.842
        24  -9.0678    181.6760    233.3229   2.9104568717e+02   4.0252679138e+00  0.007011375  0.004971022  62.35 0.0007047334    1.683    0.406
        25 -12.6231     36.4825    234.6088   2.9274234943e+02   4.8492079093e+00   0.01825103   0.01490776 -40.21 0.0007547339    1.244    0.196
        26 -11.7973     68.6940    191.6458   2.9211146079e+02   5.1630247146e+00    0.0155654   0.01228517 -36.79 0.0006502011    1.317    0.240
        27 -13.1446     50.8478    217.0406   2.9247058899e+02   4.9707026644e+00   0.07959867   0.07523863   7.15  0.009920115    1.073    0.068
        28 -13.0880     65.4493    176.7790   2.9206057543e+02   5.3545916507e+00   0.02735414   0.01350835 -41.09   0.00160221    2.278    0.561
        29 -10.7018     78.6237    178.6125   2.9191805478e+02   5.2572185465e+00   0.01194625   0.01097339 -29.57 0.0003501729    1.105    0.095
        30  -9.0657    101.7368    178.1531   2.9164613220e+02   5.1290120664e+00   0.01034007  0.008473774  64.71 0.0008464761    1.359    0.264
        31 -11.5252     85.7227    169.7067   2.9178219759e+02   5.3197392773e+00    0.0322997   0.02655983 -47.86  0.003750944    1.203    0.168
        32  -9.8410     92.4916    166.9343   2.9168679407e+02   5.3128521802e+00   0.01606612   0.01051979 -66.96  0.001326317    1.570    0.363
        33  -9.6250     81.6459    249.3058   2.9230425386e+02   4.4179107834e+00    0.0109215  0.007656935  62.96  0.001112058    1.719    0.418
        34  -9.8544     98.4424    153.0607   2.9153457186e+02   5.4397022078e+00   0.01422644   0.01185793 -57.21  0.000849945    1.180    0.153
        35 -11.8799     87.0118    152.3354   2.9166340850e+02   5.5142044539e+00   0.01470949   0.01164169 -36.75  0.000602863    1.312    0.238
        36 -12.3176     67.1779    143.8253   2.9184369324e+02   5.7276820095e+00   0.03455044   0.02415969  57.75  0.003221868    1.657    0.397
        37 -11.0623    148.8356    229.5979   2.9140524130e+02   4.2586749601e+00   0.02240348  0.008684596  19.91  0.001645387    3.154    0.683
        38  -8.9857    183.1140    146.4305   2.9050907771e+02   5.0262951412e+00   0.01350069  0.007931867  66.06  0.001165115    2.495    0.599
        39  -8.7722    247.3153    228.6483   2.9025525130e+02   3.6990615143e+00  0.007077346  0.004980567  64.67  0.000704658    1.733    0.423
        40  -9.0172    101.2138    148.7868   2.9147673476e+02   5.4733463458e+00  0.009156217  0.007416576 -27.14 0.0003265195    1.329    0.248
        41  -9.6711    109.9232    137.6281   2.9130852835e+02   5.5526374504e+00   0.02032698  0.009734375 -37.28  0.001434738    2.631    0.620
        42 -10.3553     97.0869    135.1399   2.9144320862e+02   5.6557995287e+00   0.01160058  0.009686698 -34.13 0.0004230938    1.240    0.193
        43 -11.1448     58.0519    133.8427   2.9189043653e+02   5.8963872516e+00   0.02723062   0.01598175  77.80  0.002286948    2.755    0.637
        44  -9.7732     81.7716    133.3247   2.9161084065e+02   5.7654252439e+00   0.01147431  0.009354603  60.50 0.0005674707    1.349    0.259
        45  -9.0571    106.9519    124.2830   2.9126329186e+02   5.7248861739e+00  0.008767531  0.008062715  15.69 0.0002411466    1.102    0.093
        46  -9.6378    110.7825    226.1818   2.9182749192e+02   4.5184465514e+00   0.01216181  0.006484435  61.85 0.0009635706    2.899    0.655
        47  -9.7720     53.5903    118.7867   2.9185248720e+02   6.0971112549e+00  0.009443618  0.006456779 -78.52 0.0009533409    1.672    0.402
        48  -9.8372    167.7154    112.8318   2.9048690230e+02   5.5058133143e+00    0.0132399   0.01097657  70.68 0.0008762205    1.355    0.262
        49  -9.2486    203.2170    111.7921   2.9006748652e+02   5.3117654400e+00  0.009468126  0.007554959 -30.07 0.0005582193    1.342    0.255
        50 -13.8257     41.9640    227.0188   2.9263339793e+02   4.9058834596e+00   0.05179828   0.04564814  51.56  0.002750433    1.181    0.153
        51 -11.3975    243.5780     82.9088   2.8942464677e+02   5.4121962683e+00   0.01777747  0.009520043 -49.47  0.001661626    1.832    0.454
        52  -9.0562    157.4558     76.4656   2.9038821726e+02   5.9875315237e+00  0.006542399  0.006421593 -35.13 0.0001887125    1.007    0.007
        53 -11.0372      2.3158     74.5121   2.9218616613e+02   6.9069992987e+00   0.01935528  0.006471157 -60.95  0.001449046    2.836    0.647
        54  -9.5166     33.4455     62.8818   2.9175314855e+02   6.8627487660e+00   0.02176737  0.005173648  40.78  0.001337984    4.315    0.768
        55 -10.0070     17.5480     56.4980   2.9190056439e+02   7.0284986611e+00   0.01283566  0.005139014  38.51  0.001035564    2.447    0.591
        56 -10.4713      6.9984     55.5087   2.9201784810e+02   7.1007378045e+00   0.01033556  0.006496019  26.73  0.001034661    1.596    0.373
        57 -10.1348    198.3319    247.5024   2.9093685254e+02   3.7640858601e+00   0.01233312   0.00607509 -62.19   0.00109424    2.004    0.501
        58 -11.0357    171.8279    247.6007   2.9124541355e+02   3.9164239293e+00   0.01702049   0.01094775  41.60  0.001735285    1.585    0.369
        59 -11.3266      2.7904     37.8530   2.9196134978e+02   7.3299244005e+00    0.0210369   0.01014117 -69.86  0.001784671    2.355    0.575
        60  -9.3235     82.0295    242.2225   2.9225761904e+02   4.4980441481e+00    0.0117698  0.006976563  53.76  0.001091899    2.016    0.504
