#   1 NUMBER                 Running object number                                     
#   2 MAG_AUTO               Kron-like elliptical aperture magnitude                    [mag]
#   3 X_IMAGE                Object position along x                                    [pixel]
#   4 Y_IMAGE                Object position along y                                    [pixel]
#   5 X_WORLD                Barycenter position along world x axis                     [deg]
#   6 Y_WORLD                Barycenter position along world y axis                     [deg]
#   7 A_WORLD                Profile RMS along major axis (world units)                 [deg]
#   8 B_WORLD                Profile RMS along minor axis (world units)                 [deg]
#   9 THETA_WORLD            Position angle (CCW/world-x)                               [deg]
#  10 FWHM_WORLD             FWHM assuming a gaussian core                              [deg]
#  11 ELONGATION             A_IMAGE/B_IMAGE                                           
#  12 ELLIPTICITY            1 - B_IMAGE/A_IMAGE                                       
         1 -13.3357     42.1746     46.0013   1.1613559469e+02   6.2041278096e+01    0.6902875    0.3506748 -53.72  0.002383211    1.613    0.380
         2 -14.7629      7.6100     23.1635   1.2450723460e+02   6.9608985088e+01     1.508318    0.6009349 -51.30  0.007540576    1.749    0.428
         3 -11.9835     83.7448     22.8220   9.0987411153e+01   6.0367456718e+01    0.3966398    0.2681725 -18.93  0.002027356    1.419    0.295
         4 -11.4089     62.7870     17.1357   9.6133494585e+01   6.4915262105e+01    0.3194836    0.2635442  66.14  0.001833549    1.912    0.477
         5 -11.3705     82.1688     13.8076   8.7249251664e+01   6.2009521779e+01     0.285664    0.1942681  -2.45 0.0007555791    1.539    0.350
         6 -12.2857     87.0290     11.4152   8.4450893315e+01   6.1376419564e+01    0.5415133     0.359402  61.93  0.002048447    2.003    0.501
         7 -10.9419    124.0241     10.0740   7.3805273116e+01   5.3200401444e+01    0.2216003    0.1992011  13.81 0.0003867928    1.014    0.013
         8 -10.8160    137.8357      6.1444   6.9295650647e+01   5.0131326191e+01    0.2147309    0.1582458  31.14 0.0007755606    1.312    0.238
         9 -11.3115     33.5218      4.3297   1.0299942212e+02   7.1055314161e+01    0.2115809    0.1809104 -11.74 0.0009364913    1.161    0.138
        10 -11.9102     96.0999      3.3748   7.7694429703e+01   6.0431152684e+01     0.290271    0.1901757  34.75   0.00109739    1.449    0.310
        11 -11.9862     73.4720      1.4822   8.3878463243e+01   6.5289983619e+01    0.2460117    0.1513085  44.98 0.0005847783    1.672    0.402
        12 -11.5763     75.3043     13.4012   8.9469525942e+01   6.3356261086e+01    0.2499408    0.2138223 -23.82 0.0006120975    1.155    0.134
        13 -15.0998    184.0938    200.0564   1.1196417668e+02   9.9273030682e+00     1.321025    0.8733304 -22.04  0.008098415    1.861    0.463
        14 -14.0735    192.8285    198.0449   1.1010767975e+02   8.7615718205e+00     1.116426    0.7591619 -38.87  0.006597321    1.805    0.446
        15 -12.1424    245.2232    192.1237   1.0029979508e+02   1.0268060626e+00    0.3602796    0.2379027  38.67  0.002314621    1.444    0.307
        16 -13.0327    238.4911    195.1596   1.0190484031e+02   1.7617861083e+00    0.7997379    0.3536308 -32.82   0.00424185    2.553    0.608
        17 -13.0102    231.0511    192.7238   1.0269910455e+02   3.1897797447e+00    0.5959446    0.3994881  20.30  0.003814787    1.232    0.188
        18 -11.4417    250.1265    198.7875   1.0067716025e+02  -3.7652267940e-01    0.4138189    0.1469596 -28.65  0.002047981    2.952    0.661
        19 -10.3561    173.2655    184.3574   1.1148357826e+02   1.3856733071e+01    0.1220567   0.08883062   7.68 0.0004127051    1.632    0.387
        20 -12.6829     71.1906    198.3951   1.3268309824e+02   2.6761948112e+01    0.2355161    0.1654546  32.60  0.001636848    1.600    0.375
        21 -10.7474     33.4905    177.5131   1.3821279877e+02   3.4600295266e+01    0.1068906   0.08117218  72.71 0.0008104205    1.016    0.016
        22 -11.7736    217.4289    173.9919   1.0165403166e+02   7.6191350737e+00    0.3500434    0.3041403  25.34  0.002339946    1.180    0.153
        23 -11.8629     89.8466    168.5755   1.2593216771e+02   2.9722442913e+01     0.231765    0.1661632 -78.29  0.001448123    1.450    0.310
        24 -11.7005    211.8902    164.6640   1.0085932169e+02   9.7853624760e+00    0.4832978    0.2227796  28.67  0.002091603    2.419    0.587
        25 -10.6402     86.4074    162.7422   1.2593764298e+02   3.1306779579e+01    0.1619355    0.1061804 -54.06 0.0007393006    1.666    0.400
        26 -12.6436    200.2824    154.7924   1.0102354410e+02   1.3269678749e+01    0.7465506    0.3690112 -28.48  0.003428954    2.224    0.550
        27 -13.6928    192.2071    152.7695   1.0213819858e+02   1.5087049524e+01    0.9997467     0.590852 -16.72  0.004712302    2.147    0.534
        28 -13.0983     81.3984    150.3345   1.2542673452e+02   3.4438115094e+01    0.3954692    0.3460175 -17.04  0.002583383    1.575    0.365
        29 -13.1881     58.8241    145.4327   1.2997196547e+02   3.8259779701e+01    0.6253746    0.3602117  57.89  0.003552991    1.723    0.420
        30 -13.3276     51.7706    143.2404   1.3134814916e+02   3.9503958015e+01    0.4778672    0.2759317  46.80  0.002822771    1.662    0.398
        31 -15.4996    146.4088    125.2090   1.0582946904e+02   2.8657881946e+01     2.599259     2.017025  51.02   0.01384396    1.307    0.235
        32 -11.8597     50.0484    129.6962   1.3016170895e+02   4.2562775285e+01    0.1642984    0.1459907  70.40  0.001150173    1.121    0.108
        33 -14.2701    131.7566    105.1277   1.0458547946e+02   3.5430154429e+01    0.6931673    0.4405147 -31.09  0.003150742    1.783    0.439
        34 -12.9693    120.6562    127.3198   1.1230273611e+02   3.3040522029e+01    0.4449755    0.2459563  43.78  0.002074229    1.772    0.436
        35 -13.8959    109.6567    121.4707   1.1380357768e+02   3.6132923264e+01    0.6121017     0.414194  67.64  0.002983999    1.899    0.473
        36 -12.3105    202.8808    120.8803   9.3067146923e+01   1.7768271131e+01    0.2359816    0.1845529  10.36  0.001248324    1.271    0.213
        37 -11.8248     75.7977    121.1031   1.2237079783e+02   4.1343140878e+01    0.1930796    0.1612994  84.84 0.0004136084    1.176    0.149
        38 -11.6863     44.0043    121.0019   1.3058650322e+02   4.5078891536e+01    0.1533991    0.1235961 -81.01 0.0009810305    1.051    0.049
        39 -12.4480     74.6663    157.6838   1.2786781946e+02   3.3847723538e+01    0.2842905    0.1786221 -52.89  0.001663306    1.765    0.433
        40 -14.8020    106.2132    100.7895   1.1012725903e+02   4.1076176820e+01     0.937133    0.4710891 -47.95  0.003956332    1.909    0.476
        41 -15.4049    119.8936    103.6024   1.0720471305e+02   3.8017354168e+01     1.637651     1.009505 -24.17  0.006887905    2.351    0.575
        42 -14.8578    113.0519     98.4897   1.0773263745e+02   4.0341114353e+01     1.023554     0.496382 -53.23  0.004178795    2.154    0.536
        43 -13.1685     80.4129    105.4121   1.1822612763e+02   4.4153554772e+01    0.4918017    0.3271272 -82.80  0.002455806    1.861    0.463
        44 -12.3335     76.3823    137.3931   1.2478251954e+02   3.7775939737e+01     0.364015    0.1960131 -66.86  0.001871902    1.817    0.450
        45 -13.4416     75.0366    113.1890   1.2118634151e+02   4.3179406290e+01    0.5211138    0.3654383 -21.80  0.002673218    2.174    0.540
        46 -14.5011     82.5060     96.1778   1.1566379763e+02   4.5892186079e+01    0.6959981    0.4444985  52.43  0.003502299    1.785    0.440
        47 -14.6619     77.7267     90.4760   1.1576199865e+02   4.7848514905e+01    0.7360395    0.3985344 -58.23  0.003470541    1.725    0.420
        48 -12.7031     40.2436     92.9426   1.2753743446e+02   5.1722301034e+01    0.3386261    0.1662041 -46.78   0.00168098    2.086    0.521
        49 -12.8547     54.7147     95.0474   1.2358397044e+02   4.9750741075e+01    0.3085887    0.2704206 -57.91  0.001324916    1.098    0.089
        50 -13.3307     17.3175    100.8894   1.3529475836e+02   5.1808297675e+01     0.408551    0.3610899  81.43  0.002209179    1.163    0.141
        51 -13.7812     97.5629     89.2286   1.0965918815e+02   4.5028438613e+01     0.449563    0.3788008 -32.92  0.002509168    1.215    0.177
        52 -13.4658     45.4160     94.0477   1.2617581198e+02   5.0966982394e+01    0.5890776    0.2647945 -78.94  0.002471489    2.775    0.640
        53 -12.4647     32.2833    102.3883   1.3128334867e+02   5.0306413001e+01    0.2245589    0.1803013  60.80 0.0008856867    1.307    0.235
        54 -13.1588     55.5059     84.0237   1.2113928758e+02   5.2156976359e+01    0.3384395    0.2433146   0.68  0.001858537    1.973    0.493
        55 -11.3209    128.8868     83.1784   9.9408803005e+01   4.0358398718e+01    0.2144741    0.2037183 -75.09 0.0003905628    1.174    0.148
        56 -10.6914     35.6622     79.9188   1.2667906054e+02   5.5101036750e+01     0.171474    0.1331779 -70.60 0.0004601682    1.089    0.081
        57 -15.4147     95.7388     72.8182   1.0565702751e+02   4.8822644448e+01     1.219213     0.677554  40.29  0.001853983    1.941    0.485
        58 -12.9437     83.4889     68.5144   1.0819193125e+02   5.1771760796e+01    0.3363781    0.2256488 -46.82 0.0009480292    1.346    0.257
        59 -13.1324     56.8563     77.6953   1.1929874971e+02   5.3428645438e+01    0.2818552    0.2265777 -41.24   0.00114649    1.228    0.186
        60 -12.8750     55.0035     74.0009   1.1904099570e+02   5.4474656332e+01    0.2683623    0.2265384 -56.75 0.0003269406    1.015    0.014
        61 -10.5822     42.4056     77.8234   1.2406654181e+02   5.4950516282e+01    0.1828894   0.09539271 -54.24 0.0005040298    1.595    0.373
        62 -13.4278     72.9794     75.0245   1.1340268142e+02   5.1940754722e+01    0.4071127    0.2667833 -19.62  0.001915551    2.203    0.546
        63 -11.9999     66.4894     76.3243   1.1583386852e+02   5.2537626757e+01    0.2086671    0.1260113  33.85 0.0006249907    1.880    0.468
        64 -12.9538     59.8997     71.3039   1.1673529374e+02   5.4493168104e+01    0.3054006    0.2149678 -71.26  0.001384969    1.507    0.337
        65 -12.7695     63.5223     72.9753   1.1595467060e+02   5.3666582127e+01    0.2758666    0.1859884 -49.97  0.001301207    1.293    0.226
        66 -12.6130    120.5647     73.2267   9.8635759082e+01   4.4020439426e+01    0.3528634    0.2859234 -71.97 0.0004822028    1.584    0.369
        67 -13.6812     87.1831     69.1945   1.0722030327e+02   5.1030979529e+01    0.5353613    0.3415028 -60.00  0.001997512    1.743    0.426
        68 -10.0801     21.2461     66.6577   1.2909157730e+02   5.9247463847e+01    0.1172988   0.08087224  86.52 0.0002429496    1.567    0.362
        69 -10.6312     91.3284     64.2919   1.0439923607e+02   5.1353931729e+01    0.1433377    0.1081385  -9.80 0.0005003365    1.623    0.384
        70 -12.5385    125.5008     57.6853   9.2205585614e+01   4.5883536463e+01    0.3309972    0.2850225  26.24 0.0007339306    1.181    0.154
        71 -10.8154     52.7674     56.8199   1.1530601409e+02   5.8538576389e+01    0.1713019    0.1474811 -77.73 0.0006052832    1.310    0.237
        72 -13.1092     67.4627     53.9228   1.0907231520e+02   5.7260393107e+01    0.4358245    0.3271267 -66.60  0.001979089    1.557    0.358
        73 -11.3514    133.0576     53.6122   8.8822093982e+01   4.4892797439e+01    0.2948462    0.2424047  32.61 0.0008058621    1.230    0.187
        74 -11.2007    145.4783     51.0087   8.4899715879e+01   4.2391153145e+01     0.229565    0.2094445  36.00 0.0006115742    1.099    0.090
        75 -13.1211    244.9337    246.4076   1.0875263492e+02  -3.7863548285e+00    0.3627929    0.1811332  15.39  0.002308009    1.988    0.497
        76 -11.0994    156.9494     43.8961   7.9881331029e+01   4.0640128787e+01    0.2278864    0.2105611   3.90 0.0006768609    1.029    0.028
        77 -10.6195    102.0707     43.5047   9.3717893256e+01   5.3344712190e+01    0.2031782    0.1440421  43.75  0.000353978    1.495    0.331
        78 -10.3362    210.6203     54.5070   7.3766630940e+01   2.5634516905e+01    0.1489445     0.134831  -8.94 -4.806423e-05    1.035    0.033
        79 -12.3163    233.6110    246.7216   1.1048877034e+02  -2.3012214830e+00      0.15336     0.126628 -10.29  0.001308401    1.523    0.343
        80 -11.0338     81.6854     34.9983   9.6998981808e+01   5.8698261397e+01    0.2034436    0.1666868 -31.03 0.0007053522    1.100    0.091
        81  -9.8751    176.4196     33.5024   7.2608330794e+01   3.7031259062e+01    0.1510047    0.1428636   3.27 7.831817e-05    1.013    0.013
        82 -12.1638      2.4493     46.6880   1.3244151543e+02   6.4777831166e+01      0.23252    0.1818224 -75.30 0.0009231087    1.139    0.122
        83 -13.1175    232.4149    237.6658   1.0944095551e+02  -1.3740250109e+00    0.2683507    0.2038565  20.11  0.001242948    1.135    0.119
        84 -13.2135    238.1886    234.3119   1.0808462448e+02  -1.8848333290e+00    0.2257402    0.1479743  34.45  0.001619522    1.263    0.208
        85 -11.0131    219.3940    232.8010   1.1079397204e+02   9.0027493289e-01    0.1369863   0.08975583  -5.77 0.0009548939    1.692    0.409
        86 -13.1141    187.2953    232.4398   1.1591490851e+02   5.6025794398e+00    0.3224265    0.1953732  46.25  0.002148818    1.482    0.325
        87 -14.7819    246.0522    218.9227   1.0458678039e+02  -1.6447526899e+00     1.004803    0.6334681 -19.77  0.006623173    1.698    0.411
        88 -13.1461    192.1337    217.5241   1.1311732319e+02   6.5398700045e+00    0.3613142    0.2088769  32.88  0.002071796    1.381    0.276
        89 -13.2006    200.7048    215.0546   1.1132056988e+02   5.5018909218e+00    0.4286435    0.3414586  30.21  0.002326745    1.094    0.086
        90 -12.5985    212.3845    190.0449   1.0538619170e+02   6.5232587816e+00    0.8754376    0.3107196  44.19  0.003913508    2.493    0.599
        91 -14.4399    214.8181    202.4068   1.0701346739e+02   4.7079383160e+00     1.411821    0.7435879  30.31  0.008038995    1.606    0.377
