#   1 NUMBER                 Running object number                                     
#   2 MAG_AUTO               Kron-like elliptical aperture magnitude                    [mag]
#   3 X_IMAGE                Object position along x                                    [pixel]
#   4 Y_IMAGE                Object position along y                                    [pixel]
#   5 X_WORLD                Barycenter position along world x axis                     [deg]
#   6 Y_WORLD                Barycenter position along world y axis                     [deg]
#   7 A_WORLD                Profile RMS along major axis (world units)                 [deg]
#   8 B_WORLD                Profile RMS along minor axis (world units)                 [deg]
#   9 THETA_WORLD            Position angle (CCW/world-x)                               [deg]
#  10 FWHM_WORLD             FWHM assuming a gaussian core                              [deg]
#  11 ELONGATION             A_IMAGE/B_IMAGE                                           
#  12 ELLIPTICITY            1 - B_IMAGE/A_IMAGE                                       
         1 -13.8549    186.3856     30.6392   6.4866885204e+01   3.5150638131e+01     1.306417    0.9283568  17.67  0.006703089    2.340    0.573
         2 -11.1193     57.0910      6.1315   8.5084339754e+01   6.5126188786e+01    0.1879553    0.1266149  19.45 0.0007443558    1.263    0.208
         3 -11.8422    208.3644      2.0070   5.5914014702e+01   3.3282485058e+01    0.5552616    0.1753168  71.96  0.002416022    2.651    0.623
         4  -9.4634      2.3212      2.3253   1.0680988691e+02   7.2207315185e+01    0.1093249   0.05790724 -12.09 0.0003488483    1.682    0.405
         5 -11.1353    165.1113    236.6285   1.1545226305e+02   4.3730375137e-01    0.2158493    0.1921197 -71.55 0.0007558291    1.359    0.264
         6 -19.3783     27.8707    139.3377   1.3297009534e+02   4.3762330602e+01     20.38219     4.806037 -68.73   0.06436378    4.116    0.757
         7 -11.8635    108.0989    210.6504   1.2376633530e+02   1.5613232768e+01    0.5096706     0.265348  36.96  0.002248011    1.926    0.481
         8 -11.5480    126.9307    207.7538   1.1907252847e+02   1.2968958409e+01    0.3610131    0.2230461 -30.38  0.001509963    2.523    0.604
         9 -10.2333     78.8731    210.6690   1.3027321978e+02   2.0290661498e+01    0.2852286     0.210592 -53.61  0.001575599    1.512    0.339
        10 -12.1409     46.5354    204.2644   1.3655742143e+02   2.6206877725e+01    0.2289592     0.179248  68.90 0.0003038683    1.134    0.118
        11  -9.7692    164.2698    205.9983   1.1044166797e+02   6.4758226087e+00    0.2349652    0.1991056  37.38 0.0003955712    1.121    0.108
        12 -10.9103    105.7507    201.5415   1.2292331734e+02   1.8069729635e+01    0.4308209    0.2391548  27.90  0.001799558    2.320    0.569
        13 -11.5815    193.6698    193.8877   1.0184892618e+02   3.4098592055e+00    0.6951476    0.4455181 -58.54  0.003159435    1.987    0.497
        14  -9.5136     66.6618    233.0521   1.3538437027e+02   1.7154391999e+01     0.162468    0.1317469 -86.82    0.0001266    1.155    0.134
        15  -9.3669    105.2842    197.6585   1.2242544130e+02   1.9044120802e+01    0.1495742    0.1054749  77.29 0.0003426287    1.636    0.389
        16  -9.8946     78.4803    184.5122   1.2675804689e+02   2.6495084434e+01    0.3299067    0.1997235  48.57    0.0015051    1.641    0.390
        17  -9.5713     68.9538    196.9900   1.3073703839e+02   2.4912666977e+01    0.1587329    0.1375805  80.98 0.0003148875    1.019    0.018
        18 -12.0802     74.1059    192.0041   1.2887663902e+02   2.5348467508e+01    0.6488656    0.6205746 -57.88  0.002512161    1.241    0.194
        19 -10.4452     64.3136    193.0090   1.3128287835e+02   2.6506688146e+01    0.4439008    0.2484165  50.26  0.002162979    1.753    0.430
        20  -9.0533    180.2059    192.4205   1.0441100292e+02   6.2413763472e+00    0.1988309    0.1356467  51.30 0.0005208754    1.580    0.367
        21 -10.4796    177.8605    227.1523   1.1125930275e+02  -4.6407387430e-02    0.1945951     0.157018   7.09  0.001092185    1.338    0.253
        22 -10.4908    206.9145    181.7502   9.6700766885e+01   3.3100971224e+00    0.3109069    0.2394539 -74.39  0.001517203    1.874    0.466
        23 -10.1608    211.1978    179.0486   9.5294882324e+01   3.0355157692e+00    0.2841569    0.2303057  -7.78  0.001148501    1.340    0.253
        24  -9.8812     99.5426    180.5736   1.2099798652e+02   2.4067218733e+01    0.2517351    0.2352351  81.96 0.0005736382    1.024    0.024
        25 -10.5941    196.1363    171.0223   9.6659872232e+01   7.5221222130e+00    0.3549266    0.3278695 -11.95  0.001050631    1.085    0.078
        26  -9.4329    193.8851    165.1327   9.5868431775e+01   9.1828744617e+00     0.279659    0.2131059 -67.15  0.001237565    1.615    0.381
        27 -12.0097    113.5329    173.2634   1.1622765060e+02   2.3367226673e+01    0.5705917    0.3864486  52.15  0.002641986    1.509    0.337
        28  -9.4255    192.3423    225.7096   1.0803901915e+02  -2.2745037965e+00    0.1288715    0.1053662  66.20 0.0003629332    1.651    0.394
        29 -12.1749     47.1126    216.6326   1.3769538869e+02   2.3337750546e+01    0.3515449    0.1854298  53.26 0.0009492195    1.735    0.424
        30 -10.5027    184.3974    216.7704   1.0809000717e+02   7.1639085883e-01    0.1945609    0.1271076 -32.37 0.0009547404    1.681    0.405
        31 -11.9283     98.9280    155.7467   1.1659200446e+02   3.0237228672e+01    0.6922226    0.4207042 -35.71  0.001897837    2.103    0.524
        32 -11.5190     64.5154    155.8233   1.2573519752e+02   3.5551189435e+01    0.3388202    0.2807019  57.46 0.0007443345    1.263    0.208
        33 -10.7500    134.0000    143.4908   1.0482636810e+02   2.6516929381e+01    0.6598375    0.2118842 -55.85  0.001758197    4.158    0.759
        34  -9.2533    174.6801    149.2941   9.6484969153e+01   1.6560594184e+01     0.155769    0.1236307 -89.90 0.0002571282    1.610    0.379
        35 -11.7243    109.4378    140.4353   1.1056174485e+02   3.2078953924e+01    0.5685107    0.3376101 -37.27  0.002320257    1.955    0.488
        36 -11.4727     98.0071    140.7101   1.1373163845e+02   3.4078150546e+01    0.2952962    0.2793465   2.02 0.0004277157    1.184    0.155
        37 -11.4488     60.5980    215.0651   1.3473100393e+02   2.1916696391e+01      0.45854    0.2274756  60.95  0.002128917    2.110    0.526
        38  -9.6585     56.6241    210.2363   1.3504493374e+02   2.3542786859e+01    0.3237158    0.2750756   5.50  0.001949576    1.788    0.441
        39 -11.8323    116.7023    130.4067   1.0628617616e+02   3.3075281350e+01    0.5417194     0.399909  14.70  0.001560311    1.814    0.449
        40 -10.6036    104.1292    127.0722   1.0894376877e+02   3.6251308212e+01    0.3390626    0.2803594 -21.95 0.0008377496    1.394    0.282
        41 -10.4076     69.1422    211.4597   1.3249379663e+02   2.1537208309e+01     0.715846    0.2543685  33.36  0.002727459    3.233    0.691
        42 -11.0515    135.4179    124.6049   9.9948661077e+01   3.0577065858e+01    0.8995534    0.1520063 -47.87  0.001948758    6.072    0.835
        43 -10.9086    105.8319    130.8394   1.0935684210e+02   3.5045544452e+01    0.3830276    0.3319153 -78.10  0.001248958    1.236    0.191
        44 -10.9073    111.6063    119.4877   1.0501208136e+02   3.6602349931e+01    0.3591299    0.2503244  36.56  0.001225428    1.512    0.339
        45 -11.9563     68.4587    116.4352   1.1688921245e+02   4.4576117771e+01    0.4544924    0.2733108  25.65  0.002066375    1.947    0.486
        46  -9.6608    167.7267    112.7158   8.9239337893e+01   2.5952978168e+01    0.3227592    0.2228592 -80.76  0.001313891    2.110    0.526
        47 -11.0981    115.2192    110.0122   1.0158239986e+02   3.8020764207e+01    0.3388358     0.179986 -46.56  0.001364417    1.841    0.457
        48  -9.2249    205.7240    110.0377   8.1007323320e+01   1.7837299297e+01    0.2107778    0.1850157 -49.41  0.000604028    1.077    0.072
        49 -12.0238     64.8229    206.1238   1.3280030509e+02   2.3366762165e+01    0.5837944    0.3302651 -50.14  0.001687993    2.073    0.517
        50  -9.8365    138.6636    215.3406   1.1768606434e+02   9.2397258452e+00     0.149193    0.1063692  72.42 0.0007050775    1.760    0.432
        51  -9.9994    125.6732    127.3463   1.0315457671e+02   3.1988278017e+01    0.2477071     0.189196  85.24  0.000830173    1.727    0.421
        52 -11.1377    173.7215     72.4605   7.7578068457e+01   3.2125237462e+01    0.4795895    0.3047211 -85.88 0.0008566503    2.299    0.565
        53 -11.8717    171.8428     45.6600   7.0864702184e+01   3.6661112232e+01    0.4044444    0.3107432  59.58 0.0008901835    1.210    0.174
        54  -9.8190    168.3816    249.1628   1.1671770546e+02  -2.2923091170e+00    0.1688137    0.1250714 -62.52 0.0009561904    1.775    0.437
        55 -11.5876    171.3939    239.3658   1.1459476194e+02  -1.1157050426e+00    0.3156804    0.2163382  54.30   0.00167892    1.634    0.388
        56 -10.9249     84.9756    235.5104   1.3195446011e+02   1.3960633861e+01    0.4191835    0.1967038 -69.72  0.001275835    2.324    0.570
