#   1 NUMBER                 Running object number                                     
#   2 MAG_AUTO               Kron-like elliptical aperture magnitude                    [mag]
#   3 X_IMAGE                Object position along x                                    [pixel]
#   4 Y_IMAGE                Object position along y                                    [pixel]
#   5 X_WORLD                Barycenter position along world x axis                     [deg]
#   6 Y_WORLD                Barycenter position along world y axis                     [deg]
#   7 A_WORLD                Profile RMS along major axis (world units)                 [deg]
#   8 B_WORLD                Profile RMS along minor axis (world units)                 [deg]
#   9 THETA_WORLD            Position angle (CCW/world-x)                               [deg]
#  10 FWHM_WORLD             FWHM assuming a gaussian core                              [deg]
#  11 ELONGATION             A_IMAGE/B_IMAGE                                           
#  12 ELLIPTICITY            1 - B_IMAGE/A_IMAGE                                       
         1 -10.0654     29.4083     17.8432   8.4131259482e+01   6.9319214296e+01    0.3074256    0.1965365 -18.43 0.0005769766    1.351    0.260
         2 -10.9622    101.8517     16.2267   5.6125410680e+01   5.7051192499e+01    0.5471693    0.3892748  27.96  0.001448127    1.346    0.257
         3 -11.6217    111.7835     19.2373   5.4820000851e+01   5.4507500831e+01    0.5290476     0.384026  35.66   0.00243056    1.278    0.217
         4 -11.7765    122.4363     11.0948   4.9420929788e+01   5.2834270683e+01    0.6411925    0.3210621  54.35  0.001107545    1.685    0.406
         5 -10.5112    127.2079      4.9402   4.6295238421e+01   5.2237630095e+01     0.364587    0.2241533  46.08  0.001171876    1.454    0.312
         6 -10.3811     38.4106     17.4580   7.9556176690e+01   6.8290719668e+01    0.6690702    0.2946367  17.26  0.002780183    3.372    0.703
         7 -11.0168    149.9068     18.4951   4.6884110118e+01   4.5442653554e+01    0.3302352    0.3148351 -35.89 0.0005252316    1.152    0.132
         8 -10.1763    154.8337     16.1674   4.5352273630e+01   4.4460640496e+01    0.4604051    0.2989803   3.69   0.00225055    2.107    0.525
         9 -10.4601    156.0818     10.3342   4.3358620014e+01   4.4718665251e+01     0.562771    0.3023736  26.52  0.002416088    2.734    0.634
        10 -10.1345     62.6625     18.6850   6.9724809425e+01   6.4491224206e+01    0.5791274     0.427032 -82.28  0.002525497    4.160    0.760
        11 -10.4235     55.3582     17.7959   7.2222606258e+01   6.5803551839e+01    0.3358714    0.1899513  -0.10 0.0008031683    2.230    0.551
        12 -11.0120     57.2110     13.5218   6.9443547962e+01   6.6039520494e+01    0.5780207    0.2976944  23.34   0.00283251    2.114    0.527
        13 -10.0497     22.9103     16.0862   8.6654667163e+01   7.0278684893e+01    0.2738304    0.2372295  23.64  0.001979334    1.530    0.346
        14 -10.1182     10.6935     15.2321   9.2902126117e+01   7.1504474585e+01    0.3064424    0.2468705 -14.83  0.002277701    1.149    0.130
        15 -10.3395    187.5148      9.5585   3.9133618048e+01   3.7067730915e+01    0.3201028    0.2627461  24.07  0.001509929    1.551    0.355
        16 -11.0481    181.4367     12.9832   4.0758657572e+01   3.8206311844e+01    0.5797737     0.359217  35.30  0.002867685    2.086    0.521
        17 -10.2575    185.9315     13.2207   4.0290126563e+01   3.7084271526e+01    0.3221019     0.252014 -79.83  0.001111872    1.222    0.181
        18  -9.8623     84.7148     12.7755   5.9485412413e+01   6.1039149020e+01    0.2893116    0.1958897 -49.66  0.001519386    2.151    0.535
        19  -9.2385     34.0645     12.9444   7.9467524979e+01   6.9477547747e+01     0.196002    0.1326825  -7.46  0.001231434    1.284    0.221
        20  -9.7951    216.5589      8.2913   3.5968351963e+01   3.0342409074e+01    0.2818847    0.2061947 -42.80  0.001309806    1.335    0.251
        21 -10.5631    210.9189     10.7665   3.7061060276e+01   3.1383297675e+01    0.3868155    0.2508619 -51.10   0.00125727    1.441    0.306
        22 -10.4098    212.8108      5.9684   3.5750445037e+01   3.1439016644e+01    0.3185905     0.233931 -40.11  0.001089051    1.371    0.271
        23 -10.2142     25.3574      7.1931   8.0997200910e+01   7.1305047515e+01    0.2429847    0.1580433 -26.10 0.0003539396    1.310    0.237
        24 -10.1687     17.4173      3.3681   8.3332896753e+01   7.2682977101e+01    0.2916157    0.2254263   2.44  0.001640928    1.171    0.146
        25 -10.4357     23.4486      3.0024   7.9805973428e+01   7.2078465910e+01     0.307375    0.1501205  33.39  0.001707813    2.110    0.526
        26 -10.1420     19.0344     10.9812   8.6303734119e+01   7.1435928830e+01     0.253613    0.1804647 -11.34 0.0004848701    1.105    0.095
        27 -11.0539     12.8241      7.1296   8.7891093993e+01   7.2587356403e+01    0.4507463    0.3727557  21.24  0.003369349    1.557    0.358
        28  -9.0088     93.0873     10.2456   5.5997749063e+01   5.9546001901e+01    0.2518924    0.1841841 -72.23  0.001078308    2.281    0.562
        29  -9.2062     88.4868     10.0000   5.7174767105e+01   6.0539821931e+01    0.3550871    0.1296395  61.84  0.001291743    3.544    0.718
        30  -9.5675     47.3149      9.5398   7.1622546355e+01   6.8082867068e+01    0.2789248    0.1808836  13.66  0.001505707    1.425    0.298
        31 -10.3594     78.3248      6.8807   5.8821304524e+01   6.2905035874e+01    0.3336305    0.2582653  33.25  0.002087005    1.091    0.083
        32  -9.7319     71.1483      7.5190   6.1443323543e+01   6.4231409070e+01    0.3990232    0.1189744  53.23  0.001503428    3.442    0.710
        33  -8.7964     57.0259      7.0577   6.6363866771e+01   6.6808189857e+01    0.1620446    0.1502697 -44.13 0.0005451248    1.613    0.380
        34  -9.4840      2.3202      5.6260   9.3391404884e+01   7.3646801163e+01    0.2782183    0.1689581 -47.19  0.001833667    1.656    0.396
        35  -9.9471    108.3377      4.7236   5.0004315003e+01   5.6667529595e+01     0.363004    0.2384157 -13.20  0.001962821    1.685    0.407
        36  -9.7978    104.0694      1.8198   4.9808762150e+01   5.7868657103e+01    0.3772876    0.2103156  72.36  0.001239906    2.078    0.519
        37 -10.5242     90.2743      3.5542   5.3905647689e+01   6.0747256744e+01    0.2785982    0.2554885  37.94 0.0009168212    1.148    0.129
        38 -10.9017     84.6214      1.3965   5.4499324034e+01   6.2113898929e+01    0.3795332    0.1518373  60.35  0.001556209    2.575    0.612
        39 -10.0840     38.4897      4.9486   7.3256617419e+01   6.9918932064e+01    0.2696716    0.1668487  32.60  0.000312176    1.531    0.347
        40  -9.5037     40.5959      1.6038   7.0500966575e+01   6.9999064810e+01    0.2971058    0.1347975  47.04  0.001470617    2.684    0.627
        41  -8.1804    175.2950      4.3081   3.9093637715e+01   4.0540773466e+01    0.1295793   0.09016113  43.02 0.0002018467    1.588    0.370
        42  -9.8862      6.8962      2.9362   8.9276027342e+01   7.3709114099e+01     0.263895    0.2036243 -25.12  0.001145229    1.217    0.178
        43  -9.4259    185.0062      2.3131   3.7487375994e+01   3.8361292190e+01    0.3435106     0.170889  45.83  0.001176734    2.324    0.570
        44  -8.4495    231.3052      2.6963   3.3533942684e+01   2.7623253949e+01    0.1285357   0.07315516 -63.71 0.0002072541    1.599    0.375
        45  -8.8571    170.0577      1.7000   3.8974077349e+01   4.2052203594e+01    0.2417278     0.108134  33.74 0.0009120846    3.637    0.725
        46  -8.3857    242.2693      1.3498   3.2483040701e+01   2.5410875609e+01    0.1032277   0.09019475  37.40 0.0002815607    1.624    0.384
        47  -8.2550    137.5845      1.2518   4.3266734942e+01   5.0036057315e+01    0.1337237    0.0920254 -78.45 0.0004757706    1.735    0.424
        48  -9.0856     65.5333      1.3348   6.0399439550e+01   6.5870004616e+01    0.2087354     0.100631  48.94  0.001063137    1.887    0.470
        49  -9.1570     11.5286    101.5126   1.1518155563e+02   5.3461805101e+01     0.211293    0.1701567 -77.29  0.000615495    1.131    0.116
        50  -9.3499    123.0000    107.9328   8.1240344012e+01   3.6802504666e+01    0.2614414   0.08748652 -45.72 0.0007470966    2.924    0.658
        51  -8.6398    100.4336    109.0419   8.8058342113e+01   4.0937704448e+01    0.2279349    0.1435123 -48.55 0.0005258356    1.517    0.341
        52 -10.7741     79.9533    103.9412   9.3110299637e+01   4.5586446672e+01    0.4057932     0.353171  42.73  0.001320619    1.250    0.200
        53  -8.6863     91.6643    108.6902   9.0632087227e+01   4.2561710284e+01    0.1549586    0.1151923 -16.55 0.0007043553    1.680    0.405
        54  -9.8585    108.5347    103.2149   8.4096750268e+01   4.0751126949e+01    0.4042891    0.2531846  26.62 0.0008996456    1.917    0.478
        55  -9.0717     64.7826    104.0690   9.8068283704e+01   4.7748980050e+01    0.2017037    0.1618759 -48.65            0    1.120    0.107
        56  -9.2389     16.2416    104.5680   1.1412499182e+02   5.2436695003e+01     0.156634     0.115089 -18.49 0.0009408225    1.643    0.391
        57  -9.1010    134.4894    103.0227   7.6779614323e+01   3.5430384034e+01    0.2458216    0.1530776 -42.20 0.0009918673    1.582    0.368
        58 -10.4364     53.2755     99.2316   1.0079155866e+02   5.0343332893e+01    0.5015798    0.2703565 -59.14  0.002328323    1.671    0.401
        59 -10.0910     45.4155    102.0444   1.0405540469e+02   5.0546552545e+01    0.2328245    0.2171266  22.63 0.0003658963    1.226    0.184
        60  -8.8799    118.3003    102.2751   8.1009937026e+01   3.9017649000e+01    0.1528121    0.1214403  -2.27 0.0002240912    1.535    0.349
        61  -8.8519     94.8120    101.8147   8.7868579682e+01   4.3610257964e+01    0.2038181    0.1812683 -82.84 0.0007998076    1.309    0.236
        62 -10.0462     69.3447     96.8053   9.4780460001e+01   4.8834971211e+01    0.3453041    0.2461782 -62.22  0.001168405    1.438    0.305
        63 -10.0060     16.9207     95.7758   1.1248790256e+02   5.4474682803e+01    0.4092047    0.2223333  59.96  0.001949076    2.683    0.627
        64  -9.2625    147.9483     96.2969   7.1454792394e+01   3.3809769767e+01    0.2219356     0.201121  44.90 0.0004447465    1.115    0.103
        65  -9.7807     79.1794     95.1371   9.1071781782e+01   4.7751236407e+01    0.3536291    0.2767947 -34.10  0.001147085    1.242    0.195
        66  -9.7420     35.1265     95.4021   1.0618180325e+02   5.3138106901e+01    0.4370096    0.2412738 -23.03  0.001561051    2.450    0.592
        67  -9.9002    132.6964     93.3231   7.4495453904e+01   3.7856270110e+01    0.3411947    0.2493732  31.61  0.001004578    1.479    0.324
        68  -8.7649      1.3949     94.0093   1.1740372716e+02   5.5764922889e+01    0.1875649   0.09444337 -71.11 0.0006521323    1.572    0.364
        69 -10.1319     87.5237     90.1809   8.6959443625e+01   4.7500288497e+01    0.7060298    0.3870125 -67.32  0.002481697    3.209    0.688
        70  -8.8000    137.7928     92.3765   7.2885331745e+01   3.6911422524e+01    0.2172605    0.1444215  36.64 0.0002861217    1.595    0.373
        71  -9.0119     51.9913     90.8595   9.9261352551e+01   5.2460409709e+01    0.3248728     0.145067 -49.71  0.001400449    1.901    0.474
        72  -8.1923    154.2905     89.6676   6.8038890143e+01   3.3644022246e+01    0.1575191    0.1232549 -73.43 0.0004334686    1.629    0.386
        73 -11.0686    119.9286     87.9695   7.6414692077e+01   4.1728194460e+01    0.5107716    0.3694863  44.48 0.0009936424    1.406    0.289
        74 -10.3611    124.4838     85.4925   7.4394534565e+01   4.1252922967e+01    0.3253728    0.2793348  70.30  0.001625334    1.373    0.272
        75  -8.5708     56.9649     89.2392   9.7104045203e+01   5.2235965452e+01    0.1667406    0.1178096  27.65  0.000448213    1.564    0.361
        76  -9.1505     47.8613     88.8643   1.0023928375e+02   5.3391363596e+01    0.1997512    0.1590177 -37.39 0.0003013361    1.153    0.133
        77  -9.0210     32.7140     89.5658   1.0580788501e+02   5.4724765079e+01    0.1663544    0.1204437  38.96 0.0009461515    1.644    0.392
        78  -8.6927     16.2063     88.5708   1.1147096117e+02   5.6207415579e+01    0.2517072   0.08971869 -69.63  0.001032026    2.567    0.610
        79 -11.7095    131.8286     86.5854   7.2736299327e+01   3.9413308663e+01    0.3144688    0.2828349  28.59 0.0002839562    1.123    0.110
        80  -9.2364    134.8112     82.9322   7.0852306893e+01   3.9459037332e+01    0.3523245    0.2046992 -48.51 0.0005844532    1.850    0.460
        81  -9.4726    109.5034     88.0033   7.9454256904e+01   4.3875731300e+01    0.2362195    0.1469261 -43.58 0.0006226817    1.569    0.363
        82  -9.9494    161.3139     85.6710   6.5287517566e+01   3.2739105247e+01    0.2545394    0.1997046  70.14  0.000783947    1.455    0.313
        83 -10.8916    157.9180     83.4309   6.5400975615e+01   3.3964116567e+01    0.3742357    0.2897381  36.34  0.001785444    1.365    0.267
        84  -9.7023    174.0942     84.8764   6.2335801690e+01   2.9829442010e+01    0.2296799    0.2044289 -72.63 0.0002814874    1.218    0.179
        85  -9.7910    175.9215     81.5287   6.1030663422e+01   2.9988744319e+01    0.3021407    0.1866628  41.95  0.001294631    1.748    0.428
        86  -8.9144     81.7879     84.7421   8.7278214735e+01   4.9658300836e+01    0.2238857    0.1737921 -68.35 0.0002502915    1.596    0.373
        87 -10.0748     76.0291     83.1396   8.8765556754e+01   5.0931971974e+01    0.2815983    0.2448821 -65.34 0.0004381723    1.312    0.238
        88  -9.3907     80.0353     80.9719   8.6749866750e+01   5.0761907725e+01    0.2130247    0.1968976 -24.71  0.001211205    1.020    0.019
        89  -9.2364     28.3298     85.4200   1.0650045677e+02   5.6057385414e+01    0.2793644    0.1224058  24.30  0.001295836    2.610    0.617
        90  -8.8404     45.9776     83.7514   9.9656854252e+01   5.4771814200e+01    0.1813586    0.1601573 -38.27 0.0003051758    1.040    0.038
        91  -8.8130     33.7787     83.9578   1.0418378295e+02   5.5929680092e+01    0.2009289    0.1406587 -89.87 0.0006208736    1.923    0.480
        92  -9.3680     70.8245     83.0658   9.0548705090e+01   5.1740266037e+01    0.2464322    0.1986726 -15.35  0.001326369    1.297    0.229
        93 -10.4155      6.8116     80.5689   1.1339887899e+02   5.8591904584e+01    0.3155051    0.1876747 -35.61  0.001368856    1.629    0.386
        94 -11.1589    104.7882     78.3335   7.7904502997e+01   4.6810486367e+01    0.6005867    0.3997968 -10.79   0.00183054    2.108    0.526
        95  -9.9215     55.2261     80.3140   9.5360852247e+01   5.4473170530e+01    0.3337427    0.2402663 -20.18 0.0009289781    1.503    0.335
        96  -8.2750     16.3414     81.0076   1.0998562773e+02   5.7942187190e+01    0.2032485   0.09532224 -89.25 0.0007051069    4.453    0.775
        97 -10.3662    154.6081     79.7755   6.5080287080e+01   3.5426077171e+01    0.2954515    0.2146124  51.25 0.0009633459    1.375    0.273
        98  -8.9591     38.0303     80.6103   1.0181474578e+02   5.6299244815e+01    0.2664432    0.1273248  24.20  0.001239376    2.384    0.580
        99 -10.2658     97.5719     75.9242   7.9389271160e+01   4.8703615579e+01    0.4210327    0.3902914 -64.76  0.001728734    1.256    0.204
       100 -10.9675     97.4385     69.4963   7.7337267770e+01   4.9996652930e+01    0.4220473    0.3226766 -44.42  0.001217131    1.335    0.251
       101  -9.8472     86.2220     73.3022   8.2260912047e+01   5.1316382955e+01    0.8877196    0.2055479  37.39  0.002438078    4.875    0.795
       102 -10.3615     78.0156     75.0549   8.5627630208e+01   5.2344316031e+01    0.3041349    0.2408408  -5.90  0.001044119    1.360    0.265
       103 -10.1832     74.4891     75.4492   8.6985113526e+01   5.2824730699e+01     0.350844    0.2689141 -10.56  0.001202697    1.425    0.298
       104  -9.7129    129.6376     75.4914   6.9912027283e+01   4.2051159642e+01    0.3201927    0.2050774  36.30  0.001258295    1.656    0.396
       105  -9.4742      4.6684     75.9505   1.1335916084e+02   5.9743930566e+01    0.1881181    0.1485019 -55.09 0.0004051255    1.024    0.023
       106  -8.8378      2.0239     73.2092   1.1385447807e+02   6.0481061182e+01    0.1796272    0.1473981  27.31 0.0007447625    1.546    0.353
       107  -9.1137    173.6145     74.7921   5.9588907514e+01   3.1717903665e+01    0.2144092    0.1356721 -45.63 0.0005123569    1.598    0.374
       108 -10.9572    152.2032     73.6522   6.3798812548e+01   3.7102240105e+01    0.3330343    0.3234237 -78.11 0.0008211267    1.075    0.069
       109 -10.1827     55.3641     73.8549   9.3475370539e+01   5.5873582985e+01     0.514598     0.265821 -11.16  0.001720871    4.313    0.768
       110  -8.4046     20.6835     75.2975   1.0714946379e+02   5.8944922298e+01    0.1161304   0.09381123  75.68 0.0002159595    1.610    0.379
       111  -9.9564    143.4202     80.8346   6.8044571793e+01   3.7874667628e+01    0.2506463    0.2147032  62.59 0.0005671938    1.248    0.199
       112 -10.2036     45.6267     72.8745   9.6898241201e+01   5.7238099191e+01    0.2760814    0.2052876 -42.28 0.0004093219    1.147    0.128
       113 -11.3627    137.5198     69.5986   6.6034189614e+01   4.1306762300e+01    0.5326092    0.3097051  44.25 0.0005247014    1.709    0.415
       114  -8.8364     31.0262     72.5477   1.0248316962e+02   5.8747215236e+01    0.1716726     0.125825  16.64 0.0007852062    1.550    0.355
       115  -9.2121    110.5653     71.2591   7.3889451938e+01   4.7012684223e+01    0.2140488    0.1404521 -27.10 0.0009512427    1.638    0.390
       116 -10.2964     64.6662     70.7017   8.9050650954e+01   5.5293197501e+01    0.3513504    0.2357735  41.65   0.00178904    1.714    0.417
       117  -8.5983     39.2411     71.3612   9.8956629132e+01   5.8240861497e+01    0.1553708    0.1205207  32.36 0.0002623147    1.506    0.336
       118  -9.2822     17.6800     69.9302   1.0710804917e+02   6.0347350652e+01    0.2932548    0.1519335 -52.61   0.00157085    1.485    0.327
       119  -9.3662    121.6173     67.4336   6.9485270694e+01   4.5330647018e+01    0.2628559     0.226262 -17.40 0.0006521054    1.182    0.154
       120  -9.4627     90.2988     67.1828   7.8883762945e+01   5.1793382580e+01     0.385192    0.2786558   5.67  0.001317714    1.659    0.397
       121 -10.6011    153.3486     67.1800   6.1576839815e+01   3.7942949100e+01    0.2794471    0.2572307 -22.71  0.001495877    1.116    0.104
       122  -9.9065     59.9714     66.1124   8.9357503792e+01   5.6900789777e+01     0.388715    0.2444573 -21.84  0.001300647    1.798    0.444
       123  -9.7939    109.6201     63.8271   7.1692689554e+01   4.8582984136e+01    0.3983462    0.2768142 -58.36  0.001810136    1.906    0.475
       124  -8.5501     70.9587     66.4891   8.5386036033e+01   5.5220054988e+01    0.1974104    0.1361431  32.90 0.0006205095    1.520    0.342
       125  -8.5113     49.4516     65.4788   9.3232571295e+01   5.8379744438e+01    0.1347374    0.1153862 -31.67 0.0004409817    1.020    0.019
       126 -10.2883     43.7566     63.4134   9.4865954736e+01   5.9464980003e+01    0.3389417    0.3024814 -35.71  0.002165667    1.107    0.096
       127  -9.4269     32.3572     64.0860   9.9693256407e+01   6.0469142886e+01    0.2415877    0.2063034 -47.29  0.001084713    1.123    0.109
       128 -10.7917    172.0377     61.3218   5.6016716786e+01   3.4315084679e+01    0.4873682    0.2998106 -51.49  0.002052756    1.783    0.439
       129 -10.0761    147.1660     62.8533   6.1620467670e+01   4.0161286740e+01     0.225173    0.2018578 -72.72 0.0004855394    1.245    0.197
       130 -10.0191     70.0661     62.4044   8.4345689999e+01   5.6169018772e+01    0.5201314     0.228932  37.71  0.002173972    2.386    0.581
       131  -9.1782     88.7878     60.9510   7.7251042242e+01   5.3249368371e+01    0.3808971    0.2331387  62.57  0.001531601    2.830    0.647
       132 -12.1773      7.2281     57.4036   1.0846770570e+02   6.3684168307e+01    0.4757784    0.2232267 -29.86 0.0007081609    2.122    0.529
       133  -9.0635     97.4673     61.0768   7.4465413226e+01   5.1564348288e+01    0.2195658    0.1880386   2.10 0.0003594723    1.155    0.135
       134 -10.5321     95.5073     56.6787   7.3541186602e+01   5.2732664693e+01    0.5835007    0.4080909  14.97  0.002778812    1.668    0.401
       135  -8.9314    121.4208     60.5048   6.7235484212e+01   4.6586008775e+01    0.2805194    0.1254707  39.52 0.0009579975    2.415    0.586
       136 -10.1768     59.4784     58.0683   8.6877907279e+01   5.8579858726e+01    0.3444615     0.274769 -23.93  0.002004838    1.117    0.104
       137  -9.3246     50.7294     59.5366   9.0833053451e+01   5.9443028789e+01    0.2149444     0.153283 -42.80 0.0002980287    1.251    0.201
       138 -11.3042    150.5169     57.3732   5.9160712578e+01   4.0228518746e+01    0.4343161     0.325525 -85.04  0.002034785    1.751    0.429
       139  -9.0492    211.7868     49.5997   4.6554224593e+01   2.6429682294e+01    0.3032579    0.1649879  72.02  0.001140818    1.973    0.493
       140  -9.9925    199.8529     56.5629   5.0023323222e+01   2.8254900982e+01    0.5174421    0.3282358  17.11  0.002072692    2.884    0.653
       141 -10.5340    205.1319     52.6865   4.8244887115e+01   2.7560036159e+01    0.7860646    0.4220196 -75.22  0.002964125    3.042    0.671
       142  -9.3549    207.5120     49.5494   4.7109616939e+01   2.7441116594e+01    0.2765625    0.2068486 -66.81 0.0006308395    1.363    0.267
       143  -9.0682     34.3002     57.6652   9.7001745022e+01   6.1633243512e+01    0.2189923    0.1439392 -60.71 0.0009137393    1.640    0.390
       144 -10.0628    159.6741     57.0280   5.7144246931e+01   3.8033738992e+01    0.4354157    0.2511486  47.86 0.0009441074    1.710    0.415
       145  -9.9776    162.9280     52.9769   5.5275340174e+01   3.7843283916e+01     0.433813     0.236269 -40.62  0.001863702    1.860    0.463
       146  -9.4263    111.9815     56.0789   6.8340822020e+01   4.9418667776e+01    0.2765624    0.2178489  11.77  0.001166074    1.384    0.278
       147  -8.9197    105.3231     56.4325   7.0412760703e+01   5.0779801236e+01    0.2769464    0.1922325  21.93 0.0009455057    1.628    0.386
       148  -9.4418     69.5957     55.3814   8.2068051556e+01   5.7583488895e+01    0.3562174    0.2754458  -7.34  0.001973553    1.294    0.227
       149  -8.7893    185.1591     56.6302   5.2359131382e+01   3.1807009863e+01     0.216493    0.1247269  50.77 0.0009533911    1.753    0.430
       150 -10.0261     80.8132     53.2731   7.7236524728e+01   5.6082732278e+01    0.6918245     0.326623 -24.22  0.002547516    3.001    0.667
       151  -9.6425     84.4996     48.0602   7.4019824275e+01   5.6308257062e+01     0.282991    0.1981948 -20.13 0.0008535531    1.448    0.310
       152  -9.7986     22.3573     55.3456   1.0141778441e+02   6.3145423459e+01    0.3777137    0.1345595 -46.68  0.000548467    2.126    0.530
       153 -10.2840    173.7566     53.2243   5.3348677015e+01   3.5123046140e+01     0.322507      0.24869 -15.21  0.001622178    1.517    0.341
       154  -9.9446    136.1566     52.7104   6.0899908926e+01   4.4424157750e+01    0.4127571      0.25904   1.96  0.001641558    2.535    0.606
       155  -8.7652     86.0567     54.5171   7.5880102916e+01   5.4914703792e+01    0.2089264    0.1352147  39.36  0.001018998    1.550    0.355
       156  -8.6257     36.6411     53.9751   9.4846777632e+01   6.2151005084e+01    0.1761407    0.1398394 -38.97  0.000348783    1.093    0.086
       157  -9.7808     44.3419     51.9755   9.0913408572e+01   6.1705456160e+01    0.3563501    0.2309162 -56.39   0.00149598    1.754    0.430
       158  -9.8962     49.2587     49.5427   8.7998586400e+01   6.1573799304e+01    0.2547272    0.1808804 -11.64 0.0007528964    1.413    0.292
       159  -9.9642     46.0107     47.2430   8.8533543473e+01   6.2408267709e+01    0.2363587    0.1871947  -1.51 0.0002060008    1.200    0.166
       160 -11.2030    106.5871     50.6519   6.7977636363e+01   5.1467915507e+01    0.4917642    0.3212058  64.30 0.0008633638    2.047    0.512
       161  -8.7108     29.4821     52.5030   9.7465739275e+01   6.3133683814e+01    0.1288231    0.1019801 -32.59 7.984493e-05    1.021    0.021
       162  -8.4416      1.2374     52.0057   1.0977197988e+02   6.5110313030e+01    0.1488732    0.0783174 -59.87 0.0003545005    1.495    0.331
       163  -9.7383    126.5576     50.3857   6.2455070577e+01   4.7043985052e+01    0.2921417     0.233917  16.49 0.0002113113    1.360    0.265
       164  -9.2417    121.9208     48.9033   6.3126781027e+01   4.8341328634e+01    0.2565311     0.218557  76.02 0.0008281254    1.396    0.284
       165  -9.7040    115.3371     50.4173   6.5413296518e+01   4.9596236921e+01    0.4074132     0.260321  74.43  0.001365412    2.568    0.611
       166  -9.5264     95.1507     47.7882   7.0412113263e+01   5.4295545785e+01    0.5230472    0.2522918 -31.28  0.002197637    2.137    0.532
       167 -10.0916     17.4445     50.8620   1.0228375829e+02   6.4428882314e+01     0.364903    0.1964156   6.72  0.001980884    2.158    0.537
       168  -8.5304     73.2344     49.9844   7.8741073267e+01   5.7967039241e+01    0.1736895    0.1074096 -37.40 0.0004715409    1.541    0.351
       169  -8.9986     55.4947     50.2670   8.5701712906e+01   6.0616854526e+01    0.2062143    0.1581404 -14.77 0.0006582811    1.211    0.174
       170 -10.3419     59.2635     47.6827   8.3232780182e+01   6.0557888820e+01    0.3092645    0.2295731  -5.43 0.0009427513    1.342    0.255
       171 -10.1863      5.9661     48.1111   1.0668464207e+02   6.5690880184e+01    0.1972283    0.1392073 -34.73 0.0003287003    1.171    0.146
       172  -9.4261    170.1529     48.0967   5.2485496134e+01   3.6758527323e+01    0.2167728    0.1926712  30.38 0.0004452431    1.230    0.187
       173  -9.5777     34.5112     46.8837   9.3400120616e+01   6.3760869219e+01    0.2518345    0.2034554  89.73  0.001453524    2.142    0.533
       174  -9.1385     25.4911     48.3856   9.7925496549e+01   6.4306404686e+01    0.2637266    0.1173217  14.31  0.001060031    2.699    0.629
       175  -9.3530    186.7884     46.9616   4.9411991480e+01   3.2802901058e+01    0.2501392    0.1449537 -57.93   0.00108554    2.009    0.502
       176 -10.6164    153.3468     46.1798   5.5055245407e+01   4.1201160094e+01    0.4039332    0.2252895  51.13 0.0004154346    1.691    0.409
       177 -10.4477    142.7041     43.5451   5.6405319342e+01   4.4185423882e+01    0.4956676    0.3520266  19.66  0.001611374    1.742    0.426
       178 -10.6118    167.2461     43.0756   5.1506256054e+01   3.8178644843e+01    0.4308388    0.3284625  -4.47  0.002178442    1.638    0.389
       179  -8.7275      1.3389     44.7921   1.0792658926e+02   6.6593129740e+01    0.1626324   0.07676845 -51.68 0.0002545828    1.527    0.345
       180 -10.0594    109.0641     43.8841   6.4805026109e+01   5.1977774328e+01    0.3591099    0.2804731  55.10 0.0006754546    1.347    0.257
       181  -9.3346     76.2211     43.8905   7.5326789868e+01   5.8489927401e+01    0.2391537    0.1794216  13.49 0.0006529977    1.330    0.248
       182  -9.0116    187.2437     43.2241   4.8309603699e+01   3.3203334758e+01    0.1996209    0.1539024 -67.77  0.000634731    1.358    0.264
       183  -8.6652     69.9375     43.1761   7.7360930099e+01   5.9678810847e+01    0.1809402    0.1381136   2.25  0.000245283    1.288    0.223
       184  -9.1376    204.8634     41.4083   4.5369958527e+01   2.9180369994e+01    0.2389311    0.1680693 -50.00 0.0005048743    1.361    0.265
       185  -8.5488    118.3799     42.1718   6.1666733718e+01   5.0143470828e+01    0.1941666    0.1300411 -40.83 0.0009341619    1.621    0.383
       186  -9.3050     20.7630     43.3412   9.8450070046e+01   6.5684533565e+01    0.3359282    0.1646291 -40.45  0.001795119    1.629    0.386
       187  -9.7893     36.2827     39.4738   8.9924454342e+01   6.4959511948e+01     0.346377    0.2302946 -49.68  0.001690609    1.572    0.364
       188 -10.4328     32.9977     36.3037   9.0223101912e+01   6.5880475500e+01    0.4735352    0.1871573 -34.06  0.001540123    2.442    0.590
       189  -8.6601      9.5074     43.0000   1.0361331068e+02   6.6526885136e+01    0.2315922   0.06502984  16.69 0.0009513028    4.070    0.754
       190  -8.3969    197.3324     41.2739   4.6337251400e+01   3.1005162111e+01    0.1363613    0.1032194  37.10 0.0002726118    1.596    0.373
       191  -9.7011    149.1035     38.3679   5.3410935446e+01   4.3313260889e+01    0.3972656    0.2413324 -55.61  0.001674497    2.067    0.516
       192  -9.9663     63.4456     40.8461   7.8933963999e+01   6.1110956606e+01     0.251026     0.199537  -2.69 0.0002570829    1.150    0.130
       193  -9.5257     62.5341     36.4857   7.7531224438e+01   6.1963524335e+01    0.2709968    0.2138608  31.56  0.001163872    1.309    0.236
       194  -8.8937     56.5422     41.5313   8.1970106108e+01   6.2031956993e+01    0.1316774    0.1124098 -11.90 3.199845e-05    1.037    0.035
       195  -8.8760     27.9096     41.1163   9.4370012384e+01   6.5499290876e+01    0.1969517    0.1142761 -26.22 0.0004544904    1.609    0.378
       196  -8.4010    213.6245     40.6933   4.4093611344e+01   2.7210817497e+01    0.1360752    0.1008027  34.78 0.0007029711    1.773    0.436
       197  -9.7653    112.0302     38.8451   6.2134876438e+01   5.2046133432e+01    0.3936096    0.2392496 -47.42  0.001800711    2.023    0.506
       198  -9.7238    161.6580     37.7404   5.0876440773e+01   4.0278252666e+01    0.2577513     0.220575  67.57 0.0006435822    1.110    0.099
       199  -9.7160     48.6460     37.1469   8.3538102198e+01   6.3872919682e+01    0.2340809    0.1929097 -74.31  0.001330892    2.162    0.537
       200  -9.7531    127.6803     36.6943   5.7436439279e+01   4.8728673362e+01    0.2911591     0.241336  53.51 0.0008139247    1.146    0.127
       201  -9.2312     69.6356     36.6450   7.4859975173e+01   6.0778812564e+01    0.2793578    0.1974925  18.53  0.001537292    1.393    0.282
       202  -9.7337     82.8063     35.6114   6.9732901999e+01   5.8570001386e+01    0.2351141    0.2226449 -60.62 0.0007126546    1.412    0.292
       203 -10.8070     78.7688     31.5830   6.9467858219e+01   5.9905158174e+01    0.3450818    0.2897279   9.64 0.0005579765    1.046    0.044
       204  -8.9238    215.8354     35.1621   4.2470627933e+01   2.7413022895e+01    0.2072009    0.1614957 -71.28 0.0005825901    1.214    0.176
       205  -9.8372    192.7980     33.9830   4.5007268200e+01   3.3046062934e+01    0.3587694    0.2130675  53.68  0.001695018    1.690    0.408
       206 -10.0160    106.9480     35.0210   6.2091851865e+01   5.3694515730e+01    0.2052161    0.1841244  23.01  0.001198332    1.010    0.010
       207  -9.8917    239.1462     22.1831   3.7158494124e+01   2.3783505101e+01    0.3010778    0.2375158  79.76  0.001252148    1.249    0.200
       208 -10.5476    236.9928     31.5023   3.9417953094e+01   2.3121795282e+01    0.4406905    0.3133334  76.49  0.002265558    1.398    0.285
       209 -10.2240    237.1971     27.0703   3.8408830052e+01   2.3621381328e+01    0.4016032     0.297326  -1.73  0.001847544    2.090    0.522
       210  -9.6586    114.6833     32.1720   5.8971987191e+01   5.2335549385e+01    0.2573274    0.1918047  53.97 0.0003318375    1.291    0.226
       211  -9.8843    110.3262     29.3154   5.9022931803e+01   5.3679446488e+01    0.2915473    0.2429256  60.27  0.000805679    1.269    0.212
       212  -8.9183     59.3525     31.6571   7.6785377849e+01   6.3214718956e+01    0.1717473    0.1613399 -81.15 0.0008703273    1.678    0.404
       213  -9.1290    221.3056     30.9755   4.0861648946e+01   2.6679883620e+01    0.1737719    0.1532731 -60.01 0.0002678653    1.066    0.062
       214 -10.1096     42.9835     29.2591   8.2760173590e+01   6.5912598353e+01    0.2577096    0.1575406 -34.68 0.0002336451    1.464    0.317
       215 -10.1137     47.6607     28.4321   8.0321850536e+01   6.5422510927e+01    0.2859406    0.2185168  32.59 0.0009179583    1.448    0.309
       216  -9.1190    229.9115     29.4205   3.9625777206e+01   2.4933924744e+01    0.2171153    0.1460891 -49.16   0.00123302    1.327    0.246
       217  -9.3682    151.2163     29.9927   5.0327819706e+01   4.3838093541e+01    0.3370276    0.1727615  30.89  0.001288388    2.863    0.651
       218  -8.3771    125.3299     30.2714   5.5710541301e+01   5.0098688890e+01    0.1461232   0.09714767  31.91 0.0005562268    1.586    0.370
       219  -8.5793     65.4202     30.1763   7.3759097380e+01   6.2460165662e+01    0.1811098    0.1161816 -41.21 0.0009548168    1.747    0.428
       220  -9.4092    201.1637     29.3794   4.2734499372e+01   3.1590751264e+01    0.1897763    0.1183816  85.78 0.0004103754    1.680    0.405
       221 -10.4098    182.2352     27.4083   4.4642434399e+01   3.6434177106e+01    0.5445682     0.285105  44.29  0.001712424    2.198    0.545
       222  -8.1596    158.3246     29.3003   4.8859350649e+01   4.2153962436e+01    0.1450699   0.09979237  35.40 0.0007027867    1.633    0.388
       223  -9.5893     15.6605     28.2845   9.5604327662e+01   6.8892069833e+01    0.3637629    0.1780367 -23.17  0.001535539    2.072    0.517
       224  -8.8319     14.9851     23.9507   9.4251551200e+01   6.9705298256e+01    0.1648007    0.1344088 -30.53 0.0004129687    1.175    0.149
       225  -9.3046    215.5018     27.8624   4.0728507793e+01   2.8393894144e+01    0.2699926    0.1893422  36.09  0.001430812    1.947    0.486
       226  -9.7507    206.6985     26.3036   4.1308130162e+01   3.0641065107e+01    0.2872224    0.2052365 -24.07  0.001092014    1.602    0.376
       227  -9.7836     81.4250     26.3529   6.6372668540e+01   6.0109791178e+01    0.2732938    0.2462245 -52.17  0.001477582    1.491    0.329
       228 -10.2961    120.9116     25.8777   5.5143687725e+01   5.1659838028e+01    0.4099303    0.2303226  55.74   0.00124515    1.623    0.384
       229  -9.9146     30.0461     23.2644   8.6266269458e+01   6.8404603162e+01     0.393999     0.171063 -34.72  0.001581544    2.009    0.502
       230  -8.8853    106.7439    247.3844   1.0979964270e+02   9.6100423641e+00    0.1863158    0.1469646 -32.74  0.001191527    1.800    0.444
       231  -9.5958     99.0000     22.5840   5.9445863864e+01   5.6976932898e+01    0.3752526     0.171108 -23.05  0.001299129    2.395    0.582
       232 -12.0611     76.4486    219.8001   1.1302129336e+02   1.9091086499e+01    0.7781256    0.5152106  17.47  0.003610902    2.242    0.554
       233  -9.2903    226.8452     22.9798   3.8438740227e+01   2.6390426948e+01    0.2231075    0.1653519  81.34 0.0007139401    1.280    0.219
       234  -9.7646    179.0896     22.7827   4.3777908203e+01   3.7740580915e+01    0.2663786    0.2163422  56.42  0.001075692    1.211    0.174
       235 -10.1848    164.3992     22.1211   4.5693925910e+01   4.1458543806e+01    0.3067228    0.2497719  34.62   0.00086359    1.354    0.261
       236 -10.0081     76.1876     22.2731   6.6398070638e+01   6.1624363286e+01    0.3102411    0.2302248 -53.49  0.001683815    2.041    0.510
       237  -9.1598      8.1956     22.5357   9.7306151238e+01   7.0448865399e+01     0.171394    0.1452299   5.89 0.0008070754    1.362    0.266
       238  -9.7323      1.7018     21.7881   1.0055480669e+02   7.0979755730e+01    0.2327069    0.1256591 -48.48 0.0007338326    1.473    0.321
       239  -8.9822    218.1034     21.7020   3.8981854266e+01   2.8520744981e+01    0.1731298    0.1470892  83.33 0.0003309421    1.120    0.107
       240 -10.3518    142.0927     21.2178   4.9141415315e+01   4.7082151738e+01    0.3023787     0.267119 -33.04 0.0006362802    1.236    0.191
       241 -11.8108     70.7670    216.6905   1.1388921719e+02   2.0491735625e+01    0.6255217    0.5053991  18.92  0.003074629    1.631    0.387
       242  -8.7030    164.4895    212.0063   9.3171179214e+01   6.6857553268e+00    0.1655025    0.1219485 -82.69 0.0005524319    2.314    0.568
       243  -8.7771    132.4745    210.9292   9.9877273747e+01   1.2299748418e+01    0.1859905    0.1354201 -58.82  0.000871096    1.559    0.358
       244  -8.8039     19.1968     21.7600   9.1133192241e+01   6.9722287813e+01     0.164106    0.1050479 -19.77 0.0003583886    1.327    0.246
       245  -8.2425    205.7045     21.2652   4.0156127248e+01   3.1460539268e+01    0.1326242   0.08810198 -68.45            0    1.510    0.338
       246  -9.4703     90.6544    214.7486   1.0946870605e+02   1.8109367621e+01     0.338728    0.1412494  32.24  0.001432324    2.557    0.609
       247  -8.8595    222.7551     20.2095   3.8182362916e+01   2.7632306017e+01    0.1633184    0.1436526  55.00  0.000928226    1.337    0.252
       248  -9.2578      1.2999    184.9910   1.2581163384e+02   3.4748111074e+01    0.2593699   0.08235008 -77.82  0.001200052    2.539    0.606
       249  -8.8412      6.5184    168.4884   1.2359210664e+02   3.8015168610e+01    0.1197373    0.0931612  89.07 8.017941e-05    1.005    0.005
       250  -9.0692      7.0215    163.4710   1.2309856075e+02   3.9122183828e+01     0.147202    0.1170515  32.81 0.0003532741    1.518    0.341
       251  -9.1121    131.0382     19.8476   5.0801514050e+01   4.9916885571e+01    0.2087543    0.1784152  88.45  0.001201813    1.308    0.235
       252  -8.7472     69.5582     19.9797   6.7730017846e+01   6.3125944432e+01    0.1850539    0.1170808 -22.36 0.0007069322    1.545    0.353
       253  -9.4022     23.0300    162.4890   1.1924220103e+02   3.8034095429e+01    0.1647814    0.1181508  37.72 0.0004460612    1.537    0.349
       254  -9.6906      7.0583    155.8816   1.2248261924e+02   4.0870915148e+01    0.1761157    0.1682757  38.54 0.0008888178    1.344    0.256
       255 -10.6213      3.0129    152.8151   1.2319973383e+02   4.1867799233e+01    0.3359289    0.2436775 -42.91   0.00218071    1.678    0.404
       256  -9.6518    119.4811     18.9777   5.2938536499e+01   5.2754683492e+01    0.2638719    0.1870753  59.18 0.0007111883    1.318    0.241
       257 -10.0124     87.1978     18.1639   6.1052929658e+01   5.9954375462e+01    0.2923887    0.2484139  -7.60  0.000971078    1.173    0.147
       258  -9.6947     11.9518    145.0278   1.2030083671e+02   4.3058591582e+01    0.1831376     0.144865 -81.73 0.0003059588    1.010    0.010
       259 -10.1355     36.9306    141.2704   1.1324760435e+02   4.1827410291e+01     0.325989     0.224289 -32.67  0.001502719    1.846    0.458
       260  -9.8489     21.9175    141.9603   1.1738444823e+02   4.3014293895e+01    0.1864048    0.1688899  80.37  0.000358787    1.144    0.126
       261  -9.8216      4.0820    141.3861   1.2196370312e+02   4.4463461669e+01    0.2914351    0.2092924   5.32  0.001852949    1.939    0.484
       262  -9.5677     29.8010    138.0122   1.1477750042e+02   4.3291269591e+01    0.2525229    0.1922246   8.23  0.000859527    1.726    0.421
       263 -10.0947    226.6810    134.5639   6.4894190781e+01   9.2097256714e+00    0.3964606    0.2656116  55.18   0.00194924    1.801    0.445
       264  -9.0190     67.3786     12.8894   6.5274700446e+01   6.4357871644e+01     0.264675    0.1337288  32.61  0.001003285    1.875    0.467
       265  -8.7722     15.6305    131.7818   1.1792119026e+02   4.5950284897e+01    0.1808698    0.1003497 -82.75 0.0005495861    1.619    0.382
       266  -8.6127     36.6566    131.6925   1.1198497274e+02   4.4197505517e+01    0.1361467   0.08939893 -40.24 0.0002840109    1.693    0.409
       267  -9.1832      4.7941    130.8229   1.2077046739e+02   4.6909948977e+01    0.1647234    0.1192935  79.81 0.0002596446    1.307    0.235
       268  -8.8281     12.6880    126.8184   1.1816449740e+02   4.7349137734e+01    0.4244474   0.01631682 -65.10  0.001242065    4.948    0.798
       269 -10.5877    230.8626    124.1223   6.1795359786e+01   1.0208012108e+01    0.5481436    0.3327378 -45.74  0.002331666    1.613    0.380
       270  -8.7175     38.3874    125.6865   1.1057141926e+02   4.5502635184e+01     0.198837    0.1006314 -56.77 0.0009411779    1.671    0.401
       271  -9.6545     28.2951    125.3555   1.1349582318e+02   4.6505020392e+01    0.2798817    0.1667761 -45.47 0.0008518002    1.694    0.410
       272  -9.4120     31.0000    124.0175   1.1250563786e+02   4.6596516222e+01    0.2583199    0.1473425 -70.44 0.0008608366    1.506    0.336
       273  -8.7409     23.5070    125.4698   1.1490627970e+02   4.6872588485e+01    0.1293028    0.1071423 -76.45 0.0004759803    1.035    0.034
       274  -9.7529      8.3740    123.6970   1.1902106802e+02   4.8378877731e+01    0.2548007    0.1253919 -46.38  0.001306014    2.048    0.512
       275  -9.9353     94.0789    122.7098   9.3288633951e+01   3.8818106448e+01    0.4134078     0.243059  49.18  0.001032288    1.911    0.477
       276  -9.8368     90.0863    121.9961   9.4305235483e+01   3.9655509508e+01    0.2243364    0.2142298  30.64 0.0003164198    1.110    0.099
       277  -9.0712    144.3437     14.0573   4.6385839822e+01   4.7259197234e+01    0.2075695    0.1578638  20.05  0.001053869    1.518    0.341
       278  -8.6733     57.9071     24.3672   7.4190862405e+01   6.4511034600e+01    0.1820691    0.1032153  26.41 0.0009326969    1.752    0.429
       279  -8.5813     78.2735    123.0711   9.8076119638e+01   4.1245722140e+01    0.1987974    0.1749393 -57.27 0.0003094835    1.054    0.052
       280  -8.3433     73.6519    122.2690   9.9301704609e+01   4.2116581871e+01     0.144349    0.1088787  69.73  0.000699102    1.619    0.382
       281 -10.1425     58.3232    118.7780   1.0329168830e+02   4.5010754040e+01    0.5000423    0.3143448  85.83  0.002004627    2.294    0.564
       282  -9.7290     98.5320    117.2148   9.0674802473e+01   3.9360947074e+01    0.2612956    0.2317497   4.61 0.0003915489    1.251    0.201
       283  -9.5447     69.9691    118.0592   9.9537833126e+01   4.3663929169e+01    0.2252345    0.2044206 -59.68 0.0007573601    1.019    0.019
       284 -10.0383     48.6156    125.3405   1.0746342893e+02   4.4526811483e+01    0.3690012    0.2612165 -23.57   0.00174951    1.813    0.448
       285 -10.2174     25.8334    116.5253   1.1293900653e+02   4.8855184983e+01    0.3167847    0.2153082  35.82  0.001823546    1.694    0.410
       286  -9.3547     38.8884    114.6838   1.0859553713e+02   4.8146216398e+01    0.1776023    0.1695044  88.46 0.0007561675    1.140    0.123
       287 -11.0405     11.4916    114.4996   1.1699730392e+02   5.0376209806e+01    0.2275827     0.216489 -40.51 -6.543251e-05    1.240    0.194
       288  -9.1782      1.5861    112.2084   1.1966660631e+02   5.1494828979e+01    0.2620017    0.1225538 -88.64  0.001155855    2.193    0.544
       289  -9.6219     49.9316    111.6506   1.0452880031e+02   4.7735951995e+01    0.2666215     0.185975 -70.33 0.0008969923    1.382    0.276
       290  -9.1449     62.9817    111.4986   1.0032268694e+02   4.6198273056e+01    0.1960164    0.1431281  26.63 0.0004355437    1.537    0.349
       291 -10.5803     20.9224    110.1238   1.1348819924e+02   5.0778942500e+01    0.3811871     0.189928  42.18  0.001888145    2.355    0.575
       292  -9.4068    127.7965    109.6856   8.0395748323e+01   3.5416413495e+01    0.2506014    0.2009777  18.74   0.00117742    1.425    0.298
       293  -9.0441     28.8244    109.8092   1.1094194442e+02   5.0235538870e+01    0.2040454    0.1471022 -46.77 0.0005274805    1.293    0.226
       294 -10.3024      6.6840    107.6260   1.1756343643e+02   5.2299076201e+01    0.3801506    0.2687981  75.56  0.001578567    1.540    0.350
       295  -9.8966      8.4501    103.2560   1.1641954398e+02   5.3231372304e+01    0.2797363    0.1656585 -73.44 0.0008946104    1.398    0.285
