#   1 NUMBER                 Running object number                                     
#   2 MAG_AUTO               Kron-like elliptical aperture magnitude                    [mag]
#   3 X_IMAGE                Object position along x                                    [pixel]
#   4 Y_IMAGE                Object position along y                                    [pixel]
#   5 X_WORLD                Barycenter position along world x axis                     [deg]
#   6 Y_WORLD                Barycenter position along world y axis                     [deg]
#   7 A_WORLD                Profile RMS along major axis (world units)                 [deg]
#   8 B_WORLD                Profile RMS along minor axis (world units)                 [deg]
#   9 THETA_WORLD            Position angle (CCW/world-x)                               [deg]
#  10 FWHM_WORLD             FWHM assuming a gaussian core                              [deg]
#  11 ELONGATION             A_IMAGE/B_IMAGE                                           
#  12 ELLIPTICITY            1 - B_IMAGE/A_IMAGE                                       
         1 -15.0919    242.6005     29.0214   3.5649580280e+02   2.4468878135e+01     11.38732     4.032052 -28.13    0.0416463    3.177    0.685
         2 -16.6807    246.4211    129.6371   1.5141489365e+01   1.1015016413e+01     3.522837      1.34881 -29.29   0.01674764    2.708    0.631
         3 -15.5354    218.5289    108.2523   1.4411004428e+01   1.7992402280e+01     3.396199     1.585315 -27.10   0.01576965    2.544    0.607
         4 -15.6551    241.1641    103.7786   1.0961772342e+01   1.5285598635e+01     1.927778    0.4960435 -34.34  0.007611137    3.528    0.717
         5  -7.2005    167.3242    238.6679   4.5951039287e+01   4.0839562827e+00    0.1039837   0.08629067  38.72 0.0004634186    1.706    0.414
         6  -7.3129    235.2591    236.7035   3.3951223704e+01  -1.9694711001e+00   0.08345008   0.06856428 -16.98 0.0001821449    1.502    0.334
         7  -7.4770    208.4982    231.9779   3.7527284960e+01   9.4814066905e-01    0.1175136   0.09468733 -54.02 0.0008061328    2.317    0.568
         8  -7.5690    183.3031    232.7028   4.2079584031e+01   3.3044835975e+00   0.09718493   0.08529986  26.60 0.0003060655    1.582    0.368
         9  -7.5536    172.6829    230.3092   4.3754504470e+01   4.7590883604e+00    0.1026755    0.0881991  36.06 0.0007031854    1.636    0.389
        10  -7.2699     72.0000    229.9728   6.6497014729e+01   1.6292967007e+01    0.1731417   0.07648393 -66.63 0.0003681678    2.756    0.637
        11  -7.7113    184.3456    227.6671   4.1167219125e+01   3.9208781129e+00    0.1005364   0.08902565  39.14 0.0007049765    1.764    0.433
        12  -7.9765     22.6560    248.2820   7.9777636290e+01   1.7557320036e+01    0.1326249    0.0636275  45.14 0.0002496857    1.637    0.389
        13 -15.6675    247.2838    143.9478   1.7571812709e+01   8.9416325318e+00    0.9716727    0.4592729 -37.47  0.005843654    1.584    0.369
        14  -7.9858    194.2240    238.7598   4.0947342103e+01   1.3916367133e+00    0.1484138    0.0965889  -9.19 0.0004525383    1.241    0.194
        15 -15.3025    248.5224    113.9283   1.2073812541e+01   1.2897350092e+01    0.8062672     0.358979 -32.37  0.004507476    1.873    0.466
        16  -7.6925    175.0025    223.9956   4.2401289510e+01   5.4593538248e+00    0.1464516    0.1140538 -11.59 0.0007770432    1.083    0.077
        17  -7.8811    134.5395    224.4723   5.0887284002e+01   1.0013685465e+01    0.1280541    0.1043013   7.61 9.816712e-05    1.004    0.004
        18  -8.5930    207.4350    223.4095   3.6459206462e+01   2.1922708418e+00    0.2072324    0.1156885  29.60  0.001313964    1.888    0.470
        19  -7.4446    193.6612    222.3030   3.8685871016e+01   3.7276657491e+00   0.09698866   0.08817528  29.86 0.0003370525    1.671    0.402
        20  -9.1827    184.0508    220.8921   4.0229814551e+01   4.9456846395e+00    0.2632554    0.1956061 -68.39  0.001466175    3.069    0.674
        21  -7.8845    140.3801    221.2447   4.9152780322e+01   9.8772922103e+00    0.1527595    0.1222468 -54.73 0.0009433326    1.621    0.383
        22  -8.9891    204.1946    218.3403   3.6252447601e+01   3.2109229913e+00    0.2579548    0.2141664  20.22  0.001371967    1.470    0.320
        23  -9.0123    169.4581    215.3973   4.2213237041e+01   7.4195608638e+00    0.3323133    0.2303029 -40.89  0.002069507    1.532    0.347
        24  -8.1112    144.2216    217.0828   4.7722980490e+01   1.0134977809e+01    0.2015916    0.1842369 -73.51  0.001318863    1.615    0.381
        25  -8.0562    118.8518    216.6421   5.3447790676e+01   1.3341754180e+01    0.2112198    0.1646894 -28.59 0.0004785932    1.334    0.251
        26  -7.5522    131.2995    215.6718   5.0412367307e+01   1.1973204767e+01      0.12206    0.0970322  51.03 0.0002906753    1.639    0.390
        27  -8.0646    147.0947    211.6588   4.6304620494e+01   1.0727960606e+01    0.2013709    0.1792113 -46.18  0.001313066    1.403    0.287
        28  -9.6868    173.3003    208.3896   4.0381905740e+01   8.0941990883e+00    0.4109469    0.3231225  82.87  0.001805341    3.114    0.679
        29  -8.3971    179.0082    210.0061   3.9528450938e+01   7.1700748921e+00    0.2349834    0.1893603  13.10  0.001306256    1.189    0.159
        30  -8.4954    185.8411    214.4594   3.8928514686e+01   5.7138718713e+00    0.2081263    0.1443201 -31.97 0.0006353626    1.343    0.255
        31  -9.2981    186.6209    201.8260   3.6804406547e+01   7.5675587243e+00    0.3740959    0.2517846 -61.27  0.001983936    2.783    0.641
        32  -7.7882    175.2899    203.6680   3.9249441884e+01   8.6204791463e+00    0.1039847    0.1001787  66.17 0.0003777494    1.627    0.385
        33  -8.8193    167.3351    201.0469   4.0408237427e+01   1.0030426393e+01    0.3930252    0.1705525 -45.64  0.001816038    2.342    0.573
        34  -8.3283    167.9629    192.9330   3.8955046875e+01   1.1333799570e+01    0.3458302    0.1410055 -36.74  0.001526241    2.417    0.586
        35  -7.2281    120.6794    203.3269   5.1155102385e+01   1.5679217723e+01    0.1329616    0.1008094  54.24 0.0004329331    1.684    0.406
        36  -9.1247    161.4341    200.9151   4.1595207145e+01   1.0796195578e+01    0.3121311     0.202047 -25.63  0.001755466    1.496    0.332
        37  -8.4062    150.5026    200.4888   4.3849936346e+01   1.2278130693e+01    0.2048372    0.1278117 -58.12 0.0008210279    2.190    0.543
        38  -8.9176    177.8274    197.0525   3.7688967675e+01   9.3907350618e+00    0.2686585    0.1862073 -46.61  0.001600325    1.636    0.389
        39  -7.5891    158.6975    239.3515   4.7754984171e+01   4.8864832202e+00    0.1053665   0.08779798  41.70 0.0002201802    1.700    0.412
        40  -7.9782    156.5762    195.7445   4.1780722354e+01   1.2331882200e+01    0.1711677    0.1232086 -52.76 0.0009591152    1.687    0.407
        41  -8.3636    147.7023    193.2522   4.3300902795e+01   1.3973755950e+01     0.270678    0.1330415 -29.24  0.001160856    2.456    0.593
        42 -10.4345    172.6777    190.9180   3.7675443198e+01   1.1067090160e+01    0.2708079    0.2295114 -39.70   0.00043253    1.327    0.247
        43  -7.7729     78.5933    190.7883   6.0492826907e+01   2.3983572096e+01    0.1892889    0.1407976 -85.59 0.0005609636    1.663    0.399
        44  -8.2151    161.9454    192.2673   4.0077944046e+01   1.2239549377e+01    0.2518151    0.1506137 -41.51  0.001343779    1.632    0.387
        45  -7.7788    166.6281    185.2456   3.7923840777e+01   1.2852399227e+01    0.1820682    0.1064575 -32.99 0.0009389815    1.631    0.387
        46 -14.5708    247.6988    185.5866   2.4487587291e+01   3.3050987106e+00     1.100594    0.5275258 -37.27  0.004499078    1.659    0.397
        47  -7.7500    134.4413    182.4958   4.4553074772e+01   1.7923724375e+01    0.1387121    0.1232539  -0.91  0.000159506    1.020    0.019
        48  -9.8449    170.0169    179.0173   3.6150950856e+01   1.3488856519e+01    0.3401341    0.2170821 -25.62 0.0003628242    1.543    0.352
        49  -8.4864    168.4875    175.5193   3.5834107966e+01   1.4325900121e+01    0.2507155     0.184701 -16.08 0.0006640289    1.323    0.244
        50  -9.1191    150.0860    178.4851   4.0259967211e+01   1.6425358033e+01     0.393117    0.3082428 -84.10  0.001662879    2.157    0.536
        51  -8.4751    152.4820    175.5146   3.9202302548e+01   1.6641919495e+01    0.2108445    0.1512878 -11.70 0.0008839163    1.500    0.333
        52 -10.1974    163.7437    174.8455   3.6681917590e+01   1.5125536725e+01     0.572997    0.2173638 -44.45  0.001221095    2.515    0.602
        53  -7.8871    137.8404    179.1857   4.3179932059e+01   1.8088214816e+01    0.1943859    0.1490073 -17.88 0.0007082585    1.332    0.249
        54  -8.9167    101.0086    175.9665   5.2058142259e+01   2.4285683003e+01    0.2072583    0.1899912  30.80  0.001159481    1.059    0.056
        55 -15.1290    224.2478    188.4655   2.8294020879e+01   5.3167431283e+00     3.280953     1.792744  30.20   0.02057956    2.029    0.507
        56 -14.8517    234.9254    176.0457   2.4677593906e+01   5.8998987815e+00     1.287464    0.8082136  18.99  0.006621995    1.799    0.444
        57 -13.9378    220.9462    152.4210   2.2549525513e+01   1.0971325528e+01     1.108213    0.4859964 -35.46  0.005508407    1.871    0.466
        58 -15.1088    238.8842    160.9200   2.1573507596e+01   7.5645665759e+00      1.05182    0.4972536 -40.86   0.00615221    1.755    0.430
        59  -7.7471    128.6413    168.1559   4.3437220729e+01   2.1767248745e+01    0.2109833    0.1230449 -39.00  0.000949249    1.771    0.435
        60 -15.1618    229.0808    148.6599   2.0730201541e+01   1.0491600326e+01     2.367534    0.3928708 -37.88  0.007624325    5.075    0.803
        61 -13.7394    215.0606    163.3987   2.5403986061e+01   1.0061256144e+01     1.184976    0.4162549  41.44  0.005465501    3.453    0.710
        62 -14.1076    226.5191     87.3709   9.2963099351e+00   1.9762099493e+01     1.154648    0.4231503 -43.23  0.005615535    2.104    0.525
        63 -14.3700    248.5803    157.7893   1.9794930712e+01   6.9086860582e+00    0.6276208    0.3384435 -37.15  0.004095146    1.416    0.294
        64  -7.4155    153.2997    161.3343   3.6386586312e+01   1.9254882480e+01    0.1429328    0.1004958 -12.56  0.000703334    1.653    0.395
        65  -9.6347    159.0838    158.6046   3.4614250577e+01   1.8868270592e+01    0.3199457    0.2766358  43.60  0.001351026    1.321    0.243
        66  -9.0748    153.0162    156.4509   3.5498539427e+01   2.0255547927e+01    0.2754209    0.1953741 -41.86 0.0006982068    1.352    0.260
        67  -7.5018    130.6507    157.6751   4.0961662536e+01   2.3676982472e+01    0.1533687    0.1091102  -9.87 0.0007049014    1.752    0.429
        68  -7.4488    126.6461    155.6862   4.1579502961e+01   2.4773434926e+01    0.1539377    0.1108391  -9.01 0.0007045376    1.735    0.424
        69  -9.2690    157.0360    151.3478   3.3614429415e+01   2.0595901094e+01    0.4972476    0.1830981 -52.33   0.00172086    3.369    0.703
        70  -7.4261    151.3400    151.3144   3.4843529468e+01   2.1544729737e+01    0.1457489    0.1047605  -7.83 0.0007047461    1.701    0.412
        71  -8.5960    133.2392    147.3272   3.8248389124e+01   2.5452572720e+01     0.252668    0.2149598 -13.89 0.0006040614    1.229    0.186
        72  -7.8799    103.0098    148.4997   4.6591557473e+01   3.0413238555e+01    0.2108797    0.1337091   4.12 0.0008081031    2.380    0.580
        73  -7.6847    143.3244    147.3240   3.5841099966e+01   2.3707704660e+01    0.1483791    0.1082957  -9.51 0.0004182557    1.686    0.407
        74  -8.4249    176.3498    144.2270   2.8308212582e+01   1.8782424615e+01    0.2734802    0.1493166 -43.59  0.001276677    1.682    0.405
        75 -10.2093    177.0167    138.1854   2.6948815818e+01   1.9760355724e+01    0.6066609    0.2985665 -24.44  0.002330276    3.127    0.680
        76  -7.2494     98.5246    145.4936   4.7318282374e+01   3.1897263419e+01    0.1537274    0.1458613   0.88 0.0008093134    1.064    0.060
        77  -9.3956    155.3049    140.9446   3.1842099128e+01   2.2918705293e+01    0.4009643    0.1870451 -40.20 0.0002859719    2.067    0.516
        78  -9.2048    158.6998    139.0590   3.0726917452e+01   2.2697624632e+01    0.4511055    0.2892906 -66.72  0.001983113    2.420    0.587
        79  -8.7119    156.4289    134.1956   3.0161048286e+01   2.4041546685e+01     0.261777    0.2246732 -77.38  0.001450711    1.449    0.310
        80  -7.7545    141.0089    141.4959   3.5160259743e+01   2.5316754652e+01    0.2147298    0.1410921  36.99 0.0007097533    1.557    0.358
        81  -7.6931    125.2967    141.3420   3.8996896419e+01   2.8157760266e+01    0.1534902    0.1142721 -14.09 0.0004076458    1.664    0.399
        82  -9.2452    167.1280    137.0081   2.8586249666e+01   2.1636219542e+01    0.4099598    0.2249502 -34.90  0.001395686    1.794    0.443
        83  -9.2997    166.1483    132.0478   2.7721728054e+01   2.2734008679e+01    0.4463278    0.2910851  -8.87  0.002000224    2.368    0.578
        84  -8.6574    132.2136    139.4334   3.6838215501e+01   2.7328163771e+01     0.285069    0.1430868  34.21  0.001142774    2.114    0.527
        85  -7.9269    151.4682    133.4812   3.1066519883e+01   2.5072557033e+01    0.1411118    0.1320486 -27.02 -4.284827e-05    1.006    0.006
        86  -7.7406    122.1763    133.5947   3.8128151170e+01   3.0449567544e+01    0.2109953    0.1422221  25.04 0.0009170338    1.688    0.407
        87  -7.9067    105.2975    131.0328   4.2263992599e+01   3.4174137308e+01    0.2546493    0.1059849 -35.13 0.0007028359    4.127    0.758
        88  -8.5869    172.6460    128.9583   2.5814452585e+01   2.2170060539e+01    0.2873595    0.2011247   6.29  0.001415404    2.049    0.512
        89  -9.1829    163.6854    122.5200   2.6111892531e+01   2.4963099807e+01      0.44857    0.2872628  33.29  0.002193495    1.836    0.455
        90  -9.4037    167.1817    124.7825   2.5937697572e+01   2.3905027564e+01    0.7938493    0.4475878  11.89  0.002383445    5.743    0.826
        91  -8.0524    153.3408    128.3477   2.9529323998e+01   2.5746661824e+01    0.2388681    0.2094186   5.13  0.001134407    1.245    0.197
        92  -9.6931    156.9876    127.0000   2.8462467859e+01   2.5339290098e+01    0.5908211    0.2599575  44.25  0.001693658    2.425    0.588
        93  -9.2668    152.1664    121.3953   2.8204283195e+01   2.7332676683e+01    0.6550452    0.2835032 -29.00  0.002000844    4.226    0.763
        94  -7.9338    136.8844    125.2079   3.2525856053e+01   2.9482172623e+01    0.2013972    0.1712971  -7.62 0.0006262721    1.337    0.252
        95  -8.2614    146.0057    123.9826   3.0139916170e+01   2.7990050854e+01    0.2269395     0.175032  -6.38 0.0007588943    1.656    0.396
        96  -8.3533    176.4101    122.9946   2.3837448205e+01   2.2586790819e+01    0.2422327    0.1869262   4.53  0.001321137    1.656    0.396
        97  -8.3494    157.5175    119.3154   2.6614776028e+01   2.6720752598e+01    0.3602885    0.1715893 -40.06  0.001508264    2.002    0.500
        98  -8.8092    162.6977    115.8572   2.4792093579e+01   2.6394111684e+01    0.3542319    0.2096365  11.05  0.001146046    4.737    0.789
        99  -8.1109    140.8492    115.6762   2.9352125959e+01   3.0676108189e+01    0.2266376    0.1837266  23.59  0.001048108    1.422    0.297
       100  -9.2340    146.8136    112.7175   2.7311212658e+01   3.0082668056e+01    0.3475563    0.1964922 -37.86   0.00100957    1.778    0.438
       101  -8.2215    152.9491    112.3149   2.5914736323e+01   2.8947014507e+01    0.3281403    0.1919472 -35.11  0.001476971    1.763    0.433
       102  -7.5419    122.7221    113.6418   3.3289144666e+01   3.4751845478e+01    0.1534104      0.11956 -12.78 0.0007010309    1.660    0.398
       103  -8.5748    159.4634    111.1801   2.4334211163e+01   2.7888593345e+01    0.3921684    0.2221652  32.28  0.001676431    2.410    0.585
       104  -8.5448    175.9833    110.6187   2.1166969128e+01   2.4856188844e+01    0.3658605    0.1974982  40.35  0.001703139    2.217    0.549
       105  -7.5445    108.3276    110.2996   3.6418699807e+01   3.8423748708e+01    0.1555785    0.1242644  -3.11 0.0004987848    1.638    0.389
       106  -8.7730    154.8015    106.4339   2.4124832140e+01   2.9700352692e+01    0.2944185    0.2338485 -14.76   0.00119032    1.538    0.350
       107  -7.6602    134.6485    106.6695   2.8570322304e+01   3.3770679628e+01    0.1523585    0.1187683   1.00  0.000704738    1.773    0.436
       108  -7.6748    179.4613    105.5072   1.9423083372e+01   2.5098474505e+01    0.1336404     0.118509 -41.40 0.0001891925    1.025    0.024
       109  -8.6178    151.2760     99.2782   2.3070000149e+01   3.1763690240e+01    0.3897628    0.2522578 -14.90  0.001618626    2.559    0.609
       110  -8.0075    160.9632     98.9864   2.1121991089e+01   2.9835414959e+01     0.231931    0.1646731 -69.02 0.0006067841    1.706    0.414
       111 -10.6898    180.6185     96.1008   1.7080453312e+01   2.6471538178e+01    0.3500042    0.2264866  59.71  0.001854848    1.768    0.434
       112  -8.1810    170.9149     96.5786   1.8773198780e+01   2.8273179899e+01     0.242062     0.171882 -33.86 0.0006701226    1.385    0.278
       113  -8.0944    165.0745     92.9304   1.8897019884e+01   3.0076660016e+01    0.2088369    0.1697143  10.88 0.0008457393    1.678    0.404
       114  -8.8620    177.7182     90.2668   1.6166860779e+01   2.8001637375e+01    0.2454339    0.2243069  48.39  0.001032077    1.257    0.205
       115  -8.0461    158.5314     89.6011   1.9236687854e+01   3.2011584628e+01     0.304076    0.1291679 -40.38   0.00121654    2.193    0.544
       116  -8.4194    142.9708     88.6023   2.2010759466e+01   3.5522376032e+01    0.2718579    0.2049215 -24.30   0.00134449    1.588    0.370
       117  -9.1042    196.3610     86.8286   1.2711056400e+01   2.5007383628e+01    0.3428921     0.199733  63.86  0.001194301    2.046    0.511
       118  -8.1552    201.3862     86.1568   1.1917822357e+01   2.4196523504e+01    0.2815287     0.148874  43.66  0.001240236    2.554    0.608
       119  -8.8191    151.1712     86.7282   1.9875085451e+01   3.4085966728e+01    0.3357901    0.2201884  41.40  0.001606698    1.787    0.440
       120 -14.3917    214.7145    170.5267   2.6718263162e+01   9.0246388033e+00     1.742177    0.6655171  34.76   0.00849844    3.007    0.667
       121  -9.1777    184.6955     80.7955   1.2902333375e+01   2.8156601731e+01    0.3637785    0.2454503 -45.28  0.001366033    1.282    0.220
       122  -8.1215    157.9701     80.9802   1.7127315883e+01   3.3626261576e+01    0.2101108    0.1732117   6.81 0.0006407587    1.686    0.407
       123  -7.6705    129.6775     81.2845   2.2890542703e+01   3.9851762305e+01    0.1502614    0.1129526 -82.46 0.0003531527    1.596    0.373
       124  -7.6430    163.8013     80.1867   1.5927747231e+01   3.2516133171e+01    0.1734927    0.1606585  -5.92 0.0002630643    1.308    0.235
       125  -8.3430    201.2546     74.5003   9.3522731050e+00   2.5948242337e+01    0.1792782    0.1694087  15.69 0.0007434866    1.374    0.272
       126 -10.8523    206.7670     72.1712   8.2167232626e+00   2.5271684053e+01    0.2501424    0.2096738 -59.25 0.0004564698    1.079    0.073
       127  -7.4623    175.2951     75.3586   1.2930678774e+01   3.0897670904e+01    0.1274454    0.1051768   1.91 0.0007032207    1.700    0.412
       128 -10.3516    179.7170     72.1612   1.1523696277e+01   3.0488121006e+01     0.233069    0.2179136 -65.47 0.0003267102    1.105    0.095
       129  -9.9174    215.2982     69.2883   6.7045249204e+00   2.4150786317e+01    0.2045765    0.1710428 -45.04 0.0003017037    1.102    0.092
       130  -7.3994    170.4456     70.4841   1.2423499344e+01   3.2673805159e+01    0.1342183    0.1189528 -58.27 0.0001051188    1.024    0.024
       131  -7.7693    175.6162     68.8574   1.1276781623e+01   3.1838267652e+01    0.1867706    0.1047699 -48.35 0.0003510758    1.592    0.372
       132  -9.0415    199.9166     66.9342   7.8049762246e+00   2.7284036087e+01    0.1999286    0.1734616  71.13 0.0003897547    1.321    0.243
       133  -7.8415    212.3983     65.6602   6.2161816553e+00   2.5161094306e+01    0.1635536    0.1013674 -30.93 0.0009406451    1.587    0.370
       134  -7.7661    194.9625     66.4890   8.2628396450e+00   2.8296010241e+01    0.1635006    0.1216519  71.85 0.0005508699    1.483    0.326
       135  -8.0645    215.9700     61.1930   4.9169382045e+00   2.5124664335e+01    0.2484452    0.1872252  36.43 0.0007797219    2.000    0.500
       136  -9.8303    220.2539     57.6899   3.7925381285e+00   2.4828407289e+01    0.3300406    0.1679228 -37.38  0.001869613    1.605    0.377
       137  -7.8792    132.0011     62.5139   1.6856391092e+01   4.2640020416e+01    0.2063978    0.1136024  38.77 0.0008100934    2.540    0.606
       138  -7.9894    188.1088     60.6769   7.6933940257e+00   3.0478104836e+01     0.169561    0.1470848 -63.66 0.0004496901    1.051    0.049
       139  -7.4896    192.7551     59.9638   6.9965915509e+00   2.9650674964e+01    0.1650928   0.09365115 -37.75 0.0008720327    1.555    0.357
       140  -9.8260    207.9386     52.2165   3.7066047910e+00   2.7770168960e+01    0.1994152     0.153373 -48.04 0.0002681325    1.078    0.072
       141  -9.4717    222.5310     44.4184   8.3344406127e-01   2.6096352375e+01    0.1915575    0.1663304 -53.75 0.0005769616    1.180    0.153
       142 -14.9357    203.6307    147.7867   2.4304040389e+01   1.4039808821e+01     3.156715     1.789903  15.36   0.01494649    2.900    0.655
       143 -14.7292    248.7965     97.2508   8.9837192867e+00   1.5105737098e+01     1.113356    0.2450871 -37.59  0.004605571    3.253    0.693
       144 -16.0200    230.5569    113.4799   1.3981451090e+01   1.5426464517e+01     1.855444    0.7595218 -32.24  0.009063176    2.241    0.554
