#   1 NUMBER                 Running object number                                     
#   2 MAG_AUTO               Kron-like elliptical aperture magnitude                    [mag]
#   3 X_IMAGE                Object position along x                                    [pixel]
#   4 Y_IMAGE                Object position along y                                    [pixel]
#   5 X_WORLD                Barycenter position along world x axis                     [deg]
#   6 Y_WORLD                Barycenter position along world y axis                     [deg]
#   7 A_WORLD                Profile RMS along major axis (world units)                 [deg]
#   8 B_WORLD                Profile RMS along minor axis (world units)                 [deg]
#   9 THETA_WORLD            Position angle (CCW/world-x)                               [deg]
#  10 FWHM_WORLD             FWHM assuming a gaussian core                              [deg]
#  11 ELONGATION             A_IMAGE/B_IMAGE                                           
#  12 ELLIPTICITY            1 - B_IMAGE/A_IMAGE                                       
         1 -14.7342     68.4172    144.1435   1.0963620267e+02   3.7395472017e+01     5.308583     2.502068  67.23  0.007832251    3.867    0.741
         2 -13.7144    193.2477     39.7282   5.1638672275e+01   3.1946230375e+01     1.388376     1.239731  -3.02  0.003894392    1.302    0.232
         3 -13.9829    201.9566     33.3992   4.8652533973e+01   3.0569523142e+01     1.472085     1.143772   3.45  0.005236414    1.697    0.411
         4 -12.6333    210.2232     24.8897   4.5340858805e+01   2.9559344600e+01    0.5998256    0.4184361  52.54  0.001100221    1.528    0.346
         5 -14.2269    216.0918     18.2730   4.2981872473e+01   2.8892738221e+01     1.580213     1.172032  35.14  0.005574919    1.750    0.429
         6 -12.3201      2.3220     24.6473   1.0622658973e+02   7.0186376681e+01    0.4185738    0.3448628 -47.19  0.002382793    1.203    0.169
         7 -12.8003      4.3571      6.2956   9.7892420079e+01   7.3273120123e+01    0.7874305    0.4138672 -36.71  0.005063583    1.409    0.290
         8  -9.0627     59.3252      7.3201   7.1397980190e+01   6.6653265409e+01    0.1315608   0.08128633  11.52 0.0002869877    1.679    0.405
         9 -11.2301     43.2715      4.2095   7.6516495788e+01   6.9491540069e+01    0.2236665    0.2017081  12.78  0.001120503    1.362    0.266
        10  -8.9859     96.5009    201.4271   1.1107512410e+02   2.0475313812e+01    0.1300522    0.1096466  64.07 6.036998e-05    1.011    0.011
        11 -15.9025     78.3460    246.0962   1.1907521969e+02   1.4770353843e+01     8.280899     2.793431  32.84   0.03233198    4.348    0.770
        12 -16.3874      7.4508    201.3152   1.2877532637e+02   3.1398773885e+01     7.190938     1.240482 -75.32  0.005603717    4.410    0.773
        13  -9.0739     98.5461    186.4210   1.0866739880e+02   2.3275677226e+01    0.1335399    0.1173056  67.96  7.07009e-05    1.013    0.013
        14 -12.1382     67.0119    179.7245   1.1484598594e+02   2.9371057877e+01    0.4048067    0.2901997 -35.86  0.002199468    2.118    0.528
        15 -11.9734     71.7774    174.4817   1.1312499318e+02   2.9890859333e+01    0.3100687    0.2519463 -45.10    0.0017218    1.543    0.352
        16  -9.6709     99.5076    180.9123   1.0766945293e+02   2.4306414833e+01    0.2254597    0.1882614  27.78 0.0006641795    1.420    0.296
        17 -10.4161     39.3613    177.0607   1.2066044886e+02   3.3331892969e+01    0.2408629    0.1622268  45.18 0.0006047866    1.483    0.326
        18 -13.4501     68.2115    160.9028   1.1216652318e+02   3.3479580908e+01    0.5321812    0.3829474 -42.78  0.001220704    1.734    0.423
        19 -12.7064     87.3500    157.6647   1.0699623570e+02   3.1459344929e+01     1.278885    0.7766501 -66.50  0.002088801    1.612    0.380
        20 -12.1251     80.8664    164.5515   1.0963358711e+02   3.0848023981e+01    0.4929569    0.3578024  68.11 0.0005868617    1.373    0.272
        21 -10.1680    174.0269    248.5103   1.0196111192e+02  -5.6172131416e-02    0.1864475    0.1661098  72.81  0.001337223    1.472    0.321
        22 -10.5250    133.3067    140.1113   9.2124350434e+01   2.7294233589e+01    0.5249541    0.2243196 -58.53  0.001730608    3.051    0.672
        23 -10.6521     39.1344    146.6100   1.1746208777e+02   4.0308268310e+01     0.262193    0.2104268  66.73 0.0006847304    1.211    0.174
        24 -10.0798    100.5106    143.4819   1.0116310498e+02   3.2636161218e+01    0.2785898    0.2310965  69.60 0.0007819594    1.237    0.192
        25 -10.0976    103.2415    140.1283   9.9797308165e+01   3.2951759946e+01    0.3896152    0.2775283 -22.93  0.001760161    2.079    0.519
        26 -10.1289     84.6927    144.3224   1.0542733923e+02   3.5001564747e+01    0.2711586    0.1831474  69.39  0.001043924    1.714    0.417
        27 -12.2899     88.9545    142.0009   1.0389683519e+02   3.4887331841e+01    0.2894124    0.2612022 -39.78  0.000435262    1.255    0.203
        28 -10.5135     33.5248    143.9088   1.1854170143e+02   4.1507135261e+01    0.2000391    0.1045399 -72.14  0.001034633    1.599    0.374
        29 -11.1370     28.4048    143.7155   1.1979551308e+02   4.2039233714e+01    0.2389846    0.2068851  86.35  0.001451068    1.103    0.094
        30 -10.3462    174.8005    148.7279   8.4362544533e+01   1.6814425644e+01    0.2851103    0.2593438 -56.98 0.0008251491    1.192    0.161
        31 -13.9515     46.8868    220.2041   1.2274049886e+02   2.3520572464e+01     1.164312    0.9324851  51.42  0.005050087    1.287    0.223
        32 -13.3856     41.3571    207.9712   1.2286509960e+02   2.6577090594e+01    0.4061044    0.3696308 -88.39  0.001316844    1.346    0.257
        33 -10.8509    145.0028    169.4433   9.5337621179e+01   1.8647079693e+01    0.4078517    0.2731541  -0.76  0.001620253    2.847    0.649
        34 -11.1977     26.1757    137.4917   1.1965351699e+02   4.3694932450e+01    0.3394423    0.1554145  41.74  0.001188508    2.282    0.562
        35 -15.1341     50.1428    198.1592   1.2033024262e+02   2.7550814853e+01     2.394061     1.212396  60.22  0.009322815    1.814    0.449
        36 -10.1303    110.9853    131.5646   9.5971331792e+01   3.3564814720e+01    0.3097047    0.2545967   8.18 0.0007897307    1.570    0.363
        37 -10.1848    106.0501    130.6899   9.7095880254e+01   3.4668820144e+01    0.3270792     0.293368  84.20  0.001337456    1.141    0.123
        38 -10.9976    135.2868    121.0048   8.7157537563e+01   3.1151066095e+01    0.6712922    0.1448731 -51.37  0.001421702    6.616    0.849
        39 -11.0268     98.3388    127.9095   9.8584522008e+01   3.6680448262e+01    0.2986445    0.2391079 -35.47  0.000492788    1.400    0.286
        40 -11.0057     34.9192    167.5492   1.2073200173e+02   3.5928043917e+01    0.3150873    0.2408047  -0.56 0.0007324369    2.166    0.538
        41 -11.9391     54.7298    147.8565   1.1370213820e+02   3.8264419044e+01    0.4544469    0.3171129 -65.68  0.002579883    1.283    0.220
        42  -9.0740    141.4084    198.1711   1.0109373211e+02   1.3606502979e+01    0.1703106    0.1298769 -72.06 0.0004291501    1.578    0.366
        43 -10.5792    117.0723    126.2794   9.3169522306e+01   3.3641036487e+01    0.3102419    0.2228037 -61.14  0.001392426    1.442    0.306
        44  -9.8697    107.8003    120.0187   9.4217061376e+01   3.6844871779e+01    0.2146669     0.202287 -59.67 0.0004243106    1.021    0.021
        45  -9.7095     82.1471    195.0032   1.1334159997e+02   2.3953301592e+01    0.2216611    0.1703249  47.46 0.0006673397    1.239    0.193
        46 -10.3859    193.8935    166.5833   8.4192488988e+01   9.5058050071e+00    0.2943234    0.2626983  46.49 0.0008294407    1.180    0.153
        47 -11.1129    137.9339    171.3170   9.7296147175e+01   1.9607634081e+01    0.3527694    0.2602205  74.57  0.001720561    1.680    0.405
        48  -9.9625    168.2369    112.8951   7.7139760340e+01   2.5526885599e+01    0.3720459    0.2450671 -63.77  0.001402995    2.042    0.510
        49 -10.2539    134.6137    112.0973   8.5064449140e+01   3.3261635169e+01    0.3541446    0.1483063 -44.85  0.001229613    2.355    0.575
        50 -11.5526     22.4414    109.3846   1.1705488476e+02   5.0618845992e+01    0.3847009    0.2213528  89.90  0.001800397    1.844    0.458
        51 -10.1713    205.5201    110.1515   6.8748595088e+01   1.7403595649e+01     0.320562    0.2193719  40.63 0.0008874151    1.555    0.357
        52 -10.2684    134.5311    102.5586   8.2529989573e+01   3.5352406350e+01    0.3774061     0.153045 -41.55  0.001034525    2.471    0.595
        53 -11.5175     41.4156    103.8764   1.1040045249e+02   5.0241320905e+01    0.4352579    0.2249235  50.40  0.002043536    2.419    0.587
        54  -9.5714     91.7165    102.8876   9.4656202445e+01   4.3691395267e+01    0.2014895    0.1785368 -66.66 0.0005476942    1.129    0.115
        55  -9.7055     66.5572    103.3340   1.0245611571e+02   4.7423750211e+01    0.2306972    0.1325162  32.74   0.00108299    1.958    0.489
        56 -10.7400    242.1202    101.8179   6.0535136735e+01   1.0777435052e+01    0.2780423    0.1759473  84.67  0.001160965    2.756    0.637
        57 -10.2138     33.1337    100.1408   1.1230882550e+02   5.1906595890e+01    0.2022132    0.1504244 -50.12 0.0008175165    1.228    0.186
        58 -10.1659    121.6994     98.9535   8.4965951221e+01   3.8880447861e+01    0.2213746    0.1997224 -44.04  0.000504687    1.079    0.073
        59 -10.4571    134.2353    147.0211   9.3385518048e+01   2.5571729857e+01     0.689172    0.1993067 -54.80  0.001876288    4.476    0.777
        60  -8.9159    115.5572     94.4871   8.5423912545e+01   4.1119190429e+01    0.1525944    0.1461544 -34.56 7.490042e-05    1.015    0.015
        61  -9.6837    158.4584     80.5135   7.0293495011e+01   3.4218721577e+01    0.1546794    0.1531938 -12.73 8.237703e-05    1.009    0.009
        62  -8.8830    184.3678     77.3143   6.3944777325e+01   2.8372005870e+01     0.162982    0.1196292  21.47 0.0007037499    1.773    0.436
        63  -9.3392     61.8968     71.5045   9.5817606234e+01   5.5281820766e+01    0.1819353    0.1356101  25.19 0.0005011791    1.495    0.331
        64  -9.5730     54.2228     65.6181   9.6855714607e+01   5.7524469820e+01    0.2168546    0.1636795 -56.03 0.0005597748    1.297    0.229
        65 -10.4572     13.4900     60.1126   1.1109975674e+02   6.2425390937e+01    0.2154584    0.1727474 -54.26 0.0004458717    1.051    0.048
        66  -8.5756     73.3398     59.6912   8.7977674044e+01   5.6059492690e+01    0.1312201    0.1117913 -89.91  0.000704381    1.687    0.407
        67 -10.9652     73.6631    188.1658   1.1436870604e+02   2.6616547588e+01    0.3254493    0.1957816  70.97  0.001375023    1.739    0.425
        68 -11.3230    169.5628    233.3625   1.0071329082e+02   2.8132857452e+00    0.3031704    0.2370715 -83.61     0.001748    1.976    0.494
        69 -10.2238     76.1358    233.2801   1.1840084878e+02   1.7319361225e+01    0.1928321     0.145019  85.86 0.0004083205    1.257    0.204
        70 -10.2548     71.8365    230.1638   1.1892532954e+02   1.8469566683e+01    0.2258173    0.1453629  59.37 0.0008181347    1.248    0.199
        71 -11.6902    193.2781    192.9716   8.9502574619e+01   5.0584674794e+00     0.761294    0.4594799 -52.27  0.003652911    2.172    0.540
        72 -11.5647    145.3434     49.9118   6.3581734843e+01   4.2713698473e+01    0.6193345    0.3876436 -81.92  0.002284805    2.941    0.660
        73  -9.5570    148.4861    187.5078   9.7825413004e+01   1.4366159682e+01    0.1405769    0.1264652  53.53 0.0008097779    1.059    0.056
        74 -10.1326    147.5352     43.7959   6.1052836215e+01   4.3083747044e+01    0.2580249    0.2014582  61.05 0.0003321294    1.265    0.210
        75  -9.2957    139.5680     37.5214   6.0633639487e+01   4.5954092853e+01    0.1432164    0.1399078  53.62 -1.967311e-05    1.048    0.046
        76 -16.4102     11.8894    241.2244   1.2993753697e+02   2.3476339525e+01     2.474419     1.984839  38.84  0.009258217    1.680    0.405
        77  -9.2202    193.7048     15.6744   4.4773305402e+01   3.4765884764e+01    0.1374141    0.1008133  37.17 0.0003352151    1.624    0.384
        78  -9.9335    189.5219     15.0190   4.5094724479e+01   3.5900750841e+01    0.1975117    0.1360449 -28.54 0.0006168857    1.553    0.356
        79  -9.5171    211.0380    202.2719   8.7772768243e+01   4.4342596490e-01    0.1788575    0.1498816  24.77 0.0003091326    1.064    0.060
        80 -10.0356    155.9568    200.1130   9.8353743774e+01   1.0639004793e+01    0.3646538    0.2328734 -67.52  0.001744468    2.263    0.558
