#   1 NUMBER                 Running object number                                     
#   2 MAG_AUTO               Kron-like elliptical aperture magnitude                    [mag]
#   3 X_IMAGE                Object position along x                                    [pixel]
#   4 Y_IMAGE                Object position along y                                    [pixel]
#   5 X_WORLD                Barycenter position along world x axis                     [deg]
#   6 Y_WORLD                Barycenter position along world y axis                     [deg]
#   7 A_WORLD                Profile RMS along major axis (world units)                 [deg]
#   8 B_WORLD                Profile RMS along minor axis (world units)                 [deg]
#   9 THETA_WORLD            Position angle (CCW/world-x)                               [deg]
#  10 FWHM_WORLD             FWHM assuming a gaussian core                              [deg]
#  11 ELONGATION             A_IMAGE/B_IMAGE                                           
#  12 ELLIPTICITY            1 - B_IMAGE/A_IMAGE                                       
         1 -11.0597     19.1446     27.8438   8.2031174543e+01   7.0539742720e+01    0.8554167    0.2425196 -47.13  0.002703697    3.009    0.668
         2 -10.8227     73.0676     38.0624   6.0176236877e+01   6.0573193815e+01    0.9089288    0.4531898 -21.95   0.00234303    2.599    0.615
         3  -9.4284     43.1978     11.0765   5.9803183021e+01   6.9829125470e+01    0.3248204    0.1579686  29.80  0.001047532    2.053    0.513
         4 -10.6217     27.3134     31.4003   7.8770967723e+01   6.9008160074e+01     0.840161    0.4713258 -15.59  0.003086079    2.092    0.522
         5 -10.2279     35.0520     18.1820   6.7930953201e+01   7.0169148107e+01    0.4728441    0.3019009   2.36 0.0003357113    1.681    0.405
         6 -10.2416     41.7495     16.2108   6.3343372540e+01   6.9406343289e+01    0.6619788    0.2368187  31.44  0.001416949    3.228    0.690
         7 -10.4970     36.8514     26.6952   7.1280991812e+01   6.8585945809e+01    0.4279953    0.3787309 -27.31  0.002728324    1.270    0.212
         8 -10.4573     50.2237     22.1382   6.2325590578e+01   6.7159893661e+01      0.42242    0.2294158 -19.86  0.002014901    2.092    0.522
         9 -11.0951    145.8854     29.0570   3.8101175880e+01   4.4824846744e+01    0.6470621    0.3993704  43.33 0.0005307682    1.731    0.422
        10 -12.4600    105.1515     20.8126   4.3201960541e+01   5.5689516127e+01    0.3122938    0.2976093  -1.30 0.0004067298    1.134    0.118
        11 -10.0840    225.7835     16.6455   2.6054433347e+01   2.7846453798e+01    0.3718869    0.2071691 -24.64   0.00149963    2.024    0.506
        12 -10.4028    230.3975     14.5058   2.5276627549e+01   2.7138220842e+01    0.3085855    0.1980602 -87.71  0.001122245    1.491    0.329
        13 -10.5739    219.6829     20.8036   2.7428193508e+01   2.8661422222e+01     0.368342    0.2710944 -67.42  0.001593373    1.189    0.159
        14  -9.8976    144.4704     16.4722   3.4316265744e+01   4.6503379429e+01     0.562376    0.2206981 -19.59  0.002211652    3.190    0.687
        15 -10.4984    150.9039     17.7183   3.3791005235e+01   4.4798614129e+01    0.5070708    0.2771737 -86.28 0.0007041609    2.250    0.556
        16 -10.8609    145.3312     12.7604   3.3016501753e+01   4.6644077481e+01    0.6020327    0.3169986  59.83  0.002121491    1.672    0.402
        17 -10.9905     86.3892     22.2108   4.8775695833e+01   5.9880141759e+01    0.4776262    0.2918286  68.43 0.0002920498    2.007    0.502
        18 -10.4286     72.1081     15.0883   5.0068768790e+01   6.3786927675e+01    0.4810463    0.3788254 -72.35  0.001788547    1.969    0.492
        19 -11.8781     61.7644     17.3561   5.4970353782e+01   6.5642287881e+01    0.6337196    0.3673731  30.83  0.001760813    1.669    0.401
        20 -10.6813     69.6768     11.5760   4.9189898362e+01   6.4671835989e+01     1.013096    0.3325203 -26.57  0.003640215    3.219    0.689
        21 -10.8836    165.5656     18.8013   3.2207284131e+01   4.1120735542e+01    0.4611608    0.3155488  25.78  0.001862537    2.008    0.502
        22  -9.9566      7.1431      9.2977   8.0965339951e+01   7.4903880788e+01    0.3032328     0.212361 -16.98 0.0007623135    1.155    0.134
        23 -10.6457     15.1490     11.5956   7.6540818178e+01   7.3735930563e+01    0.3757718    0.2137204  30.46  0.001889193    1.805    0.446
        24 -10.7083      5.4239     15.5622   8.5446721416e+01   7.3977305559e+01    0.3424465    0.2717859  38.47  0.001294595    1.772    0.436
        25 -10.4512      9.9313     14.7687   8.1850474053e+01   7.3734571815e+01    0.2889967    0.1780132  -8.22 0.0008066937    1.540    0.351
        26  -9.1083    199.9995     14.2418   2.7502304629e+01   3.3585613398e+01    0.2599202    0.1711749  12.39  0.001338946    2.606    0.616
        27 -11.9109    177.7649      3.4475   2.6707380950e+01   3.9674183821e+01    0.3729929    0.2863022  87.11  0.002352252    1.146    0.127
        28 -10.9024    182.2802     18.4515   3.0230341357e+01   3.7190376642e+01    0.2649791    0.2330742  52.16 0.0005599831    1.280    0.219
        29  -9.9533    184.8477     13.0650   2.8567143833e+01   3.7136152787e+01    0.4026029    0.2269463 -67.05  0.002015567    1.837    0.456
        30 -10.7822    175.4817     12.6075   2.9372113092e+01   3.9368191072e+01    0.7356105    0.3540785  79.63  0.003478491    2.028    0.507
        31 -10.2476    244.2038     13.7305   2.4244770093e+01   2.4529558014e+01    0.3180171    0.1651074  50.84  0.001748535    2.733    0.634
        32  -8.7761    126.9465     15.8312   3.6902692466e+01   5.0889478824e+01    0.4384689    0.2152158  29.82  0.001742294    3.002    0.667
        33 -10.2685    218.4650     11.2104   2.5376402168e+01   2.9913724406e+01    0.2885962    0.1994377 -61.63  0.001021048    1.233    0.189
        34 -10.8009    208.0557      3.3280   2.4319340532e+01   3.2882856111e+01    0.5596353    0.4057028 -36.56  0.003666309    1.380    0.275
        35  -9.4489    210.4957     14.0554   2.6608031786e+01   3.1313031924e+01     0.272452    0.1992386 -42.61  0.001051508    1.273    0.215
        36 -10.8799    213.1453      9.6339   2.5399442210e+01   3.1190593083e+01    0.3823948    0.2616065  62.58 0.0006562734    1.575    0.365
        37  -9.4480    117.2153     14.8861   3.8350747351e+01   5.3368343285e+01    0.2486037    0.1875379   6.89  0.001374246    1.572    0.364
        38  -8.9650     84.6721     14.4905   4.5868355010e+01   6.1100718034e+01    0.3518436    0.1512428  37.98  0.001453992    2.399    0.583
        39  -9.9605     31.3192     12.5236   6.6918197495e+01   7.1529869639e+01    0.3121953    0.2067035  37.81  0.001832243    1.576    0.365
        40  -8.5201     34.7207      9.7219   6.3412315142e+01   7.1391984626e+01    0.1700949    0.1218703   9.51  0.000187263    1.245    0.197
        41 -11.0494    133.0300     12.6534   3.4798410228e+01   4.9686686131e+01    0.2340905    0.2093475  82.67 0.0002678902    1.066    0.062
        42  -9.5635     97.8767      5.5998   3.8685293410e+01   5.8848779223e+01    0.4023987    0.2149863 -22.85  0.001998233    2.079    0.519
        43 -10.3709     96.9576     12.7361   4.1876594735e+01   5.8439695685e+01    0.2752091      0.22113  38.45 0.0004586499    1.142    0.124
        44  -9.3312    100.6930     10.6869   4.0159737100e+01   5.7744297618e+01    0.2183892    0.1580788  45.13  0.000568807    1.231    0.188
        45  -9.5995     50.6771     12.1298   5.6895135329e+01   6.8373232898e+01    0.2990511    0.2111721  26.08  0.001146578    1.244    0.196
        46  -9.7791     49.9375      8.5062   5.5240239631e+01   6.8924662561e+01    0.4630052    0.2754931  46.97  0.002523213    1.590    0.371
        47  -9.8457    191.4482      8.2917   2.6764556920e+01   3.6085527803e+01    0.5403682    0.2211541 -34.58  0.002604333    2.248    0.555
        48 -10.9591    196.2426      3.3038   2.5160048623e+01   3.5471228902e+01    0.4466226    0.3453723  55.49  0.002899569    1.470    0.320
        49  -9.5070     79.2172     11.9403   4.6306385225e+01   6.2572749415e+01    0.2764781    0.1590048 -21.31 0.0005755553    1.896    0.472
        50 -10.0611     75.8805     11.8703   4.7299908703e+01   6.3311931656e+01    0.3586358     0.237102 -19.81 0.0003137343    1.631    0.387
        51 -11.5075     79.4753      4.3750   4.2689306904e+01   6.3204295316e+01    0.3561045    0.2554236  44.70 0.0003902013    1.175    0.149
        52 -11.2542     73.5969      5.7459   4.5061061015e+01   6.4387881424e+01    0.3204625     0.226284 -26.08  0.001128929    1.573    0.364
        53 -10.9128     74.6900      2.3395   4.3072858732e+01   6.4437796028e+01    0.2304666    0.2155555 -73.56 0.0007807976    1.352    0.260
        54  -9.8412     23.4781     11.5900   7.1083094145e+01   7.2744494049e+01    0.3785919     0.166752  21.20  0.001709326    2.607    0.616
        55 -11.1121     24.9613      7.0179   6.7476260123e+01   7.3192315192e+01    0.2583691     0.189558  36.15 0.0003457232    1.516    0.341
        56  -9.5843     21.3575      5.3106   6.8709648507e+01   7.3913183919e+01    0.2406626    0.1432829  16.84    0.0010778    1.582    0.368
        57  -9.6059    165.9199      9.2983   2.9464255220e+01   4.1953587231e+01    0.2976049    0.1963332 -38.62   0.00147386    1.537    0.349
        58  -9.5224    170.5161      6.3641   2.8172259093e+01   4.1122139365e+01    0.3917916    0.1662613  47.97 0.0009613911    2.756    0.637
        59  -8.8397     56.0187     11.0084   5.4013960403e+01   6.7495565066e+01    0.2152256    0.1343548  20.36  0.001134875    1.643    0.391
        60  -9.0357    129.2402      7.7851   3.3729454294e+01   5.1049484629e+01    0.3274767    0.2068706  -1.70  0.001670367    2.063    0.515
        61  -9.8646    120.0739     10.0144   3.6033937382e+01   5.3111923522e+01    0.2694859    0.2030434 -78.54 0.0003104686    1.499    0.333
        62  -9.1155    119.6172      1.8026   3.3127634183e+01   5.3890375106e+01    0.2152283    0.1844017 -20.45  0.001349545    1.340    0.254
        63 -10.9251    115.6517      1.9230   3.3819751304e+01   5.4850311078e+01    0.2742883    0.2165902  59.56   0.00030139    1.090    0.083
        64  -8.5433     69.9344      1.5446   4.4102505367e+01   6.5542943764e+01    0.2804779    0.1563935  61.60 0.0007096664    1.746    0.427
        65  -9.1709     91.5605      8.6386   4.1450352376e+01   6.0075434185e+01    0.4453537    0.1515864  48.40  0.001792263    2.416    0.586
        66  -9.3234      1.3152      8.4345   8.4921443772e+01   7.5531058876e+01    0.1888798   0.09843501 -52.37 0.0005304505    2.015    0.504
        67  -9.4900    103.1869      1.3091   3.5829677314e+01   5.7914529262e+01    0.2390892    0.1156995  70.03   0.00110152    1.922    0.480
        68 -10.4853    107.4098      6.9552   3.7245557531e+01   5.6455531794e+01    0.3894019    0.2159679  68.39 0.0007877291    1.662    0.398
        69  -9.9794    107.0538      2.1158   3.5414179484e+01   5.6923516550e+01    0.4222504    0.1871111  41.49   0.00187157    2.254    0.556
        70 -11.7897    156.0520      3.6032   2.8895315632e+01   4.4829125672e+01    0.3473503     0.258737  45.92 0.0003629935    1.454    0.312
        71 -11.7660    159.8986      1.7668   2.7952089475e+01   4.4052623373e+01    0.5481586    0.3787995  87.48  0.002264236    1.313    0.238
        72  -8.6520     64.6776      7.2742   4.8760977460e+01   6.6146954777e+01    0.2552247    0.1539887 -42.88 0.0004928209    2.193    0.544
        73  -8.5444     61.6927      6.3092   4.9331185941e+01   6.6855057319e+01    0.1925276    0.1667817  34.89 0.0006850242    1.096    0.088
        74  -8.9719    123.7026      5.3092   3.3733729712e+01   5.2615823444e+01    0.1957003    0.1611596  -5.67  0.000759434    1.419    0.295
        75  -9.0138    126.3462      1.9886   3.2161108717e+01   5.2226605141e+01    0.2868529    0.1769222  23.08  0.001279906    2.060    0.515
        76  -9.2665     87.5742      6.2893   4.1416346174e+01   6.1201149409e+01    0.2147493    0.1455622  69.80 0.0007209757    1.520    0.342
        77 -10.1523     38.1588      4.8680   5.8732508368e+01   7.1423633669e+01    0.2717116    0.2410174  42.54  0.001259745    1.429    0.300
        78  -9.9848     15.0454      4.0966   7.2200999200e+01   7.4876001933e+01    0.2565401    0.2236326  18.62  0.001281105    1.404    0.288
        79  -8.8910     18.4048      1.8189   6.8453697954e+01   7.4770550038e+01    0.1745011    0.1367909   9.03 0.0004555254    1.089    0.082
        80 -10.9902    249.6792      1.9400   2.1626666169e+01   2.4685728838e+01    0.2318116    0.1950723  -9.46 0.0001474857    1.697    0.411
        81 -10.2491    237.8652      3.2760   2.2496999104e+01   2.6791905708e+01    0.2623585    0.2346018  62.74  0.002022852    1.441    0.306
        82  -9.7163    234.0082      2.5216   2.2553894397e+01   2.7616807539e+01    0.1888845    0.1642218 -59.22 0.0003654838    1.160    0.138
        83 -10.5638    217.6134      3.1766   2.3658710857e+01   3.0873461940e+01    0.2777551    0.2633985  26.78  0.001067854    1.436    0.304
        84  -9.1339    230.8084      6.9834   2.3662743574e+01   2.7816363810e+01    0.1648529    0.1293826  20.05  0.001077509    2.018    0.504
        85 -11.3199     91.3293      1.9741   3.8608728752e+01   6.0676397852e+01    0.2913404    0.2241501 -85.39 0.0008557708    1.585    0.369
        86 -10.1846     30.6448      2.8736   6.1557808816e+01   7.2878432943e+01    0.2582721    0.1842315 -34.24  0.001110001    1.643    0.391
        87  -8.5643    145.2600      2.0231   2.9654495922e+01   4.7583709573e+01     0.243326    0.1035892 -67.51 0.0008894524    3.590    0.721
        88 -10.1799    135.2296      1.6004   3.0785005022e+01   5.0074590508e+01    0.2807445    0.1533258  77.25 0.0009496876    1.684    0.406
        89  -8.7851    185.8586      1.4906   2.5519341581e+01   3.7976385080e+01    0.1777955    0.1062679  76.13 0.0009987393    1.504    0.335
        90  -8.6758     43.6013      1.4406   5.4033629483e+01   7.0835926824e+01     0.243086   0.08380429  39.80  0.001033919    2.526    0.604
        91  -9.4785      5.3955      1.3725   7.7658083725e+01   7.6316544003e+01    0.1915331   0.09590414  17.52 0.0005288662    1.903    0.475
        92  -9.5757     70.8450    116.6486   8.6273824152e+01   4.4315236853e+01    0.3271705    0.2038355  52.87  0.001369618    1.952    0.488
        93  -9.7869    201.4664    249.4023   7.7871430331e+01  -2.7101755250e+00    0.2263991    0.1636037  10.26 0.0006462648    1.048    0.046
        94 -10.4671    116.0807    248.5118   9.4908347160e+01   8.5274409525e+00    0.2778172     0.239494  57.81  0.001458293    1.321    0.243
        95  -8.8083     54.7551    117.5622   9.2056177796e+01   4.6283625268e+01    0.1962179    0.1350497  39.09 0.0005287536    1.531    0.347
        96  -9.9457     27.9873    114.9771   1.0113758680e+02   4.9752828301e+01    0.3578299    0.1580279 -59.17  0.001139944    1.903    0.474
        97 -10.0652     46.9099    114.1038   9.4162507197e+01   4.8099355229e+01    0.2978396    0.2376755 -29.82 0.0004240962    1.316    0.240
        98  -8.8848    129.7039    113.9460   6.7445187758e+01   3.4184448782e+01    0.2143629    0.1955377 -39.05  0.000153813    1.089    0.082
        99  -9.0423    135.6305    109.3008   6.4652043291e+01   3.3922132907e+01    0.1576197    0.1252525  86.28 0.0006838175    1.742    0.426
       100  -8.2564     92.2679    106.3220   7.6532706572e+01   4.3276535732e+01    0.1553194    0.1171082 -18.49 0.0002224044    1.564    0.361
       101  -9.8436     43.9428     99.5522   9.2254457960e+01   5.2106814427e+01    0.4237556    0.1784071  35.85  0.001375925    2.480    0.597
       102  -9.4778     39.5264     99.2876   9.3915892353e+01   5.2650241363e+01    0.3538508    0.2049887  20.58 0.0008539921    1.892    0.471
       103  -9.0344     37.3147    105.6676   9.6062326246e+01   5.1268518266e+01    0.2594988     0.132884 -67.67  0.001117214    1.895    0.472
       104  -9.1591     40.1017    102.8586   9.4440127281e+01   5.1693482053e+01    0.2839949    0.1995803 -41.86 0.0006464685    1.357    0.263
       105  -9.9318     29.7070    102.5464   9.8375501963e+01   5.2772531198e+01    0.4278843    0.2118843 -67.60  0.001217194    1.878    0.467
       106  -9.0081     33.5345    102.9834   9.6985113202e+01   5.2314168994e+01     0.359185    0.1237171 -50.65  0.001185412    2.470    0.595
       107  -9.8075    132.2837    104.0203   6.4090628101e+01   3.5739831723e+01     0.284838    0.2226083  53.92  0.000645772    1.369    0.269
       108 -10.1905     70.9236    103.4566   8.3094934577e+01   4.7549155633e+01    0.2826253    0.2206212  53.12  0.001393458    1.476    0.322
       109  -9.5850    118.9650    103.0254   6.7458459349e+01   3.8778549060e+01    0.2419182    0.1869885  -4.66 0.0003278972    1.607    0.378
       110 -10.1883    100.9766    102.2552   7.2633965172e+01   4.2576431257e+01    0.3993068    0.3508261 -40.76  0.002051786    1.124    0.110
       111  -8.9915     87.0016    102.5948   7.7280365328e+01   4.5090950620e+01    0.3332847    0.1848431  51.72  0.001291442    2.255    0.557
       112  -8.7939    127.2624    101.9905   6.4866775567e+01   3.7241834797e+01    0.2146146    0.1974605 -32.80 0.0002735195    1.075    0.070
       113  -9.4559     57.3739    101.2040   8.7506741795e+01   5.0048962716e+01     0.388108    0.2276684 -60.10  0.001726801    1.680    0.405
       114  -9.5455     51.0051    101.2101   8.9914696838e+01   5.0864677351e+01    0.3775411    0.1392407 -59.55  0.001358114    2.548    0.608
       115  -8.8297    176.9814    101.3173   5.3192223950e+01   2.6486359746e+01    0.1937023     0.183229  44.23 0.0002745097    1.109    0.099
       116  -9.3477     79.9292    100.8114   7.9223154925e+01   4.6731015194e+01    0.4286574    0.2586679  67.99  0.001483399    3.336    0.700
       117  -9.6961     95.0053    100.0669   7.3935415515e+01   4.4211764981e+01    0.2251139    0.2153753 -13.60 0.0003432043    1.008    0.008
       118 -11.6491    117.6799     97.9706   6.6397665484e+01   4.0126957614e+01    0.2912897     0.268407  15.49 0.0003293742    1.094    0.086
       119  -9.8903    221.3406    119.3888   4.9779639230e+01   1.4540082992e+01    0.2818165    0.2353905  18.95 0.0007692141    1.342    0.255
       120  -9.8414     12.8661     95.0488   1.0368594002e+02   5.5913527733e+01    0.3612574    0.1984525 -51.23  0.001238317    1.550    0.355
       121  -9.5050      2.5070     92.7598   1.0746783152e+02   5.7032679550e+01    0.4350049    0.2014288  51.64  0.001675084    2.851    0.649
       122 -10.1509      2.6467     86.4124   1.0650344764e+02   5.8595232758e+01    0.6297988    0.1737759 -61.77  0.002510805    2.515    0.602
       123  -9.2609      3.4672     80.7351   1.0526933205e+02   5.9948433078e+01    0.3200713    0.2605376 -77.97  0.001286879    1.203    0.169
       124  -9.9438      8.8755     98.0596   1.0571358263e+02   5.5390935765e+01    0.3859054    0.2809917  76.39  0.001650696    1.532    0.347
       125  -7.8580      3.9529     97.7902   1.0758007417e+02   5.5712352327e+01    0.2408534    0.1862449  -0.26 0.0009535225    1.495    0.331
       126  -8.8635    149.8743     97.1832   5.7852780117e+01   3.3235771287e+01    0.2046668    0.1766654   2.99            0    1.293    0.226
       127 -10.0728    125.5158     97.1633   6.3977097082e+01   3.8620489201e+01    0.3031622    0.2229959  44.23  0.001414912    1.362    0.266
       128  -9.8440    141.0176     96.5468   5.9788312142e+01   3.5335428499e+01    0.2436669    0.2020639  76.23 0.0006028312    1.465    0.317
       129  -9.4737     85.9710     96.0705   7.5827819213e+01   4.6783768112e+01    0.2603131    0.2153329  34.94  0.000384686    1.225    0.184
       130  -9.6898     80.5672     95.1432   7.7443016411e+01   4.7946576891e+01    0.3593688     0.232024  56.90  0.001515186    2.070    0.517
       131  -9.5993    134.1286     92.0913   6.0242880933e+01   3.7746902214e+01    0.3393062    0.2309082  21.32 0.0009418693    1.936    0.484
       132 -11.0692     26.1822     86.8125   9.6677633447e+01   5.7001236677e+01    0.6540695    0.4287382 -33.51  0.003395777    1.509    0.337
       133 -10.2050     31.6087     93.8356   9.5914425440e+01   5.4788475765e+01    0.3878055    0.2781712 -86.02  0.001146405    1.633    0.388
       134  -9.5034     34.2121     90.5849   9.4152225163e+01   5.5347489786e+01    0.3137094    0.2079209 -23.27 0.0009217564    1.671    0.401
       135 -10.0143     20.2241     81.9860   9.8213014306e+01   5.8650609366e+01    0.3506421    0.2359891  48.77  0.001034129    1.843    0.458
       136 -10.3604     46.9731     91.7990   8.9253016899e+01   5.3669632966e+01    0.3437732    0.2237194 -62.15 0.0007066083    1.524    0.344
       137  -9.3573     44.3273     88.3161   8.9461194598e+01   5.4826051795e+01    0.2592826    0.1864955 -27.02 0.0008132164    1.443    0.307
       138  -9.3982    104.9287     90.6318   6.8044585390e+01   4.4336469651e+01    0.2505851    0.2213628 -66.72   0.00127408    1.301    0.231
       139  -9.0211     70.9545     90.9404   7.9734139715e+01   5.0518427301e+01    0.2269691    0.1859993  81.74  0.001101581    1.643    0.391
       140  -8.8440     52.7186     90.8904   8.6734324640e+01   5.3175060895e+01    0.2203234    0.1640272  88.64 0.0009500897    1.869    0.465
       141  -9.1450     18.2447     90.9691   1.0081010664e+02   5.6580627350e+01    0.2006841    0.1825476  -9.00 0.0006986757    1.190    0.159
       142  -9.4112    113.6738     90.4358   6.5353177975e+01   4.2552631211e+01    0.2988256    0.1492274  48.20  0.001137475    2.072    0.517
       143  -9.0492     93.9574     79.0094   6.7954312248e+01   4.8986507990e+01    0.2915187    0.2149356  -4.41  0.001114564    1.713    0.416
       144  -9.5120     90.8692     83.6369   7.0457215789e+01   4.8623858447e+01     0.269041    0.2311165 -33.36 0.0001987359    1.144    0.126
       145 -10.4526     86.2824     88.7463   7.3589365162e+01   4.8377345485e+01    0.4359991    0.3394762 -23.05 0.0008303815    1.378    0.274
       146  -9.3340     86.9824     83.6458   7.1791341241e+01   4.9361945977e+01    0.2501774    0.2125169 -40.01 0.0003930698    1.163    0.140
       147  -9.4093     39.6935     88.5808   9.1430681357e+01   5.5278533068e+01    0.3207813    0.2045256 -49.80  0.001197619    1.395    0.283
       148  -9.6693     97.5224     88.5395   6.9760448919e+01   4.6274520313e+01    0.3236243    0.2645942  60.41  0.001063106    1.437    0.304
       149  -9.9834     57.3664     87.3884   8.3958084268e+01   5.3385326687e+01    0.5488275    0.3171234  58.16  0.001728685    2.859    0.650
       150  -8.9102     14.0776     88.3704   1.0206750288e+02   5.7500970872e+01    0.2507623    0.1446088 -57.04 0.0007022869    1.435    0.303
       151  -9.6553      6.8235     89.0461   1.0518167554e+02   5.7746128414e+01    0.2020574    0.1789025  34.16 0.0005329316    1.320    0.243
       152  -9.8713    118.2648     83.6591   6.1977996150e+01   4.2927535492e+01    0.4725821    0.2826392  55.65  0.001409154    1.879    0.468
       153 -10.8705    123.8249     86.9488   6.1440725545e+01   4.1052227632e+01    0.4502144      0.33733  33.54 0.0007310822    1.391    0.281
       154 -10.1946    129.8187     84.4177   5.9087284347e+01   4.0202275176e+01    0.4473843    0.2947683  12.12  0.001754413    2.422    0.587
       155 -10.3976    155.2576     85.1115   5.3274220659e+01   3.4251311246e+01    0.2746412    0.2539618 -22.11  0.000261205    1.099    0.090
       156 -11.5365    152.7480     80.1808   5.2406278430e+01   3.5702417081e+01    0.9325859     0.315906  53.05  0.002903489    2.968    0.663
       157  -9.2387    111.0168     85.7827   6.4726882585e+01   4.4072649595e+01     0.237795    0.2124433  79.55  0.001212821    1.333    0.250
       158  -8.9815     84.2592     78.5009   7.1117876056e+01   5.0969552316e+01    0.2641761    0.2029485 -12.57  0.000904583    1.480    0.324
       159 -10.8937     67.3917     85.5277   7.9520697057e+01   5.2331927757e+01     1.016328    0.2457267  33.45  0.002887619    4.319    0.768
       160 -10.8856     86.7078     67.5135   6.6577204924e+01   5.2726718016e+01    0.7200661    0.3892305  42.75   0.00306368    1.834    0.455
       161 -11.4390     72.5243     79.4266   7.5713948397e+01   5.2862699177e+01    0.6702189     0.594824   7.69  0.003665222    1.113    0.102
       162 -10.3606     88.7184     73.9277   6.8062410281e+01   5.1059269454e+01    0.5166434    0.3557488 -28.14  0.002286527    1.560    0.359
       163 -10.1628     94.4174     71.7235   6.5401363302e+01   5.0355320488e+01     0.461484    0.3755107 -59.22  0.001210141    1.459    0.315
       164  -9.2411     81.7588     62.2949   6.6486558934e+01   5.4697505468e+01    0.5922913    0.2971788  23.90   0.00206465    3.108    0.678
       165 -10.2193     77.3063     62.0135   6.8021687710e+01   5.5601003286e+01    0.6787784    0.3630381 -20.76  0.002464375    2.979    0.664
       166 -10.6069    141.5304     83.6957   5.5967035274e+01   3.7666102535e+01    0.5970495     0.352574  60.32  0.001364732    1.944    0.485
       167 -10.2137    105.7997     82.0379   6.5137177629e+01   4.5937497650e+01     0.363479    0.2387118 -38.28 0.0003050601    1.535    0.349
       168 -10.7527     51.3146     82.9103   8.5163212139e+01   5.5254542080e+01    0.4840689    0.3249276 -20.82  0.001653884    1.710    0.415
       169 -12.9162     53.0792     75.2011   8.2185817848e+01   5.6791820659e+01    0.3385595    0.3097941 -11.61 0.0005318079    1.042    0.040
       170 -11.2433     51.8013     69.0357   8.0802221936e+01   5.8338550705e+01    0.6517994     0.512903 -85.42  0.003307691    1.884    0.469
       171  -9.8926     43.8373     81.5467   8.7912291673e+01   5.6502687340e+01    0.4028875    0.2752454  -2.65  0.000958139    1.708    0.414
       172 -10.3599     38.2447     81.6259   9.0316093332e+01   5.7111230341e+01    0.4089776     0.284863  -1.82  0.001327128    1.623    0.384
       173 -10.3281    167.8250     78.2540   4.8810583150e+01   3.2538867775e+01    0.2751003    0.2530855 -46.03 0.0003166227    1.059    0.056
       174 -10.4743    169.9807     73.5135   4.7097525163e+01   3.2817535474e+01    0.3195366    0.2398015 -25.66  0.001231937    1.418    0.295
       175 -10.3068    136.4577     77.5008   5.5329802387e+01   3.9964609866e+01    0.4109767    0.2273826 -55.71  0.001096275    2.399    0.583
       176  -8.9098    177.2994     71.7035   4.5310359518e+01   3.1418970281e+01    0.1904665    0.1686221   9.71 0.0002166072    1.317    0.241
       177  -9.8094    121.3268     77.8066   5.9308857429e+01   4.3372114126e+01    0.4092663    0.2737098 -89.61  0.001522353    2.917    0.657
       178  -9.9364     65.3650     74.9166   7.7063070587e+01   5.5026036036e+01    0.5041556     0.356991  17.39  0.002464287    1.530    0.346
       179  -8.4042     12.7310     77.7152   1.0064558434e+02   6.0191631500e+01    0.1353764   0.08107285 -40.52 0.0002218814    1.497    0.332
       180  -8.7127    215.7079     75.9174   4.0624520705e+01   2.2428567768e+01    0.1840648    0.1513169 -43.13 0.0003387475    1.078    0.072
       181  -9.6117    141.4817     75.4273   5.3514503142e+01   3.9162327238e+01     0.230872     0.200784 -15.29 0.0005039937    1.238    0.192
       182 -10.6630    145.7243     74.4775   5.2268232220e+01   3.8332786643e+01    0.3373275    0.2595939 -40.93 0.0006288647    1.302    0.232
       183  -8.9852    146.4604     70.4893   5.0909984772e+01   3.8835696671e+01      0.23325    0.1939379  66.63 0.0006474716    1.254    0.202
       184  -8.7558     37.4674     75.7594   8.9104291244e+01   5.8580343196e+01    0.1984997    0.1103157 -43.95 0.0009200861    1.618    0.382
       185  -9.2456     28.8710     74.9952   9.2750442259e+01   5.9616378188e+01    0.3586198    0.3527463 -41.54  0.002292401    1.157    0.136
       186 -11.0007     44.6301     54.5493   7.9084156802e+01   6.2381656046e+01    0.7207948     0.329718  28.86  0.003116264    2.239    0.553
       187 -10.9930     46.9410     47.3828   7.5263628134e+01   6.3475157060e+01     2.043121    0.8568407  15.48  0.005303555    6.814    0.853
       188  -9.7152     22.0418     65.2651   9.3410219767e+01   6.2474807046e+01    0.9261245    0.2999341 -52.85  0.003724332    2.396    0.583
       189  -8.9088     32.0271     47.7061   8.2808199045e+01   6.5331352546e+01    0.2580445    0.2338694  50.52   0.00104256    1.469    0.319
       190  -9.6173     38.3676     47.1079   7.9345031882e+01   6.4691897094e+01    0.3204652    0.1991747  10.13 0.0006764025    1.770    0.435
       191 -10.0909     30.1525     68.6796   9.0481462469e+01   6.0968222643e+01    0.4849954    0.2959322 -37.44  0.001951031    1.508    0.337
       192 -10.4762     28.0102     63.3276   8.9975225246e+01   6.2390657857e+01    0.6424265    0.3063562 -32.57  0.001503142    2.234    0.552
       193 -12.1729     24.7765     56.0492   8.9386083965e+01   6.4307437775e+01    0.4843516    0.3833335  27.68 0.0009506547    1.413    0.292
       194 -10.6379     29.2172     51.9979   8.5786243923e+01   6.4745789242e+01    0.4559444    0.1977997  23.37  0.001090402    2.398    0.583
       195  -9.5414     19.3632     74.1027   9.6866198413e+01   6.0613064204e+01     0.482023     0.251313 -61.04  0.002331452    1.675    0.403
       196  -9.1775    185.1649     75.3746   4.4971946401e+01   2.9059230691e+01    0.1837317     0.133583  74.71  0.000368281    1.569    0.363
       197 -11.3020    175.6740     75.0458   4.6496545822e+01   3.1260857643e+01    0.5886231    0.3903078  79.61  0.002701927    1.955    0.489
       198  -8.1778     11.7219     74.2670   1.0040343971e+02   6.1082280416e+01    0.1171903   0.09724459  66.90 0.0003823908    1.483    0.326
       199 -11.6815    158.1901     70.4691   4.8473924348e+01   3.6066809908e+01    0.5074847    0.4334643 -55.04  0.001411475    1.198    0.165
       200  -9.7043    111.1886     76.6194   6.1794839602e+01   4.5849168182e+01     0.366215     0.334741 -40.80 0.0009521781    1.126    0.112
       201 -11.0002      8.4178     51.0700   9.6539233268e+01   6.6634942348e+01      0.61911    0.4264592   6.41  0.002989535    1.532    0.347
       202  -8.6744      8.6948     62.4784   9.9273157642e+01   6.4034613772e+01    0.2698777    0.2260578   6.87  0.001341934    1.314    0.239
       203 -12.2688      2.3887     66.2511   1.0316445157e+02   6.3466554222e+01     0.473251     0.249894 -68.69 0.0004144734    1.677    0.404
       204 -10.9254      4.3033     59.5495   1.0080903146e+02   6.4938824397e+01     0.570182    0.2329568 -38.99  0.001852296    2.127    0.530
       205 -10.3592    140.8799     68.5532   5.1555532272e+01   4.0480411902e+01    0.3811544    0.2477111 -50.92 0.0006479142    1.698    0.411
       206  -9.6374    143.5923     65.7320   5.0086202553e+01   4.0301216729e+01     0.216251    0.1856408 -45.38 0.0007023351    1.187    0.157
       207 -10.0659    103.7016     68.6503   6.1406468948e+01   4.8984867842e+01    0.6930931    0.4233819   2.17  0.002425811    3.251    0.692
       208  -8.5217    218.8367     69.8421   3.8803328653e+01   2.2673212887e+01    0.1741229    0.1367575 -63.04 0.0002908531    1.265    0.209
       209 -10.2529    173.5532     68.9257   4.5196676892e+01   3.2716414328e+01    0.2593055    0.2413813 -45.88 0.0003855698    1.046    0.044
       210 -11.4362     45.1509     68.6419   8.3601683476e+01   5.9306725692e+01    0.3205682    0.2295685 -51.36 0.0002485332    1.349    0.259
       211  -8.9726     37.1689     68.9204   8.7299837233e+01   6.0188089969e+01    0.4081036    0.2074554 -51.00  0.001868563    1.746    0.427
       212  -8.8064     64.1920     69.1245   7.5634135102e+01   5.6457782023e+01    0.2245929    0.1879789  -5.59 0.0006591476    1.192    0.161
       213  -8.4007     10.0210     69.4970   1.0019345749e+02   6.2317089141e+01    0.1749252    0.1137757 -15.61  0.000847174    1.622    0.384
       214  -9.3929     14.8809     64.7784   9.6771879736e+01   6.3120366917e+01    0.5647879    0.2286374 -14.73  0.002039635    3.863    0.741
       215  -9.3469     16.1521     59.8579   9.4876065344e+01   6.4160495139e+01    0.2539397    0.2007611 -87.17   0.00100853    1.611    0.379
       216  -9.0491    120.0495     67.0666   5.6196425255e+01   4.5612259976e+01    0.2269638    0.2193193  34.62 0.0006300653    1.017    0.016
       217  -8.6667    191.8643     66.5176   4.1626767545e+01   2.8912019508e+01    0.1859384    0.1344414  64.17 0.0002932221    1.445    0.308
       218 -10.5035    134.7730     64.4579   5.1674888621e+01   4.2607865854e+01    0.3980279    0.3275275  69.42 0.0006254729    1.300    0.231
       219 -10.0968    132.6761     59.6325   5.0614854313e+01   4.3887433695e+01    0.4401848    0.2903671  29.80   0.00161435    1.851    0.460
       220 -10.2959    128.4989     57.4963   5.0898545134e+01   4.5221534469e+01    0.6724436    0.2355528  62.21  0.001979503    3.997    0.750
       221 -11.7533     56.2821     56.7617   7.4603730497e+01   6.0246695051e+01    0.4225928    0.3451161  75.31 0.0002733424    1.921    0.479
       222  -9.4730    175.2676     62.6861   4.3191435124e+01   3.3268072972e+01    0.3597101    0.2225503 -25.85  0.001254319    1.782    0.439
       223 -11.5083     81.0640     83.3224   7.3778571923e+01   5.0520011564e+01    0.4236315    0.3125575   0.78 0.0003301499    1.662    0.398
       224 -10.2158    193.9129     60.9427   3.9900098661e+01   2.9264601640e+01    0.4070722    0.2079681 -42.66  0.001005006    1.805    0.446
       225  -8.6390    228.9171     62.3203   3.5914537680e+01   2.1701970199e+01    0.1621798    0.1462691 -64.87 0.0002774496    1.086    0.079
       226  -9.1583    168.1741     62.4093   4.4313310993e+01   3.4972221731e+01    0.2011665    0.1354924  75.61 0.0007123178    1.693    0.409
       227 -10.0538     64.3998     61.9478   7.3057623587e+01   5.7902976885e+01    0.4991206    0.2231447  30.69  0.001950336    2.422    0.587
       228  -8.9107    159.7971     46.6386   4.1181105866e+01   3.9230302837e+01    0.2976198    0.1833413 -77.54  0.000964553    2.255    0.557
       229 -10.3443    161.2540     60.0041   4.4853024275e+01   3.6975407308e+01    0.3675036    0.2783581   8.49  0.001312768    1.775    0.436
       230 -11.2835    160.8147     54.4519   4.3309499065e+01   3.7896290646e+01    0.3607692    0.2599775 -38.00  0.000368465    1.385    0.278
       231  -9.7676    164.5086     46.1718   4.0272175182e+01   3.8156118515e+01    0.4118783    0.2860152  20.06  0.001151157    2.062    0.515
       232 -10.3222    154.0139     60.7499   4.6431732153e+01   3.8594215463e+01    0.3894295    0.2537326  55.12  0.001661166    1.500    0.333
       233  -9.5134     71.9101     60.5322   6.9542022986e+01   5.6879320417e+01     0.331246    0.2497298  48.78  0.001391071    1.499    0.333
       234  -8.2099     44.2866     61.3042   8.1612371838e+01   6.1016501106e+01    0.1427899   0.09625839 -21.33 0.0003923445    1.563    0.360
       235  -9.8409    143.1007     59.0097   4.8108285049e+01   4.1484582943e+01    0.3741668    0.1592158  49.28  0.001424568    2.280    0.561
       236  -8.6606     99.9747     59.4902   5.9366439624e+01   5.1442957721e+01    0.1968617    0.1328189  74.16 0.0007054064    2.366    0.577
       237  -8.6061    111.7249     56.8939   5.5004649522e+01   4.9249189349e+01    0.1887564    0.1839347   8.36 0.0002359762    1.041    0.040
       238  -9.1154    225.9485     55.6552   3.4729085555e+01   2.3184112678e+01    0.1701692    0.1485376 -72.09 0.0005184279    1.110    0.099
       239  -9.0488    187.6793     56.0731   3.9514699034e+01   3.1358898230e+01    0.2124496    0.1747036 -88.72 0.0003131801    1.252    0.201
       240  -8.5740    167.4641     56.4791   4.2751797480e+01   3.6015645122e+01    0.1374126    0.1347862  85.05 0.0001371027    1.047    0.045
       241  -9.2604    136.7039     55.7447   4.8449466875e+01   4.3525824223e+01    0.2668797     0.181169 -17.65  0.001232972    1.775    0.437
       242 -11.1592     54.7254     61.3631   7.6944317743e+01   5.9551049903e+01    0.5355122    0.3791034  58.37  0.001015354    2.107    0.525
       243  -9.9769     93.5175     53.9226   5.9376500339e+01   5.3793172517e+01     0.475431     0.307602  25.92  0.002153348    1.782    0.439
       244 -10.0205    145.8907     52.4872   4.5499615188e+01   4.1786733237e+01    0.4078242    0.2619204 -77.67  0.001730551    2.306    0.566
       245  -9.4850    142.8385     49.1751   4.5062619111e+01   4.3003370817e+01      0.22645    0.1888851  78.62 0.0002752421    1.245    0.197
       246 -11.2629     68.4819     48.5864   6.6323577617e+01   5.9711563459e+01    0.6292778    0.4059336 -53.11  0.001627346    2.003    0.501
       247 -12.7108     62.0254     44.3327   6.7242377505e+01   6.1612909488e+01    0.5063371    0.2824754  37.04 0.0005130934    1.736    0.424
       248  -9.8298    193.8239     52.6368   3.7782606855e+01   3.0439659461e+01    0.3378746    0.2206126  70.39  0.001726303    1.587    0.370
       249  -8.9449    107.0606     52.8019   5.4857845111e+01   5.0978065517e+01    0.2954439    0.1857468  34.40  0.001073346    1.699    0.411
       250  -8.8137     84.1027     53.1403   6.2251562153e+01   5.5893530720e+01    0.2152395    0.1798202   4.71 0.0003584349    1.220    0.180
       251  -9.8708     86.9167     48.7362   5.9584390601e+01   5.6054949527e+01    0.3701921    0.2790593  17.71  0.001630228    1.426    0.299
       252  -9.9232     61.4354     51.9901   7.0572928544e+01   6.0332773380e+01    0.3154124    0.2370486  -6.67 0.0004913073    1.411    0.292
       253  -9.8084    185.1775     43.6867   3.6582892515e+01   3.3594648720e+01      0.30808    0.2278923  34.20 0.0007532372    1.718    0.418
       254 -10.4436    182.6898     48.9210   3.8317909387e+01   3.3485525838e+01    0.3406335    0.2728125  -8.17  0.001678638    1.547    0.354
       255  -9.1442    185.7177     47.3464   3.7482072918e+01   3.2993907145e+01    0.2270005    0.1792414 -85.54 0.0003719886    1.294    0.227
       256  -9.6567    175.3210     48.9811   3.9398434177e+01   3.5202002201e+01    0.3782523    0.2837144 -13.28  0.001600714    1.631    0.387
       257  -9.1201    165.8427     51.1921   4.1507077121e+01   3.7151857566e+01     0.217743    0.1808897 -72.21 0.0007137091    1.249    0.199
       258  -9.9045    123.0026     50.4508   4.9844392677e+01   4.7613704589e+01    0.5290608    0.2605596  59.78  0.001587272    2.088    0.521
       259 -11.1061    127.8060     48.7403   4.8131174187e+01   4.6713099577e+01    0.3760317    0.3053288 -51.92 0.0008953344    1.344    0.256
       260 -10.8145    125.9577     44.9924   4.7275216948e+01   4.7693695575e+01    0.3557184     0.264244  59.30 0.0005455778    1.291    0.226
       261 -10.2404    115.0984     46.7273   5.0504400196e+01   5.0041358673e+01    0.5346997    0.3195924 -19.79  0.001675687    2.030    0.507
       262  -8.6618    150.6915    249.6589   8.7846933786e+01   3.7475421258e+00    0.1238756    0.0825752  -0.80 0.0007043805    1.689    0.408
       263  -8.6378     23.3393     39.5244   8.4409531624e+01   6.7893619822e+01    0.4612417    0.2130399  23.47  0.002028189    2.201    0.546
       264 -10.8562     23.0730     46.9919   8.7298124262e+01   6.6400799814e+01     0.459362    0.3591874  32.79  0.002523258    1.499    0.333
       265  -9.2544     27.8427     42.8408   8.3197578813e+01   6.6769862933e+01     0.293909    0.1990355 -30.01 0.0007852493    1.318    0.241
       266 -10.3111     16.4470     46.6940   9.0822897222e+01   6.7033413575e+01    0.3407649    0.2106872 -52.29 0.0002076735    1.437    0.304
       267 -10.8070     14.2772     39.6445   8.9657969199e+01   6.8675382150e+01    0.5563785    0.4226146  88.09  0.003138529    2.148    0.534
       268  -9.0590    196.8008     48.9363   3.6458083417e+01   3.0266401829e+01     0.223597    0.1834977  86.33 0.0009007853    1.219    0.180
       269 -10.9082    153.7738     47.3809   4.2444444345e+01   4.0590448516e+01    0.3245177    0.2957241 -70.13 0.0005537794    1.105    0.095
       270  -8.6881    136.6393     49.1899   4.6338953152e+01   4.4509451111e+01    0.2311246    0.1577591  53.71 0.0005670887    1.388    0.280
       271  -9.3272    201.8398     47.3393   3.5446423150e+01   2.9356651677e+01    0.2424338    0.2034088  13.87  0.000721781    1.578    0.366
       272  -8.6821     97.7721     48.1660   5.5877243525e+01   5.3801671672e+01    0.2008277    0.1607963  19.11 0.0005566367    1.310    0.236
       273 -10.1353    146.0284     45.7416   4.3357729736e+01   4.2702108951e+01    0.3745471    0.2372047 -24.87 0.0007179715    1.757    0.431
       274  -9.5746    144.5263     40.9409   4.2119225801e+01   4.3708987067e+01    0.3007979    0.2417878   6.57  0.001318419    1.525    0.344
       275 -10.5292     80.1602     43.1132   5.9689445160e+01   5.8359113885e+01    0.4905404    0.3330276  59.36  0.002291319    1.808    0.447
       276  -9.7619    178.4271     44.1287   3.7615138907e+01   3.5112099488e+01    0.4424511    0.1893739  64.23  0.001859204    2.283    0.562
       277  -9.5141    106.6077     43.7857   5.1676023629e+01   5.2456664920e+01    0.4939741    0.2332138  58.41   0.00111658    2.207    0.547
       278  -9.7872    102.8179     39.4278   5.1072909985e+01   5.3952356557e+01    0.3362521    0.2393212  -8.16  0.001215338    1.669    0.401
       279  -8.7999      8.2846     43.6990   9.4471543686e+01   6.8246507238e+01    0.3467531    0.3188489 -83.42   0.00194355    1.399    0.285
       280 -11.2138      6.2476     36.0136   9.3194415068e+01   6.9985320109e+01    0.4636669    0.4128517 -24.37  0.002251418    1.151    0.131
       281  -9.7619      4.8148     32.3898   9.2828775952e+01   7.0813324479e+01    0.2130618    0.1516045 -28.83 0.0004635819    1.150    0.131
       282 -10.2022      9.7688     31.6100   8.9424157283e+01   7.0635540200e+01    0.3464902    0.1935135  26.75  0.001026978    1.947    0.486
       283 -10.9947    227.7651     39.8525   3.1003297306e+01   2.4819192618e+01    0.4486502    0.3545071 -15.82  0.002842043    1.565    0.361
       284 -10.3019    222.7581     40.6820   3.1652238060e+01   2.5737317575e+01    0.3035215    0.2563402  45.26 0.0006161456    1.484    0.326
       285  -9.6766     92.7933     42.1644   5.5094082386e+01   5.5819350197e+01    0.4352526    0.3511347  64.15  0.002327556    1.412    0.292
       286 -10.8590     95.6712     35.6029   5.1614228480e+01   5.6110867985e+01    0.5152944     0.323262  33.30  0.001582109    1.657    0.396
       287  -8.9018     86.8298     43.1532   5.7410331335e+01   5.6960844884e+01    0.1973213    0.1926901  65.90 0.0003653927    1.197    0.165
       288  -9.6555     47.2702     41.7145   7.2790065067e+01   6.4481054963e+01    0.4565583    0.2374054  14.13  0.001840933    2.789    0.641
       289  -9.3210     33.8957     42.0969   7.9673618246e+01   6.6224743838e+01    0.3026824    0.1960816   7.80  0.001423422    1.623    0.384
       290  -8.5745    200.9502     43.0000   3.4472922243e+01   3.0108127159e+01     0.275207   0.08750916  60.56 0.0009412883    2.998    0.666
       291  -9.4805    203.5054     39.4634   3.3315142757e+01   2.9984339271e+01    0.2232824    0.1699114 -51.61 0.0005538649    1.187    0.157
       292  -9.1909     67.2233     27.4791   5.7702936681e+01   6.3265483886e+01    0.2759978    0.1953762  16.81  0.001066101    1.455    0.313
       293  -8.3407     57.0347    249.0009   1.0735113242e+02   1.5749138066e+01    0.1313031    0.1071014  50.99 0.0009244469    1.033    0.032
       294 -10.5551     87.0853     33.9854   5.3580341334e+01   5.8240634918e+01    0.4629414    0.3508431  -3.31  0.002473172    1.452    0.311
       295 -10.5949     80.5404     31.4028   5.4635900864e+01   6.0002542215e+01    0.4195609    0.3520728  54.18  0.001237715    1.267    0.210
       296  -9.9089     71.9187     29.0789   5.6658683832e+01   6.2108372327e+01     0.663886    0.2756171  34.26  0.002520025    2.797    0.642
       297  -9.7668     74.9330     23.7156   5.3140909056e+01   6.2186714944e+01    0.3270826    0.1921462 -25.96  0.000511427    1.803    0.445
       298  -9.6733    126.9204     39.8044   4.5274148425e+01   4.8166068000e+01    0.4883274    0.2332781  68.42  0.001898143    2.453    0.592
       299 -12.0009     40.1398     39.5251   7.5383076792e+01   6.5902857112e+01    0.2322281    0.1949673 -16.39 0.0002884018    1.045    0.043
       300  -9.5525    158.0706     38.9799   3.9183150804e+01   4.0647482844e+01    0.2315283    0.1919469 -88.93 -0.001877172    1.216    0.178
       301  -9.7742    161.6372     38.6832   3.8534178223e+01   3.9818299464e+01    0.7628298    0.2765808  43.66  0.002534689    3.819    0.738
       302  -9.2552    121.0394     39.1422   4.6357706412e+01   4.9679442142e+01    0.2116718    0.1990025  67.19 0.0004990576    1.068    0.064
       303 -10.0432     53.1042     38.1068   6.8506430784e+01   6.4196420359e+01    0.2044016    0.1733764 -11.67 0.0002920705    1.076    0.071
       304 -10.0852    178.5265     37.0787   3.5676143232e+01   3.5975562824e+01    0.3823082    0.2430041  48.07  0.001678125    1.730    0.422
       305  -9.5349    244.2244     45.2062   3.0723512862e+01   2.0961311575e+01    0.3313407    0.1470581  44.26   0.00142808    3.953    0.747
       306  -8.7742    136.6665     37.7351   4.2568870685e+01   4.6050094877e+01     0.217952    0.1657156  58.72 0.0002674351    1.226    0.184
       307  -8.9847    139.4948     36.5055   4.1624943143e+01   4.5509908064e+01    0.2495883    0.1794744 -70.83 0.0007390573    1.665    0.399
       308 -10.0047    113.0424     33.3284   4.6122117834e+01   5.2352763884e+01    0.4636463    0.2561798 -20.75 0.0004371807    2.126    0.530
       309  -9.1061    115.3736     37.2534   4.7009643631e+01   5.1291110272e+01    0.3031655    0.2518065 -32.59  0.001530572    1.284    0.221
       310  -9.6481    118.1818     33.0057   4.4806509659e+01   5.1155847482e+01    0.3305157    0.2214939  29.30  0.001135563    1.716    0.417
       311  -9.2772    238.8100     37.3724   2.9517741881e+01   2.2937263297e+01    0.1570269    0.1024294  61.20 0.0009555516    1.746    0.427
       312  -8.8443    186.0470     36.1468   3.4477341201e+01   3.4332454194e+01    0.2772931    0.1379314 -54.57  0.001241417    2.150    0.535
       313  -9.5874    131.4964     35.8934   4.2975610314e+01   4.7550941844e+01    0.3684115    0.2545451 -83.49 0.0003766481    1.872    0.466
       314 -10.0441    133.3750     30.2197   4.0686513540e+01   4.7775088465e+01    0.5025855    0.3139655   6.00  0.002173664    2.406    0.584
       315  -9.1523     60.6246     34.2084   6.3457340074e+01   6.3529618281e+01    0.2902049    0.2062089 -30.22  0.000946063    1.411    0.291
       316  -9.2670     61.9892     30.9892   6.1421534021e+01   6.3767924554e+01    0.3151257    0.2566668  59.14  0.001781472    1.596    0.373
       317  -8.9700     54.9183     31.7904   6.4840811557e+01   6.4917265260e+01     0.283159    0.1655186 -25.49 0.0006328703    1.786    0.440
       318 -10.8173     46.8117     33.0049   6.9182505169e+01   6.6060717389e+01    0.9083791     0.408132  46.10  0.002419856    2.757    0.637
       319  -9.3312     30.8523    247.5182   1.1256329174e+02   1.8814532414e+01    0.2167134   0.09952281  68.62  0.001155051    2.268    0.559
       320  -8.7492    162.5435    246.5029   8.5018234780e+01   2.6536092043e+00    0.1229432   0.09746896  17.19 1.179598e-05    1.017    0.017
       321  -9.8685     41.0000     20.9784   6.6237799588e+01   6.8851553725e+01    0.3478791    0.2819789 -79.94  0.001615104    2.593    0.614
       322  -8.7024      1.3664    244.1906   1.1814826996e+02   2.2160502355e+01    0.1465884   0.07882078  76.18 0.0004949094    1.640    0.390
       323  -9.2421    244.6662    242.0064   6.9139557374e+01  -6.7316055333e+00    0.1584571     0.122529   2.66  0.001203786    1.228    0.186
       324  -9.0055     34.4834     31.4990   7.4820695324e+01   6.8100252951e+01    0.2466948    0.1817302  24.40  0.001454489    1.325    0.246
       325  -8.9210    145.8304    242.1791   8.7870701263e+01   5.5696250558e+00    0.1722557    0.1293304   2.91 0.0005852122    1.337    0.252
       326 -11.3579     48.2627     26.9104   6.5607361142e+01   6.6794613539e+01    0.3610384     0.250349  40.02 0.0005588763    1.476    0.323
       327  -9.0018    168.3015    237.6719   8.2604248070e+01   3.2183241070e+00    0.1130243   0.09304053  49.69 0.0004965061    1.643    0.392
       328  -8.7516    242.2391     34.5402   2.8649563501e+01   2.2612599541e+01    0.1352904      0.10678  65.77 0.0002973868    1.465    0.317
       329 -10.6269    227.1172     33.0428   2.9549511937e+01   2.5759542600e+01    0.3050552    0.1884892  63.56 0.0002628783    1.743    0.426
       330 -10.6007    233.9846     30.4446   2.8423434865e+01   2.4686357707e+01    0.4129556    0.2146117  50.87  0.001712787    2.505    0.601
       331  -9.0838    188.3105    235.3157   7.8261815313e+01   8.9230884517e-01    0.1269195   0.07978152  -0.52 0.0003477962    1.636    0.389
       332  -8.4305    228.3783    234.3011   7.0686639924e+01  -3.9669115746e+00    0.1248851   0.07020045   0.44 0.0005703164    1.766    0.434
       333 -12.4589    107.8579     29.0695   4.5768647110e+01   5.4111883969e+01    0.4470491    0.3456488   0.73  0.002415459    1.482    0.325
       334  -9.7883    110.9263     23.8821   4.3056122027e+01   5.3973858283e+01    0.2239541    0.1757806  52.63 0.0004289853    1.141    0.124
       335 -10.5846    152.9762     31.9639   3.7866638733e+01   4.2745636801e+01    0.2430471    0.2068764 -87.16            0    1.161    0.139
       336 -10.2346    248.0525     30.6072   2.7408739123e+01   2.1970660002e+01    0.2625946     0.145191 -36.20  0.001235501    1.558    0.358
       337  -8.9082    159.5498     31.9897   3.6869410073e+01   4.1136442501e+01    0.2250334    0.1679382  70.67 0.0008048141    1.263    0.208
       338  -8.8199    125.3977     29.7861   4.2102818005e+01   4.9785624198e+01    0.2505048    0.1278488 -33.15  0.001113982    2.049    0.512
       339  -9.2256     94.4540     29.9347   4.9673463495e+01   5.7129014899e+01    0.2881556    0.1651469  42.11   0.00120413    1.625    0.385
       340  -8.7566    190.2552     28.8351   3.2087148608e+01   3.4220293902e+01    0.2025466    0.1533017 -66.36  0.001190708    1.249    0.199
       341  -8.5944    171.7709     28.6428   3.4219020781e+01   3.8571930480e+01    0.1645923    0.1611454 -76.96 0.0004749028    1.116    0.104
       342  -9.4347    222.8389     26.8607   2.8531598863e+01   2.7341142441e+01    0.1699599    0.1669588 -89.01  0.001239078    1.260    0.207
       343  -9.4139    212.2126     26.4848   2.9351396025e+01   2.9615917380e+01    0.2297568     0.183656  36.15 0.0009162972    1.678    0.404
       344  -9.0081    161.2851     26.5973   3.5026220976e+01   4.1328665996e+01    0.2341335    0.1528619  60.30 0.0006293193    1.437    0.304
       345  -9.4539    204.5132     24.9791   2.9692709185e+01   3.1452894096e+01    0.3786502    0.1705018  48.17  0.001682528    2.904    0.656
       346  -9.4670    204.6954     20.8881   2.8694522566e+01   3.1858006440e+01    0.2510767    0.2110088   0.83  0.001221416    1.601    0.375
       347  -9.5621    100.9286     26.0974   4.6350746313e+01   5.6098655531e+01    0.2522705    0.1788085  49.36 0.0005607643    1.261    0.207
       348 -10.3742      1.9999     25.0869   9.1964186265e+01   7.2434744008e+01    0.2330042    0.1361462 -44.37  0.000437827    1.377    0.274
       349 -10.0240    131.4625     22.1597   3.8296375057e+01   4.9139917257e+01    0.4033207    0.2716894 -10.43  0.001959283    1.820    0.450
       350  -9.6713    232.8375     23.5734   2.7038819364e+01   2.5683954144e+01    0.3518713    0.1727205 -82.93  0.001105093    2.359    0.576
       351  -9.2514    221.8113    233.5761   7.1728217267e+01  -3.0953612902e+00    0.1529631   0.09644481  32.32 0.0008141862    1.649    0.394
       352  -8.8629     32.0027    232.5008   1.1147969238e+02   2.1575200224e+01     0.166694   0.09917907  33.91 0.0003736711    1.494    0.330
       353  -9.1973    186.6874    230.6458   7.7857859557e+01   1.7946452690e+00    0.1314923   0.08176684  -2.89 0.0007044835    1.733    0.423
       354  -9.3021    217.4835     17.4990   2.6855339984e+01   2.9473024836e+01    0.2225036     0.151928  63.18 0.0007767135    1.576    0.366
       355  -9.8692    173.3678     22.9530   3.2437781599e+01   3.8817615801e+01    0.5208853    0.2560895  67.32  0.001771804    1.875    0.467
       356  -8.8672    177.9527    231.0000   7.9653246999e+01   2.9253913101e+00    0.2094537   0.06114126  33.18 0.0008082332    2.983    0.665
       357 -10.5992    153.6140     22.8858   3.4993078449e+01   4.3603245730e+01    0.2430452    0.2354039 -86.64  0.000327423    1.082    0.076
       358  -8.9767    162.7525    225.6939   8.1968059814e+01   5.8891796487e+00    0.2946711    0.2105294  77.83  0.001340999    3.520    0.716
       359  -8.9825    224.0000    225.0001   6.9944914020e+01  -2.2222013409e+00    0.1829291    0.1367128   0.96 0.0005318999    1.023    0.022
       360  -8.5866    132.2014    225.3936   8.8529941774e+01   1.0326852275e+01    0.1796564    0.1045041  39.55  0.000270254    1.555    0.357
       361  -9.5787     89.2942    220.6895   9.7691783715e+01   1.7219785561e+01    0.2341706    0.2118919  -1.56  0.000868927    1.252    0.201
       362 -10.9976     62.1019     22.4843   5.7359930650e+01   6.4932949704e+01    0.3366457    0.2191464  32.91 0.0009114089    1.402    0.287
       363  -8.1295    236.7013    216.2887   6.6277682141e+01  -2.6017045842e+00   0.09725869   0.08962328  -7.62 0.0002485821    1.557    0.358
       364  -9.4118     26.1891     22.5781   7.5278461841e+01   7.0677301138e+01    0.2190194     0.150388 -33.19 0.0006496891    1.339    0.253
       365  -8.6578    188.3810     21.7149   3.0451763636e+01   3.5435333690e+01    0.1605796    0.1222353 -16.81 0.0006709932    1.586    0.370
       366  -8.7675    116.9091     22.3320   4.1169081535e+01   5.2693173652e+01    0.1872556    0.1539104  52.11 0.0002522203    1.098    0.089
       367  -8.5983    117.8170    211.8690   8.9913237077e+01   1.4964821658e+01    0.1817109    0.1478853  52.22  0.000465773    1.306    0.234
       368  -8.3979      2.6131    212.2891   1.1667914042e+02   2.8377427087e+01    0.1289353   0.06115276  55.25 0.0007011123    1.756    0.431
       369  -9.0032    242.6295    209.9920   6.4203184534e+01  -2.4760706830e+00    0.1658295    0.1183294 -19.66 0.0005454806    1.164    0.141
       370  -8.9591      6.7794     20.4804   8.6779065729e+01   7.2983904075e+01     0.282067    0.1303448 -23.24 0.0005534562    2.276    0.561
       371  -8.0089    145.2854    210.3087   8.3374247137e+01   1.1141641909e+01    0.1342232   0.09690637  -5.01 0.0002577666    1.570    0.363
       372  -8.3354    230.5374    209.5325   6.6172083574e+01  -9.1826567210e-01    0.1249206    0.0916313  -4.93 0.0008072482    1.082    0.076
       373  -9.1867    123.9806    206.0118   8.7613209449e+01   1.5202250568e+01    0.1943853    0.1734141  18.57            0    1.035    0.034
       374  -9.0022    199.4952     18.9315   2.8685787735e+01   3.3214593559e+01    0.2105964    0.1218411 -24.38 0.0007137142    1.937    0.484
       375  -8.8133     21.0304    204.0068   1.1214377153e+02   2.8583767835e+01    0.1480837    0.1235824  70.10 0.0005797118    1.022    0.022
       376  -9.4461    193.2384     20.0303   2.9540798221e+01   3.4505010421e+01    0.1903865    0.1785013  40.62 0.0003509692    1.303    0.232
       377  -9.4043    195.3097     15.8247   2.8298761433e+01   3.4473198343e+01    0.2489675     0.185219  88.51 0.0008803078    1.236    0.191
       378  -8.9201     35.4693    201.5080   1.0857129972e+02   2.7744266915e+01    0.1257191    0.1075494  64.55 0.0002857915    1.011    0.011
       379  -8.9573    221.4819    198.5570   6.5818343443e+01   1.8554832858e+00    0.1273999   0.09966853  -5.07 7.018448e-05    1.024    0.023
       380  -8.5050     96.1762    195.7978   9.2888652766e+01   2.1474997924e+01    0.1808933    0.1579151 -15.02 0.0004193708    1.299    0.230
       381  -8.8733      6.6398    194.6665   1.1493197529e+02   3.1876685346e+01    0.1741372    0.1259093 -48.49  0.001082301    1.692    0.409
       382  -9.0269     20.1635     18.9945   7.7177019235e+01   7.1981272248e+01    0.2495467    0.1913489  34.94  0.001322503    1.605    0.377
       383  -9.2469     14.8936     18.1611   8.0178001439e+01   7.2680941983e+01    0.2778727    0.1453792 -10.88 0.0008180627    2.298    0.565
       384  -9.9291    237.9213     17.2797   2.5362171623e+01   2.5363833419e+01    0.2170886    0.1943655  41.53 0.0009703192    1.541    0.351
       385  -9.3521      9.1641    179.3653   1.1343026085e+02   3.5178442947e+01    0.2038968    0.1435271 -73.29 0.0005655405    1.327    0.246
       386  -9.5269     17.8716    174.8077   1.1088835501e+02   3.5558734397e+01    0.1863776    0.1677734 -51.54  0.001224293    1.270    0.212
       387  -9.4861      6.1271    174.9733   1.1391819324e+02   3.6436299910e+01    0.2204449    0.1529579  54.40 0.0006271816    1.326    0.246
       388  -9.7192     15.1050    165.1358   1.1086886166e+02   3.8113013471e+01    0.1824366    0.1597904 -59.87 0.0002874925    1.214    0.176
       389 -10.2788     11.1758    166.8527   1.1205599921e+02   3.7998740792e+01    0.2303812    0.1895477 -57.30  0.001043555    1.292    0.226
       390  -9.7585      7.4777    166.4853   1.1301167101e+02   3.8358659142e+01    0.2317997    0.1230151  20.68 0.0008587826    2.112    0.527
       391 -12.5920     41.1757    162.0869   1.0328844326e+02   3.6487257325e+01    0.7408859    0.3463607  56.70 0.0007746636    2.526    0.604
       392 -12.0503     30.2707    154.4945   1.0558860660e+02   3.9457307862e+01    0.7557341    0.4392542  62.62  0.003646666    1.877    0.467
       393  -9.0026     88.5722     13.5355   4.4359332342e+01   6.0310080222e+01    0.2084789    0.1171526  56.29 0.0004101347    1.568    0.362
       394  -9.7102      8.3675    161.7954   1.1244040653e+02   3.9428790571e+01     0.173013   0.09920288 -67.63 0.0002869656    1.568    0.362
       395 -10.6353      2.0026    158.4565   1.1393328836e+02   4.0669296632e+01    0.4238646    0.1749536 -69.03 0.0009302202    2.054    0.513
       396  -8.5920     48.9360    157.4980   1.0046738439e+02   3.6790785975e+01    0.1965893    0.1357314  28.08 0.0006216785    1.505    0.335
       397  -9.7275    248.8499    153.8481   5.2791448695e+01   4.6982519984e+00    0.1956008    0.1421809 -14.14 0.0004848102    1.242    0.195
       398 -10.5635     20.3907    150.2984   1.0805452428e+02   4.1362245156e+01    0.4725353    0.2466495 -56.95  0.002301377    1.793    0.442
       399 -10.0616     20.0135    140.5019   1.0715293408e+02   4.3864850270e+01    0.4920768    0.2389899  -3.92   0.00198142    3.322    0.699
       400  -9.6692     16.0091    142.9530   1.0863492589e+02   4.3548373303e+01    0.1971152    0.1761496 -87.17 0.0003327165    1.022    0.021
       401 -10.9714     10.2092    146.8129   1.1072588462e+02   4.2992366200e+01    0.5157017    0.2592461 -40.01   0.00197872    2.403    0.584
       402 -10.2424     11.0555    151.6672   1.1089544108e+02   4.1725655612e+01    0.2526021    0.2222581 -74.56 0.0007076957    1.087    0.080
       403  -9.1780     14.5172    150.4895   1.0979238630e+02   4.1767917322e+01    0.2071989    0.1655165  26.61 0.0006656118    1.388    0.279
       404  -9.9052     24.5972    162.9203   1.0806608978e+02   3.7869404014e+01    0.2229804    0.1761592  45.83 0.0004058925    1.255    0.203
       405  -9.7138      3.6650    145.5741   1.1253670585e+02   4.3725061431e+01    0.2664976    0.1801486 -54.06 0.0009397421    1.467    0.318
       406  -8.6469     62.1375    145.1107   9.4641095518e+01   3.8323584015e+01    0.2165117    0.1851184 -39.75 0.0005354749    1.223    0.182
       407  -8.6947     55.4823    145.5071   9.6767924308e+01   3.9056580652e+01    0.1410427    0.1344021 -74.73 0.0008103601    1.011    0.011
       408  -9.5423    241.0085    144.0193   5.1995945530e+01   7.3486428441e+00    0.1586141    0.1244243 -25.80 0.0004818027    1.043    0.041
       409  -9.2558     38.2705    143.1142   1.0178424648e+02   4.1573945176e+01    0.2066704    0.1866944  -4.78 0.0002545571    1.263    0.208
       410  -9.5363      1.8756    139.6241   1.1259490891e+02   4.5309497080e+01    0.2747061    0.1408699  79.13  0.001318805    1.981    0.495
       411 -10.0990     41.2028    138.1615   1.0016453322e+02   4.2542834901e+01    0.2600928     0.205048  48.22  0.001422926    1.318    0.241
       412  -9.1134    230.4883    136.9877   5.2153250832e+01   1.0124834323e+01    0.2017104    0.1118092 -33.97 0.0004842111    1.545    0.353
       413  -9.0571     33.0304    137.1790   1.0264738683e+02   4.3600279633e+01    0.2425703    0.1328928  52.57  0.001092574    2.044    0.511
       414  -9.2149    235.9497    136.5497   5.1222206291e+01   9.3030993672e+00    0.1705614    0.1263027  38.53 0.0005076457    1.550    0.355
       415  -8.6802     82.8844    136.0746   8.6507983872e+01   3.7635383683e+01    0.2066709     0.172571 -26.72 0.0004068989    1.298    0.230
       416  -9.4472     56.0674    127.0406   9.3435467395e+01   4.3702189594e+01    0.2963084    0.2067833  67.72 0.0006292827    1.778    0.438
       417  -8.5084     58.5058    135.5008   9.4155741160e+01   4.1233669427e+01    0.2292408    0.1672483 -33.01 0.0008299336    1.537    0.349
       418 -10.0684     61.0792    131.4214   9.2582028335e+01   4.1943826634e+01    0.3353081    0.3199151 -10.63  0.001916593    1.104    0.094
       419  -9.3653     15.9626    135.4524   1.0787523120e+02   4.5450525159e+01    0.1808258    0.1319223  19.15  0.001017747    1.559    0.359
       420  -8.8985    249.1311    133.8363   4.8751483139e+01   7.6435522290e+00    0.1746422    0.1262611 -16.33 0.0005156414    1.329    0.247
       421 -11.0033      7.0449    133.2424   1.1045900867e+02   4.6602612839e+01    0.6432655    0.2925378   6.23  0.002853288    2.907    0.656
       422  -9.0001     12.0345    127.7779   1.0830858837e+02   4.7670676908e+01    0.3590882     0.112499 -56.82  0.001412972    2.591    0.614
       423  -8.2991     23.3071    133.3342   1.0528565209e+02   4.5430583761e+01    0.1427607   0.08948265 -43.26 0.0007040825    1.670    0.401
       424  -9.0539     42.4973    130.2069   9.8531875768e+01   4.4451397606e+01    0.2435751    0.2004638  24.98 0.0006560698    1.309    0.236
       425  -9.7178     18.4315    126.8901   1.0609808161e+02   4.7453607804e+01    0.4392694     0.168087 -51.14  0.001807281    2.392    0.582
       426 -10.0847     34.1727    126.7788   1.0079785354e+02   4.6165709023e+01    0.4455049    0.2430403  75.39  0.001590313    2.580    0.612
       427 -10.3080     29.1511    120.8090   1.0162380206e+02   4.8156120805e+01    0.4921478    0.2466728  40.87  0.002052659    2.146    0.534
       428  -9.3457     32.8156    117.8252   9.9870486235e+01   4.8594468170e+01    0.2162664    0.1826358 -23.33 0.0003497583    1.284    0.221
       429  -9.2311     33.7377    114.4175   9.8974905500e+01   4.9382893239e+01    0.2545803     0.176561 -62.48 0.0005571717    1.291    0.226
       430 -10.6839     50.2497    126.3119   9.5268022341e+01   4.4591007728e+01    0.3768265    0.2629079  39.84  0.001885863    1.501    0.334
       431  -9.7042     38.5908    123.7122   9.8810022696e+01   4.6525014752e+01    0.3486026    0.2104429 -44.58  0.001655932    1.653    0.395
       432  -9.4565    241.2227    123.7437   4.7777149578e+01   1.0427029578e+01    0.2535049    0.1444642 -49.61  0.001287799    1.904    0.475
       433 -10.9428      7.9367    122.1834   1.0905820946e+02   4.9345663570e+01     0.396786    0.2355801 -47.55  0.002080675    1.631    0.387
       434 -11.2032     61.8111    121.3203   9.0370933640e+01   4.4416045748e+01    0.3695286    0.2548494 -42.87 0.0001842749    1.445    0.308
       435  -8.7591     84.4647    122.0482   8.2970028281e+01   4.0849614844e+01     0.236801    0.1452074 -51.85  0.001023389    1.582    0.368
       436 -10.5831     45.0197    119.5309   9.5854753329e+01   4.6923190200e+01    0.3836381    0.2702635  28.68  0.001112724    1.505    0.336
       437  -9.7858     15.6723    108.1733   1.0459588802e+02   5.2423109635e+01    0.3551031    0.2831316 -43.42   0.00162944    1.212    0.175
       438 -10.6422     12.8183    114.4528   1.0647416978e+02   5.1011415549e+01    0.6196344     0.277224 -48.67  0.002254533    2.055    0.513
       439  -9.8541      7.5566    111.8383   1.0801559674e+02   5.1989142634e+01    0.3842571    0.1899933  53.89   0.00128558    2.443    0.591
       440 -10.1705      3.1292    108.9766   1.0925980010e+02   5.2944656697e+01    0.3333628    0.2417187 -85.40  0.001448379    1.273    0.214
       441 -11.5911     21.6909    119.1948   1.0398979839e+02   4.9179669593e+01    0.4959919    0.3911973  62.49  0.001165124    1.373    0.272
       442 -11.2981     21.1794    108.4502   1.0260126514e+02   5.1964165996e+01    0.7758486    0.4508385 -73.75  0.003807862    1.605    0.377
       443  -9.1705     93.9929    119.0077   7.9203037469e+01   3.9964132348e+01    0.2380048    0.2194428 -12.18 0.0006106602    1.107    0.097
       444  -9.3105     38.0297    118.8027   9.8188376386e+01   4.7843141550e+01    0.2226248    0.1739753 -38.29  0.000889342    1.299    0.230
       445 -10.0582      3.3755    117.1817   1.1006792985e+02   5.0863577206e+01    0.3967557     0.199354 -76.73  0.001934381    1.714    0.417
