#   1 NUMBER                 Running object number                                     
#   2 MAG_AUTO               Kron-like elliptical aperture magnitude                    [mag]
#   3 X_IMAGE                Object position along x                                    [pixel]
#   4 Y_IMAGE                Object position along y                                    [pixel]
#   5 X_WORLD                Barycenter position along world x axis                     [deg]
#   6 Y_WORLD                Barycenter position along world y axis                     [deg]
#   7 A_WORLD                Profile RMS along major axis (world units)                 [deg]
#   8 B_WORLD                Profile RMS along minor axis (world units)                 [deg]
#   9 THETA_WORLD            Position angle (CCW/world-x)                               [deg]
#  10 FWHM_WORLD             FWHM assuming a gaussian core                              [deg]
#  11 ELONGATION             A_IMAGE/B_IMAGE                                           
#  12 ELLIPTICITY            1 - B_IMAGE/A_IMAGE                                       
         1 -15.1677    180.1264     79.3116   8.0819224910e+01   2.9251906750e+01       12.974     6.705645 -72.90   0.03400411    5.714    0.825
         2 -14.4671    130.6721     16.5946   7.2420356497e+01   4.9815034513e+01     4.521756     3.925542  48.34   0.02906114    1.036    0.035
         3 -14.3396    248.8902      5.3659   5.5127225953e+01   2.3761664935e+01    0.5019121    0.4169767 -44.13  0.002463059    1.445    0.308
         4 -12.0772    207.4479     10.5329   5.9811845486e+01   3.2345174195e+01     1.247446    0.6626309 -87.09  0.006211485    1.942    0.485
         5 -15.2092    209.6611     67.3734   7.2777899487e+01   2.4158472179e+01     7.837947     4.106229 -74.96   0.02770558    3.358    0.702
         6 -10.4742    180.8910     28.3956   6.7344327148e+01   3.6616796164e+01    0.6102452    0.2613423 -36.97  0.001327817    2.415    0.586
         7 -14.1719    195.1434     50.4389   7.0824496241e+01   3.0233369597e+01     2.105835     1.713627 -82.18   0.01177627    1.180    0.153
         8  -8.5408    171.5913     10.2909   6.3964416568e+01   4.0827019832e+01    0.1370799    0.1273687   4.37  0.000386695    1.360    0.265
         9  -8.9049    186.0595      5.3699   6.0940357103e+01   3.7878807436e+01    0.2568618    0.1169716  58.61   0.00124609    1.918    0.478
        10  -9.3440    210.2978      2.0901   5.7682612017e+01   3.2575948837e+01    0.2713445    0.1446775 -66.52  0.001161785    1.893    0.472
        11 -17.1811    244.8871     26.7960   5.9605838011e+01   2.2019646259e+01     3.487834     2.963996 -64.61   0.01902964    1.165    0.142
        12  -9.2780    217.9741      1.9006   5.6945716834e+01   3.0857427025e+01    0.1796341    0.1520185 -60.34   0.00123746    1.232    0.188
        13 -10.1715    190.4857    149.8743   9.6113019448e+01   1.2840128481e+01    0.4890585    0.2517107 -63.67  0.001517003    3.691    0.729
        14 -13.4926    234.3242    247.1318   1.0651318467e+02  -1.2184585809e+01     2.241491     1.154882  26.74   0.01121433    1.821    0.451
        15  -8.6045    195.3459    168.6786   9.9236170471e+01   7.9545890701e+00    0.1512405    0.1202937 -89.97  0.000476547    1.734    0.423
        16 -12.3005     69.0573    145.3853   1.2519020754e+02   3.7428393966e+01     1.295997     1.094215 -61.32  0.005214863    1.085    0.079
        17 -12.0766     59.6499    156.3272   1.2949290447e+02   3.6041556083e+01    0.7517962    0.5073239  84.09  0.001659956    1.657    0.396
        18 -12.0764     46.6056    165.5725   1.3407403186e+02   3.5431704618e+01    0.5157115    0.4180851 -34.95  0.001684977    1.594    0.373
        19 -12.4154     54.1873    160.7013   1.3153312072e+02   3.5681014123e+01    0.8103819    0.5896453  88.50  0.002637208    1.355    0.262
        20 -10.9620    214.4365    188.2513   9.9440377779e+01   4.6258302215e-01    0.4316834    0.2799005  54.19  0.001337929    1.875    0.467
        21  -9.6136    204.0205    161.4535   9.5900859102e+01   7.6305971823e+00    0.3762002    0.2567356 -72.62  0.001527954    2.308    0.567
        22  -9.2403     37.3025    162.3446   1.3588895403e+02   3.7251316847e+01    0.1302885    0.0873973 -46.40 0.0003755653    1.684    0.406
        23  -8.2741    155.5848    159.8031   1.0610136350e+02   1.8183224223e+01    0.2127722    0.1478123 -60.60  0.000386991    1.585    0.369
        24  -8.7395    146.0096    156.9798   1.0775626266e+02   2.0831622798e+01    0.2543278    0.1894145  80.21 0.0007762054    1.741    0.426
        25  -8.2638     42.2178    247.0099   1.4318714209e+02   1.8033935706e+01    0.1431366   0.08026319 -78.25 0.0004619395    1.639    0.390
        26 -10.1411    184.7465    142.3017   9.5592646064e+01   1.5680329257e+01    0.3160066    0.2541918 -14.05  0.001250874    1.515    0.340
        27 -10.0410    193.1940    140.1351   9.3316269951e+01   1.4271425613e+01    0.2891499    0.2192084  50.61 0.0005577879    1.362    0.266
        28 -11.9892    188.8328    137.7906   9.3676077409e+01   1.5721634797e+01    0.7006852    0.3630115  45.23  0.002763277    1.988    0.497
        29  -8.5365    108.5146    140.6647   1.1366418371e+02   3.2131340148e+01    0.1462601    0.1419378  64.35 0.0007861546    1.063    0.059
        30 -10.9523    209.9849    136.0257   8.9034573044e+01   1.1447535343e+01    0.4552939    0.3187258 -65.08  0.002062763    1.755    0.430
        31 -11.0381    188.7280    130.4636   9.1966164803e+01   1.7267434385e+01    0.4018773    0.3283661  78.65  0.001945061    1.422    0.297
        32 -11.2355    195.6302    128.5385   9.0098160291e+01   1.6109081846e+01    0.3761257     0.320797  80.89  0.001431621    1.315    0.239
        33 -13.1180    185.7046    122.3208   9.0631411992e+01   1.9635626135e+01    0.9324064    0.8377734  89.03  0.004810757    1.180    0.153
        34 -11.4880    160.2844    128.7637   9.7822822182e+01   2.4075339529e+01    0.5358505     0.448261   5.67  0.002539963    1.505    0.336
        35 -10.7212    134.8321    122.2933   1.0243408027e+02   3.1131426502e+01    0.7074171    0.4005707 -65.60  0.002525795    2.601    0.615
        36 -10.8640    203.8872    128.8465   8.8542770955e+01   1.4206209695e+01    0.3709876    0.2575807 -26.24  0.001668453    1.677    0.404
        37 -11.6457    204.8787    122.9873   8.6974228059e+01   1.5150189923e+01    0.4824692    0.4107295 -77.17   0.00232024    1.286    0.222
        38 -12.3695    249.1279    234.3597   1.0164415214e+02  -1.2574223568e+01     0.560223    0.4611205 -43.00 0.0003375791    1.623    0.384
        39  -9.9108    135.6863    129.4491   1.0398178198e+02   2.9331070063e+01    0.4631356    0.2141401 -41.22  0.001459025    2.292    0.564
        40 -11.6819    227.6715    120.3034   8.2263357219e+01   1.0700950315e+01    0.6052371    0.3225117 -46.69  0.002622979    1.752    0.429
        41 -11.5451    193.3356    117.1053   8.7808676500e+01   1.8939583545e+01    0.6140867    0.3516195  67.39   0.00179079    2.354    0.575
        42 -11.3965    221.0170    102.0493   7.9186037969e+01   1.5533580933e+01    0.5979584      0.36356 -58.62  0.002661513    1.792    0.442
        43  -9.4821    176.0092    150.3351   9.9339509343e+01   1.5882688110e+01    0.2137798    0.1988443  48.70 0.0004267642    1.084    0.077
        44  -9.6988    249.1145    149.1224   8.4981350837e+01   1.1761862264e+00    0.2720297    0.1861189  40.75  0.001428016    1.643    0.391
        45  -9.8989    133.2487    143.2472   1.0784199322e+02   2.6659292556e+01    0.7425295    0.1892254 -53.65  0.001814366    4.928    0.797
        46 -12.4607    215.6757    117.6931   8.3743896827e+01   1.3784904002e+01    0.9008492    0.5085925 -58.80  0.003620895    2.150    0.535
        47 -10.7961    211.0018    112.5036   8.3362507793e+01   1.5817932636e+01    0.5397667    0.2797106  39.32  0.002088605    2.474    0.596
        48 -12.4963    205.8737    110.6348   8.3848970717e+01   1.7336908183e+01    0.6398376     0.556904   9.17  0.002823062    1.438    0.305
        49  -9.4305    192.0173    143.9951   9.4451228649e+01   1.3729928757e+01    0.2328015    0.2251106 -59.24 0.0004128266    1.031    0.030
        50  -8.8719    151.6544    119.3240   9.7512639626e+01   2.8080027557e+01    0.1654706    0.1254627 -88.39 0.0007050152    1.740    0.425
        51 -10.7579    176.3299    116.0434   9.1063426724e+01   2.3096469445e+01    0.5081179    0.3348541 -67.79  0.002067211    2.009    0.502
        52  -8.6480    121.0018    118.0429   1.0498249454e+02   3.4980042774e+01     0.247483    0.1900591 -87.69  0.000739544    1.712    0.416
        53  -9.6134    233.4408    116.8047   8.0521656007e+01   1.0138047601e+01    0.2222202    0.1772865  48.62  0.001025868    1.388    0.279
        54 -11.5439    167.4852    113.7079   9.2412050706e+01   2.5639402030e+01    0.5422363    0.4711424  43.22 0.0009964447    1.188    0.159
        55  -9.8304    135.0042    107.8771   9.8670415284e+01   3.4257040859e+01    0.5233575    0.2023481 -48.87  0.001732505    2.702    0.630
        56  -8.4757     12.5200    114.5282   1.3569040073e+02   5.0638126621e+01    0.1223964   0.09747912 -66.72 1.798792e-05    1.034    0.032
        57  -9.8228    127.0060    111.7007   1.0175623188e+02   3.5147299198e+01    0.3455146    0.2162842 -61.14  0.000913947    1.920    0.479
        58  -9.3836    156.3348    112.0289   9.4532204814e+01   2.8573293215e+01    0.2237454    0.1950096 -53.56 0.0004704832    1.145    0.127
        59  -7.9940    162.2993    144.6795   1.0114514706e+02   2.0117836393e+01    0.1596098    0.1248575 -87.45 0.0004526303    1.622    0.384
        60  -9.4291    139.2625    105.4704   9.6949376436e+01   3.3828070821e+01    0.3193464    0.2783585  50.55  0.001615166    1.152    0.132
        61  -9.0991    150.2356    104.2314   9.3928958793e+01   3.1602519841e+01    0.3300309    0.2016943 -66.85   0.00122921    2.427    0.588
        62  -9.4244    146.7966    101.0391   9.3900414576e+01   3.3046712016e+01       0.3074    0.2549807  44.44 0.0005918817    1.214    0.176
        63 -10.2502    122.5959    102.7723   1.0055491501e+02   3.8002156990e+01    0.6024029      0.22362  48.15  0.002004914    2.835    0.647
        64  -9.1136    117.6905    100.1263   1.0116514701e+02   3.9577468085e+01    0.2449064      0.18784 -65.68  0.001157906    1.533    0.348
        65  -9.1921    133.3778     97.2682   9.6214530004e+01   3.6834114498e+01    0.2793373    0.2386625  71.30 0.0006109283    1.301    0.231
        66 -10.5902    208.9072     96.1269   7.9823846014e+01   1.9368015722e+01     0.406072    0.3044163 -84.02  0.000881043    1.551    0.355
        67  -9.9798    171.0551     97.2403   8.7370706928e+01   2.8115649629e+01    0.3045853    0.2288495  30.11  0.001393795    1.622    0.384
        68 -10.7503    156.4994     95.1084   9.0013544983e+01   3.1983041558e+01    0.4767289    0.3409305  33.36   0.00214813    1.620    0.383
        69 -10.0252    140.2369     91.8285   9.2976684249e+01   3.6391524381e+01    0.5297779    0.2737721 -50.32  0.002052847    2.119    0.528
        70  -9.3448     91.9736    100.7868   1.0870891123e+02   4.4306471459e+01     0.393612    0.2050951 -65.65  0.001378889    3.187    0.686
        71 -11.4167    170.3828     86.5000   8.4667208446e+01   3.0313570645e+01    0.6190487    0.5070307  11.62   0.00301255    1.598    0.374
        72 -11.2060    153.6880     85.5309   8.8030785060e+01   3.4482141671e+01    0.3505271    0.2835766 -41.52 0.0005670542    1.259    0.205
        73 -10.9515    158.7119     84.7245   8.6682952302e+01   3.3440242370e+01    0.5565159    0.4198849 -62.45  0.001453133    1.492    0.330
        74  -8.6721     15.9057    233.4900   1.4679747544e+02   2.3781097070e+01    0.1461895   0.09632874  48.55 0.0005158727    1.486    0.327
        75 -11.8365     96.2613     58.9380   9.4964935392e+01   5.1603877657e+01    0.5606614    0.3190408  18.91  0.002301191    2.649    0.623
        76 -12.4677     81.1715     72.7537   1.0404865514e+02   5.1838503348e+01      1.05308    0.7062893  20.33  0.005323684    1.688    0.407
        77  -9.5054    122.1947     65.8006   8.9917061864e+01   4.5177781511e+01    0.2023527    0.1777603  42.67 0.0002969979    1.095    0.087
        78 -10.5399    118.1317     62.4723   8.9948617915e+01   4.6606638942e+01    0.4126185    0.2656213 -53.47 0.0009142889    1.932    0.482
        79 -10.5110    230.1668    167.2963   9.2121579167e+01   1.3835713642e+00    0.3811058    0.1929673 -51.09  0.001569821    2.291    0.563
        80  -9.7451    163.0118     83.4876   8.5408643440e+01   3.2639621160e+01    0.2735119    0.2398138 -71.65 0.0003782486    1.197    0.165
        81 -10.5274    124.2646     59.9517   8.7574511064e+01   4.5684216464e+01    0.3947982    0.2368799 -49.69  0.001560493    1.969    0.492
        82  -8.3645     71.8211     54.7961   1.0135739405e+02   5.6520850952e+01    0.1622961    0.1514819 -44.77 0.0004332232    1.317    0.241
        83  -8.5963    201.4551    222.4514   1.0850076270e+02  -3.2308771534e+00    0.1332632    0.1182215  18.83 6.234976e-05    1.007    0.007
        84  -8.7455    110.1602    156.1521   1.1648118256e+02   2.8110934408e+01    0.2032491    0.1965792 -48.35 0.0002626952    1.115    0.103
        85  -8.8802    197.8224     29.4147   6.5295958600e+01   3.2419985794e+01    0.2148985    0.1532158 -50.64 0.0004982926    1.404    0.288
        86 -10.0452    162.3201    213.1212   1.1491985452e+02   5.5351631508e+00    0.2386256    0.2114054  46.38 0.0002159493    1.052    0.050
        87  -8.7818    177.6657     25.7215   6.7119335160e+01   3.7712463908e+01    0.1977945    0.1309082  45.53 0.0003622449    1.641    0.391
        88  -9.3322    181.5645     23.4890   6.5995316765e+01   3.7030651611e+01    0.2616492    0.2101443  84.56  0.000791944    1.113    0.102
        89  -9.1175    198.5033    153.0552   9.5167523093e+01   1.0472044634e+01    0.2258829    0.1456665 -41.54 0.0003756088    1.511    0.338
        90  -8.6306    159.6491     19.4721   6.8167833463e+01   4.2741404043e+01     0.127076    0.1143555  67.86 6.950658e-05    1.051    0.048
        91  -9.3339     56.9012     18.3630   9.3079003886e+01   6.3951152623e+01    0.2407413     0.147936 -26.38  0.001137012    1.585    0.369
        92  -8.6292    196.8581     17.7217   6.2627955434e+01   3.4031585066e+01    0.2026165    0.1147233  38.38 0.0007163646    2.651    0.623
        93  -8.0971    189.3042     14.6340   6.2793634312e+01   3.6162330528e+01    0.1380051   0.08501711 -68.76 0.0005078219    1.741    0.426
        94  -9.9405    192.5774    194.3250   1.0506426367e+02   3.4418585453e+00    0.9186519    0.4250919 -62.42  0.002287041    7.167    0.860
        95 -13.1464     17.7943    183.2113   1.4255938180e+02   3.4378789110e+01    0.8561425    0.6439155 -89.18  0.003937945    1.033    0.032
        96  -9.0339    191.0658    180.6678   1.0264366334e+02   6.4085997439e+00    0.2617069     0.198998 -53.75 0.0008262304    1.435    0.303
        97 -10.3486    222.0071    177.6171   9.5804260235e+01   1.0087491193e+00    0.4216155    0.3192667 -89.50  0.001870025    2.248    0.555
        98 -10.7254    229.1968    172.5794   9.3406170589e+01   5.9766826667e-01    0.3071568    0.2485552  48.26  0.001697158    1.375    0.273
        99 -10.2469    219.8359    170.1266   9.4655243603e+01   2.8126565336e+00    0.4010434    0.2000826  56.55  0.001531832    2.845    0.648
