#   1 NUMBER                 Running object number                                     
#   2 MAG_AUTO               Kron-like elliptical aperture magnitude                    [mag]
#   3 X_IMAGE                Object position along x                                    [pixel]
#   4 Y_IMAGE                Object position along y                                    [pixel]
#   5 X_WORLD                Barycenter position along world x axis                     [deg]
#   6 Y_WORLD                Barycenter position along world y axis                     [deg]
#   7 A_WORLD                Profile RMS along major axis (world units)                 [deg]
#   8 B_WORLD                Profile RMS along minor axis (world units)                 [deg]
#   9 THETA_WORLD            Position angle (CCW/world-x)                               [deg]
#  10 FWHM_WORLD             FWHM assuming a gaussian core                              [deg]
#  11 ELONGATION             A_IMAGE/B_IMAGE                                           
#  12 ELLIPTICITY            1 - B_IMAGE/A_IMAGE                                       
         1 -13.5524    241.1269     20.2939   5.7887168203e+01   2.3966795074e+01     3.237162     1.399484 -47.10   0.01646199    1.997    0.499
         2  -9.6835    213.6012     25.3645   6.1605029703e+01   2.9465530350e+01    0.4391413    0.2595656 -34.02   0.00233994    1.875    0.467
         3 -10.4411    226.7231     30.6498   6.1382151618e+01   2.5817050608e+01    0.3455984    0.2632967 -58.06  0.001730893    1.187    0.158
         4  -9.0335    125.1151    249.9236   1.2721236517e+02   5.0280674671e+00    0.2665121    0.1907235  42.08  0.001567786    1.242    0.195
         5  -8.8871     45.4162    245.7375   1.4184238930e+02   1.7762414454e+01    0.1552973   0.09633883 -67.99 0.0009538942    1.655    0.396
         6  -9.2804    106.1455    242.4485   1.3002877656e+02   9.5459086741e+00    0.3694841      0.10852  41.43  0.001399102    2.928    0.658
         7  -8.7149    176.5648    240.3587   1.1562696579e+02  -2.0118464945e+00    0.2485837    0.2011649  22.83 0.0006938807    1.193    0.162
         8  -9.8549    249.6839    234.6469   1.0083309520e+02  -1.2632756183e+01    0.2915401    0.1748957  -5.01  0.001304903    1.902    0.474
         9 -10.8275    211.0355    234.6738   1.0794525313e+02  -6.8192491144e+00    0.4054291    0.2559083 -43.68  0.002094612    1.781    0.439
        10  -8.3191     67.9974    238.0000   1.3698425226e+02   1.6268097907e+01    0.1992446   0.06295892  39.34 0.0008043802    2.956    0.662
        11  -9.7103    152.2955    225.1680   1.1816112492e+02   4.9830676343e+00    0.3826606    0.2401187  52.72  0.001890901    1.587    0.370
        12  -8.5514     24.1743    224.6391   1.4405976307e+02   2.4663291746e+01    0.1432701    0.1092968  33.56 0.0009516564    1.750    0.428
        13  -8.6719    209.9737    222.9915   1.0609439788e+02  -4.7685956497e+00    0.1611039    0.1438335  -0.51 0.0006627842    1.048    0.045
        14  -8.8445    250.4629    220.2354   9.8097437176e+01  -1.0677517663e+01    0.2839976    0.1100217 -39.61   0.00110277    2.504    0.601
        15  -8.4556    248.8341    214.5820   9.7336646233e+01  -9.5904668967e+00    0.2312351     0.153995 -47.37 0.0009226779    1.830    0.454
        16  -8.4590    234.4928    212.4484   9.9515896943e+01  -7.0539237712e+00    0.2781231     0.119178 -39.51  0.001238258    2.268    0.559
        17  -7.6314    186.3147    211.3183   1.0870040187e+02   1.4237550558e+00    0.1416415    0.1060705   1.50 0.0007038124    1.651    0.394
        18  -8.6083    149.5010    204.8825   1.1537153112e+02   9.5749195423e+00     0.237326    0.2035615  15.19  0.001152545    1.350    0.259
        19 -10.2970    249.4908    197.2094   9.3910001254e+01  -6.9586492492e+00    0.7450632    0.3633345 -45.05   0.00348888    2.146    0.534
        20 -10.4931    232.2582    195.4238   9.6647553983e+01  -3.8601484002e+00    0.6473811     0.260904 -43.53  0.002659638    2.464    0.594
        21  -9.8238    237.5469    188.1730   9.4243292084e+01  -3.5034415477e+00    0.4082364    0.3596845 -32.12  0.002017296    1.124    0.110
        22  -8.6182    129.5390    189.0985   1.1706481147e+02   1.6805677177e+01    0.2788531    0.1952737  59.47 0.0006435459    1.495    0.331
        23  -8.6328    206.7877    189.9156   1.0042670433e+02   1.6601886918e+00    0.2649954    0.1927861  71.50  0.001237588    2.129    0.530
        24  -9.4402    249.3765    181.8696   9.0898121495e+01  -4.3922079196e+00    0.3057401    0.1948419 -45.38  0.001603312    1.570    0.363
        25 -10.6540    245.3606    175.5588   9.0312856879e+01  -2.6349416222e+00    0.6103132    0.3001376 -30.41  0.002676019    2.092    0.522
        26 -10.5850    221.3916    173.6320   9.4244197212e+01   2.0005670015e+00    0.3864683    0.2121443 -41.83  0.001738875    1.719    0.418
        27 -11.7592    221.0108    166.2887   9.2763856725e+01   3.4643517462e+00    0.8905354    0.6639677 -89.87  0.004166214    2.172    0.540
        28 -10.5766    182.9367    161.8410   9.9449513480e+01   1.2060069732e+01    0.4127563    0.3558306  77.01  0.002095501    1.336    0.252
        29 -10.5082    249.5376    155.1022   8.5378915900e+01   2.6067141252e-01    0.4035784    0.2474976 -41.36  0.002039943    1.432    0.302
        30 -10.8518    249.2570    148.6477   8.4069206489e+01   1.4690452394e+00    0.5121648    0.2193033 -38.86  0.002141731    2.062    0.515
        31 -11.9345    237.5543    137.2053   8.3529691472e+01   5.7672660415e+00    0.7943697    0.3584598 -49.80  0.003168081    2.245    0.555
        32  -8.1789    182.6668    132.6891   9.2798739371e+01   1.8343372637e+01    0.1571292    0.1260015   3.61 0.0007043569    1.676    0.403
        33 -10.6111    206.9514    129.2248   8.7131045640e+01   1.3659198375e+01    0.4838251    0.2764354 -37.18  0.001998909    1.737    0.424
        34 -10.0215    249.6406    124.5294   7.8875964643e+01   5.7530921171e+00    0.2953456    0.2323071 -17.36  0.001610109    1.523    0.343
        35  -8.7848    155.9847    124.4920   9.6725942322e+01   2.6154517137e+01    0.2294174    0.1394284  71.78 0.0008105432    2.581    0.613
        36 -10.3428    136.9473    122.3049   1.0080400678e+02   3.0861533103e+01    0.7102631     0.426453 -15.49  0.002182764    3.915    0.745
        37 -11.1694    245.3478    119.9072   7.8525984038e+01   7.4218377179e+00    0.4712631    0.3671673  25.94   0.00252233    1.732    0.422
        38  -9.7806    119.4293    120.2676   1.0483893827e+02   3.5002697894e+01    0.4265677    0.2378818 -47.44   0.00174041    1.734    0.423
        39  -9.6894    205.5306    119.6203   8.5134693084e+01   1.5883072687e+01    0.2933209    0.2150451 -43.42  0.001261571    1.285    0.222
        40  -8.5103     75.3634    123.6501   1.1803432530e+02   4.2026065046e+01    0.2710687    0.1845994 -26.88 0.0007310341    1.889    0.470
        41  -9.7189    250.0049    111.0049   7.5920196294e+01   8.1009515170e+00    0.3467234    0.1733201 -47.47   0.00149124    1.756    0.430
        42  -9.8547    236.2154    104.3518   7.6478108999e+01   1.2094262988e+01    0.3158373    0.2474989  22.78  0.001593518    1.849    0.459
        43  -8.4431     46.7636     99.9985   1.2140863849e+02   5.1253008215e+01    0.1834449   0.09759838 -55.84 0.0008804951    1.620    0.383
        44  -8.6054    120.6852     94.9902   9.7725516157e+01   4.0253478875e+01    0.2473359    0.1200948 -25.19 0.0006185233    4.217    0.763
        45  -9.0056    101.5080     88.5166   1.0123473693e+02   4.5422205258e+01    0.1446144    0.1387533 -22.41 0.0008103862    1.010    0.010
        46  -9.1764    242.7262     79.1885   7.0032806510e+01   1.5073948376e+01     0.342787    0.1707082 -56.16  0.001309494    2.003    0.501
        47  -9.1116    120.9959     76.9957   9.2380663770e+01   4.3686801302e+01    0.3521134    0.1826793 -53.12  0.001368452    2.413    0.586
        48  -8.3289     51.3138     77.6618   1.1416209425e+02   5.5484787320e+01    0.1222447    0.1032197  88.82 0.0007046866    1.695    0.410
        49  -9.5943     47.2978     61.2219   1.1067740791e+02   5.9123434329e+01    0.3657435      0.14915 -29.18  0.001372962    3.497    0.714
        50  -9.1789     99.5321    246.9902   1.3185181681e+02   9.7234588143e+00    0.1785693    0.1204575 -66.48 0.0008941212    1.603    0.376
        51  -8.1864    179.2330     33.4451   6.7878544290e+01   3.6600200488e+01    0.2012361    0.1195536  80.45 0.0009574782    1.743    0.426
        52  -9.4923    227.0008     42.7222   6.3969772073e+01   2.4129409138e+01    0.3670691    0.1545952 -45.26  0.001618892    2.131    0.531
        53  -8.9354    234.0454    245.6955   1.0554366180e+02  -1.1944268766e+01    0.1785111    0.1367062  19.75  0.001171638    1.121    0.108
        54  -8.7947    195.0468     25.5189   6.3774102531e+01   3.3782866418e+01    0.1978254    0.1687597 -58.70 0.0007380726    1.184    0.155
