#   1 NUMBER                 Running object number                                     
#   2 MAG_AUTO               Kron-like elliptical aperture magnitude                    [mag]
#   3 X_IMAGE                Object position along x                                    [pixel]
#   4 Y_IMAGE                Object position along y                                    [pixel]
#   5 X_WORLD                Barycenter position along world x axis                     [deg]
#   6 Y_WORLD                Barycenter position along world y axis                     [deg]
#   7 A_WORLD                Profile RMS along major axis (world units)                 [deg]
#   8 B_WORLD                Profile RMS along minor axis (world units)                 [deg]
#   9 THETA_WORLD            Position angle (CCW/world-x)                               [deg]
#  10 FWHM_WORLD             FWHM assuming a gaussian core                              [deg]
#  11 ELONGATION             A_IMAGE/B_IMAGE                                           
#  12 ELLIPTICITY            1 - B_IMAGE/A_IMAGE                                       
         1 -12.3611    231.2652     50.3306   2.8942548608e+02   5.8394092627e+00   0.07249471   0.02270573 -67.63  0.004773975    4.167    0.760
         2 -14.3375    245.6779     46.4514   2.8923679400e+02   5.8048157024e+00    0.4779633   0.08051771 -63.71   0.02393174    6.989    0.857
         3 -12.6372    224.0759     18.6632   2.8932294188e+02   6.2341159171e+00   0.08462337   0.04590378 -57.33  0.008278474    1.780    0.438
         4  -9.7332     29.7267     13.0263   2.9153442087e+02   7.3467945496e+00   0.01157159   0.01052361  -3.63 0.0003240583    1.094    0.086
         5  -8.4571     70.0170     12.4862   2.9106532438e+02   7.1362701375e+00   0.00961222  0.008375663 -55.55 0.0004449116    1.143    0.125
         6  -8.6974     34.1880     10.2001   2.9146632803e+02   7.3546143578e+00  0.009886752  0.008367856 -26.37 0.0005132172    1.198    0.165
         7  -8.4002    117.6594      9.0852   2.9049483204e+02   6.9176718664e+00  0.009210838  0.007902861 -48.55 0.0004905449    1.143    0.125
         8  -9.6353    106.5083      8.4699   2.9062007588e+02   6.9847640908e+00   0.01600116  0.009062683  83.82  0.001285171    3.210    0.688
         9 -10.3008    110.6059      4.6070   2.9055014498e+02   7.0060656181e+00   0.01801707    0.0124446  80.82   0.00183105    1.972    0.493
        10  -9.8245     56.1009      4.3260   2.9117859128e+02   7.3028772605e+00   0.02417092   0.01360745 -84.05  0.002101944    2.654    0.623
        11 -10.1802     12.1302      5.4985   2.9169409719e+02   7.5258463774e+00   0.01121912   0.01025002 -52.64 0.0002713511    1.090    0.083
        12  -9.8992     18.2059      5.1665   2.9162186054e+02   7.4969909626e+00   0.01985408   0.01082412  18.66  0.001584686    1.939    0.484
        13 -13.3165    245.3463    157.6290   2.8989036162e+02   4.5567449815e+00    0.1232746   0.07804725 -62.60   0.01288386    1.597    0.374
        14  -9.0129      3.4471      4.4916   2.9178870361e+02   7.5837143908e+00   0.01566563   0.01177511  46.73  0.001764145    1.433    0.302
        15  -9.8285     50.7914      3.7053   2.9123637451e+02   7.3384063076e+00   0.01146971   0.01044137 -30.22 0.0002364695    1.078    0.072
        16  -8.0969    153.4940      3.4704   2.9004813550e+02   6.7871188930e+00  0.006483595  0.006164928 -19.23 -2.558528e-05    1.021    0.020
        17  -7.7666     68.6968      1.6748   2.9101744491e+02   7.2649004592e+00  0.006906169  0.004679787 -28.78 0.0004489126    1.641    0.390
        18  -8.3676    242.1954    248.2141   2.9045443004e+02   3.5546731351e+00   0.01230821  0.008163016 -54.63  0.001306806    1.464    0.317
        19  -8.5596    232.3040    246.7515   2.9055963901e+02   3.6245254734e+00   0.01187817  0.008177024 -80.59  0.000993441    1.754    0.430
        20  -8.8344    224.9937    241.5518   2.9061344952e+02   3.7224922596e+00   0.01919951  0.008011456 -55.78  0.001657974    2.233    0.552
        21  -8.5500    228.3950    246.7402   2.9060452065e+02   3.6457510300e+00   0.01035544   0.00804586 -44.45 0.0005913583    1.265    0.210
        22  -9.6707    223.5067    248.7320   2.9067231680e+02   3.6497213395e+00    0.0265269   0.01515079 -29.44  0.002461897    2.155    0.536
        23  -9.6292    218.1474    246.9744   2.9072372721e+02   3.6984194307e+00    0.0237479   0.01039471 -62.50  0.002055884    2.297    0.565
        24  -8.9550    214.1489    240.9066   2.9073442630e+02   3.7882823410e+00   0.01365774   0.01064529 -39.12 0.0009662179    1.282    0.220
        25 -10.0254    209.4603    246.9643   2.9082358502e+02   3.7454061724e+00   0.02703037   0.01616736  86.42  0.002386467    2.658    0.624
        26  -9.7717    210.2017    243.0065   2.9079204174e+02   3.7859491597e+00   0.02176629   0.01595819  88.67  0.001649715    1.714    0.417
        27  -7.8290    201.6452    250.7154   2.9093528776e+02   3.7453457885e+00  0.006895992  0.004743634 -22.99 0.0007020089    1.667    0.400
        28 -10.0123    193.1686    247.0881   2.9101172209e+02   3.8318895241e+00   0.03265503   0.01221969 -59.56  0.002672412    2.535    0.606
        29  -8.6803    184.1190    250.5226   2.9113580432e+02   3.8420239888e+00  0.009956398  0.006332384  23.08  0.001025889    1.573    0.364
        30  -9.0349    187.0216    246.8080   2.9108082115e+02   3.8681900291e+00   0.02102232  0.007953437 -52.52  0.001736633    2.438    0.590
        31  -9.9949    168.2749    249.7599   2.9131370346e+02   3.9360117163e+00     0.017195   0.01127088 -20.81 0.0003982465    1.834    0.455
        32  -8.8292    150.9887    249.7756   2.9151276200e+02   4.0289629278e+00   0.01019355  0.008434381 -19.27 0.0007211926    1.259    0.206
        33  -8.3155     48.3413    250.2838   2.9269785373e+02   4.5750618958e+00   0.00683499  0.004745841 -23.66 0.0007014914    1.635    0.388
        34  -9.1806    237.4244    243.6958   2.9048298796e+02   3.6312637437e+00   0.01761184   0.01052152 -66.42  0.001170582    1.766    0.434
        35  -9.7984    215.7149    234.0903   2.9067676113e+02   3.8565417340e+00   0.01999696   0.01432862 -86.83  0.001634934    1.736    0.424
        36  -8.5383    216.5333    229.4753   2.9064049572e+02   3.9040621620e+00   0.01177022  0.007284889 -38.53 0.0006738458    1.701    0.412
        37  -9.7547    189.6805    233.6998   2.9097402942e+02   4.0014107556e+00   0.02420883   0.01545062 -57.55  0.002361835    1.531    0.347
        38  -8.2464    159.5407    234.9835   2.9132841017e+02   4.1494527713e+00  0.009842339  0.004433457 -40.69 0.0008080602    2.484    0.598
        39  -8.7863    240.5556    231.8961   2.9037831113e+02   3.7471159224e+00   0.01188563  0.007923776 -78.72  0.001112911    1.803    0.446
        40  -8.4477    201.5471    230.9850   2.9082169145e+02   3.9679496437e+00  0.009993386  0.006244886 -59.71   0.00102376    1.581    0.367
        41  -9.7425      6.7639    227.9146   2.9304759046e+02   5.0499710920e+00   0.01357401  0.008916368  32.97 0.0003609108    1.505    0.335
        42  -9.2102      1.4037    230.7484   2.9312575094e+02   5.0467298243e+00      0.01187  0.005959845 -55.17  0.000446039    1.890    0.471
        43  -7.9628    179.2968    230.3623   2.9107413242e+02   4.0949832300e+00  0.007073796  0.004606913 -30.91 0.0007032719    1.713    0.416
        44  -8.5673    145.8412    230.2140   2.9145844095e+02   4.2769726759e+00  0.009210829  0.008709826  46.26   0.00037907    1.113    0.101
        45  -9.1583    235.7023    227.1246   2.9040634044e+02   3.8270127023e+00   0.02098481  0.007243843 -56.94  0.001667748    2.639    0.621
        46  -8.7902    211.6395    226.8118   2.9068129614e+02   3.9604537735e+00    0.0174078  0.005635364 -59.79  0.001323166    2.892    0.654
        47  -9.2022    199.0090    226.2611   2.9082341921e+02   4.0348181259e+00   0.01766111  0.009034365 -58.47  0.001548081    1.889    0.471
        48  -8.7186    223.2399    226.4411   2.9054569183e+02   3.9020011770e+00   0.01480704   0.00878034 -56.87  0.001497617    1.635    0.388
        49  -8.5395    184.0969    226.9554   2.9099907411e+02   4.1074510243e+00   0.01186822  0.008955921  19.14  0.001044264    1.332    0.249
        50  -8.1643    138.5360    227.4800   2.9152668988e+02   4.3471106716e+00  0.006546019  0.006103942 -23.63 0.0001428305    1.049    0.046
        51  -8.7595    206.0288    224.7138   2.9073364190e+02   4.0143508475e+00   0.01488219  0.008726811 -56.46  0.001497646    1.649    0.394
        52  -9.4586    216.9052    222.2531   2.9059418793e+02   3.9833334793e+00   0.01892783   0.01042301 -68.08  0.001603607    1.982    0.496
        53  -9.2727     17.1605    223.4379   2.9290186756e+02   5.0447390049e+00   0.01338373    0.0119898 -12.12  0.001277564    1.121    0.108
        54  -7.8860    130.2883    223.6856   2.9159964904e+02   4.4342593923e+00  0.006535643   0.00493299  62.48 0.0003107659    1.587    0.370
        55  -8.4391    201.5483    220.7489   2.9076212975e+02   4.0831602717e+00   0.01281826  0.005626996 -55.15  0.001123171    2.132    0.531
        56  -8.9130    186.0304    219.4782   2.9093333497e+02   4.1811968173e+00   0.01591338  0.007393388 -54.73  0.001438533    2.027    0.507
        57  -7.8465    180.3116    221.3573   2.9101009308e+02   4.1908905038e+00  0.007115719  0.004621976 -29.79 0.0007043296    1.738    0.425
        58  -8.8139    210.8839    217.2761   2.9063449693e+02   4.0718545533e+00   0.01988169  0.006339151 -53.37  0.001528176    2.801    0.643
        59  -9.6034    192.6757    216.6977   2.9084067062e+02   4.1766431474e+00   0.01975299   0.01473993 -32.77  0.002216632    1.395    0.283
        60  -8.6504    219.5033    216.5573   2.9053114288e+02   4.0334056089e+00   0.01351025  0.006393132 -62.90  0.001203086    2.140    0.533
        61 -10.6208    178.8027    203.5969   2.9092415353e+02   4.3989818392e+00   0.06447437          nan -53.94  0.002890696    8.308    0.880
        62  -8.4144    205.6504    216.0455   2.9068755491e+02   4.1139577690e+00   0.01151973  0.003213956 -43.77 0.0007040884    4.351    0.770
        63 -10.0978    171.8209    205.6412   2.9101644028e+02   4.4136303707e+00   0.02904468   0.01042018 -46.03  0.002250165    2.847    0.649
        64  -9.1389    200.3734    212.0343   2.9072493940e+02   4.1875926352e+00   0.01525091   0.01310028 -12.35  0.001842512    1.196    0.164
        65  -8.0171    132.7218    213.2989   2.9151129053e+02   4.5381379466e+00     0.006411  0.004933091  62.20 0.0006954767    1.538    0.350
        66  -9.3180    216.7930    211.0917   2.9053050576e+02   4.1095505155e+00   0.01560711  0.009323686 -61.08  0.001577032    1.667    0.400
        67 -11.2890      7.7595    206.1976   2.9291050835e+02   5.2893839896e+00   0.04266896   0.02381572 -83.21  0.002915755    2.630    0.620
        68  -9.4993      7.8629    195.8590   2.9284947942e+02   5.4053419298e+00   0.01652121   0.01161691 -28.85  0.001270525    1.552    0.356
        69  -9.0123    206.5723    206.7350   2.9062275207e+02   4.2137739371e+00   0.01993605  0.009352353 -43.59   0.00175415    2.218    0.549
        70  -9.2127    217.4011    204.2430   2.9048362847e+02   4.1833421108e+00   0.01555824  0.006992902 -55.13  0.001384604    2.089    0.521
        71  -8.2795    213.0000    203.0393   2.9052726268e+02   4.2206594387e+00   0.01058811  0.003658664 -62.42 0.0007956916    2.896    0.655
        72  -9.0324    219.8909    195.0252   2.9040128934e+02   4.2736264690e+00   0.01569398  0.008495152 -66.64  0.001050245    1.974    0.493
        73  -9.3072    223.5070    200.9901   2.9039442843e+02   4.1869656946e+00   0.01518999  0.008405398 -53.53  0.001488497    1.729    0.422
        74  -8.6301    215.4412    197.8398   2.9046888886e+02   4.2659897947e+00   0.01196996  0.006506909 -66.99  0.001122946    1.976    0.494
        75  -8.6510     74.5117    217.5071   2.9220646542e+02   4.8038700040e+00    0.0063741  0.006288928  10.85 0.0001000505    1.044    0.042
        76  -9.3853    185.1579    192.4481   2.9078609146e+02   4.4901988226e+00   0.02651179  0.007217336 -57.58  0.001913925    3.209    0.688
        77 -10.4395    166.4256    188.9600   2.9098152118e+02   4.6305486966e+00   0.01813576    0.0120586 -75.34 0.0005275001    1.738    0.424
        78 -10.4504    171.8350    212.8162   2.9105801063e+02   4.3327695698e+00   0.03976768   0.01780239 -38.12  0.003249603    2.691    0.628
        79  -7.6719    197.6444    175.6839   2.9054468152e+02   4.6114827496e+00  0.007083084  0.004694444 -25.47 0.0007045351    1.745    0.427
        80  -9.3411    223.1061    172.3326   2.9023204060e+02   4.5116090052e+00   0.01733547   0.01178416 -79.50   0.00147611    1.767    0.434
        81  -9.2945    218.5527    167.5005   2.9025627836e+02   4.5905968329e+00   0.02076543    0.0113744 -59.03  0.002025415    1.781    0.439
        82  -8.5070    192.7097    172.4170   2.9058247116e+02   4.6749066944e+00   0.01224265  0.005666972 -60.95  0.001084276    2.126    0.530
        83  -7.6411    187.6282    171.6951   2.9063678578e+02   4.7104759651e+00  0.007082325   0.00469978 -24.12 0.0007032338    1.759    0.431
        84  -9.0101    191.4280    165.8037   2.9055869684e+02   4.7562655646e+00   0.01629276  0.005912106 -59.78  0.001301953    2.615    0.618
        85  -9.5596    199.1128    164.0440   2.9045994179e+02   4.7345562595e+00   0.01725085  0.009887828 -62.96  0.001702418    1.768    0.435
        86  -8.0975    172.3734    163.1741   2.9076286693e+02   4.8887580106e+00  0.009199143  0.006263459 -77.70 0.0008496515    1.728    0.421
        87  -9.1607    221.1600    161.0640   2.9018873338e+02   4.6489251675e+00   0.01480345  0.009329349 -61.92  0.001093173    1.595    0.373
        88  -9.3592    204.8759    160.7651   2.9037446546e+02   4.7403157402e+00   0.01625728  0.007449992 -53.08   0.00145972    2.054    0.513
        89 -10.2527    227.4172    154.1948   2.9007664497e+02   4.6923732211e+00   0.05130668  0.007693799 -55.29  0.003109285    4.557    0.781
        90  -9.4281    197.1884    156.7997   2.9043987457e+02   4.8264853634e+00   0.02103922   0.00955216 -63.06  0.001846735    2.237    0.553
        91  -9.6327    223.3608    146.0391   2.9007575674e+02   4.8060699345e+00    0.0195438   0.01201306 -49.55  0.002015958    1.578    0.366
        92  -9.1626    220.9947    151.7535   2.9013633325e+02   4.7545756648e+00   0.01336675  0.009084262 -49.67 0.0008142818    1.431    0.301
        93  -8.4955    215.8746    155.6662   2.9021809832e+02   4.7382379663e+00   0.01266873  0.007556981 -72.69  0.001226826    1.939    0.484
        94  -9.0951    211.4766    152.2549   2.9024883928e+02   4.8004019082e+00   0.02241639   0.00554957 -59.61  0.001529577    3.601    0.722
        95  -9.1392    215.1728    148.4956   2.9018435395e+02   4.8227150898e+00   0.01532201   0.01260587 -67.08  0.001220155    1.264    0.209
        96 -10.1155    214.3351    142.1266   2.9015684452e+02   4.8989051725e+00   0.02232016   0.01303945 -71.02  0.001376609    1.939    0.484
        97  -8.8610    218.5183    144.0415   2.9011985117e+02   4.8547361497e+00   0.01497128  0.009225417 -46.08  0.001256506    1.602    0.376
        98 -10.1120    218.5331    138.2430   2.9008584565e+02   4.9198932682e+00   0.02601685   0.01355962 -68.53  0.002377927    2.135    0.532
        99  -9.9210    215.5915    135.1952   2.9010193211e+02   4.9700936852e+00    0.0268243   0.01032515 -45.43  0.002146041    2.676    0.626
       100  -9.3398    205.5656    153.8078   2.9032595923e+02   4.8148814224e+00   0.01260591  0.005889686 -57.34  0.001133724    2.036    0.509
       101  -8.4018    202.4534    151.0369   2.9034563966e+02   4.8628850564e+00   0.01004436  0.006305969 -61.29 0.0009922427    1.592    0.372
       102  -9.2652    207.5773    144.6661   2.9024947665e+02   4.9068749462e+00   0.01275736   0.00581243 -56.99  0.001065683    2.078    0.519
       103  -9.0013    224.1316    139.9321   2.9003124635e+02   4.8706044879e+00   0.01550616  0.009099895 -60.47  0.001554566    1.688    0.408
       104  -9.4070    229.9409    140.5579   2.8996802405e+02   4.8321331939e+00   0.01834955  0.009845594 -68.73  0.001707639    2.070    0.517
       105  -8.8891    234.0298    135.4671   2.8989124373e+02   4.8672704168e+00   0.01251422    0.0093067  88.19  0.001352375    1.677    0.404
       106  -8.8760    225.5479    133.1200   2.8997518323e+02   4.9395735503e+00   0.01507007  0.005907753 -58.92  0.001250475    2.415    0.586
       107  -8.9366    205.6594    130.4799   2.9018879821e+02   5.0768625318e+00   0.01151338  0.005984696 -61.54  0.001076253    1.916    0.478
       108  -8.6856    212.1078    129.1853   2.9010697527e+02   5.0565504453e+00   0.01251711  0.008368599  76.66  0.001223898    2.110    0.526
       109  -8.0141    220.4254    129.2234   2.9001141576e+02   5.0111243057e+00  0.008832981  0.006362079 -79.39 0.0007381053    1.623    0.384
       110  -8.5297    192.3809    128.4138   2.9032970740e+02   5.1719053362e+00   0.01343969  0.003928261 -49.10 0.0009566004    3.218    0.689
       111  -8.5245    199.7547    125.9959   2.9023064771e+02   5.1592427943e+00  0.008550662  0.005446748 -61.11 0.0006157471    1.568    0.362
       112  -7.6923    217.2876    125.3337   2.9002484148e+02   5.0718571310e+00   0.00688656  0.004663288 -30.32 0.0007016612    1.626    0.385
       113  -8.5133    236.9677    235.5323   2.9044073145e+02   3.7255797013e+00   0.01346113  0.008144456 -87.63  0.001223312    2.408    0.585
       114  -8.1456    212.5742    122.7846   2.9006424307e+02   5.1260337126e+00  0.009038161  0.006368721 -79.35 0.0009484446    1.674    0.403
       115 -10.4987    230.3067    111.3331   2.8979317424e+02   5.1588615173e+00   0.03150209   0.00989832 -65.62  0.002190036    3.647    0.726
       116  -7.9381    203.5961    114.8028   2.9012106329e+02   5.2643945290e+00  0.009160354  0.006339438 -78.27   0.00095224    1.700    0.412
       117  -9.4205    234.8178    111.7242   2.8974352263e+02   5.1300361719e+00   0.01485327  0.008892489  51.29   0.00143654    1.993    0.498
       118  -8.0074    218.5117    109.4792   2.8991816961e+02   5.2435659771e+00  0.006400563  0.006260742  -8.56  0.000810101    1.023    0.022
       119  -8.7790    205.6167    105.0622   2.9004091048e+02   5.3630320076e+00   0.01404726  0.006243054 -63.17  0.001115296    2.292    0.564
       120  -9.3677    221.8196    104.1671   2.8984904474e+02   5.2854019660e+00   0.01451013  0.007590056 -66.93  0.001281476    2.063    0.515
       121  -9.6023    213.4993    104.5380   2.8994704177e+02   5.3262695580e+00   0.01330324  0.006320645 -61.85 0.0009672475    2.100    0.524
       122  -8.9972    229.2268    102.9442   2.8975660105e+02   5.2590457051e+00  0.009990643  0.009014612  71.63  0.001126024    1.236    0.191
       123  -7.9602    218.2775    103.3681   2.8988517217e+02   5.3135636758e+00  0.007008969  0.004582519 -32.40 0.0007009067    1.682    0.405
       124  -8.6867    225.0134     99.4221   2.8978454192e+02   5.3214686668e+00   0.01075283  0.008097855 -61.35  0.001152374    1.337    0.252
       125  -9.9060    215.9438     99.8541   2.8989152437e+02   5.3657162571e+00   0.01508324  0.008496121 -27.44   0.00135856    2.284    0.562
       126  -8.5704    209.1307     99.7245   2.8996925095e+02   5.4040512583e+00   0.01131823  0.008726534 -73.42 0.0009176164    1.415    0.293
       127 -13.2103    243.3233    208.3773   2.9020951807e+02   3.9967712938e+00    0.1249394   0.07300025 -57.88   0.01264314    1.665    0.399
       128  -9.0357     14.5654     96.5022   2.9219576452e+02   6.4887878408e+00  0.006416746  0.006189005 -24.44 5.944244e-05    1.009    0.009
       129 -10.5806    224.3482     92.5060   2.8975178910e+02   5.4028388605e+00   0.01986219   0.01323511  68.81  0.001962948    2.058    0.514
       130  -9.0307    220.0000     93.9239   2.8981015525e+02   5.4104429570e+00   0.01061805  0.003657972 -62.37 0.0007970194    2.905    0.656
       131  -8.7680    215.5336     94.0736   2.8986247732e+02   5.4329416472e+00  0.009881638  0.006264338 -59.69 0.0009740495    1.560    0.359
       132  -8.6919    196.4508     91.4688   2.9006713261e+02   5.5655193134e+00   0.01209532  0.005049116 -50.31  0.001025571    2.272    0.560
       133  -7.9353    188.5029     92.5402   2.9016499456e+02   5.5964635683e+00  0.006443943  0.006205278 -15.27 0.0001709478    1.004    0.004
       134  -9.8654    217.7360     90.1403   2.8981412407e+02   5.4652463803e+00   0.01277714   0.01119574 -53.45   0.00111944    1.131    0.116
       135 -12.2865    241.3300    131.8662   2.8978619988e+02   4.8682556907e+00   0.09719256   0.03930436 -76.19  0.006302106    4.621    0.784
       136  -9.5114    225.9726     87.7737   2.8970542259e+02   5.4472490984e+00   0.01641325  0.009202122 -56.78 0.0009037423    1.721    0.419
       137 -12.2191    230.4074     80.4108   2.8961130584e+02   5.5059978025e+00   0.04273396   0.02327408 -53.02  0.004188477    1.756    0.431
       138 -11.9821    228.2165     71.8133   2.8958626796e+02   5.6145128172e+00    0.0384132   0.01901244 -69.32  0.003405409    2.319    0.569
       139  -9.0823    221.8022     85.1604   2.8973818248e+02   5.4992195323e+00   0.02007044  0.006771126 -43.14  0.001425635    3.415    0.707
       140  -9.2140    217.9875     84.9786   2.8978106124e+02   5.5219235146e+00  0.009983397  0.008871709  74.54   0.00059885    1.268    0.211
       141  -8.1765     52.3555     85.7638   2.9169670462e+02   6.4068716055e+00  0.008791232  0.005690097 -51.52 0.0003053356    1.495    0.331
       142  -8.8910      9.6802     83.9327   2.9217914330e+02   6.6565029409e+00  0.008648778  0.008353633 -53.72 0.0005033789    1.058    0.054
       143  -8.8828    225.1865     81.5183   2.8967791163e+02   5.5218340680e+00    0.0118892  0.009109776 -60.73  0.000783739    1.311    0.237
       144  -8.8237    200.8386     78.0054   2.8993790126e+02   5.6931799303e+00   0.01580423  0.009096898 -79.65  0.001439517    2.323    0.570
       145  -8.4780    184.1866     78.0209   2.9012994047e+02   5.7831126739e+00   0.01048975   0.00737402  77.20 0.0008518842    1.906    0.475
       146 -12.9850    242.3896    185.3722   2.9008618543e+02   4.2606404307e+00   0.09504826   0.06738468 -71.47   0.01038156    1.539    0.350
       147  -7.5769    211.6301     75.6901   2.8980001230e+02   5.6607848178e+00  0.007097858  0.004693941 -24.45 0.0007035216    1.767    0.434
       148  -8.9057    116.2941     72.2253   2.9087938826e+02   6.2150319512e+00   0.01356862  0.008222086 -78.88  0.001292551    2.095    0.523
       149  -9.3771    239.5081    240.4991   2.9044042888e+02   3.6559806859e+00   0.01305564   0.01080516  73.51  0.001046094    1.421    0.296
       150  -9.5877    212.8849     65.2758   2.8972466666e+02   5.7710650015e+00   0.02433039   0.01122799 -61.31  0.002174997    2.145    0.534
       151  -8.5306    203.0938     65.9177   2.8984125451e+02   5.8168754847e+00  0.009891121  0.008860508  72.69 0.0007917832    1.251    0.201
       152  -9.3943      8.3708     65.7689   2.9208863537e+02   6.8679951088e+00  0.009582171  0.005566125 -51.16 0.0005993702    1.656    0.396
       153  -8.3378    222.2907     70.8534   2.8964891347e+02   5.6574116434e+00  0.009707442  0.005210319 -52.42 0.0009253331    1.781    0.439
       154  -8.0620    208.3366     64.6449   2.8977339014e+02   5.8027923565e+00  0.006963854   0.00483762  61.46 0.0007042635    1.801    0.445
       155  -8.9862     30.5866     61.9971   2.9180987553e+02   6.7912970192e+00    0.0101272  0.008257217  21.13 5.938994e-05    1.220    0.180
       156  -7.8651    201.2689     61.6389   2.8983727168e+02   5.8748591174e+00  0.006594454  0.004951743  68.03 0.0005678217    1.647    0.393
       157  -9.2497     26.1854     59.9899   2.9184906245e+02   6.8375053851e+00   0.01056967  0.009149089  18.66 0.0003592795    1.148    0.129
       158  -8.9187    217.2239     58.4652   2.8963484006e+02   5.8241085417e+00   0.01201459  0.008564606 -58.12 0.0006552039    1.386    0.278
       159  -8.8124    195.1562     67.5307   2.8994217752e+02   5.8417139336e+00   0.01247271  0.009282086 -62.45  0.001400805    1.361    0.265
       160  -8.2288    182.4516     58.0093   2.9003299957e+02   6.0175211846e+00  0.009787777  0.006318263 -61.64  0.000649384    1.555    0.357
       161  -8.4316     32.9649     58.0045   2.9175913381e+02   6.8234623123e+00   0.01005804  0.007189372 -28.20            0    1.519    0.342
       162  -9.5660      2.8503     54.8666   2.9208902619e+02   7.0202793208e+00   0.01069882   0.00860544 -28.56  0.001131409    1.279    0.218
       163  -8.7414     95.5155     52.6573   2.9100515414e+02   6.5471920489e+00   0.01208799  0.005856097 -55.98   0.00065641    1.958    0.489
       164  -8.4928    214.2266     46.6051   2.8959999973e+02   5.9736357441e+00   0.01618595  0.009375911 -88.09  0.001402109    2.690    0.628
       165  -7.5641    100.5080     47.5051   2.9091741460e+02   6.5782403191e+00  0.006551067  0.006111845 -22.71 0.0008101589    1.048    0.045
       166  -8.2009     63.1811     46.8223   2.9134471427e+02   6.7869140710e+00  0.008669922  0.007146537 -21.25 0.0003031937    1.260    0.206
       167  -8.1155     15.3325     39.3131   2.9185413033e+02   7.1283825201e+00  0.006967435  0.004700031 -26.40 0.0007044938    1.680    0.405
       168  -9.8665      6.3613     38.4027   2.9195258208e+02   7.1867190184e+00   0.01153169   0.01111558  42.95 0.0003063968    1.088    0.081
       169  -9.2401    223.5253     66.7428   2.8961065305e+02   5.6969268906e+00   0.01794407  0.005728772 -50.95  0.001363538    2.868    0.651
       170  -8.1328    128.0829     34.0141   2.9052015366e+02   6.5811880101e+00  0.007605504  0.007273069 -33.34 0.0003164792    1.024    0.023
       171  -8.2001     26.5265     34.0067   2.9169376067e+02   7.1280232050e+00    0.0092082  0.006238125 -58.33 -7.063168e-05    1.453    0.312
       172  -9.1531      8.9317     32.0034   2.9188558045e+02   7.2449316217e+00  0.009640386  0.009511158 -32.94 0.0004710825    1.042    0.040
       173  -9.3606     55.3251     30.7457   2.9134175543e+02   7.0099967463e+00   0.01154369   0.01055486   7.32 0.0005879311    1.083    0.076
       174  -8.1097    149.4682     34.4830   2.9027600186e+02   6.4603873830e+00   0.00646621  0.006181732 -20.23 0.0002714426    1.012    0.012
       175  -8.5911     83.6672     27.9660   2.9099792628e+02   6.8887263335e+00  0.009145469  0.008171621 -56.21 0.0004399193    1.121    0.108
       176  -8.3301     42.2851     27.9678   2.9147632271e+02   7.1113266545e+00  0.008853805    0.0079529 -52.81 0.0002609902    1.105    0.095
       177  -9.1956      9.2705     27.1222   2.9185322493e+02   7.2980197431e+00   0.01180941  0.008945857  32.82            0    1.318    0.241
       178  -8.4169      4.4917     27.4915   2.9191065552e+02   7.3194798974e+00  0.006451836  0.006198617 -18.47 0.0008105754    1.004    0.004
       179  -8.6949    136.9184     25.0296   2.9036561750e+02   6.6344669526e+00  0.009711451  0.008751363 -32.18  0.000327902    1.091    0.083
       180  -8.2717     68.4476     23.4640   2.9114756023e+02   7.0212929308e+00  0.006503643  0.006104073 -23.35 0.0001744848    1.038    0.037
       181  -9.1065      7.7834     23.0788   2.9184686800e+02   7.3514684729e+00   0.01007158  0.009041185  17.60 0.0003192653    1.105    0.095
       182  -8.7640     85.0238     21.8345   2.9094644439e+02   6.9503594940e+00  0.009858073  0.008604815  59.96 0.0006020338    1.271    0.213
       183  -8.5680     97.1471     21.0999   2.9080205183e+02   6.8932840101e+00  0.009481474  0.008140149 -29.86 0.0002808313    1.167    0.143
       184  -8.5703     59.8078     21.1325   2.9123383648e+02   7.0939943676e+00  0.008929462  0.007187109 -29.74 0.0003850675    1.274    0.215
       185  -8.9942    167.5130     17.5175   2.8996851913e+02   6.5534615391e+00    0.0128327  0.006350741 -62.27  0.001061752    2.031    0.508
       186  -8.5101     23.5083     15.9235   2.9162325002e+02   7.3475962071e+00  0.009398418  0.008451226  19.45 0.0003528309    1.104    0.094
       187  -8.2493      2.5105     16.0182   2.9186672737e+02   7.4591311356e+00  0.009165483  0.006355891 -62.23 -1.915288e-05    1.455    0.313
       188  -7.8369     86.3554     14.2954   2.9088701985e+02   7.0279413961e+00  0.006957392  0.004723685 -23.89  0.000703291    1.693    0.409
       189  -8.0796     45.9689     14.0154   2.9135232808e+02   7.2484268293e+00  0.007607701  0.007329539 -12.75            0    1.006    0.006
       190 -10.1008    176.7069    244.8645   2.9118822348e+02   3.9456793608e+00   0.02896147   0.01183952 -50.55  0.002470088    2.310    0.567
       191  -7.9602     80.2762     12.8868   2.9094906184e+02   7.0765249464e+00   0.01033921  0.005272045 -89.90 0.0006996829    4.261    0.765
       192  -8.8632     17.3221    248.1136   2.9304267152e+02   4.7657975638e+00    0.0109102   0.00852115   4.97 0.0005142218    1.348    0.258
       193  -7.9555     33.5154    246.4870   2.9284669942e+02   4.6973510353e+00  0.006631574  0.006022872 -24.75 0.0001821667    1.088    0.081
       194  -9.4065    157.1533    245.1845   2.9141514341e+02   4.0474523509e+00   0.01020775  0.008577471 -23.82  0.000784227    1.219    0.180
       195  -8.1733     94.2425    244.3398   2.9213467622e+02   4.3955349993e+00  0.009094636  0.005630086  33.84 0.0003867361    1.594    0.373
       196  -8.6817    201.6438    242.0737   2.9088506454e+02   3.8426181245e+00   0.01505387  0.006091042 -62.54  0.001243264    2.484    0.597
       197 -10.2205    169.5334    241.3817   2.9125055136e+02   4.0235577508e+00   0.01954758   0.01011245 -47.97  0.001846478    1.887    0.470
       198  -8.6731    219.5322    239.5676   2.9066471866e+02   3.7742982921e+00   0.01310123  0.006386711 -63.03  0.001088129    2.081    0.520
       199  -8.9309    183.2972    238.8732   2.9107756292e+02   3.9775968130e+00   0.01940397   0.00808293 -56.64  0.001672895    2.244    0.554
       200  -9.0251    205.9110    236.6656   2.9080452364e+02   3.8804652691e+00   0.01548636   0.01209153  70.06  0.001739337    1.553    0.356
       201  -8.3806    207.4756    232.4763   2.9076215566e+02   3.9191741522e+00   0.01166323  0.005167193 -50.04 0.0006744143    2.153    0.536
       202  -8.6465    248.2501    239.8570   2.9033619212e+02   3.6159976492e+00   0.01140311  0.007781811 -66.64 0.0009376232    1.535    0.348
       203 -10.9473    229.2210    196.9333   2.9030505494e+02   4.2017421595e+00    0.0705783   0.03620203 -53.94  0.006732674    1.853    0.460
