#   1 NUMBER                 Running object number                                     
#   2 MAG_AUTO               Kron-like elliptical aperture magnitude                    [mag]
#   3 X_IMAGE                Object position along x                                    [pixel]
#   4 Y_IMAGE                Object position along y                                    [pixel]
#   5 X_WORLD                Barycenter position along world x axis                     [deg]
#   6 Y_WORLD                Barycenter position along world y axis                     [deg]
#   7 A_WORLD                Profile RMS along major axis (world units)                 [deg]
#   8 B_WORLD                Profile RMS along minor axis (world units)                 [deg]
#   9 THETA_WORLD            Position angle (CCW/world-x)                               [deg]
#  10 FWHM_WORLD             FWHM assuming a gaussian core                              [deg]
#  11 ELONGATION             A_IMAGE/B_IMAGE                                           
#  12 ELLIPTICITY            1 - B_IMAGE/A_IMAGE                                       
         1 -14.4108    148.8259     60.9611   8.8810386627e+01   3.9888562526e+01      1.30452     1.013922 -17.15  0.001058394    1.287    0.223
         2 -14.9007    159.6956     46.3504   8.1346845677e+01   3.9503328317e+01     1.567535     1.112691 -19.02  0.003918987    1.405    0.288
         3 -14.8379    172.1246     14.7944   6.7787767160e+01   4.0140136460e+01     1.600168     1.415757 -23.99  0.005255782    1.160    0.138
         4 -13.9340    189.0958     14.0123   6.5008655227e+01   3.5665425499e+01      0.93125    0.6494768 -80.35  0.003372252    1.794    0.443
         5 -13.2670    198.6988      7.5792   6.1684502713e+01   3.3709642653e+01    0.4425814    0.4268705 -26.80  0.002344058    1.058    0.055
         6 -10.2668     29.0930    201.3826   1.4158749806e+02   3.0777435565e+01    0.1184328    0.1009485  41.97 0.0004717531    1.428    0.300
         7 -20.2872     80.9293    178.1651   1.3013463010e+02   2.9166539282e+01     13.01187     6.131063 -68.02   0.07109147    2.291    0.563
         8 -11.4651     19.8346    196.7237   1.4295120250e+02   3.2385590798e+01    0.1333525    0.1055658 -89.45 0.0004821703    1.269    0.212
         9 -12.6956    145.5352    189.0295   1.1862315214e+02   1.7944944060e+01     0.347806    0.3381209   1.60  0.002567152    1.204    0.169
        10 -11.1464    152.3163    237.6211   1.2336857855e+02   1.0391028751e+01    0.2486244    0.1375166  30.32 0.0006655295    1.689    0.408
        11 -10.0757    242.4338    184.5201   1.0024415245e+02   2.3588110510e+00    0.1240406   0.09200367  16.47 0.0001051243    1.008    0.008
        12 -11.8239     28.1570    235.4227   1.4324851141e+02   2.5597934871e+01    0.1498912    0.1003658  88.02  0.001337493    1.413    0.292
        13 -12.0876    167.0082    174.7466   1.1221558586e+02   1.6514427340e+01    0.2116973    0.1818874  85.36  0.001002803    1.643    0.391
        14 -11.3017     21.6365    233.3944   1.4415078230e+02   2.6488693212e+01   0.09641886    0.0737824  67.30 0.0003856947    1.169    0.145
        15 -12.0124    230.5201    167.3605   9.9034276775e+01   6.2424118784e+00    0.3722984    0.1849317 -43.69  0.001650018    3.257    0.693
        16 -11.4909    114.6326    250.6465   1.3071022336e+02   1.3890419486e+01    0.1459547   0.06995343  39.41 0.0009659019    1.571    0.363
        17 -10.8506      5.0338    232.5168   1.4657320915e+02   2.8047763823e+01    0.1037515   0.06894185  44.00 0.0004764068    1.419    0.295
        18 -11.6145     29.2768    156.9307   1.3886723281e+02   3.8761697928e+01    0.2491297    0.1663655 -76.03  0.001374418    1.352    0.260
        19 -11.1664    236.9948    158.4722   9.6155669665e+01   6.1397561310e+00    0.1892591    0.1112417  38.96 0.0003747732    1.527    0.345
        20 -10.5994     32.4734    222.3687   1.4203147241e+02   2.7125568048e+01    0.1769274    0.1481896 -41.09   0.00153641    2.081    0.519
        21 -13.8564    161.1989    153.2066   1.0955834170e+02   2.0947824715e+01    0.5076594     0.432706  45.14  0.001839961    1.148    0.129
        22 -10.0915     28.1540    222.7559   1.4273194984e+02   2.7472917769e+01    0.1378015   0.07963349  63.84 0.0008269309    1.281    0.220
        23 -11.2905    218.2838    220.2593   1.1012756883e+02   2.5241693532e+00    0.2677513    0.1372254 -37.57  0.001583613    2.660    0.624
        24 -10.7315    176.9756    154.9912   1.0665088400e+02   1.7724348259e+01    0.2009091    0.1772302  32.77 0.0004557465    1.086    0.079
        25 -11.4541     17.7701    154.1872   1.4106448957e+02   4.0258495587e+01    0.1922673     0.147433 -74.02 0.0003353561    1.296    0.228
        26 -11.3973     18.4889    149.2567   1.4059656861e+02   4.1165148889e+01    0.3133963    0.1988522  63.22  0.002212666    1.361    0.265
        27 -12.5455    174.1901    148.6770   1.0597167047e+02   1.9242044385e+01      0.36115    0.3031105 -42.18  0.001199952    1.383    0.277
        28 -10.3895     24.2369    216.3114   1.4308087513e+02   2.8824350541e+01     0.109041    0.0698762  62.38 0.0002739306    1.118    0.106
        29 -12.3022     27.4652    145.5445   1.3839648974e+02   4.1167638715e+01    0.3194765    0.2840376  83.24  0.000916401    1.163    0.140
        30 -10.9759     26.1581    138.9880   1.3816254291e+02   4.2605082089e+01    0.1799884    0.1601033 -82.50 0.0005300164    1.194    0.163
        31 -11.6066    172.1320    138.6163   1.0432014363e+02   2.1271044463e+01    0.2197638    0.1968324 -43.17 0.0006941357    1.295    0.228
        32 -10.1982    121.3690    241.2437   1.2883643598e+02   1.4187783430e+01    0.1168515    0.1065873  23.23  0.001017736    1.392    0.281
        33 -10.4236      2.7907    135.2664   1.4310298864e+02   4.5071326155e+01    0.1584372     0.134688 -36.21 0.0009088622    1.653    0.395
        34 -13.0375    160.7901    128.2057   1.0450344855e+02   2.5294477065e+01    0.4433273    0.3895801 -52.41  0.001730096    1.325    0.245
        35 -13.1786     11.4808    206.0423   1.4473114412e+02   3.1563586649e+01    0.3390701    0.2029876  30.89  0.001955135    1.944    0.485
        36 -11.4741     13.1261    240.0177   1.4561969954e+02   2.6290908569e+01    0.1223549   0.09855386  72.52  0.001235545    1.304    0.233
        37 -11.0745    167.4327    112.6803   9.9377661185e+01   2.6641619328e+01    0.3009173    0.2490976 -86.49  0.001188242    1.766    0.434
        38 -10.2484     31.6870    205.1814   1.4133727615e+02   2.9910491230e+01    0.1092175   0.09425092  78.73 0.0004534234    1.273    0.215
        39 -10.7798    205.3364    110.2452   9.0962798275e+01   1.8813319795e+01    0.3065036    0.1894473  39.94 0.0009404485    1.530    0.346
        40 -12.2121     25.9752    106.3578   1.3505416510e+02   4.9546286646e+01    0.3310412    0.2263135   2.80  0.001488557    2.139    0.533
        41 -12.7905    138.7053    200.3369   1.2143890776e+02   1.7322190503e+01    0.7278531    0.3299386  37.49   0.00285742    1.878    0.467
        42 -12.0329     39.2686     94.9537   1.2977993859e+02   5.0979134792e+01    0.4305186    0.3268649 -11.24  0.001955106    1.797    0.443
        43 -12.8571     47.7826     92.8668   1.2690787442e+02   5.0643753654e+01    0.4574669    0.3055538  12.29  0.002216951    2.023    0.506
        44 -12.1692    141.4804    198.5067   1.2068232590e+02   1.7165684243e+01    0.2813963    0.2198015  77.85   0.00069609    1.662    0.398
        45 -11.9431      6.2081     88.9912   1.3869804068e+02   5.4643444691e+01     0.470235    0.2275705 -15.31  0.002350731    3.716    0.731
        46 -10.2859     19.4613    203.5011   1.4331503718e+02   3.1295348574e+01   0.08889825   0.07459829  77.03 0.0002389551    1.250    0.200
        47 -10.6949    143.0504     81.4465   9.6677636102e+01   3.7590721280e+01    0.2383402    0.2005643 -30.09 0.0005247362    1.168    0.144
        48 -11.0648    103.2157     81.9612   1.0768157663e+02   4.5441846799e+01    0.2241214    0.2016685  35.21 0.0005382671    1.163    0.140
        49 -10.5948    155.9302    247.4886   1.2380591577e+02   8.7578960586e+00    0.1372921    0.1082598  38.44 6.121003e-05    1.116    0.104
        50 -11.9499    127.6507    247.1914   1.2834192895e+02   1.2623235571e+01    0.1930522    0.1311455  52.21  0.001216623    1.220    0.180
        51 -13.3597    163.6223     37.6259   7.7469148976e+01   3.9714588008e+01    0.5340624    0.4619102   7.76 0.0009223174    1.118    0.105
        52 -11.1979     13.4772     59.9516   1.3251204852e+02   6.0717554883e+01    0.1833662    0.1517702  63.59 0.0004295143    1.421    0.296
        53 -10.8827    147.0177     34.9822   8.0037923054e+01   4.4323361506e+01    0.3789528    0.2358502  68.56  0.001242374    2.009    0.502
        54 -11.1558    162.8242    245.6082   1.2249373137e+02   8.0053588560e+00    0.2410257    0.1273211  42.08 0.0005491238    1.361    0.265
        55 -10.8860    116.9265    244.9122   1.2987439480e+02   1.4306860525e+01    0.1357933    0.1003361  41.70            0    1.128    0.114
