#   1 NUMBER                 Running object number                                     
#   2 MAG_AUTO               Kron-like elliptical aperture magnitude                    [mag]
#   3 X_IMAGE                Object position along x                                    [pixel]
#   4 Y_IMAGE                Object position along y                                    [pixel]
#   5 X_WORLD                Barycenter position along world x axis                     [deg]
#   6 Y_WORLD                Barycenter position along world y axis                     [deg]
#   7 A_WORLD                Profile RMS along major axis (world units)                 [deg]
#   8 B_WORLD                Profile RMS along minor axis (world units)                 [deg]
#   9 THETA_WORLD            Position angle (CCW/world-x)                               [deg]
#  10 FWHM_WORLD             FWHM assuming a gaussian core                              [deg]
#  11 ELONGATION             A_IMAGE/B_IMAGE                                           
#  12 ELLIPTICITY            1 - B_IMAGE/A_IMAGE                                       
         1 -13.1835    204.2067     29.5826   4.2400714433e+01   2.9792304802e+01     4.009788     2.048148 -11.97   0.01574254    2.723    0.633
         2 -14.4051    170.6553     82.2583   6.2109770875e+01   3.0333002289e+01     2.997184     2.666739  46.82  0.009640708    1.156    0.135
         3 -13.3225    237.0143     28.0779   3.9184211092e+01   2.2652438078e+01    0.5137895    0.4349339  42.08  0.002738307    1.486    0.327
         4 -16.7401    245.6001     46.4818   4.2833631318e+01   1.8811840996e+01     7.603096     4.319949 -25.72   0.02391957    1.612    0.380
         5 -14.9830    223.0939     81.4790   5.3611632367e+01   1.8843626114e+01     4.491045     1.591019 -46.85   0.01623604    3.241    0.691
         6 -14.8321    219.8479     34.2727   4.2146887379e+01   2.5652861177e+01     3.540144    0.8754324 -29.40   0.01237951    3.335    0.700
         7 -11.7899    128.0031     23.0576   5.0827392614e+01   5.0179656398e+01    0.6528956    0.5387939  -6.02  0.002010276    1.377    0.274
         8 -11.3282    142.8311     12.2897   4.4240131154e+01   4.7419728900e+01     1.279315    0.3764795 -21.61  0.004108422    3.747    0.733
         9 -10.1882    125.8626     14.1452   4.7683659155e+01   5.1768249817e+01    0.3409218    0.2884751 -57.36   0.00122263    1.225    0.184
        10 -12.1207    119.1516      9.7596   4.7094724520e+01   5.4007939240e+01    0.8009045    0.6746339  78.89  0.002546447    1.147    0.128
        11  -8.9671    155.3691     13.4931   4.2967640731e+01   4.3948453808e+01    0.3026292    0.1917101  -7.97  0.001276597    1.962    0.490
        12  -9.4058     92.6933      8.9665   5.2510852821e+01   6.0931979080e+01    0.1934614    0.1776515 -20.00 0.0003789299    1.147    0.128
        13  -8.9186    212.4550      2.4011   3.4479972733e+01   3.0701544234e+01    0.1891411    0.1599298   0.13 0.0002708962    1.477    0.323
        14  -9.3035    209.0124    192.4683   7.9104011805e+01   5.5642676075e+00    0.1792638    0.1026749  35.14 0.0009488176    1.581    0.367
        15 -10.5902    207.5549    183.8135   7.7868664145e+01   6.9264280539e+00    0.3897242     0.274662 -61.19   0.00203223    2.928    0.658
        16  -8.8636     53.9271    188.5391   1.1196154770e+02   2.9469202302e+01    0.1714526    0.1559209  81.12 0.0003821058    1.176    0.150
        17 -10.9563    215.7823    183.3168   7.6362021632e+01   5.7579639855e+00    0.3423617    0.2391507  16.70  0.001045616    1.278    0.217
        18  -8.8629    190.9371    182.9697   8.0727434350e+01   9.6231198829e+00    0.1855633    0.1532823  10.88            0    1.039    0.037
        19  -8.5440    213.1430    235.5307   8.5016503033e+01  -8.0522791856e-02    0.1524464    0.1243264  -4.08  0.001211172    1.280    0.219
        20  -8.1125    235.6757    219.3222   7.9016287801e+01  -1.1414896899e+00   0.09006203   0.08224133  22.23 0.0007047093    1.682    0.405
        21  -8.9601    211.9181    218.0405   8.2686910994e+01   2.0197001276e+00    0.1916952    0.1549067 -28.01  0.001414923    1.514    0.339
        22 -10.5278    231.7213    211.3450   7.8405225570e+01   2.0586120357e-01    0.2090932    0.1583464  19.15 0.0004074096    1.180    0.153
        23  -9.6984    204.0802    174.4386   7.6803638922e+01   8.7583351475e+00    0.3113167    0.2526823 -88.43  0.001727288    2.519    0.603
        24  -8.1884     55.1422    172.9115   1.1023158809e+02   3.2662926412e+01    0.1476822    0.1436349  68.10 0.0002522531    1.209    0.173
        25  -9.0562    187.6253    170.0391   7.9024810252e+01   1.2093164187e+01    0.2365268    0.1691955  49.08  0.000698261    1.603    0.376
        26 -10.4245    230.4117    167.1258   7.1012994136e+01   5.6729914549e+00    0.3387277    0.2249328 -41.60  0.001932771    1.808    0.447
        27  -9.6858    197.3096    176.4608   7.8393314991e+01   9.5495222967e+00    0.2774622    0.2151821  83.00  0.001434276    2.801    0.643
        28  -8.6252     97.9675    167.8140   9.8660671074e+01   2.7743672678e+01    0.2071328    0.1595599  60.49 0.0005140356    1.292    0.226
        29 -11.9072     11.3151    164.1413   1.2086210098e+02   3.9136053614e+01    0.6496619    0.3768304  50.38  0.002765734    1.438    0.305
        30 -11.9173     15.7280    159.6898   1.1946572503e+02   3.9770181229e+01    0.6754295    0.3593183  76.52  0.002639439    1.719    0.418
        31 -11.6733     10.1177    158.8772   1.2089834850e+02   4.0420910586e+01     0.501678    0.3796961 -47.22   0.00240213    1.695    0.410
        32  -9.1931    203.6530    160.8565   7.4320474882e+01   1.0783814401e+01    0.2313189    0.1753747  41.26 0.0006505041    1.389    0.280
        33 -10.5083    192.5847    152.7588   7.4739760873e+01   1.3922423763e+01     0.578272    0.1646447 -43.38  0.001948816    3.994    0.750
        34  -8.1178    158.6600    157.3175   8.2488938322e+01   1.9295108876e+01      0.13551    0.1097658  74.71 0.0007048942    1.709    0.415
        35 -13.5968    239.0539     43.8776   4.2790184106e+01   2.0428863659e+01    0.7100562    0.3941756  82.21   0.00363396    2.228    0.551
        36  -9.2254    204.7896    153.5397   7.2676118175e+01   1.1672438778e+01    0.3969613    0.2243165 -53.20  0.001764956    2.857    0.650
        37  -8.9183    136.0890    154.6328   8.7075055815e+01   2.3927734898e+01    0.2473687    0.1988599 -72.09 0.0007017183    1.551    0.355
        38  -8.0778    198.5175    153.4849   7.3790681154e+01   1.2765821200e+01    0.1331122     0.114568   4.10 -9.030234e-05    1.038    0.037
        39 -12.3865     67.9923    143.1855   1.0312698209e+02   3.7790241582e+01     1.716236     1.212888  83.98  0.006146355    1.531    0.347
        40 -11.2770     42.0142    149.2499   1.1138099342e+02   3.9621667707e+01    0.3684148    0.3137992  18.66 0.0008691309    1.393    0.282
        41 -12.3962     50.1029    145.5816   1.0864308282e+02   3.9556480591e+01     0.838604    0.7438315  85.31  0.003095265    1.064    0.060
        42 -11.6245     57.5134    143.2097   1.0618333055e+02   3.9198499069e+01    0.6789954    0.3868273 -81.60  0.001676689    1.900    0.474
        43 -10.1147    133.7825    145.6835   8.5888068529e+01   2.6136296248e+01    0.7497945    0.2374533 -54.11  0.002281717    4.246    0.765
        44  -9.5490    145.4168    147.2203   8.3447647958e+01   2.3637269550e+01    0.4446174    0.2827294  87.66  0.001505357    4.279    0.766
        45 -11.0961    228.7115    172.1783   7.2220407768e+01   5.2784534333e+00    0.3909351    0.2716588  -4.85  0.002457085    1.328    0.247
        46  -8.5347    192.0516    144.0566   7.3048891245e+01   1.5398758658e+01    0.1958844    0.1847935  -0.67 0.0004083447    1.099    0.090
        47  -8.4470    167.1614    143.9541   7.7972797578e+01   2.0095264237e+01    0.2172238    0.1626276 -72.27 0.0009142862    2.050    0.512
        48  -8.4362    195.8260    142.6345   7.2050744829e+01   1.4932674834e+01    0.1792493    0.1242891  52.36  0.000452516    1.673    0.402
        49  -9.1163    211.0447    136.9803   6.8174230900e+01   1.3043071025e+01    0.2307513    0.1700254  37.84 0.0008141596    1.382    0.276
        50 -10.7973    137.9818    129.7753   8.1503393386e+01   2.8547974660e+01    0.7146825    0.5124846 -84.44   0.00265148    2.181    0.541
        51 -10.6958    195.8501    129.4318   6.9185279197e+01   1.7030481148e+01    0.4823461    0.2850438  57.38  0.002232801    2.148    0.534
        52 -12.3057    183.8020    126.5030   7.0774263942e+01   1.9873693300e+01    0.9093584    0.7465487 -50.26  0.004715675    1.361    0.265
        53 -10.5148    186.4858    119.9554   6.8750093280e+01   2.0436707184e+01      0.34122    0.3299339 -81.26  0.001176018    1.204    0.169
        54  -8.4502    224.6462    129.8512   6.4455239665e+01   1.1670669575e+01    0.2809537    0.1986286 -77.75  0.001306649    3.103    0.678
        55 -10.4392    160.9408    128.3868   7.5893544407e+01   2.4161227605e+01    0.4079828    0.2842859 -55.31  0.001881407    1.695    0.410
        56  -9.2756    204.2423    127.2508   6.7218289854e+01   1.5773819852e+01    0.2284301     0.186123 -53.76 0.0007360069    1.485    0.327
        57  -9.3017    200.5771    125.2243   6.7401495315e+01   1.6790086434e+01    0.3228143    0.2077562  -9.60  0.001241695    1.950    0.487
        58  -7.8877     94.7924    126.9886   9.2465746782e+01   3.7382132649e+01    0.1924401    0.1173292 -56.70 0.0005113406    1.679    0.405
        59  -8.6503    205.7626    122.3521   6.5861341323e+01   1.6242029851e+01    0.2576662    0.1510778 -42.77  0.001219731    1.742    0.426
        60  -8.6482    143.0738    122.9015   7.8699883405e+01   2.8897543192e+01    0.2777576    0.2042087  39.37  0.001101711    1.338    0.252
        61  -8.3004    217.7932    121.7360   6.3758479031e+01   1.4072426747e+01    0.1702484    0.1499017 -53.46 0.0008705173    1.361    0.266
        62  -8.5295    216.0015    116.9910   6.2978891926e+01   1.5105926672e+01    0.2045993    0.1836947 -17.68 0.0005867225    1.028    0.027
        63 -10.0066    164.2682    116.2268   7.2308712353e+01   2.5721354328e+01    0.2932037    0.2692988   3.23  0.001417503    1.109    0.098
        64  -9.7658    169.3589    115.3222   7.1021070101e+01   2.4804620220e+01    0.2824977    0.2585677 -67.17  0.001242156    1.240    0.193
        65  -9.9062    175.9064    114.0050   6.9374976381e+01   2.3651199691e+01      0.37844    0.2738135 -64.60  0.001224503    1.869    0.465
        66 -10.9985    134.7397    110.5124   7.7728253566e+01   3.3172333556e+01     1.017834    0.2321684 -43.69  0.002712048    4.491    0.777
        67 -10.2729    134.1106    100.0531   7.5157104365e+01   3.5454053941e+01     0.526347    0.3244642 -63.89 0.0007082989    2.257    0.557
        68 -12.4297    124.1453    103.9118   7.8777828518e+01   3.6823546236e+01      1.75806    0.8191195  49.16  0.006594044    2.178    0.541
        69 -10.6307    130.6706     86.5442   7.2232091669e+01   3.8959550900e+01    0.3784077    0.3563901 -44.40  0.001269914    1.068    0.063
        70 -11.0512    119.6092     94.6248   7.7499521466e+01   3.9776898994e+01    0.5917677    0.3961417 -53.60  0.002633981    1.576    0.365
        71 -10.8612    118.4797     89.6112   7.6389309296e+01   4.1084203241e+01    0.6166866    0.3319252  34.58  0.002333712    2.255    0.557
        72 -11.8610    111.9449     95.4152   7.9886318160e+01   4.1252817603e+01     1.147561    0.7234882  41.34  0.005013499    1.600    0.375
        73 -11.8204    128.3126     92.7638   7.4635199032e+01   3.8238215734e+01    0.8982165    0.6168882 -65.17  0.001143904    1.842    0.457
        74 -10.3344    185.0451    109.4551   6.6506930788e+01   2.2500280844e+01    0.8466048    0.3331885 -53.89   0.00217718    6.127    0.837
        75 -11.0624    206.2657    109.9333   6.2914777232e+01   1.8060252659e+01    0.5486604    0.5007482  34.96  0.002290244    1.157    0.135
        76 -10.2598    210.7130    104.0257   6.0807639366e+01   1.8072319791e+01    0.3733175    0.2403598 -33.19  0.001339112    1.417    0.294
        77  -8.7495    172.5108    107.5251   6.8451108777e+01   2.5520471246e+01    0.2486474     0.232741 -44.54 0.0006419655    1.094    0.086
        78  -9.4312    147.5716    104.5319   7.3079651834e+01   3.1572023126e+01    0.2962214    0.2540944  19.58 0.0006489292    1.286    0.223
        79 -10.1052    206.5875    103.0001   6.1215018468e+01   1.9060592045e+01    0.2949741    0.2821969   8.20  0.001819754    1.079    0.073
        80  -8.7014     85.0943    102.3013   8.9981009011e+01   4.4925462667e+01    0.2063273    0.1833684  50.02 0.0003782295    1.118    0.106
        81 -11.2302    171.7577     94.9774   6.5359962915e+01   2.7893080147e+01    0.7700792    0.5452803  20.84  0.003529204    1.839    0.456
        82 -10.0216    156.9897    100.6320   6.9925094061e+01   3.0211100337e+01    0.4912688     0.283976  48.18   0.00148584    1.730    0.422
        83 -10.1839    140.9794     95.2220   7.2140040685e+01   3.4877651476e+01    0.3378215    0.2926707  84.76 0.0006599168    1.316    0.240
        84 -10.8735    155.2698     92.0811   6.7988336356e+01   3.2192447853e+01    0.3218619    0.2811444 -25.62 0.0003887366    1.181    0.154
        85  -9.9635    196.6012     96.5465   6.1264220025e+01   2.2149359070e+01    0.3477436    0.2319518 -16.75 0.0008702032    1.706    0.414
        86 -10.2690    102.0566     82.8292   7.9222362275e+01   4.6088077740e+01    0.2463951    0.2267636 -50.64            0    1.085    0.079
        87 -11.4406    135.8474     60.6715   6.2825900844e+01   4.2551108580e+01    0.8203225    0.4657137 -51.52  0.001499119    1.981    0.495
        88  -9.7170    180.5480     61.8857   5.4577407243e+01   3.1216528548e+01    0.3430358    0.2403169 -13.43  0.001119364    1.713    0.416
        89 -11.0746    220.8968    177.2466   7.4420104825e+01   5.7871874116e+00    0.5115718    0.3435798  41.83  0.002358666    1.633    0.388
        90  -9.4971    186.5738     58.7645   5.2753785062e+01   3.0220208528e+01    0.3094645    0.2691913 -66.55 0.0008912536    1.161    0.138
        91  -8.8208    199.9269    212.2457   8.3876209489e+01   4.3408559143e+00    0.1611721    0.1303816  24.74  0.000336849    1.188    0.158
        92  -8.9201    201.1635    207.7753   8.2967726583e+01   4.7288889068e+00    0.1653485    0.1441658  -5.88 0.0002710481    1.243    0.195
        93 -12.9214    244.9013     78.4362   5.0274082944e+01   1.4999693604e+01    0.5479167    0.3966639 -88.86  0.003176726    1.900    0.474
        94  -9.8603    174.8105     48.8664   5.1633491692e+01   3.4527057967e+01    0.3104334    0.2053417  72.34  0.001413244    1.597    0.374
        95  -9.9828    219.9720    172.2119   7.3655691218e+01   6.5879685378e+00    0.3460376    0.2958538   8.79  0.001676081    1.104    0.095
        96 -11.1432    122.2750     37.0335   5.7499113088e+01   4.9800337772e+01    0.6027044    0.3379309 -19.17  0.002415463    2.223    0.550
        97  -9.7070    163.8537     36.0269   4.9295166164e+01   3.9072236967e+01    0.2955856    0.2000926 -42.97 0.0005389435    1.429    0.300
        98  -9.2488    167.5326     33.6701   4.7995078009e+01   3.8422324336e+01    0.5604725    0.2372323 -16.07  0.001853888    3.531    0.717
        99  -8.8539    111.3413     37.3174   6.0311011856e+01   5.2537783470e+01    0.1583599    0.1131782  25.67 0.0007048923    1.712    0.416
       100  -8.0625     92.0050     35.0066   6.4943159504e+01   5.7593276041e+01    0.1739265    0.1681823 -13.32 0.0003777238    1.044    0.042
       101  -9.0979    159.6532     33.9627   4.9265992760e+01   4.0434501087e+01    0.2067787    0.1814705 -33.96    0.0008334    1.159    0.137
       102  -9.2403    112.4841     29.9705   5.7019386237e+01   5.3324301189e+01    0.2208406    0.1475268 -28.84 0.0006352893    1.559    0.359
       103  -8.6523    161.2432     28.9402   4.7368890476e+01   4.0650715419e+01    0.2407983    0.2018747  71.98 0.0004976893    1.161    0.139
       104  -9.9563    236.0323    174.2327   7.1438474052e+01   3.9551740281e+00    0.2188109    0.1857913  34.02  0.001067461    1.437    0.304
       105  -9.7685    178.3308     25.1727   4.3927938170e+01   3.6675145774e+01    0.5796002    0.2836343  71.71  0.001791011    2.036    0.509
       106  -9.5617    202.1388    202.8988   8.2024366358e+01   5.2115639053e+00    0.2183581    0.1498741   7.36 0.0003677903    1.369    0.270
       107 -10.6033    241.8862    199.8242   7.4959209405e+01   1.7718538684e-01    0.3188351    0.2035359  45.00   0.00144445    2.148    0.534
       108 -10.0033    191.3803    192.0559   8.2195923676e+01   8.2585521852e+00     0.497697    0.3067273 -62.93  0.002095305    4.434    0.774
       109 -10.0861    169.2801    198.0670   8.7388432757e+01   1.0790992893e+01    0.2147408     0.196868  13.89 0.0003837041    1.152    0.132
       110  -7.9410    121.4788    196.3882   9.7146300649e+01   1.8508585717e+01    0.1293808    0.1068057  35.66 0.0001470708    1.035    0.034
       111  -9.0513    227.2069    193.0737   7.6149942915e+01   2.9027779373e+00    0.1910929    0.1521032  55.45  0.001232828    2.131    0.531
