#   1 NUMBER                 Running object number                                     
#   2 MAG_AUTO               Kron-like elliptical aperture magnitude                    [mag]
#   3 X_IMAGE                Object position along x                                    [pixel]
#   4 Y_IMAGE                Object position along y                                    [pixel]
#   5 X_WORLD                Barycenter position along world x axis                     [deg]
#   6 Y_WORLD                Barycenter position along world y axis                     [deg]
#   7 A_WORLD                Profile RMS along major axis (world units)                 [deg]
#   8 B_WORLD                Profile RMS along minor axis (world units)                 [deg]
#   9 THETA_WORLD            Position angle (CCW/world-x)                               [deg]
#  10 FWHM_WORLD             FWHM assuming a gaussian core                              [deg]
#  11 ELONGATION             A_IMAGE/B_IMAGE                                           
#  12 ELLIPTICITY            1 - B_IMAGE/A_IMAGE                                       
         1 -14.2639    236.4704     26.2711   3.5029349063e+02   2.5955597749e+01     0.733196    0.5574614 -49.64  0.005037676    1.074    0.069
         2 -10.8037    227.0640      9.7827   3.4734501649e+02   2.9440031538e+01    0.1933029    0.1307405 -44.70 0.0007373185    1.181    0.153
         3 -10.4191      2.3198      2.3170   4.2343413816e+01   7.9288339383e+01    0.1268983   0.07994927 -15.28 0.0005133491    1.659    0.397
         4 -11.1353     50.8316    245.2276   6.7369106287e+01   1.6038632582e+01    0.1353816    0.1257171 -49.79 0.0004961017    1.349    0.259
         5 -11.4960    100.9449    247.4643   5.6404344619e+01   1.0178604756e+01    0.4322165    0.2252055 -75.57  0.002119089    3.258    0.693
         6 -11.6022     49.6427    249.9908   6.7930995940e+01   1.5271764654e+01     0.261295    0.1147327  40.01   0.00138388    1.724    0.420
         7 -11.6536     26.1805    250.5507   7.3100624488e+01   1.7428049569e+01    0.1924324   0.09736136  23.21  0.001067677    1.772    0.436
         8 -14.7090     26.1468    152.4191   6.6807221147e+01   4.0011885917e+01     1.611446      1.13122  43.49  0.001711919    1.350    0.259
         9 -14.5076     21.7161    174.5926   7.0028099418e+01   3.4633206877e+01      2.16352     0.699535  57.15  0.007356468    3.477    0.712
        10 -13.7250     19.9510    194.5079   7.1810904146e+01   2.9900458461e+01    0.6930082    0.3066852  60.52  0.002004138    2.210    0.548
        11 -18.2497     12.1835    221.3990   7.5071489145e+01   2.4510356578e+01     5.636569     3.965654 -84.33   0.02536867    1.488    0.328
        12 -10.8446     46.3036    238.6840   6.7981239845e+01   1.7755300556e+01    0.1311898    0.1076678 -71.67 0.0004802596    1.436    0.303
        13 -15.1440    129.5641    229.9022   4.8197885273e+01   9.8322908627e+00     1.508985    0.7346208  23.92  0.007584462    1.847    0.459
        14 -16.1654      3.9068    167.3657   7.4853514121e+01   3.7893649226e+01     7.388853          nan -70.94   0.01542065    9.705    0.897
        15 -10.9159     47.0948    229.2448   6.7176934896e+01   1.9558300569e+01    0.1926432    0.1457408  57.52 0.0009596425    1.227    0.185
        16 -10.4477     41.9625    228.9862   6.8378211211e+01   2.0136614501e+01    0.1422161    0.1180582  85.33 0.0005821347    1.295    0.228
        17 -10.0854    194.4461    223.9861   3.4493008386e+01   3.1416767983e+00    0.1599772   0.09911602 -35.23 0.0006989185    1.544    0.352
        18 -11.8849     89.4035    222.4346   5.6463942688e+01   1.6143394827e+01    0.2847983    0.2094047  58.76  0.001082755    1.520    0.342
        19 -13.0603    105.9795    214.1803   5.1565675360e+01   1.5697832301e+01     0.416162    0.2335864 -52.46  0.001433827    1.954    0.488
        20 -14.3193    112.3956    229.1280   5.1894390439e+01   1.2065090650e+01     1.768894    0.5120298  32.05  0.007058211    2.752    0.637
        21 -10.7988     43.8226    234.2962   6.8277912139e+01   1.8873645601e+01    0.1670213    0.1358764  83.66 0.0004720052    1.330    0.248
        22 -12.3208     94.9959    207.4561   5.3388286621e+01   1.8480680158e+01    0.5370125     0.265171 -69.95  0.001909552    2.715    0.632
        23 -10.8020     35.8328    198.4301   6.7819490996e+01   2.7467578199e+01    0.2482519     0.184134 -70.95  0.000932369    1.431    0.301
        24 -10.5461    210.8624    198.8382   2.7708581065e+01   4.9261438216e+00     0.176805    0.1274471 -10.85 0.0004557845    1.179    0.152
        25  -9.9920    165.0000    210.9511   3.8106322706e+01   8.6326160817e+00    0.1863653   0.06674003 -46.24 0.0007927236    2.876    0.652
        26 -10.1234     36.7449    243.0901   7.0409246481e+01   1.7848908156e+01    0.1449862    0.1262246 -26.91  0.000583334    1.498    0.333
        27 -11.4625     68.0604    192.3679   5.8562820812e+01   2.5251006590e+01    0.2254428     0.189264  83.87 0.0002204547    1.270    0.213
        28 -14.0258     71.7621    158.4740   5.3032434585e+01   3.3039948027e+01      1.06092    0.8124991   1.94  0.003791453    1.586    0.370
        29 -14.5572     64.5825    132.1821   5.0938377056e+01   4.0915534252e+01     1.610262    0.6701896  51.29  0.004728334    3.068    0.674
        30 -11.5198     81.0755    149.9713   4.8798904584e+01   3.3835755650e+01    0.2524371    0.2354024  17.84 0.0003812733    1.116    0.104
        31 -14.8012     69.9660    144.8500   5.1394048953e+01   3.6804049859e+01     1.470571     0.767101  57.49  0.003527309    2.471    0.595
        32  -9.5253     70.3030    185.6320   5.7161977805e+01   2.6548545777e+01    0.1516602   0.09734491  61.25 0.0007034151    1.743    0.426
        33 -10.4498    157.4252    184.5086   3.5373481568e+01   1.4315107129e+01    0.1321711    0.1165229  -7.81 -0.0001508256    1.018    0.017
        34 -11.9098    171.5938    174.8455   3.0730949455e+01   1.4013283114e+01    0.3127994    0.2557083   5.38  0.001022941    1.187    0.157
        35 -12.1011    173.4768    171.4729   2.9736383596e+01   1.4343128329e+01    0.3338113    0.2345779  42.00  0.001604896    1.601    0.375
        36 -12.3343    104.4290    171.1929   4.5757260428e+01   2.5117758250e+01     0.341944    0.2688465  89.00  0.001286783    1.606    0.377
        37 -12.6142     89.3152    169.8536   4.9672317158e+01   2.7701179807e+01    0.3667147     0.288302 -52.61  0.001033457    1.320    0.242
        38 -11.8758    179.4255    166.2321   2.7595366811e+01   1.4393085386e+01    0.4342388    0.2365574 -58.40   0.00184801    2.905    0.656
        39 -10.9609    110.5816    166.7798   4.3374502726e+01   2.5169663814e+01    0.1999539    0.1420832 -69.86 0.0009511542    1.686    0.407
        40 -11.4081     60.8588    158.3945   5.6375482711e+01   3.4536287716e+01    0.2493526     0.192906 -88.85  0.000533573    1.366    0.268
        41 -11.6804    102.8481    237.8997   5.5011275499e+01   1.1629648432e+01    0.2787563    0.1658118 -52.92  0.001091754    1.951    0.487
        42 -12.0284     50.3941    155.4878   5.9282543291e+01   3.6607376263e+01    0.3714995    0.2507617  69.34 0.0007846004    1.615    0.381
        43 -12.2068    133.5655    145.5119   3.3405291763e+01   2.6059038442e+01      1.07396    0.2570364 -54.31  0.002458588    6.680    0.850
        44 -13.5137     53.8004    147.4260   5.7068052280e+01   3.8320193400e+01    0.6922252    0.6391881  34.53  0.002875674    1.100    0.091
        45 -11.6928    108.9016    145.3988   3.9812030442e+01   3.0413587329e+01    0.3005053    0.2684955  45.63 0.0006501939    1.127    0.113
        46 -12.7478     88.0951    144.4698   4.5663202533e+01   3.4121079459e+01     0.612919    0.4372654 -18.00  0.001729434    1.903    0.474
        47 -11.9698     36.3624    142.7775   6.2316148410e+01   4.1597791021e+01    0.3875662    0.3473281 -37.40  0.001207708    1.236    0.191
        48 -11.8756     31.8090    144.3438   6.4063337680e+01   4.1641229547e+01    0.3465047    0.2808496 -84.30  0.001279813    1.179    0.152
        49 -11.1244    129.2300    141.1591   3.3559817770e+01   2.7787657722e+01    0.2612254    0.2288661 -86.43 0.0005434268    1.348    0.258
        50 -11.7320     24.0012    136.9541   6.5959980355e+01   4.4391199030e+01    0.2231758    0.2046846  80.68 0.0004074828    1.006    0.006
        51 -12.7724    104.0374    131.7230   3.8314789170e+01   3.4532484152e+01    0.6391376    0.4463103  -4.51  0.002027164    2.197    0.545
        52 -12.3077     89.6517    131.6858   4.2632241345e+01   3.7069067829e+01     0.277958    0.2605273 -45.76 0.0003530251    1.085    0.078
        53 -13.1200     43.1309    130.1866   5.8179558050e+01   4.4272652673e+01    0.5010849    0.3395417  66.51  0.001926911    1.627    0.385
        54 -11.1862    222.1018    129.0612   1.3183238711e+01   1.4157463125e+01    0.4357286    0.1451955 -48.35  0.001632686    3.558    0.719
        55 -12.1405     67.2668    170.7199   5.6128311773e+01   3.0567414205e+01    0.4822196    0.2605071  46.30  0.001132575    1.812    0.448
        56 -11.7565    111.5773    125.8737   3.4844249380e+01   3.4531102528e+01    0.3134859     0.240412   1.67 0.0008902324    1.741    0.426
        57 -13.8654     42.6917    181.2402   6.4480737527e+01   3.0891866863e+01     0.949801    0.7182125  67.24  0.002530965    1.287    0.223
        58 -11.1954     75.6531    121.9535   4.5110801384e+01   4.1891329033e+01    0.4037956    0.2902257 -78.01  0.001823822    1.590    0.371
        59 -11.1371     98.4198    121.1658   3.7590275534e+01   3.8109820533e+01    0.2768673    0.2325156  -1.84 0.0007263405    1.441    0.306
        60 -11.9624     43.1702    122.0993   5.6865878220e+01   4.6476591935e+01    0.2318308    0.1982971 -44.42 0.0007054594    1.220    0.180
        61 -12.3813     28.3653    121.6401   6.2459522594e+01   4.8197006751e+01    0.4123845    0.1614626  46.23  0.001481187    2.697    0.629
        62 -10.1975    162.7118    127.6726   2.2948941648e+01   2.4429387427e+01    0.1418446    0.1079353 -10.94 0.0004345177    1.614    0.380
        63 -12.7309    122.1055    186.6986   4.3786306236e+01   1.9068205030e+01    0.3507259    0.1676081  25.04  0.001455255    2.227    0.551
        64 -11.7457     32.0132    119.4772   6.0732252463e+01   4.8431521312e+01    0.2222255    0.1447221  24.94  0.001032476    1.595    0.373
        65 -10.7065    107.5112    116.0024   3.3648737285e+01   3.7619834714e+01    0.2264525    0.1500741 -51.27 -8.202634e-06    1.489    0.328
        66 -12.0777     39.3450    113.1064   5.6799161977e+01   4.9382526364e+01    0.2767276    0.2107635  36.88 0.0003786022    1.329    0.248
        67 -10.9252     51.6662    110.6802   5.1469348224e+01   4.8486713041e+01    0.1600493    0.1133667 -29.30 0.0007049216    1.699    0.411
        68 -14.1468     54.1879    170.8011   6.0008244764e+01   3.2195041026e+01     1.335028    0.8414966  -2.75  0.005825318    2.268    0.559
        69 -11.7735     32.7038    100.7766   5.7297710946e+01   5.3479205154e+01    0.4218929    0.2067069 -41.63  0.001426407    2.277    0.561
        70 -10.8315     39.6996    102.6697   5.4683150925e+01   5.2175403444e+01    0.2296339     0.188772  -5.69 0.0004832054    1.391    0.281
        71 -11.8821     36.7630    101.7564   5.5744536671e+01   5.2764898917e+01    0.3805051     0.217553 -86.94  0.001530523    2.172    0.540
        72 -11.8300     60.3887     93.5319   4.3996808261e+01   5.1685700676e+01    0.6095976    0.2590221 -51.05  0.002230574    2.257    0.557
        73 -10.4027     69.4337    243.7775   6.3075217663e+01   1.4347660257e+01     0.141101    0.1092716 -43.39 0.0009067885    1.592    0.372
        74  -9.8339    102.3018     91.6346   2.8681921339e+01   4.4254479630e+01    0.1610154    0.1214294 -86.73 0.0007034972    1.734    0.423
        75 -11.8691     15.0306     89.5019   6.3320804650e+01   5.8138858860e+01    0.3197584    0.1148295  26.65  0.001204087    2.696    0.629
        76 -10.6898     42.3127     86.8413   4.9990422618e+01   5.6041577428e+01    0.2298008    0.1845783  83.42 0.0007477638    1.426    0.299
        77 -12.5187    187.8195     64.3147   3.3698458832e+00   3.0456301653e+01    0.3280606    0.2942843 -68.52 0.0007144301    1.080    0.074
        78 -14.3148    204.8490     52.6053   3.5858638238e+02   2.8658117712e+01    0.9811332    0.7737699  38.17  0.004454887    1.780    0.438
        79 -13.4149    210.8135     47.8447   3.5690468278e+02   2.8118908872e+01    0.5015081     0.405898  89.00  0.001404956    1.300    0.231
        80 -11.7714      2.5003     60.9872   6.4925590254e+01   6.6387807889e+01    0.2099415     0.179399   0.01   0.00100133    1.235    0.190
        81 -11.3927     13.3304     60.0333   5.8222961376e+01   6.5935211452e+01    0.1953467    0.1669244 -60.73 0.0005010805    1.115    0.103
        82 -10.7346     36.2101     52.8935   4.2681869314e+01   6.5121908886e+01    0.1969766    0.1899322  72.41 0.0004335762    1.170    0.145
        83  -9.9974     46.0031     38.4935   3.1354016443e+01   6.6538762932e+01    0.2016606    0.1316485  39.72 0.0003968991    1.486    0.327
        84 -12.2561    125.2894    243.8384   5.0785368724e+01   7.9984379974e+00    0.4193284    0.1071285 -49.10  0.001692207    4.109    0.757
        85 -10.6355     60.9256     21.5092   1.5966269281e+01   6.6324683350e+01    0.2104617    0.1264237  55.00  0.001022918    1.572    0.364
        86 -10.3628      2.3144     22.6557   5.3930481880e+01   7.5372580870e+01     0.121219   0.09462897  56.77 0.0007047531    1.712    0.416
        87 -10.8188     76.0717    244.7437   6.1660376822e+01   1.3444350173e+01    0.1645897      0.13592  12.88 0.0004352115    1.213    0.176
