#   1 NUMBER                 Running object number                                     
#   2 MAG_AUTO               Kron-like elliptical aperture magnitude                    [mag]
#   3 X_IMAGE                Object position along x                                    [pixel]
#   4 Y_IMAGE                Object position along y                                    [pixel]
#   5 X_WORLD                Barycenter position along world x axis                     [deg]
#   6 Y_WORLD                Barycenter position along world y axis                     [deg]
#   7 A_WORLD                Profile RMS along major axis (world units)                 [deg]
#   8 B_WORLD                Profile RMS along minor axis (world units)                 [deg]
#   9 THETA_WORLD            Position angle (CCW/world-x)                               [deg]
#  10 FWHM_WORLD             FWHM assuming a gaussian core                              [deg]
#  11 ELONGATION             A_IMAGE/B_IMAGE                                           
#  12 ELLIPTICITY            1 - B_IMAGE/A_IMAGE                                       
         1 -13.0509    146.3621     59.8332   3.1313414275e+01   4.0177771333e+01      1.97214     1.528403 -88.09  0.009338418    1.530    0.346
         2  99.0000     30.7670     21.7348   5.4109811802e+01   7.0689855343e+01     1.446178     1.028659  21.62  0.008631348    1.510    0.338
         3 -14.1989    117.5584     64.7766   3.9810187180e+01   4.6342338234e+01     2.332577     1.503053  63.09  0.007058699    1.786    0.440
         4 -14.3931     42.6163     75.6094   6.8760237461e+01   5.7695748913e+01     1.841904     1.263354 -29.00  0.007592836    1.741    0.426
         5 -14.0456     11.7413     35.8853   7.1095073313e+01   6.9843297005e+01     3.065138     1.838291 -81.95   0.01036309    2.400    0.583
         6 -13.2802     58.8979     34.1227   4.6830891091e+01   6.4185408349e+01     2.542984     1.912394  44.85   0.01406829    1.465    0.318
         7 -12.9199     71.8969     24.3162   3.7004205263e+01   6.3300404980e+01     1.100431    0.7094784  79.01 0.0006947477    2.957    0.662
         8  99.0000     78.7337     21.2900   3.3161875787e+01   6.2289227756e+01     3.955157     2.481622 -69.27   0.01600581    3.148    0.682
         9 -13.6054     39.0256     56.2973   6.4519230934e+01   6.2630123046e+01     1.340708      0.65948 -46.06  0.005407933    1.789    0.441
        10 -13.3002     48.8817     51.1224   5.8341969442e+01   6.2455426386e+01     1.377782    0.5985429 -38.68  0.003817042    2.401    0.584
        11 -10.3604    191.3871     20.8872   1.1985008494e+01   3.4011097264e+01     1.074986    0.6306618  27.56  0.004547679    2.672    0.626
        12  -9.8649    202.2661     17.9207   1.0087576260e+01   3.1644551714e+01    0.5162413    0.4209785  78.83  0.003002901    1.241    0.194
        13 -13.8314    199.7144     68.7551   2.4723918384e+01   2.5529826200e+01     3.538294     1.736391 -70.60  0.009965164    5.266    0.810
        14 -12.5975    203.1971     40.7366   1.6417373968e+01   2.8678933761e+01     1.033775     0.469632 -40.16  0.002576101    1.910    0.476
        15 -13.1280    189.8392     36.2522   1.6708896337e+01   3.2552857272e+01     1.665524     1.066808  32.66  0.007508567    2.136    0.532
        16 -13.5665     92.8604     66.6503   4.7669114701e+01   5.1430243463e+01     2.301771     1.237102 -61.02  0.008377232    2.719    0.632
        17 -12.3508     25.7982     39.2739   6.4754415050e+01   6.7839633507e+01     1.329323     0.359452 -51.16  0.003966667    2.870    0.652
        18 -14.1222      7.8203     68.2820   8.1518886109e+01   6.2645732656e+01     1.484601     1.106658  24.80  0.008560715    1.624    0.384
        19 -12.1845    160.9483     38.3829   2.1433583110e+01   3.9681107155e+01    0.5884473    0.4881594 -25.43  0.001970177    1.239    0.193
        20 -10.7954    234.5191     36.9888   1.2267303526e+01   2.1924211104e+01    0.9963862    0.8940895  16.13  0.003573029    1.404    0.288
        21 -12.3187    211.5442     20.8630   1.0079150117e+01   2.9080455342e+01    0.5461001    0.3822995  64.97  0.002985443    1.521    0.343
        22  99.0000    232.0310      1.8004   3.7284495337e+00   2.6362752739e+01     1.141681    0.3116899  77.04  0.004356082    3.704    0.730
        23 -12.0199    218.4486     29.2313   1.1706812670e+01   2.6488253373e+01    0.6938085    0.4671372 -73.95  0.002749474    1.535    0.349
        24 -13.4097    226.9035     21.3969   8.9590742876e+00   2.5453660384e+01     1.470023    0.8214417   0.31    0.0060962    3.229    0.690
        25 -13.0711    249.5016     10.4754   4.8016233261e+00   2.1731334399e+01    0.5717613    0.4082171 -36.06  0.003585384    1.215    0.177
        26 -13.2998    240.4746      6.3832   4.3548995358e+00   2.4062078687e+01    0.7121513    0.3336564 -67.68  0.003450223    2.163    0.538
        27 -10.9748    111.8476     33.5865   2.9394327981e+01   5.2924340300e+01    0.5575382    0.3334463  15.86  0.001765178    2.678    0.627
        28 -12.1640    222.0785      9.5246   6.2756435443e+00   2.7833606997e+01    0.7925558    0.2832865 -43.11  0.003417662    2.216    0.549
        29 -11.8627    150.1185     22.7246   1.7735540606e+01   4.4484609494e+01    0.7238411    0.3889928  34.14  0.001433545    2.514    0.602
        30 -10.9543    102.9346     20.7856   2.6081383322e+01   5.6786961603e+01    0.4356315    0.2449191 -15.28  0.001896469    2.032    0.508
        31 -12.2219    116.2591      9.6703   1.8344726900e+01   5.4672335221e+01    0.4585162    0.3277659   5.12  0.001514727    1.605    0.377
        32 -11.5741    124.2472     16.5241   1.9714344411e+01   5.1927635407e+01    0.4588267    0.2701829  59.49  0.001336818    1.594    0.373
        33 -10.7410    123.8847     10.7375   1.7421955718e+01   5.2614761509e+01    0.4370379    0.2706751  22.22 0.0009387445    2.019    0.505
        34 -10.7747    187.4424     13.1313   1.0076005194e+01   3.5841414613e+01    0.3592855    0.2447994 -84.44  0.001853651    1.468    0.319
        35 -11.0519    153.8263     15.8893   1.4794004246e+01   4.4262438794e+01    0.3596464    0.2873738   7.80  0.001897175    1.485    0.326
        36 -11.6853    150.0168     13.1072   1.4327403871e+01   4.5550837295e+01    0.2985012    0.2276036 -56.65 0.0005247518    1.326    0.246
        37  -9.9436    160.0662     14.8165   1.3612062572e+01   4.2735911634e+01    0.2907656    0.1626297 -39.71  0.001091793    1.712    0.416
        38 -10.1253     36.5961     14.4187   4.6892148724e+01   7.1092740210e+01    0.1924767    0.1837469 -62.62 0.0007768716    1.438    0.305
        39 -10.2412    131.3909     10.6535   1.6142784204e+01   5.0676696726e+01     0.551037    0.3060835 -45.41  0.002475091    1.897    0.473
        40 -10.4829     93.7076     11.8476   2.4214471700e+01   6.0018608003e+01    0.2296912    0.1654477  44.81 0.0003027128    1.318    0.242
        41  -9.9759     88.6241     11.9861   2.5597398980e+01   6.1198269065e+01    0.2044074    0.1282841 -21.78  0.001005045    1.607    0.378
        42 -12.5908    172.9690      6.6553   9.4922885075e+00   4.0182897006e+01    0.4380333    0.2795135  -4.29  0.001087016    1.977    0.494
        43  -9.6732     44.6030     10.0850   4.0301312328e+01   7.0436159888e+01    0.1873021    0.1115296 -32.28 0.0009382254    1.569    0.363
        44 -10.5129     27.0872      9.5260   4.9185747956e+01   7.3220601153e+01     0.225195    0.1663648   2.13 0.0004867582    1.350    0.259
        45  -9.7290    145.0329      9.5659   1.3725588712e+01   4.7208786105e+01    0.4191515    0.1264252  69.40  0.001421333    3.047    0.672
        46 -10.8987    146.4160      5.5732   1.2092642670e+01   4.7214631471e+01    0.2854831    0.2292409  56.73 0.0008554237    1.223    0.182
        47 -10.4727    142.5206      2.3786   1.1414917569e+01   4.8513552866e+01     0.294504    0.2253615 -65.28  0.001014059    1.340    0.254
        48 -11.4683    193.7484      7.0107   7.7205345868e+00   3.4876350550e+01    0.2914836    0.2385871  26.76  0.001073303    1.539    0.350
        49  -9.8241    156.6215      7.8535   1.1653063092e+01   4.4327440148e+01    0.2003187    0.1656456  14.57 0.0007261196    1.420    0.296
        50  -9.8668     84.6628      8.3061   2.4808677160e+01   6.2501554771e+01    0.1806474    0.1222005  -7.22 0.0009210629    1.566    0.361
        51 -10.6899      2.9791      6.2077   6.3347396460e+01   7.6428535410e+01     0.231272    0.1594514  -3.64  0.001142047    1.493    0.330
        52  -9.7413    210.5700      6.2688   6.2247923828e+00   3.0854799227e+01    0.1674061    0.1251323 -13.32 0.0007826455    1.553    0.356
        53  -9.7878     91.1133      6.6105   2.2295459042e+01   6.1162816770e+01    0.1764014    0.1142953 -79.96 0.0004222741    2.286    0.563
        54 -10.1862    101.8472      4.4409   1.8838404047e+01   5.8766329772e+01    0.2661315    0.1892013 -33.08 0.0008693504    1.467    0.318
        55  -8.6275    183.5390      3.5449   7.5595178775e+00   3.7769297443e+01    0.3685779    0.1886075 -58.89  0.001142289    1.966    0.491
        56 -10.8087    187.1007      1.4048   6.6282531668e+00   3.7066748569e+01    0.3889344    0.1228956  77.49 0.0004655506    3.105    0.678
        57 -10.4115    112.1909      4.0294   1.6651163957e+01   5.6218913795e+01    0.2412128    0.1875146  74.91 0.0006799774    1.282    0.220
        58  -9.4676    207.4148      3.0913   5.5923027559e+00   3.1917985611e+01    0.1688313    0.1084234  15.66 0.0008025409    2.395    0.582
        59 -10.6286    217.4284      2.4136   4.7506940486e+00   2.9618814835e+01    0.2302184    0.2086791  50.88  0.001182198    1.350    0.259
        60 -11.3475     86.6830      1.4431   2.0761541130e+01   6.2676941332e+01    0.4652651    0.1169594  59.06  0.001631331    3.191    0.687
        61 -11.6838     48.1857      1.4771   3.3243601695e+01   7.0860033135e+01    0.4191083    0.1280004  50.70   0.00166383    3.148    0.682
        62 -10.7023    250.1754      1.4392   2.6958431584e+00   2.2511761492e+01    0.1546748    0.1061458 -81.44 0.0002878135    1.417    0.294
        63 -12.4403    233.7195     72.3408   2.1195730688e+01   1.7407751293e+01    0.7229726    0.3992728  -5.22   0.00275199    3.318    0.699
        64 -11.6954     89.0303    114.9797   6.2755467893e+01   4.1137437786e+01    0.4294015    0.2966727  59.04  0.002012321    1.603    0.376
        65  -9.2930    211.0582    112.0000   3.4223633663e+01   1.6095221585e+01    0.2203506   0.08189759  52.48 0.0008048114    2.959    0.662
        66 -11.2591     96.8489    109.7689   5.9233517312e+01   4.0960535446e+01    0.3130426    0.2008218 -41.98  0.001026724    1.643    0.391
        67 -11.7028    247.8873     57.6819   1.6096239048e+01   1.6478788663e+01    0.6446485    0.2861727 -35.48  0.002077973    1.784    0.440
        68 -11.8711    241.9629     61.6909   1.7659093746e+01   1.7159142088e+01     0.601314    0.4396239 -47.36  0.001924742    1.207    0.171
        69 -13.0352    233.8809     61.2460   1.8411084727e+01   1.8914895522e+01     1.056843    0.7242668 -14.00  0.005483771    1.662    0.398
        70 -13.1585    234.7001     48.0369   1.5017286327e+01   2.0493921568e+01    0.8632587    0.8018023  82.96  0.001786174    1.212    0.175
        71 -13.3115    203.9154     61.0312   2.1995946899e+01   2.5694026546e+01     2.150872     1.031216 -80.44  0.005668647    6.312    0.842
        72 -10.9482     38.6583    110.1484   7.7523872717e+01   4.9581584258e+01    0.2276537    0.1579838  89.88  0.001017245    1.423    0.297
        73 -11.9130    198.2818     26.1955   1.2820559291e+01   3.1685346204e+01    0.6598095    0.4104063 -64.26  0.002374711    1.653    0.395
        74 -13.9569    216.4172     60.4188   2.0221636236e+01   2.2881691330e+01     1.171987    0.9453453  33.01  0.005457045    1.513    0.339
        75 -11.9855    209.5474     58.5009   2.0564636140e+01   2.4737317589e+01    0.3251034    0.2697664 -68.48 5.586107e-05    1.233    0.189
        76 -13.2446    196.5742     46.8367   1.8957883738e+01   2.9476700369e+01     1.035087    0.6061167 -37.33  0.002843424    1.533    0.347
        77 -11.2256    196.5569    108.0982   3.5702330475e+01   1.9808842784e+01    0.5573095    0.3592378 -68.58  0.002301875    2.507    0.601
        78 -10.1453    167.6723     90.0357   3.6256912990e+01   2.9590601309e+01    0.2544948    0.2155664  78.01 0.0005923302    1.328    0.247
        79 -12.0318    221.9811     88.0798   2.6643701568e+01   1.7575622666e+01    0.4212356    0.2486846  60.15  0.001533755    1.956    0.489
        80 -13.3221    215.3495     82.8243   2.6237202151e+01   1.9807195911e+01    0.7255046    0.4337239 -44.69  0.003246269    1.560    0.359
        81 -11.6345    237.6217     86.4751   2.4181409590e+01   1.4588600710e+01    0.5159441    0.3440546  88.20 0.0008317214    2.246    0.555
        82 -10.7440    233.3382     85.3348   2.4446545490e+01   1.5620396205e+01    0.2711589    0.2273995 -24.24 0.0009766652    1.107    0.097
        83  -9.3321     89.6747    108.3744   6.1001096319e+01   4.2605452728e+01    0.1606524    0.1147646  84.94 5.700174e-05    1.824    0.452
        84 -11.3988    175.3911     86.1156   3.3655569397e+01   2.8461179540e+01    0.4809722    0.2591207  37.16   0.00149259    2.410    0.585
        85 -11.2062    180.8852     82.8186   3.1719444346e+01   2.7725740132e+01    0.2921518    0.2766625  57.15  0.001392761    1.120    0.107
        86 -11.3799    179.8304     77.4879   3.0385766956e+01   2.8883203000e+01    0.4038086    0.2763422 -22.91 0.0007267469    1.578    0.366
        87 -12.2344    177.2458     71.1091   2.8979092732e+01   3.0574636781e+01    0.8039709    0.3941081 -53.97 0.0009406959    2.523    0.604
        88 -11.8109    168.8165     80.2069   3.3197232154e+01   3.1081706531e+01    0.4097313    0.3353257 -76.52  0.000851427    1.399    0.285
        89 -11.2089    167.4563     76.5450   3.2374938109e+01   3.2054129836e+01    0.3264701    0.2567305  45.26 0.0007317831    1.359    0.264
        90 -10.8285    250.1178     66.6708   1.8014804262e+01   1.4846535176e+01    0.5298232    0.1681091 -26.87  0.001909271    3.131    0.681
        91 -12.2798    249.8111     75.3665   2.0103153028e+01   1.3735163860e+01    0.6304883    0.2769794 -20.76 0.0002345739    2.723    0.633
        92 -10.6779    250.5768     81.5179   2.1464070856e+01   1.2746051833e+01    0.2285136    0.1971561  46.73  0.001010081    1.385    0.278
        93 -11.6299    147.4526     83.5402   3.8621084618e+01   3.5636013574e+01    0.6420693    0.4493099 -55.08  0.002873678    1.528    0.345
        94 -10.2270    209.9823    105.7009   3.2851529078e+01   1.7341466944e+01    0.2564398    0.1854934 -52.53 0.0008108796    1.503    0.335
        95 -11.7366    155.9198    104.8756   4.2834575683e+01   2.9498193042e+01     0.356405    0.2164093 -45.23  0.001521669    1.610    0.379
        96 -10.9002     83.2124     83.5141   5.6300394161e+01   4.9623216111e+01    0.2851557    0.2675354  41.98 0.0008760435    1.143    0.125
        97 -12.1903    222.2707     79.6107   2.4462468708e+01   1.8787843166e+01    0.3828611    0.2978121 -85.56  0.002060319    1.583    0.368
        98 -11.6574    218.4472     75.7223   2.3974285983e+01   2.0200106115e+01     0.297162    0.2374451  21.80  0.001593169    1.542    0.352
        99 -11.6285    161.7326     84.7938   3.5943119673e+01   3.1969121146e+01       1.4029    0.6578858  35.97  0.004579425    3.256    0.693
       100 -10.9566    250.6752     84.8792   2.2238328927e+01   1.2264515068e+01    0.3366435    0.2222062 -61.62  0.001010724    1.869    0.465
       101 -11.1502    230.8319     78.0374   2.2962718670e+01   1.7198586478e+01    0.5168617    0.2440262  74.26  0.002000277    3.398    0.706
       102 -10.6604    155.7332     76.6921   3.4751978639e+01   3.4900808045e+01     0.344816    0.2728163  82.61  0.001022007    1.478    0.323
       103  -9.9296    243.1316     73.2592   2.0337513266e+01   1.5346415293e+01    0.1966123    0.1598534  32.68 0.0007431431    1.506    0.336
       104  -9.6567    151.1432     72.8855   3.4533723028e+01   3.6714347420e+01    0.2053308     0.175705 -15.48 0.0004322726    1.284    0.221
       105 -10.5770    240.1548     69.7838   1.9827341553e+01   1.6430609011e+01    0.3258542    0.1679357 -19.51  0.001418842    2.224    0.550
       106 -12.9289    221.2488     69.7380   2.2061031260e+01   2.0462310070e+01    0.5491677    0.3760444  64.99  0.002846185    1.650    0.394
       107 -10.7566    161.4272     66.9915   3.0614945386e+01   3.5184789407e+01    0.3518163    0.2036644 -30.84 0.0003166226    1.734    0.423
       108 -11.6677    166.9024     64.6896   2.8878411196e+01   3.4196479677e+01    0.6351238    0.5105041  69.58  0.002864218    1.313    0.239
       109 -11.9304    181.3804     62.0476   2.5603828738e+01   3.1005852954e+01    0.7637647     0.428917 -55.18  0.002854645    2.020    0.505
       110 -11.5811    126.8916     59.0170   3.5414059324e+01   4.5160808462e+01    0.5733154    0.3258221  35.67   0.00222836    2.243    0.554
       111 -11.9608    161.7410     55.7130   2.6981380828e+01   3.6940929013e+01    0.5383789    0.3835143 -45.40  0.002122022    1.358    0.263
       112 -11.3661    173.9743     54.2471   2.4431252545e+01   3.4056000895e+01    0.4206764    0.2460448 -45.15  0.001036995    1.644    0.392
       113  -9.9411    170.2060     56.3475   2.5706627562e+01   3.4690389798e+01    0.2896971    0.2309698  84.85  0.001440611    1.365    0.268
       114 -10.5225     69.1371     55.0342   5.1623536766e+01   5.8381339586e+01    0.3579076    0.3458783 -74.11  0.002111199    1.146    0.128
       115  -9.7691    105.4300     43.7468   3.5212702700e+01   5.2909115628e+01    0.3359354    0.2406906 -17.89 0.0007691961    1.556    0.358
       116 -10.9127    100.7267     53.7523   4.0496047328e+01   5.2252001995e+01    0.5459285    0.3129288  46.01  0.002346714    1.799    0.444
       117 -10.6440     99.2678     47.7534   3.8579729353e+01   5.3649878530e+01    0.4647536    0.3246273  20.06  0.001393191    1.876    0.467
       118 -11.8248    246.6085     42.1246   1.2481213119e+01   1.8718176570e+01    0.3853405     0.246036 -66.68 0.0009391348    1.658    0.397
       119 -11.4569    245.4640     50.0415   1.4488854231e+01   1.7960966367e+01    0.2941599     0.209203  77.42  0.000341524    1.626    0.385
       120 -10.5787    248.2567     46.9090   1.3484741987e+01   1.7783150163e+01    0.3471057    0.2197955 -87.29  0.001416482    1.921    0.479
       121 -10.6408    206.9080     50.8971   1.8809736849e+01   2.6425326108e+01    0.3323525     0.218292 -74.20  0.001011604    1.796    0.443
       122 -10.9561     90.4087     51.0170   4.2610988663e+01   5.5004992645e+01    0.2331303    0.2099767  40.28 0.0003783196    1.150    0.130
       123 -10.6420    168.6284     32.3111   1.8278339437e+01   3.8479443013e+01    0.6269111    0.2782675  77.68  0.002281203    2.735    0.634
       124 -10.9819    182.0316     31.0321   1.6097004771e+01   3.5186067862e+01    0.4916114    0.3264748  -5.41  0.001640807    1.960    0.490
       125 -10.4202    162.8504     48.1633   2.4343316695e+01   3.7804275348e+01    0.4333501    0.3024697  58.37  0.002055427    1.452    0.311
       126 -10.4358    160.1529     25.2072   1.7123416243e+01   4.1560724813e+01    0.6053102    0.3380661 -35.63  0.002708544    1.703    0.413
       127  -9.6624    163.3177     21.0019   1.5276577352e+01   4.1215953234e+01    0.1870345    0.1741562 -44.54 0.0003990145    1.074    0.069
       128 -12.1899    172.2259     44.6674   2.1709799541e+01   3.5897791163e+01    0.7180703    0.6062751  85.12  0.002161559    1.215    0.177
       129 -10.1936     15.4075    106.2766   8.4611027512e+01   5.2738833331e+01    0.1802862    0.1055514 -85.44 0.0006105797    1.519    0.342
       130 -10.0909    168.8587     36.7323   1.9677951990e+01   3.7848189061e+01    0.3607911    0.2490339  21.65  0.001237879    1.985    0.496
       131  -9.9138    174.1257     39.7923   1.9887399596e+01   3.6081301021e+01    0.2169062    0.1913191  38.04 0.0004464471    1.273    0.214
       132 -11.1902    177.9818     37.6116   1.8660997765e+01   3.5382497404e+01    0.4372041    0.3397204  26.91  0.001628318    1.598    0.374
       133 -11.5001     63.3217     46.6023   5.0525576756e+01   6.1090062487e+01    0.4829024    0.4324183  68.10  0.002786577    1.371    0.271
       134 -11.8264    210.3938     46.9722   1.7317279152e+01   2.6134218478e+01     0.797557    0.4272496 -78.95  0.003202392    2.709    0.631
       135  -9.9909    131.1194     45.1410   2.9424304640e+01   4.6403339771e+01     1.282209    0.5725116  59.22  0.004831308    2.253    0.556
       136 -10.0800    150.0000     46.9733   2.6241011065e+01   4.1294070266e+01    0.3156786    0.1984427 -11.83 0.0009960185    2.081    0.519
       137 -11.7972    148.6128     39.7941   2.4012838528e+01   4.2695594004e+01    0.6947038    0.3915907 -38.12  0.002992974    1.702    0.412
       138  -9.3751     93.7497     47.9555   4.0331815395e+01   5.4839569605e+01    0.1910735    0.1225398 -35.34 0.0008658064    1.513    0.339
       139 -10.6222    132.2014     39.6928   2.7172316506e+01   4.6943724208e+01    0.4149548    0.2764085  68.83 0.0006601231    1.593    0.372
       140 -11.3549    215.2757     42.7965   1.5642860809e+01   2.5540356085e+01    0.3879752    0.2487793 -35.79  0.001971326    1.372    0.271
       141 -10.6041    183.5513    103.8912   3.6970684354e+01   2.3412649811e+01    0.4779388    0.2965879 -55.77  0.002043731    1.928    0.481
       142  -9.7921    179.6519     99.8428   3.6632603945e+01   2.5020764070e+01    0.3069936    0.1963398 -51.65  0.001058749    1.677    0.404
       143 -12.2161    145.5205    103.3317   4.4762169794e+01   3.2167941402e+01    0.6171204    0.4267977  58.71  0.002453831    1.580    0.367
       144 -13.2789    222.4033     39.0059   1.3907369728e+01   2.4380618041e+01     0.880504    0.5855166 -81.76  0.002802555    1.676    0.403
       145 -10.8702    109.7472    103.6055   5.3973410632e+01   3.9866968634e+01    0.2892158    0.1848953 -38.97  0.001246796    1.656    0.396
       146 -11.6040     69.4526    102.7973   6.5956068612e+01   4.7345447211e+01    0.3737398    0.1262269 -54.94  0.001298994    2.632    0.620
       147 -10.7864    165.4763    102.4878   4.0152542828e+01   2.7778084659e+01    0.3286116    0.1463241 -38.57  0.001207634    2.158    0.537
       148 -14.7359     63.5622     86.5772   6.3877850618e+01   5.2196327567e+01     2.045115     1.563654   1.88   0.01023396    1.791    0.442
       149 -10.0635     94.0292     42.7284   3.8102394872e+01   5.5681730217e+01    0.3699709    0.2092341 -36.37  0.001619886    1.709    0.415
       150  -9.8223     90.9797     39.0562   3.7486314255e+01   5.6965250597e+01    0.2088558    0.1698673 -67.50   0.00044643    1.524    0.344
       151 -10.7850     99.3968     41.0409   3.5807395217e+01   5.4748436681e+01    0.3199598    0.2539049 -46.74 0.0008926351    1.305    0.233
       152 -10.8203    240.9980     40.0336   1.2455696345e+01   2.0153552945e+01    0.3363499    0.2238445  -5.37    0.0012843    2.033    0.508
       153 -11.2839    142.7604     46.3411   2.7422270354e+01   4.3252074104e+01    0.4295196    0.2852874  32.42 0.0008874986    1.870    0.465
       154 -10.4286    249.7182     38.1508   1.1276702434e+01   1.8561882283e+01      0.27046    0.1685902 -53.57 0.0008977312    1.432    0.302
       155 -10.4582    122.9238     34.1721   2.7053365783e+01   5.0085401232e+01    0.4433219    0.1834954 -43.81  0.001600387    2.569    0.611
       156 -11.3622    112.9717    246.9912   7.6824318929e+01   1.0579421896e+01    0.3105357     0.207798 -33.95  0.001968596    2.337    0.572
       157 -10.1812    132.4876     23.9937   2.1150912414e+01   4.8948316319e+01    0.2652557     0.174354  43.21  0.001238013    1.597    0.374
       158 -10.3772    131.7165     33.6118   2.4982764558e+01   4.7921566878e+01    0.3777758     0.201234 -50.20 0.0003933069    2.132    0.531
       159  -9.5066    128.6867     29.3486   2.3954014410e+01   4.9264469677e+01    0.2561232    0.1516212 -51.90  0.001093213    1.914    0.478
       160 -10.2157    128.4912     26.4544   2.2864251356e+01   4.9681650552e+01    0.3345484    0.2233001  -0.66  0.001382243    1.908    0.476
       161 -11.2160     92.5397     33.2881   3.4494725907e+01   5.7524274554e+01    0.3546019     0.255357 -16.66 0.0009654547    1.489    0.328
       162 -10.5293     74.9857     33.5502   4.0347743368e+01   6.1245963382e+01     0.292063    0.2300301  50.04   0.00115679    1.359    0.264
       163  -9.6907    206.8781     32.5943   1.3739751436e+01   2.8820464177e+01    0.3285445     0.134266 -44.05  0.001334514    2.148    0.534
       164 -13.0875      4.8434     54.4531   7.9994145630e+01   6.6111482504e+01    0.9492635    0.5487124 -64.72  0.004214688    1.372    0.271
       165  -9.6196    124.1922     27.9909   2.4336361577e+01   5.0589536995e+01    0.4128249    0.2160299 -46.69  0.001574791    2.090    0.521
       166 -11.6535     86.1183     28.3722   3.4220565144e+01   5.9686950410e+01    0.3364615    0.2649314  53.81 0.0005367086    1.316    0.240
       167  -9.8417    149.7951     27.7778   1.9578554493e+01   4.3968322003e+01    0.2920671    0.2033858  35.20  0.001374691    1.675    0.403
       168 -11.0534     36.2394    248.8770   9.0762810639e+01   1.9857483378e+01    0.1817425    0.1179504 -81.34  0.001348247    1.644    0.392
       169  -9.8422    152.1434     33.6876   2.1269834912e+01   4.2603729307e+01    0.1929761    0.1765055  69.72 0.0004269434    1.088    0.081
       170 -10.0796    167.9490     26.2169   1.6386012306e+01   3.9403982640e+01    0.2396801    0.2085036 -36.33  0.000885697    1.139    0.122
       171 -10.1362    234.0208     24.1764   9.1111909367e+00   2.3549682726e+01    0.3254575    0.1701625 -26.48  0.001481384    1.806    0.446
       172 -10.5342    176.2157     24.0172   1.4628532968e+01   3.7518492487e+01    0.4015304    0.1729637 -30.21   0.00161692    2.163    0.538
       173 -13.4490     81.1976     41.9107   4.1906493918e+01   5.8567617965e+01     1.155628    0.6984989  50.35  0.005365959    1.758    0.431
       174  -9.7364    135.7128     25.0518   2.0970311668e+01   4.7983121172e+01    0.2358342    0.1657865 -46.33  0.001141112    1.455    0.313
       175 -11.9379    242.7105     22.7708   8.1308307165e+00   2.1825806154e+01    0.6716884    0.2610562  75.52  0.002964039    2.859    0.650
       176 -10.3371    244.4876     18.9825   7.1036437526e+00   2.1869998134e+01    0.2671599    0.1457374 -59.65  0.001204066    1.703    0.413
       177 -14.7050    124.1186     87.3286   4.5421631750e+01   4.0329850450e+01     2.837882     1.920198  64.07   0.01232693    1.746    0.427
       178 -10.6075     98.1288     21.8342   2.7769411919e+01   5.7811629896e+01    0.3150769    0.2552867  10.97  0.001207093    1.315    0.240
       179 -10.4462    170.1870     19.5236   1.3923685105e+01   3.9588138111e+01    0.3735099     0.246418  22.66  0.001708349    2.082    0.520
       180 -10.0495    180.1727     20.1105   1.2948479510e+01   3.6943786724e+01    0.2009159     0.180276  50.89 0.0004400487    1.228    0.185
       181 -11.2876    130.4651     19.4611   1.9755404551e+01   4.9997557259e+01    0.3309428    0.2556431  68.18 0.0005335088    1.264    0.209
       182 -12.7342    136.6653     82.0693   4.0669018757e+01   3.8490929222e+01    0.8761979    0.6028191 -40.46  0.002024043    1.406    0.289
       183 -10.0633    180.4791    243.4905   6.4348452435e+01   1.6120561499e+00    0.1119309   0.08685067  27.57 8.840873e-05    1.033    0.032
       184 -10.4778    220.1204    123.2285   3.5426786579e+01   1.2495596112e+01     0.398546    0.2084583 -34.33  0.001839681    1.712    0.416
       185 -10.1888    186.2898     18.3634   1.1758046239e+01   3.5576365949e+01     0.406354    0.1652144  49.08  0.001533111    2.909    0.656
       186  -9.9360    152.9090    124.1431   4.8447375683e+01   2.6304758243e+01    0.2153322    0.1982886 -82.02 0.0002644103    1.187    0.157
       187  -9.9875     19.9291     19.1830   5.9033935463e+01   7.2450692168e+01    0.1659144    0.1569764 -19.65 0.0007842725    1.229    0.186
       188 -10.9391     57.5205    120.3356   7.3340417784e+01   4.4716670540e+01    0.2486786    0.2187768 -62.21  0.000415522    1.132    0.117
       189  -9.2655     72.9961    119.0025   6.8390964375e+01   4.2807912187e+01    0.1715334    0.1570006 -83.46            0    1.012    0.012
       190 -10.0899    139.3155     16.5753   1.7161366219e+01   4.8003129812e+01    0.2516743    0.1586482 -35.28 0.0008681484    1.572    0.364
       191  -9.1632    112.3090     17.2894   2.2402995791e+01   5.4879781157e+01    0.1473175    0.1015174  32.14 0.0006993899    1.578    0.366
       192 -10.7575    180.7315    115.7313   4.0542561359e+01   2.1898457666e+01    0.3826084    0.2889019 -60.88  0.001854004    1.574    0.365
       193 -10.5681     94.0979     15.9713   2.6088525686e+01   5.9470651700e+01    0.2555692    0.1835648  52.41  0.001100337    1.336    0.252
       194 -10.3160    203.7103    116.0147   3.6424942774e+01   1.6954021682e+01    0.3927749    0.2055486  66.86  0.001460553    3.235    0.691
       195 -10.0897    106.3193    116.3335   5.8159698808e+01   3.7624977657e+01     0.152541    0.1214886 -14.67 0.0007048935    1.697    0.411
       196 -12.9961     79.5220     59.2552   4.9442491666e+01   5.5601267806e+01    0.7683396    0.5837108  27.04  0.003870703    1.500    0.333
       197 -13.0793     80.0397     50.1711   4.5745097313e+01   5.7293139344e+01     0.881178    0.5370752  27.84  0.003825576    2.108    0.526
       198 -12.8678     59.6364     62.4912   5.8005013419e+01   5.8379141537e+01     1.307774    0.8001182 -63.18  0.005963102    1.870    0.465
       199 -13.1607     86.6848     98.6217   5.9437680738e+01   4.5464626902e+01    0.7299978    0.4365936  31.06  0.001924782    2.022    0.505
       200 -11.4773     89.2440     94.0315   5.7401303998e+01   4.6076224269e+01    0.2686285    0.2535282  56.09 0.0002122566    1.113    0.101
       201 -11.2327     33.9869    100.4876   7.7418679655e+01   5.2508495093e+01    0.2584995    0.1708179 -86.32 0.0005808311    1.507    0.336
       202 -10.7202    170.4737     97.5944   3.7806016352e+01   2.7543189282e+01    0.3495101    0.2919266 -42.99  0.001184068    1.146    0.128
       203 -10.3445    158.9451     99.0638   4.0591573604e+01   2.9938216797e+01    0.2273651    0.2161376 -49.30 0.0003190452    1.026    0.025
       204 -11.9732    153.2420     96.1266   4.1009934891e+01   3.1832787253e+01    0.7634832    0.4584198  53.97  0.001663719    1.748    0.428
       205 -12.5498    106.3234     97.1980   5.3185405577e+01   4.2014836685e+01     0.506224    0.3793007  43.78 0.0008671862    1.395    0.283
       206 -12.4124    107.3756     92.2520   5.1472579617e+01   4.2906297958e+01    0.6432986    0.3335494  36.59  0.001462755    2.278    0.561
       207 -13.7433     79.8084     73.2087   5.4214950850e+01   5.2571308893e+01     3.267055    0.6060911  41.57  0.008161296    5.791    0.827
       208 -10.9307    225.6693     97.9889   2.8577603778e+01   1.5300751889e+01    0.2052909    0.1607196 -32.99 0.0005129694    1.116    0.104
       209 -11.2030    199.7521     96.0262   3.2061794001e+01   2.1144856896e+01    0.3633196    0.2427099 -53.64 0.0007663311    1.643    0.391
       210 -11.0966     28.1907     97.6184   7.8937562894e+01   5.3802891043e+01    0.3304101    0.1743404  81.25  0.001406212    2.497    0.600
       211  -9.7648    232.1360     96.8719   2.7406412265e+01   1.4163628120e+01    0.2915372    0.1781792  -3.83  0.001271163    2.417    0.586
       212 -12.5459     10.4309     81.4837   8.2790295202e+01   5.9258000644e+01     0.582639    0.2613944 -61.68  0.001015913    1.736    0.424
       213 -11.9435     72.8679     96.3740   6.3272647698e+01   4.8370208466e+01    0.3295336    0.2791094  80.84  0.001756732    1.279    0.218
       214 -10.1701    250.0768     93.9312   2.4410673351e+01   1.1120024627e+01     0.253687    0.1547774 -29.68  0.001345926    1.375    0.273
       215 -10.8834    173.5475     92.0030   3.5659235329e+01   2.7847208580e+01    0.4044895    0.2847328 -77.52  0.001740955    2.018    0.504
       216 -11.5086     96.5596     90.8953   5.4265034250e+01   4.5400521962e+01    0.5535186    0.4105813  73.38  0.002546958    1.714    0.416
       217 -10.0165     79.5674     91.0267   5.9656868249e+01   4.8523702224e+01    0.2223603    0.1950726 -30.89 0.0004405291    1.240    0.193
       218 -11.8437     12.0452     96.5832   8.4465739878e+01   5.5406471017e+01    0.4862155    0.1662658 -56.11  0.002066963    2.420    0.587
       219 -14.2011    194.9495     81.5949   2.8994381566e+01   2.4616636954e+01     1.545017     1.203367 -37.42  0.007962483    1.178    0.151
