#   1 NUMBER                 Running object number                                     
#   2 MAG_AUTO               Kron-like elliptical aperture magnitude                    [mag]
#   3 X_IMAGE                Object position along x                                    [pixel]
#   4 Y_IMAGE                Object position along y                                    [pixel]
#   5 X_WORLD                Barycenter position along world x axis                     [deg]
#   6 Y_WORLD                Barycenter position along world y axis                     [deg]
#   7 A_WORLD                Profile RMS along major axis (world units)                 [deg]
#   8 B_WORLD                Profile RMS along minor axis (world units)                 [deg]
#   9 THETA_WORLD            Position angle (CCW/world-x)                               [deg]
#  10 FWHM_WORLD             FWHM assuming a gaussian core                              [deg]
#  11 ELONGATION             A_IMAGE/B_IMAGE                                           
#  12 ELLIPTICITY            1 - B_IMAGE/A_IMAGE                                       
         1  -9.7319    189.6565     14.5076   6.4455083233e+01   3.6141827588e+01     0.567189    0.2423558 -43.01  0.002123928    2.375    0.579
         2 -13.0535    242.1330    107.8801   7.9496345021e+01   9.7607939651e+00     5.805552    0.7870488 -39.80    0.0138256    6.046    0.835
         3 -11.5652    186.2971      4.3116   6.2311889456e+01   3.7984404260e+01     1.514042    0.6921021  79.99  0.004344864    2.143    0.533
         4 -12.3407    171.6398     54.7716   7.7945154825e+01   3.5434934158e+01     2.805018     1.438302  81.32  0.009602161    3.347    0.701
         5 -11.4429    229.2542     31.6065   6.3940500588e+01   2.4687015271e+01    0.5585244    0.4478485  38.84   0.00185192    1.728    0.421
         6 -13.1201    219.7539     40.2124   6.6978892360e+01   2.5751601191e+01     3.190726     1.336663 -57.13   0.01178102    2.816    0.645
         7 -12.6011    125.4228     23.6647   7.7681059303e+01   5.0493391502e+01     2.143412    0.3637699  49.14  0.006440198    4.377    0.772
         8 -11.9507    119.1525      9.7774   7.4361530197e+01   5.3258657715e+01    0.7297716     0.627674  21.89  0.003816558    1.171    0.146
         9 -10.1458    239.2343     13.0649   5.9022676337e+01   2.4724982085e+01    0.2886752    0.1514272 -55.49  0.001167557    1.711    0.415
        10  -9.8546    222.0926     14.2777   6.0850867600e+01   2.8467418216e+01     0.513959    0.2179325 -62.51  0.002136117    2.755    0.637
        11 -10.1722    142.2763     15.6313   7.1801046266e+01   4.7439816469e+01    0.3247524    0.2311234 -36.29   0.00112985    1.580    0.367
        12 -11.0831    143.7248      9.1844   6.9584520648e+01   4.7708690711e+01    0.4289324    0.3775293   9.28  0.002111455    1.307    0.235
        13  -8.9802    144.2837      3.6313   6.7821623317e+01   4.8061796447e+01    0.2364229    0.1657681 -59.43 0.0007351268    1.721    0.419
        14  -9.5949    236.5301      6.8294   5.7975064848e+01   2.6038237895e+01    0.5079259    0.1872407 -42.98  0.001869023    2.389    0.581
        15 -10.9658    173.8320      3.0745   6.3491010731e+01   4.1088375253e+01    0.7532953    0.3353036  60.10  0.003607456    1.856    0.461
        16  -9.2577    247.5678      9.5838   5.7634538555e+01   2.3307810634e+01    0.2500236    0.1496011 -65.56 0.0005941176    1.442    0.307
        17  -7.8825    243.5155      8.4604   5.7734630922e+01   2.4316577924e+01    0.1240238   0.09652612 -78.11 7.934188e-05    1.003    0.003
        18 -10.1491    211.4009      2.8046   5.9339087868e+01   3.2192567062e+01    0.5061516     0.201406 -58.13  0.001247857    2.823    0.646
        19 -10.1009    125.5428     14.6537   7.4678786373e+01   5.1386137902e+01    0.3026321    0.2784319 -63.14  0.001552786    1.285    0.222
        20 -10.3945    249.6139      3.2263   5.6238999526e+01   2.3592402464e+01    0.3226214     0.199554 -47.58  0.001228158    1.482    0.325
        21 -11.5879    243.2224     17.6195   5.9609161395e+01   2.3301596874e+01    0.8128211    0.3816146 -56.85  0.001934185    1.964    0.491
        22  -8.9784      6.7645      3.0004   1.0945100029e+02   7.1767672642e+01    0.1373752   0.06784663 -35.29 -0.0003502165    1.679    0.405
        23  -8.4706    201.5452      1.5108   6.0003878021e+01   3.4630447138e+01    0.2688749    0.1062834  72.60  0.001207509    2.154    0.536
        24  -9.1415    194.3613    127.2417   9.2504814160e+01   1.6701982738e+01    0.2822034    0.1993781 -51.42  0.001282766    1.427    0.299
        25  -8.0956    156.9786    128.4746   1.0096290913e+02   2.5013937373e+01    0.2355911    0.1557296  47.23 0.0004534978    1.524    0.344
        26  -9.5485    231.2457    120.2801   8.4055844930e+01   9.8331131121e+00     0.319005    0.1845858 -47.56  0.001422423    1.642    0.391
        27 -11.8925    187.5602    100.1662   8.7108984595e+01   2.3663401959e+01     2.517405    0.4649793 -41.96  0.006149048    5.001    0.800
        28 -10.5626    186.8725     89.7602   8.4544404321e+01   2.5788035223e+01    0.8158717    0.5595123 -42.23  0.003772972    1.440    0.306
        29 -11.6773      4.4219    218.0787   1.4914928329e+02   2.8563711033e+01    0.5971295    0.4090638 -65.54  0.003585624    1.627    0.385
        30 -11.4859    176.6067     73.7211   8.2241531609e+01   3.1160294968e+01    0.8864697    0.6734754  61.46  0.002990826    1.284    0.221
        31  -9.7535    167.7991    113.2083   9.4633186280e+01   2.5771115410e+01    0.3832963    0.3039827 -80.12  0.001106679    1.512    0.338
        32  -9.7566    204.7558    110.3034   8.6361046441e+01   1.7641215681e+01    0.4114162    0.2543308  31.24  0.001647135    2.310    0.567
        33  -7.5259    199.7751     98.0232   8.4235138507e+01   2.1142024845e+01    0.1939666    0.1218724 -41.17 0.0002883863    1.547    0.354
        34  -8.8894    149.8074     95.5465   9.4049292810e+01   3.3586771189e+01    0.2870927     0.241306  -4.15 0.0006457743    1.453    0.312
        35  -8.5171    135.2778     93.5071   9.7031426690e+01   3.7309643232e+01     0.256931    0.2090975  71.86 0.0005887641    1.414    0.293
        36 -10.9511    158.7319     75.5358   8.6398064951e+01   3.5218169692e+01    0.3758106    0.2956102 -24.95 0.0007094411    1.425    0.298
        37  -9.0120    160.8031     80.5978   8.7381166136e+01   3.3814607755e+01    0.3430895    0.2619836 -89.90 0.0009188158    1.616    0.381
        38 -11.6068      4.2311    211.8920   1.4879246923e+02   2.9842431946e+01    0.4832414    0.3380669  78.52  0.002649697    1.060    0.057
        39  -9.4302    143.5503     84.7594   9.2502353013e+01   3.7134597558e+01    0.3249329    0.2754935 -38.78  0.000925501    1.195    0.163
        40  -7.5147    147.3893     77.4898   8.9497170531e+01   3.7579974916e+01    0.1465165    0.1451305   5.61   7.5355e-05    1.039    0.038
        41  -9.9034    207.8827     66.5434   7.4961849677e+01   2.4675604961e+01    0.9477876    0.4565125 -72.42  0.002637729    5.254    0.810
        42  -9.9985    208.6716     61.7859   7.3663068984e+01   2.5239376459e+01    0.9344859    0.3940406 -63.41  0.002550894    5.349    0.813
        43  -9.6341    199.9502     62.0585   7.5071621808e+01   2.7318509021e+01     0.403226    0.2654992 -58.54  0.001282382    1.588    0.370
        44 -10.2776    195.0170     58.7772   7.5015471936e+01   2.9040406752e+01    0.4321366     0.287516  46.38  0.001009964    1.651    0.394
        45 -10.9394    201.5192     54.9007   7.3015550881e+01   2.8034457645e+01    0.6226534    0.4219985 -84.21  0.001795173    1.665    0.400
        46  -9.8915    184.5145     67.2906   7.9035274605e+01   3.0282529737e+01    0.2652811    0.2516378  62.10 0.0002958431    1.092    0.084
        47 -10.3877    162.4460     85.6005   8.8420837962e+01   3.2500048102e+01    0.7022215     0.428873  34.45  0.002855962    2.060    0.515
        48  -8.5310    125.8639     61.3609   8.9823523063e+01   4.5278520994e+01     0.216618     0.191539 -44.64 0.0003849094    1.202    0.168
        49  -8.7281    244.4759     60.0128   6.8481634288e+01   1.7207842143e+01    0.2327535    0.1784453  52.39 0.0006011244    1.547    0.354
        50 -12.3359    136.6157     38.9904   8.0217372352e+01   4.6105228218e+01     1.385077    0.6082902  66.55   0.00516197    2.867    0.651
        51 -10.7301    217.9101     25.8294   6.3874587483e+01   2.8065254007e+01    0.5176223    0.3303715 -64.20  0.001668703    1.516    0.341
        52  -7.7555    100.2880     42.6643   9.0453702708e+01   5.3480236670e+01    0.1253885    0.1068599 -69.49 0.0001690889    1.631    0.387
        53  -8.1418     93.4989     41.4870   9.1994818972e+01   5.4958184500e+01    0.1315013    0.1185206  12.76 -3.893433e-05    1.030    0.029
        54  -7.4656    184.3251     40.3149   7.1863239333e+01   3.4344846465e+01     0.141016    0.1037839  35.82 0.0004229567    1.667    0.400
        55  -7.9856     20.6173    218.2219   1.4633590587e+02   2.6882324987e+01    0.1523666   0.08456922 -69.46 0.0005270595    1.647    0.393
        56  -8.5909    240.9452     37.9974   6.4097972348e+01   2.1179233336e+01    0.1939346     0.158137 -76.39  0.000384151    1.027    0.027
        57  -8.4141    202.1741     34.7294   6.7887170698e+01   3.0701987432e+01    0.2251875    0.1649086 -56.83 0.0005141912    1.337    0.252
        58  -9.9227    107.9643     33.9399   8.5328607600e+01   5.3083677542e+01    0.2330536    0.1824536 -22.16 0.0003768148    1.332    0.250
        59 -10.2410    183.7732     76.3814   8.1598884287e+01   2.8937229998e+01    0.8044471    0.4389038 -30.71  0.002224425    2.096    0.523
        60  -9.8670    168.7033    207.9726   1.1504989406e+02   5.7237691936e+00    0.2354033    0.2064622  42.50 0.0003542857    1.046    0.044
        61 -13.3262     33.7631    190.3981   1.4145981512e+02   3.1419765501e+01     1.159468     1.039893 -19.44  0.007938264    1.748    0.428
        62  -9.2017    146.1634     26.1229   7.4300898760e+01   4.5414426498e+01     0.268191      0.18906 -34.92  0.000943166    1.560    0.359
        63 -12.7052     47.3084    179.3039   1.3736819527e+02   3.2363504486e+01    0.9780899    0.8660872  68.32  0.003594868    1.192    0.161
        64  -7.7212    234.2479     19.6719   6.0850480449e+01   2.5052173050e+01    0.1305548   0.07818411 -64.23 0.0002331669    1.543    0.352
        65  -8.2662    191.0047    191.0291   1.0725152425e+02   4.6298727867e+00    0.2501689    0.1588178 -68.02  0.001020898    2.620    0.618
        66  -9.0130    115.7619    152.0717   1.1647301351e+02   2.8233399792e+01    0.2309416     0.205602  56.91 0.0002359063    1.125    0.111
        67  -8.0007    118.0000    239.9644   1.3016677565e+02   8.7932264363e+00    0.1875707    0.0725847 -57.97 0.0007998022    2.924    0.658
        68 -12.2074    244.6325    121.4399   8.2146390520e+01   6.8298656963e+00     1.446999    0.6962641 -28.81  0.003265612    2.534    0.605
        69  -8.2254    241.3000    237.3291   1.0616554999e+02  -1.1579123103e+01    0.1253569    0.0811224   4.43   0.00053459    1.642    0.391
        70  -8.4529    231.5090     15.4857   6.0217549113e+01   2.6171881386e+01    0.2410468    0.1143038 -36.82  0.001195561    2.122    0.529
        71  -8.5552    211.0974     15.0345   6.2137579926e+01   3.0950970580e+01     0.191304      0.16407 -87.11 0.0006510625    1.052    0.049
        72 -10.2426     67.7855    144.1896   1.2727828330e+02   3.8035134263e+01    0.6291109    0.3664581  58.48  0.002194553    2.066    0.516
        73 -10.6718    130.9112     18.4818   7.4846504976e+01   4.9791429961e+01    0.4807205    0.1737226  58.83  0.001966592    2.365    0.577
        74  -8.3011    181.0251    145.0376   9.9516651583e+01   1.6037291334e+01    0.2188173    0.2180444  66.86 0.0003068676    1.017    0.016
        75 -10.6273    239.7229     64.2731   7.0002587788e+01   1.7605914976e+01    0.5437601    0.5040542  80.62  0.001280081    1.180    0.153
        76 -10.1320    227.4376    138.7471   8.8917526928e+01   7.1995770281e+00    0.2602957    0.2408779 -55.78 0.0003539954    1.097    0.088
        77  -9.5197    188.5393    137.4304   9.6137780350e+01   1.5941743033e+01     0.284548    0.2378496 -51.15  0.001410721    1.190    0.159
        78  -8.6271    113.8689    136.9886   1.1370881415e+02   3.2149099540e+01    0.2176376    0.2047331 -70.19 0.0003356506    1.012    0.012
        79  -8.3428     22.8647    231.7097   1.4689035914e+02   2.3910742756e+01    0.1532547    0.1231149  83.61  0.001152812    1.206    0.171
        80  -8.4415    203.3216    130.3285   9.1465847490e+01   1.4051363062e+01    0.1550556    0.1221878   4.15 0.0003971831    1.690    0.408
