#   1 NUMBER                 Running object number                                     
#   2 MAG_AUTO               Kron-like elliptical aperture magnitude                    [mag]
#   3 X_IMAGE                Object position along x                                    [pixel]
#   4 Y_IMAGE                Object position along y                                    [pixel]
#   5 X_WORLD                Barycenter position along world x axis                     [deg]
#   6 Y_WORLD                Barycenter position along world y axis                     [deg]
#   7 A_WORLD                Profile RMS along major axis (world units)                 [deg]
#   8 B_WORLD                Profile RMS along minor axis (world units)                 [deg]
#   9 THETA_WORLD            Position angle (CCW/world-x)                               [deg]
#  10 FWHM_WORLD             FWHM assuming a gaussian core                              [deg]
#  11 ELONGATION             A_IMAGE/B_IMAGE                                           
#  12 ELLIPTICITY            1 - B_IMAGE/A_IMAGE                                       
         1 -11.9399    178.7568     69.0826   8.4771694743e+01   3.1310350218e+01     1.833948    0.7732379 -45.12   0.00607377    2.998    0.666
         2 -11.3501    166.5253     54.7140   8.2729903330e+01   3.6543396376e+01     1.724563    0.9571075 -71.18  0.003897414    7.846    0.873
         3 -11.6472    197.1606     49.3581   7.5206098370e+01   2.9494842663e+01      1.78149    0.9101728 -60.36 0.0009793198    4.104    0.756
         4 -11.8580    233.8355      5.6579   5.7508791470e+01   2.4916986593e+01    0.9652287     0.422997 -51.73   0.00385961    2.629    0.620
         5 -10.6981    224.3041      7.2526   5.8841051311e+01   2.7130440321e+01    0.7752783    0.4603131 -73.72  0.002144196    2.114    0.527
         6 -12.9027    219.5777     34.1376   6.7241883584e+01   2.5637977834e+01     5.620775     2.110674 -53.04   0.01501642    5.484    0.818
         7 -12.0604    221.5992     13.6596   6.0973913811e+01   2.7225520844e+01     1.735604    0.4292583 -47.13  0.004127944    6.830    0.854
         8 -11.5916    232.9669     15.2853   6.0272826266e+01   2.4253173413e+01    0.5607883    0.3518579  31.02  0.001520751    1.829    0.453
         9  -9.0370    171.6970     17.3559   6.8769948586e+01   3.9991929650e+01    0.3807765     0.212585 -43.52  0.001347537    2.020    0.505
        10  -9.4360    176.4749      9.4668   6.5240095247e+01   3.9486419986e+01    0.5114231    0.1806759 -35.74  0.001769946    2.816    0.645
        11 -10.1765    172.4274      3.1320   6.3578788115e+01   4.1143881178e+01    0.5841533    0.4344986 -60.98  0.002557742    1.590    0.371
        12  -8.3776    115.9818     12.3071   7.8254183322e+01   5.4862037661e+01    0.2834032    0.1831074  39.23  0.001158085    1.456    0.313
        13 -10.1905    120.4456      8.9322   7.5622022011e+01   5.4172426415e+01    0.4583684    0.3483841  36.63  0.001554891    1.209    0.173
        14 -12.7120    223.8180     23.3101   6.3545500958e+01   2.5725612892e+01     1.237476     0.940843 -61.91  0.005713888    1.497    0.332
        15  -7.9055    150.3910      8.5400   6.9146275166e+01   4.6565999512e+01    0.1489942    0.1366002  21.17 3.144509e-05    1.023    0.022
        16  -9.5044    248.7647      2.6414   5.5468817443e+01   2.1633122245e+01    0.3982301    0.2847639 -66.23  0.002220796    1.496    0.332
        17  -8.7581     31.4620      3.1366   1.0638099839e+02   7.1203508334e+01    0.2782851    0.1070082 -51.90  0.001129422    3.195    0.687
        18  -9.1725      2.5785      3.2673   1.2311736287e+02   7.3382063255e+01    0.2279657   0.09359442 -63.43  0.001152967    2.188    0.543
        19  -9.8628     14.6527     11.1378   1.1927923416e+02   7.1141632976e+01    0.2621462    0.1318276 -65.28  0.001341503    2.208    0.547
        20  -7.9508    192.4713    144.4572   1.0141164216e+02   1.6353925082e+01    0.1395783    0.1207254  21.27 7.577671e-05    1.025    0.025
        21  -9.2849     57.0300    249.7908   1.3955491035e+02   2.0725607636e+01    0.1361105    0.1078596  69.85  0.000332596    1.223    0.182
        22  -7.6378    133.6371    143.3111   1.1370656020e+02   2.7671754854e+01    0.1380152    0.1023542  71.60 0.0007040355    1.751    0.429
        23 -10.1027    241.2076    141.7454   9.1926912313e+01   7.3553393380e+00    0.2713955    0.1670544  -8.86  0.001207655    1.582    0.368
        24  -8.6812    189.9889    135.9667   1.0006933053e+02   1.8132656179e+01    0.2109639    0.1826001  14.54 0.0003198616    1.030    0.029
        25 -10.7408    236.1906    128.0345   8.9708182345e+01   9.9947342679e+00    0.4465013    0.2406511  36.21 0.0005200274    1.723    0.420
        26 -12.2786    240.3766    109.4281   8.4609309291e+01   1.1514716699e+01     1.346889    0.7323564 -14.91  0.006142236    1.839    0.456
        27  -9.0170    201.9672    125.6949   9.5364390360e+01   1.7235823196e+01    0.2050968    0.1694641  32.60    0.0005408    1.132    0.117
        28 -10.0540    185.4616    120.4461   9.7416840426e+01   2.1509321650e+01    0.3727082    0.2270173 -12.07  0.001597231    2.100    0.524
        29  -7.9998    200.9294    116.4441   9.3348348547e+01   1.8837812653e+01    0.1902823    0.1333469  74.14 0.0008073744    2.507    0.601
        30  -8.4923    182.5778    113.2433   9.6256557890e+01   2.3293473412e+01    0.2622616    0.1732644  17.14  0.000852377    1.787    0.440
        31 -10.5331    186.3420    111.6714   9.5082383908e+01   2.2731928697e+01    0.5033957    0.2683401 -50.07  0.001942415    2.684    0.627
        32 -10.1048    186.4901    108.5055   9.4250783547e+01   2.3209116037e+01    0.2414667    0.2161469   0.02 -4.395593e-05    1.050    0.048
        33  -9.3610    167.7729    113.3780   9.9474744716e+01   2.6447992155e+01    0.2820775    0.2604659  55.71 0.0004424178    1.225    0.184
        34  -9.7655    204.8161    110.2262   9.1056988788e+01   1.8929230538e+01     0.375061    0.2363934  45.79  0.001763241    1.550    0.355
        35  -8.3463    122.2956    129.9692   1.1379633432e+02   3.2207544622e+01    0.1751809    0.1669829 -44.03 0.0003054767    1.094    0.086
        36 -10.8711    186.6945     93.5507   9.0251860803e+01   2.5562137489e+01    0.5930775    0.2973292 -38.88  0.002366059    2.069    0.517
        37  -8.7039    150.6132     92.3215   9.7931989144e+01   3.3926999067e+01    0.3678943    0.2390608  13.25  0.001208832    2.181    0.541
        38  -8.4525    135.8339     91.0707   1.0125605400e+02   3.7310926464e+01    0.2184338    0.2010754 -80.72 0.0006096359    1.299    0.230
        39 -11.3552    242.2338     83.6377   7.7821615998e+01   1.4371480009e+01    0.6251893    0.4676414 -60.61  0.003130333    1.962    0.490
        40 -10.9380    236.9889     78.2135   7.7180496124e+01   1.6199356744e+01    0.6467392    0.4065998   7.87  0.002956142    1.808    0.447
        41  -8.8098    231.8137     79.3212   7.8264547781e+01   1.7215364684e+01    0.3059074    0.2417662  47.39  0.001627206    1.328    0.247
        42  -9.5049    159.8723     83.6610   9.3278756284e+01   3.3406835402e+01    0.3869739     0.269544  -1.47 0.0009113079    1.786    0.440
        43  -9.7025    163.5781     80.3053   9.1442552135e+01   3.3127915184e+01    0.3000723    0.2736052  22.67 0.0008790745    1.046    0.044
        44  -9.7805     81.0788    246.7227   1.3570376356e+02   1.8476696815e+01     0.143557    0.0952677  48.57  0.001178749    1.098    0.089
        45  -9.7526    144.4268     80.6760   9.6105475906e+01   3.7429068576e+01    0.3449288    0.2716692 -38.79 0.0009955509    1.282    0.220
        46 -11.4805      2.8573    234.4968   1.4694106911e+02   2.7940380079e+01    0.4916359    0.1929915 -84.56  0.003621027    2.353    0.575
        47 -11.0731    159.9257     69.3517   8.8924465295e+01   3.5839325180e+01    0.4000888    0.2841626 -14.23 0.0007070837    1.507    0.337
        48 -10.4481    203.3192     42.9967   7.2235688048e+01   2.8725482377e+01     0.447836    0.2739751  25.38  0.001691339    1.902    0.474
        49  -9.5090    206.8489     65.4504   7.8430935476e+01   2.4926222645e+01      0.52588    0.3116198 -61.08   0.00193911    2.950    0.661
        50  -9.2679    202.0227     60.5364   7.7798745341e+01   2.6783398444e+01    0.4897203    0.3054366 -71.35  0.001791142    3.058    0.673
        51 -10.2754    208.0594     61.3222   7.7013798377e+01   2.5185724590e+01      0.98444    0.5176954 -61.93  0.002962412    4.504    0.778
        52  -9.1073    124.3968    238.1629   1.2806080798e+02   1.4176015274e+01    0.1206207   0.09307135  87.51 0.0005284277    1.662    0.398
        53  -8.3882    190.5287     65.8796   8.1482230323e+01   2.8885646432e+01    0.2158141    0.1946144  26.99 0.0004236253    1.065    0.061
        54  -8.5270    236.6677    234.6667   1.0925904955e+02  -1.4611540515e+00     0.115447   0.06002828  18.91 0.0005702814    1.729    0.422
        55  -8.4823     34.9454    227.8272   1.4188811466e+02   2.6067311939e+01    0.1253524    0.1041446  66.25 0.0005366954    1.252    0.201
        56 -12.8162     22.4254    213.9700   1.4327358166e+02   2.9354183990e+01    0.6386791    0.3809035  58.28    0.0025555    1.215    0.177
        57 -13.0579     41.0116    196.2865   1.3921918922e+02   3.0487116252e+01     1.035059     0.851481 -30.96  0.008100812    2.067    0.516
        58  -9.8380    186.0744     58.7952   8.0137735683e+01   3.1019352672e+01    0.2892299    0.2557019  28.43 0.0003613645    1.083    0.076
        59  -7.4238     72.7507     58.3542   1.1053362997e+02   5.5313624484e+01     0.131418    0.1043229 -74.68 0.0002888355    1.596    0.373
        60  -8.9892    131.0857     54.1150   9.0951586088e+01   4.5178585225e+01     0.249732    0.2132405 -23.60 0.0004330868    1.123    0.110
        61  -9.5824    245.8875     52.8609   6.9165705427e+01   1.7245678767e+01     0.253486    0.2018225  38.10 0.0004985884    1.292    0.226
        62  -8.1815     87.2689     58.4362   1.0560340448e+02   5.3052138984e+01    0.2250905    0.1643524 -62.77 0.0005930028    1.679    0.404
        63 -11.9380    179.3799     46.6004   7.7476846642e+01   3.4427688053e+01    0.6726755    0.3734161  -4.67  0.001743733    2.345    0.574
        64  -8.4802    249.8599     48.3638   6.7482804741e+01   1.6856062814e+01    0.2411711     0.171573 -31.46  0.000721696    1.297    0.229
        65  -7.7179    216.3663     49.6893   7.2278890187e+01   2.4623601628e+01    0.1542692    0.1114658 -59.27 0.0007038059    1.759    0.432
        66 -10.9828    144.5677     40.9845   8.2829098343e+01   4.4077181289e+01    0.9065351     0.414164  70.92   0.00247303    4.927    0.797
        67  -9.4732    144.3199     59.2402   8.9331082824e+01   4.1243693983e+01    0.3359776    0.2595142 -51.11 0.0006700329    1.521    0.342
        68  -9.6715    130.9563     38.0007   8.5053899403e+01   4.7821881867e+01    0.2406593    0.1917471 -65.20  0.001137793    1.726    0.421
        69  -9.9198    245.6928     35.9105   6.4618450282e+01   1.9153974715e+01    0.3834223    0.2436164 -60.50   0.00126177    2.000    0.500
        70  -8.8001    123.3284     37.3270   8.6808979159e+01   4.9705480041e+01    0.1625706    0.1107262  14.81 0.0004296644    1.704    0.413
        71  -8.1625    159.8022     31.1873   7.5924376626e+01   4.1544996976e+01    0.3849161    0.1841109   7.66  0.001088871    4.207    0.762
        72  -8.1265    168.5027     36.4883   7.6110017218e+01   3.8595325514e+01    0.1552538    0.1460164  12.98 7.076369e-05    1.022    0.022
        73 -10.4226    141.2133     30.5174   7.9662482857e+01   4.6391163773e+01    0.2831024    0.2434737  -4.96  0.000255143    1.111    0.100
        74  -9.4374    179.0181     24.1745   6.9963044140e+01   3.7300188477e+01    0.6201378    0.2979505  49.78  0.002450784    1.943    0.485
        75  -8.4093    193.5533     23.5770   6.7531123810e+01   3.3503931120e+01    0.3520338    0.1939875 -55.80 0.0009861719    2.443    0.591
        76  -8.7228     54.7162    205.4046   1.3737191350e+02   2.7551330192e+01    0.1280869   0.08691808  34.72  0.000548011    1.571    0.364
        77  -8.5034     36.5147     21.5126   1.1227093884e+02   6.7276315499e+01    0.1274412    0.1015855 -36.10 -8.41183e-06    1.029    0.028
        78  -9.1010    249.3377     18.6629   5.9631424075e+01   2.0049113390e+01    0.2764467    0.1727279 -52.07   0.00138579    1.707    0.414
        79 -11.5213     53.6940    184.2302   1.3604466915e+02   3.1268811086e+01    0.6118863    0.5564907 -57.89  0.004992048    1.460    0.315
        80  -8.7903     42.0082     15.3258   1.0697473603e+02   6.7858485225e+01    0.1957544   0.09561419   5.15 0.0007051335    4.340    0.770
        81  -9.9596    179.2859    199.1690   1.1375571850e+02   1.1047608294e+01    0.2041149    0.1549763  36.56 0.0002022272    1.079    0.073
        82  -8.4114    101.0048    175.9452   1.2579165231e+02   2.6871649367e+01    0.1618645     0.139803  54.22            0    1.028    0.027
        83  -7.9445    235.9935    174.4998   9.9466455491e+01   4.4920007033e+00    0.1605251    0.1087745  60.24 0.0008105579    2.671    0.626
        84  -8.3017    213.2035    167.1032   1.0205269118e+02   9.3403951678e+00    0.2309606    0.1661655  61.91  0.001074077    2.204    0.546
        85  -8.0405      8.0412    154.2084   1.4304852978e+02   4.0992963682e+01    0.1166265   0.07640272  34.98 0.0004325277    1.676    0.404
        86  -8.7311     10.1477    147.8520   1.4226149278e+02   4.2072457096e+01    0.1322324    0.1074561 -72.66 0.0005247943    1.305    0.234
        87  -8.1109    177.6613    147.3141   1.0498332980e+02   1.8792485536e+01    0.1308888    0.1101499  76.68  0.000704715    1.697    0.411
        88 -10.0269     67.4967    144.2357   1.2919668157e+02   3.7351094175e+01    0.4860451    0.2684853  56.62  0.001732742    1.860    0.462
        89  -9.2205    125.0282    144.9755   1.1596350598e+02   2.8846022946e+01    0.1876273    0.1748748  45.68  0.001180376    1.005    0.005
