#   1 NUMBER                 Running object number                                     
#   2 MAG_AUTO               Kron-like elliptical aperture magnitude                    [mag]
#   3 X_IMAGE                Object position along x                                    [pixel]
#   4 Y_IMAGE                Object position along y                                    [pixel]
#   5 X_WORLD                Barycenter position along world x axis                     [deg]
#   6 Y_WORLD                Barycenter position along world y axis                     [deg]
#   7 A_WORLD                Profile RMS along major axis (world units)                 [deg]
#   8 B_WORLD                Profile RMS along minor axis (world units)                 [deg]
#   9 THETA_WORLD            Position angle (CCW/world-x)                               [deg]
#  10 FWHM_WORLD             FWHM assuming a gaussian core                              [deg]
#  11 ELONGATION             A_IMAGE/B_IMAGE                                           
#  12 ELLIPTICITY            1 - B_IMAGE/A_IMAGE                                       
         1 -13.7248    197.3681     26.0606   6.7785355017e+01   3.2231053753e+01     2.018121      1.50221  17.12  0.008086545    1.428    0.300
         2 -13.4822    212.2018      7.4713   6.0133852957e+01   3.0188713576e+01     1.100201    0.9046322  38.50  0.005185681    1.232    0.189
         3 -12.0478      2.3302      6.7103   1.2454221260e+02   7.2706513579e+01     0.936294    0.2169604 -56.29  0.004171883    2.576    0.612
         4 -11.0875    101.9049    247.0191   1.3244674542e+02   1.5942460975e+01    0.2533567    0.1385212 -69.66  0.001819478    2.431    0.589
         5 -12.0002    172.5130    248.7569   1.2127031789e+02   6.3143863950e+00    0.4533145    0.1718431  46.43  0.002510607    2.181    0.542
         6 -11.5931    138.9912    249.7065   1.2674798886e+02   1.0815795488e+01    0.3064253    0.1691147  52.27  0.002117765    1.598    0.374
         7 -11.0439    139.4843    245.4801   1.2627134730e+02   1.1242571427e+01    0.1668544     0.137694  19.97  0.001295309    1.420    0.296
         8 -12.0454    123.8307    249.5167   1.2915569919e+02   1.2843732589e+01    0.4287159    0.1505982  38.86  0.002416547    2.148    0.534
         9 -10.9631     46.4160    249.0895   1.4110051400e+02   2.1914016077e+01    0.2093245     0.142542  68.74  0.001904526    1.186    0.157
        10 -11.1425     51.3752    246.0179   1.4021789091e+02   2.1825976663e+01    0.3121277    0.1771715  86.00  0.002513319    1.790    0.441
        11 -12.6515     33.6184    246.8385   1.4288540583e+02   2.3476723387e+01    0.6824059    0.4910173 -61.60  0.006184454    2.044    0.511
        12 -14.3632    103.8949    229.3972   1.3071363066e+02   1.8042439823e+01     4.397368          nan  42.17  0.009181371   14.740    0.932
        13 -11.2383     98.4636    249.5496   1.3317558776e+02   1.6042072875e+01    0.2813046    0.1331419  44.87  0.001947683    1.485    0.326
        14 -12.6524     48.2533    216.7106   1.3917381027e+02   2.6431150538e+01    0.5396729    0.4671935  80.47  0.003356698    1.284    0.221
        15  -9.7838     54.8677    229.5137   1.3881606492e+02   2.3800589635e+01     0.156465   0.09558095  62.20 0.0006138055    1.272    0.214
        16 -11.9524      9.2570    236.6483   1.4607791575e+02   2.7100278616e+01    0.3132918    0.1316398 -86.26  0.002351461    2.221    0.550
        17 -15.0891     11.9935    148.9619   1.4194187227e+02   4.1719831212e+01     8.708682     2.558699  83.80   0.03338071    4.830    0.793
        18 -11.9454     13.0368    240.6502   1.4565163258e+02   2.6209455622e+01    0.2249599    0.1487476  53.69  0.002111192    1.158    0.136
        19 -11.4908     21.9952    126.5203   1.3807865852e+02   4.5520367676e+01    0.3656599    0.1781455  54.54  0.001164207    2.032    0.508
        20 -10.3698     82.0099    243.9704   1.3537981939e+02   1.8735534829e+01     0.131186     0.112863  18.05 0.0009253421    1.728    0.421
        21  -9.8388    172.8301    222.1622   1.1808057395e+02   9.2180225975e+00      0.16182    0.1126949  22.55  0.001099456    1.382    0.277
        22 -12.9617     33.3838    234.9200   1.4243761159e+02   2.5177402437e+01     0.222141    0.1828779  71.25  0.000789314    1.269    0.212
        23  -8.2046    221.7323    213.6912   1.0857119193e+02   2.6518812504e+00    0.1145426    0.0689861  16.54 0.0002399835    1.538    0.350
        24  -9.0352    152.5052    213.0023   1.2050048353e+02   1.3448686295e+01    0.1306674    0.1153663 -43.60 0.0003158765    1.457    0.314
        25 -12.3651      9.8459    206.8832   1.4502671751e+02   3.1563887511e+01    0.5436659    0.2939807  33.06  0.002920213    1.977    0.494
        26 -11.7402     60.1814    200.5130   1.3605861953e+02   2.7759417167e+01    0.2013078    0.1805813  86.91 0.0005470958    1.272    0.214
        27  -9.7083    193.6944    196.3878   1.1071962886e+02   9.0363168973e+00    0.5573288    0.3152702 -62.96    0.0015208   11.748    0.915
        28 -10.4997     15.8768    197.7121   1.4366963101e+02   3.2560077955e+01     0.259955    0.1073738  47.33  0.001184773    1.832    0.454
        29 -12.0646     66.6623    191.9183   1.3419702101e+02   2.8476754886e+01    0.2133778    0.1914795  85.56 0.0004843635    1.218    0.179
        30 -13.9582     38.0881    228.4342   1.4142354673e+02   2.5671820955e+01    0.5694754    0.3869793  61.83  0.002369866    1.045    0.043
        31 -13.2441     63.6527    176.9669   1.3348967077e+02   3.1471034763e+01    0.3966526    0.2389605 -47.59  0.001741987    2.267    0.559
        32 -10.8582     77.0713    178.6299   1.3095909065e+02   2.9567054490e+01    0.1899293    0.1670634  71.53 0.0003427596    1.081    0.075
        33  -9.4486     98.8010    175.6167   1.2620455859e+02   2.7239624755e+01    0.2244162     0.141959  61.32 0.0007169359    1.612    0.380
        34 -11.9198     84.7658    169.2647   1.2837090606e+02   3.0297293056e+01    0.5631825    0.4999911  -4.37  0.003944056    1.562    0.360
        35 -11.7909      3.5862    248.6356   1.4719446361e+02   2.5903144486e+01    0.3313585    0.2333933  54.39  0.003213777    1.221    0.181
        36 -10.2658     97.3037    153.4015   1.2360459726e+02   3.1580144077e+01     0.267137    0.2532482  53.82 0.0008095796    1.100    0.091
        37  -9.4946    100.1346    149.0839   1.2232892379e+02   3.2005596892e+01    0.2256321    0.1975108  -4.06 0.0004039822    1.470    0.320
        38 -12.0765     85.8911    152.4291   1.2604007690e+02   3.3364039986e+01     0.251134    0.2206064 -45.65 0.0006104856    1.342    0.255
        39 -12.2022     67.3943    143.5685   1.2913775907e+02   3.7499495777e+01    0.5983768    0.3569051  62.33  0.002840566    1.771    0.435
        40 -10.6924     81.4253    248.9588   1.3579195346e+02   1.8141836029e+01    0.2148142    0.1130974  56.05  0.001591791    1.484    0.326
        41  -9.9707    109.2389    137.7909   1.1837222729e+02   3.2834046157e+01    0.3829998    0.2555685 -20.20  0.001540191    2.496    0.599
        42 -10.4634     96.3350    135.3066   1.2104567828e+02   3.5320327187e+01    0.2177515    0.2088807 -21.31 0.0004581131    1.200    0.166
        43 -10.7615     31.3078    131.5629   1.3631800240e+02   4.3704849751e+01    0.2285524    0.1683311  63.43 0.0005837765    1.264    0.209
        44  -8.4548    115.2961    130.3307   1.1555646474e+02   3.3330808060e+01     0.132411    0.1055992 -11.68 0.0003200882    1.637    0.389
        45  -9.0611    106.3965    124.1749   1.1657157301e+02   3.6044932864e+01     0.171656      0.15651 -67.83    0.0003482    1.104    0.094
        46  -8.3373    167.5419    112.5390   9.9318469740e+01   2.6642962858e+01    0.1456082    0.1388052  21.59 0.0003282031    1.084    0.077
        47 -10.5700    157.9385     75.8908   9.1408369992e+01   3.5201934490e+01    0.2794594    0.2241462 -27.11 0.0006927122    1.225    0.184
        48 -11.1857     22.6812    237.3942   1.4413896521e+02   2.5817975147e+01    0.2050358    0.1634013  46.40  0.001774048    1.415    0.293
        49  -8.3067     38.6570     65.3157   1.2452437650e+02   5.7714391885e+01    0.1236111   0.09073632  76.12 0.0007048156    1.712    0.416
        50 -11.7937     21.2506    243.8957   1.4457282550e+02   2.5030481589e+01    0.2949831    0.1395149  63.20  0.001763294    1.536    0.349
        51 -11.5761     11.6653     54.1297   1.3216339468e+02   6.2113303348e+01    0.2542125     0.236199 -89.68  0.001027565    1.241    0.194
        52 -11.5065    237.8349    247.5383   1.1085273760e+02  -2.6641256079e+00    0.2581742    0.2177806  34.92  0.002173818    1.634    0.388
        53 -12.0336    145.4855    249.2015   1.2565833888e+02   9.9971489827e+00    0.3547178    0.2947904   3.06  0.002980779    1.611    0.379
