#   1 NUMBER                 Running object number                                     
#   2 MAG_AUTO               Kron-like elliptical aperture magnitude                    [mag]
#   3 X_IMAGE                Object position along x                                    [pixel]
#   4 Y_IMAGE                Object position along y                                    [pixel]
#   5 X_WORLD                Barycenter position along world x axis                     [deg]
#   6 Y_WORLD                Barycenter position along world y axis                     [deg]
#   7 A_WORLD                Profile RMS along major axis (world units)                 [deg]
#   8 B_WORLD                Profile RMS along minor axis (world units)                 [deg]
#   9 THETA_WORLD            Position angle (CCW/world-x)                               [deg]
#  10 FWHM_WORLD             FWHM assuming a gaussian core                              [deg]
#  11 ELONGATION             A_IMAGE/B_IMAGE                                           
#  12 ELLIPTICITY            1 - B_IMAGE/A_IMAGE                                       
         1 -14.5787     69.0576    145.5513   1.0723969184e+02   3.6787450576e+01     4.349389     1.898991  64.90   0.00411852    5.980    0.833
         2 -14.4280    201.8462     36.0907   4.6751815362e+01   3.0364836420e+01     2.121202     1.431829  29.22   0.01012166    2.071    0.517
         3 -14.1187    218.9225     19.2131   4.0467677422e+01   2.8320971498e+01     1.027729    0.8912633  -1.09  0.002809152    1.492    0.330
         4 -10.7791      2.3651      3.4923   9.4333739334e+01   7.3791104299e+01    0.3116784   0.08203888 -47.52  0.001405443    3.124    0.680
         5 -10.6262     60.4961      3.0275   6.5539581735e+01   6.6613057063e+01    0.1831832    0.1092447 -20.11  0.001038708    1.607    0.378
         6 -11.0855    241.3707      1.5605   3.4525362420e+01   2.5167832232e+01    0.4908932    0.1317322  74.47  0.001913973    3.545    0.718
         7 -13.0514    210.6396    190.9558   8.2878666016e+01   2.1774809271e+00    0.8608249    0.6557629  11.13  0.003919632    1.272    0.214
         8 -11.7798    219.5337    249.0921   9.1253653749e+01  -7.4028037186e+00    0.4265366    0.2602092  24.78  0.002104033    1.332    0.249
         9 -15.9075    160.2716    233.4643   9.9989520968e+01   3.8478073198e+00     5.410973      2.05985  38.92   0.02069361    2.204    0.546
        10 -15.9043      7.3351    161.2572   1.2436798449e+02   3.9515301641e+01     5.089204     1.533104 -78.12   0.02189075    2.752    0.637
        11 -11.9424    205.9902    200.0220   8.5494828358e+01   1.5256812547e+00    0.3608183     0.296005 -30.50  0.001492473    1.285    0.222
        12 -11.8403    193.3858    194.8962   8.7024058615e+01   4.5597424534e+00    0.8436058    0.4593447 -62.59  0.002838039    4.881    0.795
        13  -9.6251    112.3168    197.6576   1.0479938630e+02   1.8305615529e+01    0.1420127   0.09688925  70.94 0.0007048668    1.713    0.416
        14 -10.3372     66.9930    195.5313   1.1445397654e+02   2.5503286656e+01     0.337206    0.1852646  66.04  0.001222398    1.948    0.487
        15  -9.7144    146.6999    184.3518   9.4986920502e+01   1.5046354263e+01    0.1434175    0.1108439  78.61 0.0007037534    1.695    0.410
        16 -11.4239    196.5178    180.6678   8.3641332720e+01   6.4466121635e+00    0.5524181    0.3232841  -2.54  0.002090853    3.130    0.681
        17  -9.6458     99.3275    180.9016   1.0527192409e+02   2.4002320026e+01    0.1865209    0.1723731 -77.06   0.00057242    1.098    0.089
        18 -12.1431     65.1984    178.8588   1.1292509532e+02   2.9442123705e+01     0.406235    0.2829101 -38.77  0.002167386    1.980    0.495
        19 -12.0371     70.0713    173.5181   1.1110740383e+02   3.0014503530e+01    0.3452992    0.2900473 -23.42 0.0009970865    1.659    0.397
        20 -11.4016     41.8625    179.1707   1.1825099291e+02   3.2198574174e+01    0.2995622    0.1906926  49.12  0.001298495    1.503    0.334
        21 -11.3701     45.2265    176.6084   1.1723434053e+02   3.2401506298e+01    0.3015244    0.2667591  24.78  0.001192226    1.462    0.316
        22 -13.5033     66.7609    159.7510   1.1001444169e+02   3.3684707158e+01    0.5071658    0.3531144 -51.23  0.001401339    1.503    0.335
        23 -13.6843     57.6077    130.0788   1.0777763938e+02   4.2034368764e+01     2.491825    0.8306385 -73.32  0.006625684    5.639    0.823
        24 -11.8247     79.3249    163.8454   1.0749366824e+02   3.0969051072e+01    0.3501424    0.2907205  54.96 0.0003620421    1.184    0.156
        25 -12.4388     85.8352    157.2168   1.0480585977e+02   3.1567431317e+01    0.8430198    0.5110113 -39.20  0.001168831    2.100    0.524
        26 -13.2063    210.6759    239.8404   9.1412518787e+01  -4.9625897601e+00    0.7990167    0.6342041 -25.48  0.003633814    1.406    0.289
        27 -10.0704    134.2380    148.2346   9.0820254607e+01   2.5164292261e+01    0.3807957    0.1485859 -54.47  0.001260489    2.892    0.654
        28 -10.7829    133.5330    141.2953   8.9473250255e+01   2.6867532646e+01    0.5999489    0.2371282 -55.66   0.00193607    3.043    0.671
        29 -16.5937     11.4754    240.7436   1.2829246846e+02   2.2846297943e+01     2.721476     1.964153  45.88   0.02144162    1.436    0.304
        30 -10.5408    100.9518    141.4586   9.7963664638e+01   3.2883908443e+01    0.5460422    0.3143511 -30.62  0.002087672    2.697    0.629
        31 -12.1720     87.9979    141.5606   1.0145578724e+02   3.4983983447e+01    0.2911327    0.2410821 -46.89 0.0003779276    1.236    0.191
        32 -10.1510     81.6560    141.4068   1.0313874608e+02   3.5994695835e+01    0.2956864     0.206268  74.46 0.0007062147    1.741    0.426
        33 -10.6493     31.3671    137.8010   1.1614461400e+02   4.2967755500e+01    0.2030598    0.1601005  55.53 0.0006593753    1.348    0.258
        34 -13.5215      7.4739    188.9235   1.2625880633e+02   3.3426024125e+01    0.8383729    0.3361915 -56.65  0.004227783    2.838    0.648
        35  -9.9865    110.4582    131.3292   9.3248757458e+01   3.3602771187e+01     0.290978    0.2363977  -7.61  0.001031676    1.577    0.366
        36 -10.0921    106.0173    130.9802   9.4376836911e+01   3.4491092183e+01    0.3197558     0.269867 -77.60  0.001206228    1.266    0.210
        37 -15.3042     70.5353    248.1734   1.1864432721e+02   1.4735997584e+01     4.520489    0.9633429  34.55   0.01156249    6.317    0.842
        38 -15.0178      9.1412    207.7039   1.2704141875e+02   2.9384729380e+01     1.099369    0.9700251 -31.14  0.004401797    1.859    0.462
        39 -11.6069     33.1274    156.4249   1.1790137649e+02   3.8367260343e+01    0.3034377    0.2045799  49.22  0.001166792    1.515    0.340
        40 -11.4718     54.1460    148.5512   1.1162191687e+02   3.7959304995e+01    0.3898088    0.1745939 -55.94  0.001739282    2.024    0.506
        41 -10.7391     97.7885    127.5293   9.5885203080e+01   3.6755663012e+01    0.3052385    0.2459753  -4.71  0.001058543    1.614    0.380
        42  -9.2235    125.7011    127.3402   8.8252647249e+01   3.1608637735e+01    0.1575238    0.1230727 -89.79 0.0004066798    1.665    0.399
        43 -10.0945    116.8171    125.6675   9.0220965742e+01   3.3734281035e+01    0.3005238    0.1833546 -60.05 0.0009856184    1.799    0.444
        44  -9.2391     91.0998    123.9912   9.6993685633e+01   3.8726388379e+01    0.2291764    0.1725906  78.53 0.0006227745    1.672    0.402
        45  -9.9787    135.0000    120.0012   8.4015952321e+01   3.1364914816e+01    0.2620983   0.08785757 -45.88 0.0006938381    2.923    0.658
        46  -9.7741    107.2075    119.8842   9.1481044974e+01   3.6895068172e+01    0.2099021    0.1957421 -72.35 0.0003211213    1.088    0.081
        47  -9.8439    168.2560    113.1561   7.4182604220e+01   2.5487679086e+01    0.3567014    0.2376506 -70.60  0.001264348    2.340    0.573
        48 -10.4431    174.3983    148.9438   8.1561723633e+01   1.6822528696e+01    0.2927963    0.2645113  63.02 0.0009028243    1.242    0.195
        49  -9.8122    205.5150    110.2350   6.5790696553e+01   1.7583321376e+01    0.2630085    0.2109756  49.02 0.0006043663    1.321    0.243
        50  -9.2050    114.2977    110.3717   8.7104994784e+01   3.7751764535e+01    0.1612074    0.1200373 -15.74 6.508057e-05    1.739    0.425
        51 -13.5370     39.1721    206.8218   1.2126290158e+02   2.6507924198e+01    0.5802786    0.4815193  57.56  0.001554847    1.206    0.170
        52  -9.7882     42.0348    103.5105   1.0758204739e+02   5.0222748208e+01    0.1789318     0.133211  29.97  0.001019706    1.566    0.362
        53  -9.8075     36.4203    101.2272   1.0894381223e+02   5.1313661288e+01    0.1829123    0.1131989 -73.65 0.0005697237    1.566    0.361
        54 -11.9831      1.8206     89.5823   1.1823590650e+02   5.6487398416e+01    0.6227489    0.1377914 -71.05  0.002257659    3.559    0.719
        55  -9.2006    128.4881     95.4887   7.9097113034e+01   3.8108671851e+01    0.1550844    0.1510658 -41.88 0.0008101998    1.036    0.035
        56  -9.9909     41.6397     91.8961   1.0530458805e+02   5.3016051912e+01    0.2010321    0.1718165 -26.69  0.000415933    1.235    0.190
        57 -10.1614     53.0014     90.6976   1.0116653732e+02   5.2059683117e+01    0.1890399    0.1750899 -43.52 0.0006054458    1.074    0.069
        58  -8.9712    114.5173     83.5186   7.9423527775e+01   4.3573008233e+01    0.1514347    0.1466248 -44.69 0.0008090169    1.075    0.070
        59 -12.0540      2.3529     77.8249   1.1620846128e+02   5.9138120305e+01    0.7425834   0.07889637 -67.73  0.002135534    5.662    0.823
        60  -9.2525    105.9074     76.4772   7.9754482544e+01   4.6760933289e+01    0.2035744    0.1343669  69.22  0.000805388    2.503    0.601
        61 -10.4733     51.9108     64.3553   9.4338851148e+01   5.8036271094e+01    0.3565548    0.2100411  48.24  0.001522246    2.387    0.581
        62 -10.5882     13.5018     60.1446   1.0838568329e+02   6.2443665793e+01    0.2213666    0.1748986 -50.48 0.0004643206    1.039    0.038
        63 -11.6120    199.4640    236.5617   9.2964948457e+01  -2.8263351261e+00    0.3983361    0.3579055  82.94  0.001813181    1.792    0.442
        64 -12.2369    212.6710     26.1718   4.2858387713e+01   2.8983406936e+01    0.4271103    0.3231264  32.95  0.001031726    1.729    0.422
        65 -14.2050     47.3855    221.7996   1.2084093867e+02   2.2533501674e+01     1.349827    0.8422323  69.88  0.001685833    1.376    0.273
        66 -11.0610    140.8292     46.2446   6.0367812417e+01   4.4204478996e+01    0.3502559    0.2669851 -76.40 0.0009772095    1.729    0.422
        67 -10.0148    144.0704     41.0472   5.7916942292e+01   4.4152933635e+01    0.2185795    0.2068142 -82.42  0.000652259    1.138    0.121
        68 -15.4523     47.2801    197.5842   1.1883886886e+02   2.7524566333e+01     3.053677     1.422019  63.22   0.01421179    2.240    0.554
        69 -11.7898    210.6261    200.4234   8.4677074999e+01   6.7640821626e-01    0.3991037    0.3744107  -4.52   0.00162759    1.208    0.172
        70 -10.2309    189.6801     15.0149   4.2541656944e+01   3.5854446936e+01    0.1864702    0.1720109 -57.49 0.0007496583    1.107    0.097
        71  -9.1661    134.9695     12.4580   4.9875304987e+01   4.9753226173e+01    0.1879906    0.1139604 -84.38 0.0008077337    2.438    0.590
        72 -14.4111     87.0520    227.8513   1.1373781075e+02   1.6177180753e+01     1.932518     1.126848  52.37  0.004385102    1.459    0.315
        73 -12.3764    204.8158    181.3298   8.2118801981e+01   4.8112581668e+00    0.6711315    0.4377812  48.03   0.00300373    1.693    0.409
