#   1 NUMBER                 Running object number                                     
#   2 MAG_AUTO               Kron-like elliptical aperture magnitude                    [mag]
#   3 X_IMAGE                Object position along x                                    [pixel]
#   4 Y_IMAGE                Object position along y                                    [pixel]
#   5 X_WORLD                Barycenter position along world x axis                     [deg]
#   6 Y_WORLD                Barycenter position along world y axis                     [deg]
#   7 A_WORLD                Profile RMS along major axis (world units)                 [deg]
#   8 B_WORLD                Profile RMS along minor axis (world units)                 [deg]
#   9 THETA_WORLD            Position angle (CCW/world-x)                               [deg]
#  10 FWHM_WORLD             FWHM assuming a gaussian core                              [deg]
#  11 ELONGATION             A_IMAGE/B_IMAGE                                           
#  12 ELLIPTICITY            1 - B_IMAGE/A_IMAGE                                       
         1 -15.2493      6.0538    143.9279   1.4484377484e+02   4.4673741953e+01     5.896363     1.637641 -82.68   0.02278051    3.548    0.718
         2 -13.5056    193.6741     28.9853   6.8325802225e+01   3.3215990544e+01     1.415548     1.338284 -13.67  0.007573158    1.215    0.177
         3 -13.7012    209.2903     10.4566   6.1502783120e+01   3.1335931534e+01     1.297721     1.053337  29.22  0.007467878    1.595    0.373
         4 -11.9764      2.6613      3.7954   1.1734236694e+02   7.4311098072e+01     0.493703    0.3461392 -24.35  0.003699816    1.080    0.074
         5 -12.2483      2.1750     24.2166   1.2589353656e+02   7.0830749971e+01    0.8251364    0.1121879 -53.25  0.003268801    3.608    0.723
         6 -11.4808      2.3128     11.3036   1.2092457987e+02   7.3105421359e+01    0.5179104    0.1536877 -47.22  0.002612948    2.346    0.574
         7 -10.5744    199.1268    246.6799   1.1663230118e+02  -3.0978420717e+00    0.1891009    0.1271444  46.77  0.001191902    1.468    0.319
         8 -11.9576    138.6445    249.0074   1.2786871938e+02   6.1996910083e+00    0.3968532      0.31738  45.99  0.002789903    1.046    0.044
         9 -11.2476    125.0217    249.9770   1.3045184447e+02   8.1822766876e+00    0.4327729        0.125  41.35  0.001846663    2.688    0.628
        10  -9.8600    111.1119    250.5377   1.3302007416e+02   1.0216851452e+01    0.1843417   0.08920705  44.31   0.00102507    1.583    0.368
        11 -11.1348     97.6691    247.1146   1.3511471793e+02   1.2763021425e+01    0.4298492    0.2401342  82.36  0.002261795    2.360    0.576
        12 -10.9842    101.1465    245.8383   1.3436809288e+02   1.2461118137e+01    0.2359335    0.1913359 -74.82 0.0003996378    1.444    0.307
        13 -10.7270     29.9489    250.3172   1.4695708626e+02   2.0997432940e+01    0.3055261    0.1826006  55.74  0.001669616    1.216    0.177
        14 -10.2924     34.0212    249.0141   1.4622964986e+02   2.0760052410e+01    0.3395492    0.1366613  62.92  0.001980468    2.009    0.502
        15 -11.8317     35.3740    244.4002   1.4575867437e+02   2.1400085614e+01    0.4786985    0.3416187  51.73  0.003672938    1.278    0.218
        16 -11.1896     17.3508    248.6535   1.4889052009e+02   2.2643103892e+01    0.2575386     0.148348  54.40  0.001917714    1.279    0.218
        17 -11.4663      3.1375    248.5314   1.5109611785e+02   2.4097881277e+01    0.4967067     0.233014  50.16  0.003539599    1.561    0.360
        18 -11.0262      2.0519    240.8550   1.5098585824e+02   2.5517234497e+01    0.4055366    0.1154543 -82.38  0.002144034    3.099    0.677
        19 -11.1073     22.5220    245.1189   1.4790406325e+02   2.2701065603e+01     0.284835    0.1294311  58.31  0.000964298    1.582    0.368
        20 -12.3718     12.1111    240.1589   1.4936043034e+02   2.4649680587e+01    0.5309047    0.2164889  71.97  0.002498321    2.025    0.506
        21 -10.9313    234.4420    238.8652   1.0931809582e+02  -7.5392472304e+00    0.2776689    0.1934058 -55.57  0.001586243    3.010    0.668
        22  -9.4788    186.3004    239.6590   1.1793596861e+02  -1.5522566423e-01    0.1132159   0.08830916  62.50 0.0007036637    1.670    0.401
        23 -11.1128    119.5881    237.9328   1.3015346329e+02   1.0946873774e+01    0.3168504    0.1791028  84.38  0.001502509    3.053    0.672
        24 -11.8371    238.7872    248.4034   1.1006436199e+02  -9.1993850462e+00    0.4468402    0.1928261  28.42  0.002394001    2.043    0.511
        25 -14.9105     42.3008    223.9131   1.4330194776e+02   2.4303885529e+01     4.992147     1.601444  38.95  0.008190749    2.709    0.631
        26 -11.8350      6.6530    226.9416   1.4968602448e+02   2.7555036643e+01    0.4326431    0.2731563  37.53  0.003162507    1.786    0.440
        27 -10.6332    151.7902    228.8213   1.2289572210e+02   7.1628019073e+00    0.2896502   0.08189544  37.23  0.001009878    3.532    0.717
        28 -13.2378      8.9470    207.4471   1.4837021069e+02   3.1020993985e+01     0.785144    0.7092711 -80.33  0.003930981    1.495    0.331
        29 -10.1494    230.6859    232.0022   1.0886697605e+02  -6.1899032427e+00    0.2254575    0.1837043 -52.54  0.001110299    2.023    0.506
        30 -10.1650    173.4442    222.2294   1.1778487264e+02   4.4948409686e+00     0.262556    0.1552432  39.81   0.00142127    1.404    0.288
        31 -10.1541    228.4919    228.0005   1.0859696641e+02  -5.3760708597e+00    0.2607756    0.2228131 -69.01  0.001684928    2.174    0.540
        32  -9.1970     91.9210    214.0249   1.3289876581e+02   1.9510768971e+01    0.2559239    0.1260856  61.14  0.001224104    2.120    0.528
        33  -9.0113    152.6664    212.9405   1.2047095868e+02   9.6254166158e+00    0.1641957    0.1556269  58.85 0.0003651403    1.135    0.119
        34  -9.6145     34.7181    202.5000   1.4322367169e+02   2.9364908393e+01    0.1841434    0.1448571  83.12   0.00058436    1.106    0.096
        35 -11.6748     62.7147    198.0083   1.3719892709e+02   2.6876935750e+01    0.2923906    0.2557728 -38.40 0.0007738848    1.698    0.411
        36  -9.9895    193.1930    195.0784   1.0944015481e+02   5.2373597965e+00    0.7126486    0.3756916 -64.98   0.00183177    8.855    0.887
        37 -10.6304     43.0944    195.0249   1.4096675207e+02   2.9944954074e+01    0.5217339    0.1669874  63.74  0.001765764    4.880    0.795
        38 -11.9126     68.5948    189.9715   1.3511840952e+02   2.7769606509e+01    0.2648862    0.2306363 -69.36 0.0005281765    1.304    0.233
        39 -10.1953      6.9726    215.0479   1.4909430864e+02   2.9742695997e+01    0.1749676    0.1220929  60.04  0.000509341    1.189    0.159
        40 -10.8409     78.4351    177.3413   1.3142157199e+02   2.9104921124e+01     0.229129    0.2079908  80.45  0.000384186    1.113    0.101
        41 -13.1787     65.2874    175.4037   1.3418474343e+02   3.1384002661e+01    0.4712546    0.2755664 -47.06  0.001530764    2.234    0.552
        42  -9.0929     98.9572    175.8792   1.2649496401e+02   2.6230367416e+01    0.2262239    0.1470355  71.78 0.0009580983    1.736    0.424
        43  -8.9011     97.9306    172.0000   1.2614855841e+02   2.7248080295e+01     0.218299   0.07389048  39.26 0.0005639082    2.844    0.648
        44 -11.8635     85.9210    167.9690   1.2838112565e+02   3.0061544388e+01    0.6370178    0.5640258  63.71  0.003890604    1.083    0.077
        45  -9.9937     98.4508    152.0373   1.2273599123e+02   3.1653810933e+01    0.2918702    0.2514707 -72.59 0.0007811115    1.123    0.110
        46 -12.0324     86.9610    151.3315   1.2551665186e+02   3.3697951690e+01    0.2858813     0.248501 -50.23 0.0005743754    1.279    0.218
        47 -12.5209     67.2399    143.8820   1.2938684241e+02   3.8348336230e+01    0.7880237    0.4961796  70.44   0.00365948    1.815    0.449
        48 -12.7795     36.3065    232.0871   1.4489151440e+02   2.3486346510e+01    0.2788109    0.2284417  86.81 0.0007498997    1.289    0.224
        49  -8.8813    101.2976    147.9923   1.2128220423e+02   3.2094599069e+01    0.1971872    0.1752047 -66.06 0.0003150219    1.117    0.105
        50  -9.1454     39.6389    146.6995   1.3687703049e+02   4.1037511656e+01    0.1226899     0.090078 -42.19 0.0007035935    1.719    0.418
        51  -8.4433    192.2080    144.0176   9.9235311734e+01   1.4360201857e+01    0.1855305    0.1183873 -38.22 0.0003324482    1.590    0.371
        52  -9.6665    109.9534    137.0648   1.1690240884e+02   3.3056128652e+01    0.3630137    0.2474292 -17.01  0.001307442    2.627    0.619
        53 -11.4950     56.9527    131.1548   1.3011808513e+02   4.2701820921e+01    0.6156956    0.2740994 -80.92  0.002246918    3.286    0.696
        54  -8.7277     80.8613    132.8066   1.2383356621e+02   3.8991421842e+01      0.18599    0.1514962  79.72 0.0003251866    1.256    0.204
        55 -10.5566     97.1412    134.4232   1.1974360466e+02   3.5959262846e+01    0.2637668    0.2219424 -45.43 0.0005293258    1.269    0.212
        56  -9.0387    106.9421    123.8011   1.1482148134e+02   3.6669097077e+01    0.1929999    0.1803869  66.95 0.0003003574    1.065    0.061
        57 -10.8932     34.3757    133.1425   1.3654540337e+02   4.4737430967e+01     0.272618    0.1951177  59.61 0.0004377645    1.426    0.299
        58 -10.2398    167.9160    112.9509   9.6859483746e+01   2.5885733114e+01    0.3316921    0.2814648 -87.16 0.0007107374    1.383    0.277
        59  -9.6077    203.4133    111.7283   8.9282767333e+01   1.7770018682e+01    0.2069408    0.1439029 -25.15 0.0005480992    1.550    0.355
        60 -10.6951    240.8091     84.3901   7.6420664626e+01   1.3811928710e+01    0.2864131   0.09469946 -36.18  0.001023941    2.638    0.621
        61  -9.6745     69.6464     84.2476   1.1625636524e+02   5.1949658962e+01     0.368241    0.2261493  61.96  0.001607387    2.512    0.602
        62  -9.4474    157.4876     76.5024   8.8969447827e+01   3.5415239708e+01    0.1542197    0.1520882  51.65 2.908033e-05    1.016    0.016
        63 -10.2869     26.2411     59.8685   1.2561152255e+02   6.2170778594e+01    0.3566916    0.1658073  38.84   0.00176931    2.696    0.629
        64 -11.1274     19.1994     57.0525   1.2773028522e+02   6.3302295725e+01    0.4867385    0.1529021  36.79  0.002052203    3.988    0.749
        65 -11.7195    249.0155    248.3062   1.0836373485e+02  -1.0605543402e+01    0.5597038    0.3335657  -7.68  0.003638912    1.730    0.422
        66 -10.7294     46.5513    248.5667   1.4413270195e+02   1.9367185437e+01    0.2776464    0.1263958  67.98 0.0008314424    1.959    0.490
        67 -10.1838     81.8836    249.1012   1.3809609674e+02   1.4685184585e+01    0.1909401    0.1191381  62.49   0.00125365    1.306    0.234
        68 -10.5973    107.1260    247.8814   1.3348077616e+02   1.1238348006e+01    0.1873979    0.1292634  60.63  0.000622073    1.229    0.186
