#   1 NUMBER                 Running object number                                     
#   2 MAG_AUTO               Kron-like elliptical aperture magnitude                    [mag]
#   3 X_IMAGE                Object position along x                                    [pixel]
#   4 Y_IMAGE                Object position along y                                    [pixel]
#   5 X_WORLD                Barycenter position along world x axis                     [deg]
#   6 Y_WORLD                Barycenter position along world y axis                     [deg]
#   7 A_WORLD                Profile RMS along major axis (world units)                 [deg]
#   8 B_WORLD                Profile RMS along minor axis (world units)                 [deg]
#   9 THETA_WORLD            Position angle (CCW/world-x)                               [deg]
#  10 FWHM_WORLD             FWHM assuming a gaussian core                              [deg]
#  11 ELONGATION             A_IMAGE/B_IMAGE                                           
#  12 ELLIPTICITY            1 - B_IMAGE/A_IMAGE                                       
         1 -14.5301    200.1577     40.1497   4.3278563415e+01   3.0578864192e+01     1.541424     1.350836   7.11  0.003511982    1.511    0.338
         2 -14.6302    210.9893     29.3200   3.9352055092e+01   2.9419790836e+01     1.367885     1.053427  -2.00  0.002402822    1.913    0.477
         3 -12.8743      2.1747      7.5456   8.9303457965e+01   7.4033501530e+01     1.150133    0.2433077 -44.58  0.004849593    3.648    0.726
         4 -13.4601    236.0633      4.6414   3.1685106556e+01   2.6663844750e+01    0.8319139    0.4922211  82.53  0.004943105    1.547    0.354
         5 -10.4760     43.9885      6.4982   6.6811049582e+01   6.9183847372e+01    0.1753994   0.07918825  25.48 0.0008102834    2.538    0.606
         6 -11.1108     59.8002    220.6465   1.1392919216e+02   2.1047747373e+01    0.4637711    0.2770436  48.46  0.002159791    1.449    0.310
         7 -11.9599    138.9888    249.5472   1.0103455303e+02   3.9467273210e+00    0.4525268    0.2639241  31.77  0.002487344    1.569    0.363
         8 -13.9510     70.0219    172.3551   1.0595518680e+02   3.0667974955e+01     2.384213     1.142142 -32.85  0.006580442    6.503    0.846
         9 -13.2728     27.7372    214.9310   1.2001036945e+02   2.6088788905e+01     1.254832    0.4377668  81.60  0.004421941    4.557    0.781
        10 -16.2165     42.9675    198.4581   1.1544587307e+02   2.7998949747e+01     12.51933     2.425559  48.37    0.0399381    4.759    0.790
        11 -10.3009     66.0499    194.4666   1.0980295951e+02   2.5983751308e+01    0.2916048    0.2361631  27.83  0.001083986    1.475    0.322
        12 -14.0249     54.1783    188.3926   1.1185984936e+02   2.8951955055e+01      1.29242    0.8335363  74.31  0.006885138    1.547    0.353
        13 -14.8723     24.3378    226.7718   1.2147033997e+02   2.3981736797e+01      2.01503    0.7737857  75.41  0.008752618    3.016    0.668
        14 -13.8740     69.9481    155.3529   1.0336200646e+02   3.4865200683e+01    0.6542941    0.5874428 -20.32  0.002358632    1.380    0.275
        15 -10.0627    120.0161    193.9866   9.7152348073e+01   1.7686062716e+01    0.2141263    0.1938096  72.56 0.0004433981    1.097    0.088
        16 -10.4705    149.5372    187.6861   8.9292565243e+01   1.3750316966e+01    0.2951959    0.2162971  65.36  0.001083619    1.703    0.413
        17  -9.6281     72.0048    188.1278   1.0762179312e+02   2.6626735028e+01    0.2083121    0.1568637  72.26 0.0004890655    1.278    0.218
        18 -12.4067    195.4661    197.7486   8.1420817164e+01   3.5685471128e+00      1.18492     0.939595 -81.61  0.006141344    2.134    0.531
        19  -9.3910     80.6708    184.0573   1.0498918106e+02   2.6322275748e+01    0.2247567    0.1602266  86.68 0.0009138743    1.486    0.327
        20  -9.7021     69.7963    184.0361   1.0761693660e+02   2.7899362532e+01    0.2060508    0.1604894  79.64 0.0003058184    1.220    0.180
        21  -9.1393     90.8067    181.8775   1.0220079366e+02   2.5279199614e+01    0.1938092    0.1530068  75.81 0.0004117018    1.287    0.223
        22 -10.5067     99.4239    180.7838   9.9922077332e+01   2.4146257698e+01    0.2606201    0.2381834  52.94 0.0005921082    1.082    0.076
        23 -10.4818    189.0956    177.2728   7.8695842041e+01   8.4470396892e+00    0.4874184    0.2704581 -52.13  0.002091522    2.134    0.532
        24 -10.6986    146.4922    171.9766   8.6978828956e+01   1.7666337599e+01     0.396274    0.2667171 -76.93  0.001018023    2.254    0.556
        25 -15.2292     68.5212    144.1469   1.0184162844e+02   3.7870038364e+01     10.34517     4.245003  60.54  0.009303221    6.371    0.843
        26  -9.6908     34.5391    171.5046   1.1469368456e+02   3.5259852514e+01    0.2236203    0.1388357  69.89 0.0009209533    1.597    0.374
        27 -10.3457    136.9369    167.1629   8.8280354692e+01   2.0565813595e+01    0.3810344    0.2257199  61.45  0.001500536    2.301    0.565
        28 -16.9468      7.2970    201.5223   1.2323583617e+02   3.1020611528e+01     8.502276     1.329631 -76.95   0.02709919    5.444    0.816
        29 -15.1301     55.5106    240.5619   1.1649392656e+02   1.7570126594e+01     1.016293    0.9007983  12.03  0.004584056    1.680    0.405
        30  -9.2173    188.0000    162.9795   7.5922956229e+01   1.1418865513e+01    0.2381726   0.08095516 -42.50 0.0005713344    2.864    0.651
        31  -9.5077    133.2370    162.9382   8.8323740234e+01   2.2232903855e+01    0.2868681     0.190634  57.64  0.001260615    1.716    0.417
        32 -10.6825     33.2248    156.8795   1.1337013357e+02   3.8959393447e+01    0.4181918    0.2540607  59.88  0.002182772    1.715    0.417
        33 -12.4422     88.6446    153.4814   9.7979086478e+01   3.2489333297e+01    0.6476748    0.4899988 -19.10  0.003082525    1.864    0.463
        34 -11.3888    133.7752    145.0151   8.4340666763e+01   2.6249141041e+01     1.209802    0.3299919 -54.81  0.002914213    5.254    0.810
        35  -9.6487    111.2926    149.4401   9.1118856355e+01   2.9551075290e+01    0.3753027    0.2307349  75.00  0.001371778    2.773    0.639
        36 -12.0742     54.3414    147.2430   1.0634120381e+02   3.8972715016e+01    0.9227915    0.3924864 -61.64  0.003853967    2.040    0.510
        37 -10.5946    174.6990    149.0258   7.5648063139e+01   1.6916499724e+01    0.2795967    0.2486939 -58.44 0.0008812196    1.196    0.164
        38 -10.5263     38.9200    146.3096   1.1048107559e+02   4.0985004640e+01    0.2905346    0.2285475  77.45 0.0008687474    1.246    0.197
        39 -10.4076     33.6516    143.9391   1.1161425477e+02   4.2119684113e+01    0.3168468     0.194878 -66.66 0.0009651495    1.374    0.272
        40 -11.3181     29.1424    143.3970   1.1279002848e+02   4.2694185254e+01     0.356144    0.3259674   0.53  0.001623934    1.400    0.286
        41  -8.7584    199.3240    141.7076   6.8896630104e+01   1.3310089995e+01    0.1442528    0.1176525 -78.28 0.0003595785    1.615    0.381
        42 -11.0714    102.2405    139.2035   9.1386113939e+01   3.3680988633e+01    0.5516545    0.3686561 -21.42  0.002243629    2.317    0.568
        43 -12.4669     89.6551    138.8773   9.4836318866e+01   3.5938442809e+01    0.2978668    0.2639171 -44.64 0.0004836247    1.158    0.136
        44 -10.7113    105.9320    130.8199   8.8476510625e+01   3.5041041590e+01    0.3689342    0.3180561 -71.07  0.001236615    1.187    0.158
        45  -9.1014     37.8128    215.7379   1.1803237150e+02   2.4792096099e+01    0.1634447    0.1054435  66.95 0.0004915362    1.320    0.243
        46 -10.6545    112.5632    205.9592   1.0068991925e+02   1.6369388153e+01    0.2717488    0.1930612  62.74 0.0007743361    1.480    0.325
        47 -10.3572    111.4593    129.7709   8.6694744916e+01   3.4247996206e+01    0.3038176    0.2531685  -0.59 0.0006921184    1.502    0.334
        48 -11.2723     29.3338    129.4630   1.1081400054e+02   4.6137192809e+01    0.3082668    0.2694823  33.69  0.001945929    1.346    0.257
        49  -9.9477    160.8867    127.7844   7.3672230268e+01   2.4358719314e+01     0.312581    0.2077263 -68.63  0.001249207    2.111    0.526
        50 -10.9836     98.9061    125.6674   8.9264700019e+01   3.7574239593e+01    0.3204634    0.2610911   5.42  0.001556289    1.548    0.354
        51 -11.2113    118.6829    122.9671   8.3052498505e+01   3.4434480803e+01    0.5983651    0.3800545  -0.52  0.001959627    3.583    0.721
        52  -9.8162     91.1312    123.9723   9.1133539448e+01   3.9356055944e+01    0.2328927    0.1935314  84.22 0.0006097687    1.380    0.276
        53 -11.1315    135.6612    127.6352   7.9740022956e+01   2.9849681435e+01    0.6684405     0.154795 -47.85   0.00170602    4.314    0.768
        54  -8.7939     87.6702    121.3087   9.1539364351e+01   4.0594020053e+01    0.1534522    0.1168199  79.11 0.0007040275    1.663    0.399
        55 -11.9010     34.2229    118.3510   1.0755108286e+02   4.8431296531e+01    0.4161374    0.2346268 -33.55  0.001937229    2.229    0.551
        56 -10.1064    107.8885    118.9028   8.5038742408e+01   3.7515390532e+01    0.2204526    0.2138685 -45.49 0.0003483988    1.025    0.025
        57 -12.4111    108.7463    202.2226   1.0100855242e+02   1.7793304067e+01    0.7001762     0.436099 -36.93  0.001438904    2.202    0.546
        58 -10.3704    134.7457    112.8722   7.6168752751e+01   3.3355540664e+01    0.3771869     0.132261 -46.90  0.001180161    2.822    0.646
        59  -8.9537    167.6746    112.3548   6.8213712477e+01   2.6066234114e+01    0.1643197    0.1223875 -76.42 0.0007046349    1.768    0.434
        60 -11.5531     61.6179    199.1281   1.1134835456e+02   2.5514653473e+01    0.3501072    0.2216814 -65.34 0.0006787797    1.542    0.351
        61 -13.1048     42.3287    104.3496   1.0222608871e+02   5.1036158637e+01    0.7037019    0.5098181 -40.81  0.002933276    1.339    0.253
        62 -10.3159    205.1457    110.2641   6.0325763039e+01   1.8052226500e+01    0.3460775    0.2465498  39.57  0.001085953    1.603    0.376
        63 -11.0863    117.2163    109.5439   7.9964373361e+01   3.7819607644e+01    0.6211492    0.3684044  58.94  0.002440706    2.158    0.537
        64  -9.2481    139.9732    106.5256   7.3122912956e+01   3.3578076076e+01    0.2279196    0.1562185  49.93  0.000481054    1.502    0.334
        65  -9.6768    134.5934    105.7852   7.4282885761e+01   3.4933829102e+01     0.228314    0.1461328 -53.39 0.0008492066    1.644    0.392
        66  -9.4621     64.8198    103.5816   9.4488475126e+01   4.8426075306e+01    0.1936451    0.1332643  46.01 0.0005306905    1.647    0.393
        67 -11.2224    243.1443    102.1756   5.2515531502e+01   1.1590856518e+01     0.196125    0.1503371 -61.65  0.001094854    1.358    0.263
        68 -10.1585     34.1638    100.1706   1.0414779802e+02   5.2874522420e+01     0.176223    0.1493663  88.00 0.0004956534    1.305    0.234
        69  -9.9982    127.8863     95.0946   7.3002367825e+01   3.8686880767e+01    0.3101405    0.2150377  62.08 0.0008322654    1.696    0.410
        70 -10.0988     53.1452     90.8418   9.5293245765e+01   5.2980179926e+01    0.2003873    0.1483881 -34.79  0.000479409    1.317    0.241
        71  -9.8998    156.4283     88.4161   6.4142142904e+01   3.3434617291e+01    0.3403904    0.2238728 -74.24 0.0009054728    2.313    0.568
        72  -9.4948     15.1903     89.5180   1.0874818360e+02   5.6958678779e+01     0.208017    0.1188042  27.36  0.001125854    2.066    0.516
        73  -9.3301    116.0020     84.9803   7.3215662238e+01   4.3361198579e+01    0.2320771    0.1871202  83.89  0.000863782    1.616    0.381
        74 -10.2040    158.6614     82.0468   6.1828189820e+01   3.4091380479e+01    0.2209001    0.1967691 -40.99 0.0006048596    1.112    0.101
        75  -8.6899     69.7396     81.7245   8.6852746701e+01   5.2700210968e+01    0.1380461    0.1030438 -20.79 0.0001939458    1.468    0.319
        76  -9.3656     55.9747     66.2620   8.7053599325e+01   5.7969349937e+01    0.1799503    0.1634125  -3.98  0.000299042    1.097    0.088
        77  -8.7687     83.6206     61.3302   7.5345669724e+01   5.4437782513e+01    0.1408664    0.1150377 -88.87 0.0007018414    1.855    0.461
        78 -10.9426     13.2544     59.7826   1.0277668393e+02   6.3724465187e+01    0.2488116    0.2137774 -66.50  0.000489219    1.283    0.221
        79 -13.9340    190.2948     47.4584   4.6496589046e+01   3.1950115462e+01     1.308025    0.8309612  42.48  0.001000574    1.928    0.481
        80 -15.9352      3.8149    247.4380   1.2622370866e+02   2.2036874421e+01     0.934589    0.5659007 -87.95  0.005429441    1.413    0.292
        81 -10.1401    101.9973    250.0706   1.0835300709e+02   9.4139455934e+00    0.2064244     0.123801  63.42  0.001138904    1.779    0.438
        82 -11.4974      3.9798     29.9918   9.7920173887e+01   7.0183750455e+01    0.2128196    0.1374125 -45.00 0.0009402529    1.251    0.201
        83  -9.1143    169.1752    236.7841   9.3299578337e+01   1.3211974635e+00    0.1658948    0.1329154   8.42 0.0003458038    1.279    0.218
        84 -10.7244    198.0586     23.7419   3.9344420546e+01   3.3115804438e+01    0.2599179    0.1989204 -13.71  0.001026011    1.701    0.412
        85 -11.3128    141.5244     46.8192   5.4665218527e+01   4.4035921954e+01    0.3897512    0.2753436 -79.31 0.0009725795    1.864    0.463
        86  -9.4980    189.5234     14.9790   3.8019056597e+01   3.6122069170e+01    0.1816909    0.1260944 -31.97 0.0006592802    1.551    0.355
        87 -11.4904     13.8798     31.7746   9.3410564354e+01   6.9143851717e+01    0.3462777    0.1438599  29.78  0.001774041    2.683    0.627
        88 -16.3030     21.8767    249.9297   1.2325467532e+02   1.9717320743e+01      7.51223      1.99944  27.74   0.01135155   12.979    0.923
