#   1 NUMBER                 Running object number                                     
#   2 MAG_AUTO               Kron-like elliptical aperture magnitude                    [mag]
#   3 X_IMAGE                Object position along x                                    [pixel]
#   4 Y_IMAGE                Object position along y                                    [pixel]
#   5 X_WORLD                Barycenter position along world x axis                     [deg]
#   6 Y_WORLD                Barycenter position along world y axis                     [deg]
#   7 A_WORLD                Profile RMS along major axis (world units)                 [deg]
#   8 B_WORLD                Profile RMS along minor axis (world units)                 [deg]
#   9 THETA_WORLD            Position angle (CCW/world-x)                               [deg]
#  10 FWHM_WORLD             FWHM assuming a gaussian core                              [deg]
#  11 ELONGATION             A_IMAGE/B_IMAGE                                           
#  12 ELLIPTICITY            1 - B_IMAGE/A_IMAGE                                       
         1 -14.8349    209.2874      6.5497   4.9814673110e+01   3.3105390639e+01     2.638496     1.610197  39.43   0.01390744    2.421    0.587
         2 -14.0927    174.1548     49.4443   6.4954792281e+01   3.5930057521e+01     1.637084     1.210379  26.66  0.005655717    1.780    0.438
         3 -13.6800    193.2098     29.3917   5.6935957614e+01   3.4151568935e+01    0.6607998    0.6130933 -54.93  0.001752625    1.211    0.175
         4 -14.1324    188.1687     35.8573   5.9224906493e+01   3.4503650031e+01    0.9381197    0.8072934 -27.80  0.004240011    1.399    0.285
         5  -9.2849     92.4427     14.4605   7.2506974923e+01   5.7516443492e+01    0.1181995   0.09959009  27.02 0.0001275683    1.038    0.037
         6 -18.8111     37.8033    244.1534   1.3296358630e+02   1.9128860602e+01     6.897051     6.058031  67.03   0.05291344    1.371    0.271
         7 -12.0361    109.1480    190.0613   1.1253695560e+02   2.0420762686e+01    0.3986452    0.2924355   9.82  0.001861429    2.237    0.553
         8 -12.3692    194.1191    196.6084   9.5079530557e+01   2.9477905635e+00     1.395993    0.7323472 -68.41  0.003983614    5.622    0.822
         9 -19.2036     17.5862    100.0644   1.2054803885e+02   5.2590957719e+01     16.27832    0.8345591 -62.79   0.03005573   14.559    0.931
        10 -10.3433      1.5421    210.5512   1.3666998861e+02   2.9800217226e+01     0.143211   0.08825964  75.14 0.0009610107    1.318    0.242
        11 -11.7538    115.8532    182.4192   1.0973149769e+02   2.1007019682e+01    0.2923321    0.2097894 -51.21  0.001296988    1.432    0.302
        12 -10.8346    149.1509    180.2722   1.0169699794e+02   1.5221812615e+01    0.2807927    0.2163863 -65.60 0.0007600501    1.378    0.274
        13 -11.1312     99.4448    180.7524   1.1324209378e+02   2.4212483221e+01    0.2540592    0.2342525  79.56 0.0005517561    1.053    0.050
        14  -9.7447     53.1360    181.1178   1.2376923650e+02   3.0815774992e+01    0.1736841    0.1504302 -74.54  0.001112192    1.132    0.116
        15 -10.3974     69.8282    178.4724   1.1968988488e+02   2.9248691533e+01    0.2614382    0.2007866  71.29 0.0006672109    1.277    0.217
        16 -11.9489    135.5790    198.9879   1.0811580336e+02   1.3678791274e+01    0.4070744    0.2680288 -87.49  0.001667779    2.128    0.530
        17  -9.9280    142.2965    199.3281   1.0669633996e+02   1.2350896095e+01    0.1395542     0.116275  -9.82 0.0002483866    1.633    0.387
        18 -11.0362     81.8068    195.7501   1.1944716590e+02   2.3521672521e+01    0.3701982    0.3065835 -46.99   0.00199518    1.460    0.315
        19 -10.5754    164.2875    170.5562   9.6346608494e+01   1.4332848369e+01     0.269957    0.2264157 -73.38 0.0005854544    1.304    0.233
        20  -9.5030     63.9752    170.4316   1.1987539179e+02   3.1924867202e+01    0.1801145    0.1276414  43.44 0.0003856142    1.513    0.339
        21 -10.2437    201.3230    168.6933   8.7978241792e+01   7.1198231729e+00    0.2305696    0.2138434  85.28 0.0008495393    1.191    0.160
        22 -10.2844    205.0313    167.0175   8.6869409158e+01   6.7090598198e+00    0.3609225    0.2631164  19.84  0.001044243    1.724    0.420
        23 -11.2254    192.8778    165.0856   8.8971866068e+01   9.5954426790e+00    0.4536828    0.3121257 -58.73  0.001525572    1.630    0.386
        24 -12.1748    203.4779    198.9950   9.3621870167e+01   7.1806972583e-01     0.351256    0.3421178 -30.11  0.002115036    1.083    0.076
        25 -13.5738     71.0950    187.6398   1.2068161920e+02   2.6940477797e+01    0.8249035    0.7525654 -64.27  0.005226325    1.232    0.188
        26 -10.8007      1.7062    161.8257   1.3266039047e+02   4.0222171104e+01    0.3371899    0.1252434 -77.80   0.00161967    2.271    0.560
        27 -10.2497    158.9866    163.0013   9.5983732583e+01   1.7101682393e+01    0.1869247    0.1761319 -61.67 0.0004280994    1.056    0.053
        28  -9.3723    117.4982    162.2220   1.0564873852e+02   2.5431339203e+01    0.1966235    0.1392647 -71.55 0.0004717818    1.525    0.344
        29 -11.0208    189.1763    154.8811   8.7558943824e+01   1.2520250836e+01    0.4816805    0.3725135  76.22  0.002269454    1.610    0.379
        30 -12.3618     97.4517    153.5227   1.0892475234e+02   3.0982048811e+01    0.6459473    0.4589079 -31.25  0.001988196    1.825    0.452
        31 -11.6075    133.8453    145.2783   9.8153221823e+01   2.6270124776e+01     1.229183    0.3094876 -55.43  0.002842303    5.827    0.828
        32 -10.0810    113.1282    151.5610   1.0461677058e+02   2.8738250433e+01     0.275977    0.1975874 -72.79 0.0005645503    1.537    0.350
        33 -10.3621    174.5168    148.8508   8.9412906924e+01   1.6954919877e+01    0.2991672    0.2439902  84.77 0.0007324648    1.454    0.312
        34 -11.1614    143.9743    146.8531   9.6037414523e+01   2.3859912703e+01    0.3626708    0.2350939 -61.79  0.001555383    1.703    0.413
        35  -9.9162    159.9591    147.0214   9.2304619807e+01   2.0476794859e+01    0.2483993    0.1888017  89.34 0.0005914016    1.696    0.410
        36  -9.9250    115.7057    144.4060   1.0249057833e+02   2.9950848969e+01    0.2283262    0.1703279  79.05 0.0006343891    1.669    0.401
        37 -11.7760    108.5727    139.2881   1.0322630184e+02   3.2437668481e+01    0.5604432    0.3519091 -36.89  0.002464051    1.850    0.459
        38 -12.4116     96.7696    139.1220   1.0625191956e+02   3.4498272027e+01    0.3032526    0.2610009 -56.36 0.0004142169    1.089    0.082
        39 -11.2427     81.3455    140.5872   1.1056735229e+02   3.6564368514e+01    0.3606325    0.2263844  56.30  0.001703416    1.888    0.470
        40 -10.6826     78.0351    134.3895   1.1023109904e+02   3.8498842285e+01    0.2650513     0.193823  71.68  0.001020097    1.696    0.410
        41 -11.3662    105.9546    130.8097   1.0206767789e+02   3.4869212297e+01    0.4008745     0.315508 -68.82  0.001185269    1.331    0.249
        42 -11.2988    103.3444    125.6583   1.0160801547e+02   3.6506788573e+01    0.3098478    0.2488715 -19.85 0.0005528423    1.504    0.335
        43 -11.1247    135.9025    128.0447   9.3733150409e+01   2.9782555871e+01    0.5694878    0.2079711 -48.35  0.001898147    2.695    0.629
        44 -11.0585    115.3434    129.8265   9.9389123207e+01   3.3398252230e+01    0.3325281    0.2550869 -29.47 0.0006573171    1.508    0.337
        45 -10.5292    160.6610    127.9593   8.7754406181e+01   2.4537236285e+01    0.3450291    0.2427554 -68.08  0.001500146    1.727    0.421
        46 -11.2184    120.8390    123.1870   9.6420684830e+01   3.3864920500e+01    0.4792331    0.2856054 -21.92  0.001714493    3.038    0.671
        47 -10.0284    135.0000    120.4060   9.2133327568e+01   3.1663587627e+01    0.3394932   0.08561072 -46.95 0.0009304961    3.901    0.744
        48 -10.2118    110.6870    118.9709   9.8095510383e+01   3.6710950685e+01    0.2314614    0.2092767  38.31 0.0006635844    1.156    0.135
        49 -11.9170     65.6068    114.0622   1.0947533324e+02   4.4830398994e+01    0.3503367    0.2223838 -52.90  0.001101017    1.384    0.277
        50 -10.3692    167.9924    112.8515   8.2430014631e+01   2.6113342195e+01    0.3866357    0.2624147 -85.32  0.001289799    2.288    0.563
        51  -9.5723     56.0643    187.9762   1.2399124238e+02   2.8872497262e+01    0.3073847    0.1594797 -64.21   0.00154738    1.693    0.409
        52 -11.8508    119.3358    110.6377   9.3765488586e+01   3.6917341602e+01    0.5770587    0.3436434  59.64  0.002371597    2.212    0.548
        53 -10.3694    205.4745    110.1495   7.4086631359e+01   1.8125359780e+01     0.317225    0.2165897  44.41 0.0009615551    1.587    0.370
        54  -9.9008    111.3118    104.3168   9.4322178982e+01   3.9784498138e+01      0.14771    0.1140007  -9.40 0.0004621144    1.641    0.391
        55  -9.6308     41.6786     91.9198   1.1171463256e+02   5.2283805198e+01     0.173467    0.1378725 -47.20 0.0004473748    1.057    0.054
        56 -10.4876     51.5526     90.4983   1.0834933088e+02   5.1551317697e+01    0.2430615    0.1244998  29.15  0.001217766    2.193    0.544
        57 -12.5512    165.7811     65.9901   7.0881387356e+01   3.5356115652e+01    0.7868696    0.5185055 -53.00 0.0008170478    1.673    0.402
        58 -10.8272    169.0186    236.0031   1.0710693606e+02   1.6742879473e-01    0.2092533    0.1882409 -51.91 0.0003793986    1.254    0.202
        59  -9.9382    220.5214    229.0316   9.5779694651e+01  -7.5491361899e+00    0.3094766    0.1167594 -52.51  0.001024642    4.857    0.794
        60  -9.4157      7.6766    192.5663   1.3421194983e+02   3.3041689271e+01    0.2151607   0.09174547  40.90  0.001191086    2.432    0.589
        61 -12.2323    149.7990    189.0994   1.0321075428e+02   1.3143965349e+01    0.5137578    0.3396533 -77.52  0.001941904    2.085    0.520
        62 -11.8140    130.7513    213.4873   1.1150541034e+02   1.1446378045e+01    0.2937405    0.2281803 -78.16 0.0006406244    1.381    0.276
