#   1 NUMBER                 Running object number                                     
#   2 MAG_AUTO               Kron-like elliptical aperture magnitude                    [mag]
#   3 X_IMAGE                Object position along x                                    [pixel]
#   4 Y_IMAGE                Object position along y                                    [pixel]
#   5 X_WORLD                Barycenter position along world x axis                     [deg]
#   6 Y_WORLD                Barycenter position along world y axis                     [deg]
#   7 A_WORLD                Profile RMS along major axis (world units)                 [deg]
#   8 B_WORLD                Profile RMS along minor axis (world units)                 [deg]
#   9 THETA_WORLD            Position angle (CCW/world-x)                               [deg]
#  10 FWHM_WORLD             FWHM assuming a gaussian core                              [deg]
#  11 ELONGATION             A_IMAGE/B_IMAGE                                           
#  12 ELLIPTICITY            1 - B_IMAGE/A_IMAGE                                       
         1 -14.5670     28.7449    153.2321   6.8468221069e+01   3.9503494381e+01     2.816947    0.7326173 -71.92  0.009187976    3.433    0.709
         2 -14.1245     73.0817      8.7846   7.3293026803e+00   6.5640354761e+01     1.315088    0.9109141  -8.17  0.006969967    1.736    0.424
         3 -14.4117     66.6884     46.3153   2.8095625015e+01   6.1526308355e+01     2.319668    0.7864447 -48.10  0.007685245    3.312    0.698
         4 -13.6337     68.9104     25.1409   1.7290503282e+01   6.4596316775e+01     0.959276    0.6617194 -29.49  0.004931587    1.566    0.361
         5 -12.5260    191.4495     17.3402   3.5261383780e+02   3.5787977262e+01    0.3281794    0.2293644 -47.70  0.001423122    1.206    0.171
         6 -14.6955    145.1389      8.0818   3.5409763545e+02   4.7607187361e+01     1.069363    0.5040528  83.69  0.004836944    2.060    0.515
         7 -11.3608    234.6675      5.3284   3.4733119498e+02   2.8325947096e+01    0.1254569   0.05571909 -55.96 0.0007051746    1.717    0.418
         8 -14.4382     72.9928    120.6692   4.8355057350e+01   4.2733708014e+01     2.793805    0.6752067 -59.97   0.00749771    4.161    0.760
         9 -16.2817    236.6487    239.3899   3.1790211949e+01  -3.2090098713e+00     6.308012     1.895097 -32.60   0.03280956    2.909    0.656
        10 -17.7419    244.8174    115.1977   9.3332285922e+00   1.2595823535e+01     3.925557      2.83436  -4.67   0.01632873    1.742    0.426
        11 -18.6700    245.4862     86.9378   3.6026497045e+00   1.6482571235e+01     7.511596     3.486211 -37.77   0.03013292    1.629    0.386
        12 -13.9944     89.7226    231.0267   5.9455586260e+01   1.4524755237e+01     0.840746    0.5078825  30.05  0.004732232    1.361    0.265
        13 -13.0607      3.1145    246.9850   7.9873015785e+01   2.0259700125e+01    0.5613496    0.3010077  77.78  0.003487418    1.813    0.448
        14 -13.2941     84.0506    181.0606   5.5125596174e+01   2.5817955607e+01     1.053072    0.4780432 -73.80  0.003932606    3.043    0.671
        15 -12.3079     82.4727    170.6434   5.4106642586e+01   2.8519783498e+01    0.5164334    0.3431495 -84.11  0.002310657    1.853    0.460
        16 -12.3967    235.4238    183.7005   2.3282070153e+01   4.0045723442e+00     0.525429    0.2355492 -42.21   0.00282102    2.181    0.541
        17 -11.5846    231.5001    183.5467   2.3848816111e+01   4.4813915357e+00    0.1983612    0.1731683 -10.60  0.001400388    1.251    0.200
        18 -10.7518    220.2913    182.6570   2.5452639740e+01   5.9559475731e+00    0.1422652    0.1196154  38.34 0.0006619032    1.602    0.376
        19 -11.4358    215.9502    181.7697   2.6004305154e+01   6.6281012702e+00    0.3339966    0.1887285   1.12  0.001694294    2.415    0.586
        20 -14.3120     32.8331    175.1746   6.9116163063e+01   3.3423787466e+01      1.12856    0.5609211  60.72  0.004943173    2.059    0.514
        21 -10.5810    194.2271    225.4387   3.6839995593e+01   2.8402584125e+00     0.148704   0.09505723  32.55 0.0009379638    1.642    0.391
        22 -15.0405     31.2185    130.1170   6.5127648474e+01   4.5538256980e+01     3.490518    0.8175592 -67.80   0.01072198    3.505    0.715
        23 -13.8266     53.3172    117.3452   5.4860236430e+01   4.6510713915e+01    0.9968518    0.5235994 -57.14   0.00280682    1.804    0.446
        24 -14.7117     44.3931    114.2415   5.7735228526e+01   4.8488735256e+01     1.185627    0.9134601  53.74  0.004423495    1.334    0.251
        25 -14.2662     36.0495    115.0008   6.1160287330e+01   4.9222323737e+01     1.096479     0.504631  25.35  0.002822693    2.212    0.548
        26 -11.8136    219.2322    173.5435   2.4013823127e+01   7.4445033520e+00    0.6217918    0.3775489 -64.37  0.002249562    6.212    0.839
        27 -13.7700    194.9167    169.4849   2.7414942924e+01   1.1404050574e+01    0.4434474    0.3619377 -26.85  0.001098756    1.092    0.084
        28 -11.0784    202.5746    163.4836   2.4934647990e+01   1.1294082031e+01    0.2441582    0.1856398 -13.28 0.0004566105    1.233    0.189
        29 -11.1399    184.7180    168.6910   2.9160366729e+01   1.3032529315e+01    0.3119981    0.2427409 -61.36 0.0009650099    1.783    0.439
        30 -11.9577    222.3055    164.0846   2.1809342652e+01   8.4710877863e+00    0.3263271    0.1991412 -47.38 0.0006113366    1.828    0.453
        31 -12.4537    203.1749    167.5359   2.5590703770e+01   1.0548733664e+01    0.4271416    0.2784274   7.65  0.002350537    1.824    0.452
        32 -14.2411    155.7450    151.7953   3.1796258020e+01   2.0845755577e+01    0.7626746    0.7502069  -5.31  0.004631673    1.104    0.095
        33 -14.1865    148.2824    149.9704   3.3104387841e+01   2.2508966259e+01    0.7873124    0.6704245 -75.54   0.00344272    1.471    0.320
        34 -12.1498    191.0141    151.5688   2.4667716636e+01   1.5049696512e+01    0.2492481    0.1716879 -42.00  0.001380147    1.359    0.264
        35 -12.5504    133.6244    147.1252   3.6022415614e+01   2.5698821716e+01    0.6736515    0.2544787 -54.83  0.002258481    3.111    0.679
        36 -12.7473    132.2633    139.8970   3.4836157928e+01   2.7532259179e+01    0.6903791    0.2647355 -55.64   0.00225648    3.196    0.687
        37 -11.4550    169.9834    150.0647   2.8416205322e+01   1.8758895542e+01    0.3033931    0.1868513 -49.52 0.0009361749    1.680    0.405
        38 -12.5457    156.5844    142.2359   2.9614879812e+01   2.2617440364e+01    0.2851029     0.258426 -46.72  0.001073292    1.123    0.109
        39 -10.8156    150.4586    131.9723   2.8727656888e+01   2.5834938346e+01    0.2252159    0.1381242 -45.40 0.0005690446    1.566    0.361
        40 -13.8006    145.6077    112.6485   2.5254318656e+01   3.0784809299e+01    0.9555995    0.4125093  38.53  0.003440017    2.745    0.636
        41 -14.3110    136.1185    121.6156   2.9709914426e+01   3.0801502931e+01    0.8601656    0.6662187 -38.30  0.003421024    1.287    0.223
        42 -14.4508    134.4682    107.3981   2.6572587168e+01   3.4192365089e+01     1.791048    0.2932437 -45.60  0.004058811    5.938    0.832
        43 -11.0218    125.4779    124.8831   3.3203117938e+01   3.2170191074e+01    0.2359615    0.1478078 -49.12  0.001025886    1.573    0.364
        44 -11.4976    115.5812    122.9141   3.5429143403e+01   3.4541432801e+01    0.4290699    0.2628489 -53.59  0.001275377    1.649    0.394
        45 -10.6804    120.5305    123.0027   3.4083839870e+01   3.3560948186e+01    0.2347653    0.1489989 -49.66 0.0005815846    1.556    0.357
        46 -14.0859      5.8332    116.2997   7.3323337467e+01   5.1305419425e+01    0.9338825    0.7172834 -78.08  0.004269574    1.172    0.147
        47 -13.8691    158.0654    111.9193   2.2337758937e+01   2.8397444201e+01    0.6408496     0.475945 -25.04  0.003177745    1.499    0.333
        48 -13.1736    156.9215    105.8610   2.1072802921e+01   2.9816922110e+01    0.5389554    0.2718329 -44.18 0.0008230582    1.857    0.462
        49 -12.5911    164.2811    114.4814   2.1678657411e+01   2.6657032727e+01    0.4788016    0.1883608 -39.73  0.001777517    2.423    0.587
        50 -13.3253    175.0598    111.6336   1.8909656399e+01   2.5078719182e+01    0.4922851    0.4155581  35.61   0.00155172    1.322    0.244
        51 -12.6932    141.9478    104.3794   2.3994878081e+01   3.3248335497e+01    0.3574219    0.3052275 -84.92 0.0007539407    1.336    0.251
        52 -13.1387    173.3493    103.2120   1.7197008246e+01   2.6960519585e+01    0.4064429    0.3351164 -36.71  0.001695283    1.133    0.117
        53 -13.0820    160.3711    128.6952   2.5809831461e+01   2.4629545357e+01    0.4369117    0.3089197 -52.00   0.00181175    1.443    0.307
        54 -13.0068    118.2351     90.3882   2.6126922811e+01   4.1313913116e+01    0.4181304    0.2354659 -47.96  0.001716068    1.756    0.430
        55 -12.1158    183.4166     78.5132   9.3360132554e+00   2.9156221020e+01    0.3585791    0.2564126 -21.17  0.001145141    1.659    0.397
        56 -12.8121    176.1085     77.8605   1.0306912544e+01   3.0813877539e+01    0.3526507    0.2871952 -30.32  0.001418159    1.267    0.211
        57 -13.5429    179.3830     70.3306   7.8368558950e+00   3.1330506106e+01      0.60568    0.4268497 -41.62  0.002296978    1.273    0.214
        58 -12.2126      2.0548     71.7379   7.0245894005e+01   6.3564902317e+01     0.534463    0.1330477 -67.25  0.001867974    2.980    0.664
        59 -11.2880    210.6278     70.5839   3.7986191059e+00   2.4901219799e+01    0.2265557    0.1744538 -38.05 0.0005017112    1.154    0.133
        60 -11.4318    194.0237     66.1667   4.7537707986e+00   2.8870553821e+01    0.3897784     0.191907 -23.69   0.00152478    2.737    0.635
        61 -11.3217    182.5984     68.2167   6.8181756260e+00   3.0969755041e+01    0.2406115    0.2079508 -42.63  0.000357973    1.101    0.092
        62 -12.7320     75.6666    211.9195   6.0927799324e+01   2.0028317796e+01    0.5255378    0.2798886 -46.78  0.002527966    2.260    0.557
        63 -11.5667    220.6523    212.0762   3.0253928909e+01   1.7710722051e+00     0.195977    0.1434575  35.55 0.0008316431    1.785    0.440
        64 -11.3111    191.8818    193.6415   3.2254530063e+01   7.8823018663e+00    0.4635335    0.2433361 -60.24  0.001600272    5.892    0.830
        65 -13.4208    201.3071     48.2830   3.5949073249e+02   2.9896411663e+01    0.3632514    0.3015108 -66.97  0.002327026    1.094    0.086
        66 -12.6488    186.2440     48.0890   1.0977308705e+00   3.3133564634e+01    0.2761014    0.1799531 -22.62  0.001415069    1.813    0.448
        67 -13.3373     82.7540    249.0132   6.2644168180e+01   1.2068551561e+01    0.5280424    0.5218745  11.98  0.004064217    1.242    0.195
        68 -13.5735     77.2401    159.6069   5.3989223796e+01   3.1993386430e+01     1.585957    0.6578363 -67.98  0.005692765    2.764    0.638
        69 -12.5291     69.4440    144.5057   5.4012601828e+01   3.6992987794e+01     1.019712    0.5006717  29.10  0.004036049    2.040    0.510
