#   1 NUMBER                 Running object number                                     
#   2 MAG_AUTO               Kron-like elliptical aperture magnitude                    [mag]
#   3 X_IMAGE                Object position along x                                    [pixel]
#   4 Y_IMAGE                Object position along y                                    [pixel]
#   5 X_WORLD                Barycenter position along world x axis                     [deg]
#   6 Y_WORLD                Barycenter position along world y axis                     [deg]
#   7 A_WORLD                Profile RMS along major axis (world units)                 [deg]
#   8 B_WORLD                Profile RMS along minor axis (world units)                 [deg]
#   9 THETA_WORLD            Position angle (CCW/world-x)                               [deg]
#  10 FWHM_WORLD             FWHM assuming a gaussian core                              [deg]
#  11 ELONGATION             A_IMAGE/B_IMAGE                                           
#  12 ELLIPTICITY            1 - B_IMAGE/A_IMAGE                                       
         1 -14.8482      4.1893    184.4628   1.3643670046e+02   3.5595914216e+01     6.443557    0.8343344 -74.84   0.02328609    5.233    0.809
         2 -14.8113     43.6070    206.2165   1.3041472371e+02   2.7462521120e+01     13.92065     4.271321 -89.05   0.01421377   10.631    0.906
         3 -12.8838    200.3026     34.0616   5.8706992339e+01   3.0753752772e+01     1.293799     1.084545  31.65  0.007043788    1.351    0.260
         4 -13.4682    216.3869     16.4021   5.1936998348e+01   2.8788061620e+01     1.293294     0.959599  31.53  0.006938728    1.694    0.410
         5 -12.4295      2.4638     15.6175   1.1240142067e+02   7.1619893489e+01    0.9828883    0.2606581 -54.20  0.004535168    2.706    0.630
         6 -10.8249    105.8845    243.2963   1.2222904624e+02   1.2836601831e+01    0.2040701    0.1660199  20.29  0.001440614    1.689    0.408
         7 -11.4919    174.9139    249.7787   1.1081067951e+02   1.5468260916e+00      0.57076    0.1092801  42.00  0.002059601    3.978    0.749
         8 -10.4314     93.4572    250.0683   1.2498031541e+02   1.3525391965e+01    0.2071405    0.1426339  57.55 0.0009852626    1.123    0.109
         9 -12.3783     18.0764    233.2668   1.3644844166e+02   2.5280012675e+01    0.4589371    0.3543063  71.67  0.003909044    1.166    0.142
        10 -12.3788      3.5829    225.5884   1.3844578381e+02   2.7984846751e+01    0.7706196    0.4681853  70.36  0.006032579    1.158    0.137
        11 -11.7631     30.0216    249.0397   1.3529852498e+02   2.1426454521e+01    0.5374275    0.3188718  41.91  0.004019804    1.592    0.372
        12 -11.5621     38.2770    245.6428   1.3382289070e+02   2.1081489530e+01    0.5792515    0.2812967  81.09   0.00375941    1.958    0.489
        13 -12.7486     14.1326    240.7003   1.3739680373e+02   2.4417351833e+01     1.190565    0.4174409  51.02  0.007491485    1.971    0.493
        14 -10.8375     15.2285    249.5876   1.3759095711e+02   2.2858988048e+01    0.3612756    0.1595418  53.47  0.001368956    1.572    0.364
        15 -10.4989      8.5932    250.0934   1.3860358283e+02   2.3424956256e+01    0.3119504    0.1787564  48.75  0.001043427    1.410    0.291
        16 -10.8927      2.4432    248.6656   1.3946312559e+02   2.4233472306e+01    0.5722488    0.2020025 -81.71  0.003642993    2.534    0.605
        17 -10.6284    190.7422    247.9597   1.0783836908e+02  -6.4290841682e-01    0.2116934    0.1491497   5.61  0.001397062    1.663    0.399
        18 -14.3895     96.1840    229.3949   1.2264375429e+02   1.6472375153e+01      4.10479    0.5475594  44.37   0.01359012    4.811    0.792
        19 -11.0715    139.4904    248.8127   1.1688295495e+02   7.0680702409e+00    0.2826566    0.2199885 -81.21  0.002011498    1.703    0.413
        20 -13.1963     10.0766    206.9086   1.3652982576e+02   3.0760714824e+01    0.8490526     0.562861  53.86  0.002812095    1.298    0.230
        21 -10.2505    226.9407    202.6315   9.4435871095e+01  -7.3655072101e-01    0.3338092    0.2368282 -55.26 0.0008879126    2.451    0.592
        22 -11.3602     56.7092    192.6898   1.2674475257e+02   2.8565283316e+01    0.2976759    0.2392676 -42.43  0.001472805    1.807    0.447
        23  -8.0429    181.3302    192.2985   1.0107937673e+02   8.6706165699e+00    0.1348676    0.0961136  13.35 0.0007029611    1.641    0.391
        24 -11.4886     63.0807    185.2599   1.2470737558e+02   2.9277050891e+01    0.2426224    0.2136426 -65.90 0.0004968222    1.330    0.248
        25 -13.6706     34.0611    217.2909   1.3289978936e+02   2.6449829734e+01     0.759427    0.5048329  65.57  0.002713463    1.140    0.123
        26 -10.5768     73.8020    173.4152   1.2105318996e+02   3.0337991632e+01    0.2189949    0.1934293 -79.81 0.0002729979    1.148    0.129
        27 -12.9257     60.3652    170.8051   1.2372942440e+02   3.2652799002e+01    0.4672972    0.2608815 -47.73  0.001860065    2.298    0.565
        28 -11.5285     81.8818    164.7051   1.1807834111e+02   3.1072073521e+01     0.546717    0.4897982  77.51   0.00351379    1.036    0.035
        29 -12.4856     28.0085    224.7868   1.3438257482e+02   2.5743321803e+01    0.2740129     0.246342  89.07 0.0007875961    1.438    0.304
        30  -9.6664     95.4971    149.5567   1.1249242445e+02   3.2329000235e+01     0.271075    0.2531765  79.00 0.0008038681    1.034    0.033
        31 -11.7582     83.8359    148.4079   1.1516901665e+02   3.4382089638e+01    0.2822121    0.2342542 -54.99 0.0005190116    1.255    0.203
        32 -12.1418     67.5702    143.8380   1.1850821515e+02   3.7696377927e+01    0.6954775    0.4275374  66.07  0.003438088    1.840    0.456
        33  -8.7335     98.7663    145.4849   1.1097631313e+02   3.2704676830e+01    0.1742407    0.1354561  25.43 0.0003770483    1.542    0.352
        34  -9.2170    108.1637    135.3546   1.0669123536e+02   3.3365641989e+01     0.277685    0.1851414 -31.31  0.001261158    2.008    0.502
        35 -10.1610     95.1055    132.4693   1.0948081937e+02   3.6228968330e+01    0.2528499    0.2133953 -41.96 0.0004116888    1.286    0.223
        36 -10.8690     57.1213    132.0900   1.1941451732e+02   4.1708147241e+01    0.3684908    0.1627306 -77.89  0.001460629    2.848    0.649
        37  -8.8914    105.8475    122.6835   1.0462859528e+02   3.6609717831e+01    0.1867937    0.1730513  60.51 0.0003445784    1.091    0.083
        38 -10.4692     53.5013    118.4874   1.1821171247e+02   4.5287739842e+01    0.3753348    0.1233283 -67.37  0.001370243    3.073    0.675
        39  -9.5822    167.5338    112.5109   8.6956883513e+01   2.6018277783e+01    0.3065194    0.2597828 -78.42 0.0008322619    1.442    0.306
        40  -8.7256    203.6918    111.0430   7.9197179568e+01   1.8041668076e+01    0.2716818      0.14977  20.97 0.0008990236    3.399    0.706
        41 -11.1171    242.5978    101.1973   7.0231776980e+01   1.1124599748e+01    0.3869399     0.227061   7.79  0.001488622    3.064    0.674
        42  -8.9842    159.6887     78.6503   7.9309089123e+01   3.4236913083e+01    0.1622556    0.1213115  11.88 0.0007045423    1.717    0.418
        43  -8.4229    184.5392     77.4763   7.3833616775e+01   2.8344826750e+01    0.1519814    0.1474444   4.07 4.298005e-05    1.040    0.038
        44 -10.4281      2.2722     62.1320   1.2472705589e+02   6.2256466022e+01    0.2836217   0.08567981 -70.69  0.001208987    2.829    0.646
        45 -10.8834    100.7594    247.8069   1.2353413571e+02   1.2864402840e+01    0.3343851    0.1441397 -65.08  0.001853068    2.873    0.652
        46  -8.7550     62.8029    250.5757   1.3014311895e+02   1.7421615440e+01    0.1481753   0.06892668  51.25  0.000403939    1.577    0.366
        47 -11.4142     19.5411     26.6625   1.0786945971e+02   6.8430117806e+01    0.3653149    0.2309564  40.95  0.001391364    2.237    0.553
