#   1 NUMBER                 Running object number                                     
#   2 MAG_AUTO               Kron-like elliptical aperture magnitude                    [mag]
#   3 X_IMAGE                Object position along x                                    [pixel]
#   4 Y_IMAGE                Object position along y                                    [pixel]
#   5 X_WORLD                Barycenter position along world x axis                     [deg]
#   6 Y_WORLD                Barycenter position along world y axis                     [deg]
#   7 A_WORLD                Profile RMS along major axis (world units)                 [deg]
#   8 B_WORLD                Profile RMS along minor axis (world units)                 [deg]
#   9 THETA_WORLD            Position angle (CCW/world-x)                               [deg]
#  10 FWHM_WORLD             FWHM assuming a gaussian core                              [deg]
#  11 ELONGATION             A_IMAGE/B_IMAGE                                           
#  12 ELLIPTICITY            1 - B_IMAGE/A_IMAGE                                       
         1 -11.5952    244.9734     31.5047   8.8766973147e+00   2.1049766772e+01    0.7095049    0.5227393 -44.70  0.002825078    1.127    0.112
         2  -9.1317    116.2529     12.2637   1.9050349918e+01   5.4001922929e+01    0.3810987    0.2083465  65.40  0.001723073    1.655    0.396
         3  -9.8381    120.1457      9.0397   1.7010259105e+01   5.3308562842e+01    0.4136617    0.3515282  53.70  0.002185794    1.088    0.080
         4  -8.0004     95.5266     11.5752   2.3586495783e+01   5.9334785143e+01    0.1426715    0.1238047  46.10  7.87506e-05    1.031    0.030
         5  -8.3341      8.5050      9.4899   6.6852539179e+01   7.5313257420e+01    0.2362763   0.07750783 -45.33   0.00103963    2.461    0.594
         6  -8.2758    214.8826      9.6761   6.1060880334e+00   2.9597645065e+01    0.1786945    0.1607466 -28.27 0.0004276665    1.247    0.198
         7  -8.4994     90.3471    242.9535   7.8995994820e+01   1.4503383806e+01    0.2303897    0.1408021 -66.27  0.001056189    2.132    0.531
         8  -8.6933    237.1699    249.8663   5.1941262635e+01  -4.7902696861e+00    0.1504292   0.08902081   5.38 0.0006259119    1.325    0.245
         9  -7.8691     61.7611    250.2669   8.5392992078e+01   1.6702022995e+01    0.1407889    0.1169796  20.60  0.001052901    1.360    0.265
        10 -12.6349      9.4917    208.6736   9.4242573693e+01   2.9462968738e+01     2.061191    0.7608536  49.95   0.01092475    2.028    0.507
        11 -12.3093     71.9546    218.1811   8.0843101955e+01   2.1095750072e+01     4.299502     1.172716  27.11   0.01507048    3.957    0.747
        12 -11.2007      5.4586    249.2941   9.6298250716e+01   2.2455501203e+01     0.966854    0.4457143  18.37  0.005489152    2.754    0.637
        13 -10.1548     10.9006    239.3877   9.4986737602e+01   2.3666355882e+01    0.3635648     0.186223  59.46 0.0007046462    1.539    0.350
        14 -13.0866      5.9698    233.3395   9.5773950455e+01   2.5154665003e+01      2.27411     0.996229  17.62   0.01201014    2.940    0.660
        15  -6.9339     94.2902    239.6628   7.7881595716e+01   1.4541629166e+01    0.1198768   0.07308695  53.83 0.0002880791    1.639    0.390
        16  -7.4231     49.3739    237.7738   8.7159014160e+01   2.0171548851e+01    0.1323276    0.1007951 -63.85 0.0004855545    1.662    0.398
        17  -7.8987    129.7805    230.1880   6.9390993047e+01   1.1340116511e+01    0.1595375    0.1222348  12.60 0.0004163322    1.291    0.226
        18  -8.4513    123.9873    230.4902   7.0651320904e+01   1.2090103713e+01    0.1975353   0.09641648  33.61  0.001031808    1.590    0.371
        19  -8.2035     53.5813    229.7262   8.5769691866e+01   2.1134021895e+01    0.1491172   0.09858719  76.59 0.0009485232    1.619    0.382
        20  -9.9418     39.9111    211.3578   8.7598870533e+01   2.6066870148e+01    0.3392487    0.1867016  88.33  0.001595996    1.996    0.499
        21 -10.1007     46.7624    210.4616   8.5977880498e+01   2.5510166965e+01    0.2827281    0.2072618 -85.49  0.001844865    1.465    0.318
        22 -11.9305      4.2666    132.8695   9.1914773514e+01   4.6547971738e+01     2.593861    0.7115042  82.29  0.007805888    5.357    0.813
        23 -11.1022     16.4489    192.8128   9.1986709151e+01   3.2077162587e+01    0.3535401    0.3121414  36.21 0.0008480829    1.223    0.182
        24 -13.1801     27.2625    183.5745   8.8836186157e+01   3.3064988901e+01     2.262254     1.024761  60.59   0.01033684    2.140    0.533
        25  -9.6637    119.9840    197.3211   6.7335821017e+01   1.8366124699e+01    0.2003991    0.1931469 -29.23 0.0002354338    1.210    0.174
        26  -8.1241    125.9072    195.5901   6.5708253094e+01   1.7777878421e+01    0.2035263    0.1771311 -13.41 0.0006411608    1.279    0.218
        27 -10.5609      5.9268    191.6219   9.4397886964e+01   3.3192803970e+01    0.5420332    0.1729533 -77.31  0.002504656    2.976    0.664
        28  -8.0127     67.9899    192.7975   7.9408185267e+01   2.6587983320e+01    0.2010662    0.1435652  54.68 0.0005060419    1.284    0.221
        29  -9.0351      1.6063    188.5663   9.5288858542e+01   3.4158740860e+01    0.2606887    0.1222497  81.18  0.001419083    1.973    0.493
        30  -8.6199     63.4424    181.9768   7.9447471493e+01   2.9453347840e+01    0.2135647    0.1693711  28.52 0.0005426313    1.238    0.192
        31 -10.1271      3.1433    179.7687   9.4592567729e+01   3.5907035074e+01    0.4058011    0.2564416 -85.34   0.00219554    1.484    0.326
        32  -9.9513      8.9740    179.0105   9.3131923973e+01   3.5628899035e+01    0.3465893    0.1515006 -79.84  0.001104668    2.176    0.540
        33 -10.6327      7.0065    171.0407   9.3250995453e+01   3.7524526221e+01    0.5870644    0.3121241  45.82  0.002432733    1.594    0.373
        34  -7.6375    208.3006    176.9950   4.5206889253e+01   7.7306252958e+00    0.1695026    0.1398881  -9.54 0.0003396104    1.103    0.094
        35  -9.3117     23.7139    202.9971   9.0810846227e+01   2.9333892380e+01    0.2645482    0.1496429  32.48  0.001399196    1.547    0.354
        36  -9.9977     48.6795    169.6546   8.2107570748e+01   3.3947241859e+01    0.3285992    0.2558061 -22.76  0.001283622    1.712    0.416
        37  -7.0779    221.6668    166.3368   4.0853214610e+01   7.1898805204e+00    0.1107147    0.1017188 -65.65 0.0004328806    1.741    0.426
        38  -9.9276     55.4629    164.5579   7.9702158811e+01   3.4322132207e+01    0.3017072    0.2713821  -7.57 0.0007637278    1.336    0.251
        39  -7.7509     29.3108    163.5492   8.6862502522e+01   3.7349672755e+01    0.1534336    0.1217176  11.64 0.0009214401    1.480    0.324
        40  -8.6969     79.7965    161.1188   7.2456281508e+01   3.1896987596e+01    0.3789473    0.1254077  45.13  0.001318332    2.968    0.663
        41  -9.4846     73.5733    157.2990   7.3667602274e+01   3.3651532353e+01    0.4099242     0.243524  67.36  0.001302195    2.163    0.538
        42 -10.1335     74.7298    151.2531   7.2452574629e+01   3.4892776863e+01    0.4375612    0.3423334 -26.97  0.001177926    1.587    0.370
        43 -11.5937     68.1351    144.6025   7.3408665435e+01   3.7383063989e+01     1.034113    0.5652884  52.09  0.003837276    1.941    0.485
        44  -9.1584     67.0030    156.3576   7.5420211233e+01   3.4763545046e+01    0.2510768    0.2354754   8.24  0.000436961    1.188    0.158
        45  -8.3055    135.0419    153.3805   5.6354088944e+01   2.4411790569e+01    0.2900203    0.1978554 -24.55  0.001356105    1.809    0.447
        46  -8.6967     88.5432    153.2969   6.8795956571e+01   3.2370432840e+01    0.2595349    0.2100256  71.01 0.0009350788    1.362    0.266
        47 -11.2601     52.7197    152.0069   7.9024719056e+01   3.7583249035e+01    0.4875634    0.3185481 -33.88  0.001337035    2.034    0.508
        48  -9.5703     41.0663    141.9712   8.1346133729e+01   4.1300049248e+01    0.4687001     0.240143  67.53  0.002001882    2.399    0.583
        49  -9.3280    246.1220    139.7850   3.1829521207e+01   7.0708391075e+00    0.2265652    0.1530727  16.08  0.001356628    1.599    0.375
        50  -8.5256     92.9943    138.3155   6.4882704184e+01   3.5101528034e+01    0.4298065    0.2732579 -16.63  0.001698723    2.677    0.626
        51 -10.1324     79.4788    136.7337   6.8664762208e+01   3.7620716127e+01    0.2727387    0.2655575  39.12 0.0003450732    1.042    0.041
        52 -11.2864     58.0157    130.7240   7.4439499538e+01   4.2085547635e+01    0.9917141    0.5240311 -71.02  0.004334231    2.012    0.503
        53  -9.2152     54.4710    127.4867   7.5092895750e+01   4.3327855188e+01    0.3585475    0.2033755 -46.62  0.001008318    1.911    0.477
        54  -8.5534     32.6329    130.8702   8.2732450626e+01   4.4861951234e+01    0.3220004    0.1754401  66.20 0.0009676697    2.093    0.522
        55  -8.0607    105.2744    129.0704   5.9412787323e+01   3.5088465158e+01    0.3405676    0.1817715  44.56  0.001397082    1.828    0.453
        56 -10.3044     42.7694    124.7811   7.8596157024e+01   4.5351338489e+01    0.2272634     0.222527  59.58 0.0002395671    1.064    0.060
        57 -11.3215     21.2176    165.0273   8.9175639234e+01   3.7738275177e+01    0.6790142    0.3780619  43.51  0.003629148    1.574    0.365
        58  -8.5060     20.8193    137.1896   8.7129127775e+01   4.4341725821e+01    0.1873477    0.1540317  68.31 0.0002718511    1.120    0.107
        59  -7.6696    103.8700    118.1767   5.7414047973e+01   3.7818706112e+01    0.1947649    0.1729859 -10.74  0.000438473    1.243    0.196
        60  -9.1891     39.5627    117.7209   7.8683368203e+01   4.7452132289e+01     0.327512    0.1549948  54.97  0.001245096    2.544    0.607
        61  -9.7401     41.5501    114.6614   7.7522534175e+01   4.8010100886e+01    0.6281966    0.2311245  57.31   0.00177071    5.301    0.811
        62 -11.3781     12.9620    161.2258   9.1162711619e+01   3.9282104546e+01     1.505531    0.4298086  76.77   0.00443525    5.962    0.832
        63  -8.5096     28.6899    108.3449   8.1246828130e+01   5.0840121047e+01    0.2178724    0.1387767  60.10 0.0006839826    1.722    0.419
        64  -8.5228     26.3131    105.6845   8.1759481488e+01   5.1710448898e+01    0.2268076    0.1713504  62.86 0.0007948591    1.385    0.278
        65  -8.8790     32.9396    106.7481   7.9442783312e+01   5.0857999832e+01    0.4569035    0.1572042  47.61  0.001588054    3.483    0.713
        66  -8.3198      2.5461    102.1294   9.0201822572e+01   5.4146446632e+01    0.3054795    0.1254456  36.38  0.001400818    2.452    0.592
        67  -8.3089    189.3196     98.9564   3.1940083024e+01   2.3520709441e+01    0.2226073     0.195371  42.41 0.0004017819    1.168    0.144
        68  -7.4149    202.4436     96.3951   2.9065035913e+01   2.1170980710e+01    0.1337818    0.1263405 -15.07 0.0001479932    1.019    0.019
        69  -7.3033    123.2452     96.3776   4.6210596432e+01   3.8638814541e+01    0.1552164    0.1199584  -8.97 0.0006941633    1.637    0.389
        70  -8.0909    116.4663     92.9949   4.7201009204e+01   4.0807184230e+01    0.2227588    0.1982846  38.47 5.219456e-05    1.087    0.080
        71  -7.2530     85.2648     90.3204   5.6455762499e+01   4.7648597488e+01    0.1501193    0.1167103 -16.78 0.0002247319    1.556    0.357
        72  -7.2342    156.6829     82.3671   3.3990442607e+01   3.3668871056e+01    0.1573979    0.1173464 -72.51 0.0001576144    1.779    0.438
        73  -8.4429     88.4883     78.1289   5.1784317376e+01   4.9755980740e+01    0.2484998    0.2028089  39.70  0.001248315    1.200    0.167
        74  -6.7804    178.7123     77.6844   2.8363001987e+01   2.9301840685e+01    0.1436026    0.1117216  14.62 0.0006999706    1.588    0.370
        75  -7.3095    157.2751     76.3252   3.2146274878e+01   3.4565918004e+01    0.1490096    0.1166762  12.63 0.0002893849    1.584    0.369
        76  -8.0123    138.9010     58.7030   3.0815509800e+01   4.1974607807e+01    0.2002995    0.1855659  65.21 0.0002653868    1.062    0.058
        77  -7.7857      7.2124     56.4049   8.2222768307e+01   6.5121412057e+01    0.1677757     0.111745  29.53 0.0007006608    1.678    0.404
        78 -11.0320    214.8567     52.2749   1.6523652665e+01   2.4781738394e+01    0.5020728    0.4854168 -78.26  0.002664512    1.089    0.082
        79 -11.2053    224.9445     47.9291   1.4380040130e+01   2.3183224020e+01    0.8907564    0.6044502 -82.36   0.00498086    1.707    0.414
        80 -11.2147    230.9604     41.6418   1.2324402607e+01   2.2693989858e+01    0.7639489    0.3792248  59.79   0.00140814    2.162    0.538
        81  -8.3213    177.0169     40.0840   1.8130100302e+01   3.5122161721e+01    0.1994501    0.1947357  73.38 0.0003823158    1.077    0.072
        82  -9.0320    104.9575    248.0518   7.6438554582e+01   1.1864620514e+01    0.1708739    0.1399837  34.64 0.0003235504    1.094    0.086
        83  -7.7017     79.4815     16.5178   3.0778076894e+01   6.2585112438e+01    0.1402202    0.1264193  35.49 4.846892e-05    1.021    0.021
        84  -9.1424    248.5606    247.5659   4.9811879548e+01  -5.7742761206e+00    0.2050536   0.08361368 -28.23  0.001257592    2.376    0.579
        85  -8.2046     42.0106    247.5031   8.9184909215e+01   1.9291430088e+01    0.2261036    0.1298591  37.78 0.0008404885    1.295    0.228
        86  -8.9176     39.6263    243.7799   8.9475081034e+01   2.0165843416e+01     0.330094    0.1588702  80.78  0.001892704    2.452    0.592
        87  -8.4493     30.0164    242.4581   9.1334770290e+01   2.1357150832e+01    0.1499293    0.1384868  84.93 0.0001641261    1.352    0.260
