#   1 NUMBER                 Running object number                                     
#   2 MAG_AUTO               Kron-like elliptical aperture magnitude                    [mag]
#   3 X_IMAGE                Object position along x                                    [pixel]
#   4 Y_IMAGE                Object position along y                                    [pixel]
#   5 X_WORLD                Barycenter position along world x axis                     [deg]
#   6 Y_WORLD                Barycenter position along world y axis                     [deg]
#   7 A_WORLD                Profile RMS along major axis (world units)                 [deg]
#   8 B_WORLD                Profile RMS along minor axis (world units)                 [deg]
#   9 THETA_WORLD            Position angle (CCW/world-x)                               [deg]
#  10 FWHM_WORLD             FWHM assuming a gaussian core                              [deg]
#  11 ELONGATION             A_IMAGE/B_IMAGE                                           
#  12 ELLIPTICITY            1 - B_IMAGE/A_IMAGE                                       
         1  -9.6932     41.3074     12.7567   8.0945654410e+01   6.8623219345e+01    0.2874303    0.1718763 -15.53  0.001166818    1.609    0.378
         2  -9.3389     85.2200     11.4700   6.3800594691e+01   6.1360203770e+01    0.2998501    0.1258917  56.06   0.00127405    2.527    0.604
         3  -9.6938     58.0366      9.9809   7.2485326943e+01   6.6502742227e+01    0.2459155    0.1590556  37.89  0.001329992    1.508    0.337
         4  -9.0415     29.7942     10.0226   8.5039521931e+01   7.0432388924e+01    0.2090004     0.127695  11.96  0.001263621    1.664    0.399
         5  -8.6970    103.5363      9.5001   5.7902009743e+01   5.7664923142e+01    0.1311665    0.1201307  31.92 0.0002510999    1.070    0.065
         6  -9.6751     35.5548      6.5232   8.0442981568e+01   7.0216875133e+01    0.2457643    0.1921052 -40.37  0.001645255    1.658    0.397
         7 -10.1721     72.6305      6.8559   6.5654079441e+01   6.4294532694e+01    0.3067873     0.179594  55.28  0.001609421    1.937    0.484
         8  -8.7815     24.6645      5.3162   8.5221590313e+01   7.1671550999e+01   0.09612811    0.0906869 -37.57 0.0007047731    1.694    0.410
         9  -8.7384     17.3272      3.6667   8.8264622426e+01   7.2660038232e+01   0.09447546   0.08809368 -41.33 0.0003424203    1.716    0.417
        10  -9.0774     80.0253      2.0000   6.0982230932e+01   6.3341195028e+01    0.2067082    0.0656549  54.98  0.000806599    2.971    0.663
        11  -9.4598     64.2460      1.5395   6.5910929386e+01   6.6367405771e+01    0.2246673    0.1165606  53.25  0.001143916    2.134    0.531
        12 -11.6052     98.9859    226.9038   1.1332206911e+02   1.5083961743e+01     0.346299    0.3215608  63.58  0.001888335    1.222    0.182
        13  -8.9366     73.5299    229.4822   1.1839052485e+02   1.8276032855e+01    0.1206718   0.09067889  65.32 0.0008092796    1.043    0.041
        14 -10.9686    164.4286    226.4303   1.0055023140e+02   4.5256500788e+00    0.3888465    0.3053519  39.44  0.001657158    1.062    0.058
        15  -9.7546    160.5349    227.4657   1.0145067404e+02   5.0185197848e+00    0.2218627    0.1925086  64.84 0.0008452369    1.290    0.225
        16  -9.2139    185.3709    227.2056   9.6669005272e+01   8.8974369023e-01    0.1526261    0.1202829 -53.62 0.0009418129    1.682    0.405
        17 -10.4551     88.5435    225.2369   1.1515531533e+02   1.6941819853e+01    0.3774115    0.1098305 -62.01  0.001559488    3.666    0.727
        18  -9.9835    128.5253    225.9580   1.0747314301e+02   1.0597739597e+01    0.1684278    0.1248143 -63.52  0.001025089    1.580    0.367
        19  -8.9228    171.0944    225.5206   9.9132372895e+01   3.5411059101e+00    0.1841431    0.1066991  41.67 1.050499e-06    1.450    0.310
        20 -10.0928    108.3572    223.2597   1.1109614470e+02   1.4308532031e+01    0.2351165    0.2030658  -0.73  0.001494829    1.727    0.421
        21 -11.3030    125.7721    221.2339   1.0741283378e+02   1.1879978615e+01    0.3513537    0.2969956  32.12 0.0008574191    1.270    0.213
        22  -8.9437    157.5106    221.9048   1.0123510950e+02   6.4267582327e+00    0.1639622     0.129287 -46.51 0.0005542379    1.502    0.334
        23  -9.3802     19.9822    222.5041   1.2752599866e+02   2.6045729470e+01    0.1192958   0.09695442  -4.93 0.0007211234    2.549    0.608
        24  -9.3526    114.9635    221.0524   1.0953241072e+02   1.3665995714e+01    0.1785576     0.152355   8.03 0.0006561263    1.644    0.392
        25  -8.5859    148.7213    220.6616   1.0278625120e+02   8.1330323872e+00    0.1215265   0.09718665   5.79 0.0002615658    1.618    0.382
        26  -8.8008     75.2233    220.3472   1.1723592925e+02   1.9765286096e+01    0.1734317   0.08759455  49.61 0.0007931682    1.640    0.390
        27 -10.4308     99.4659    217.9879   1.1224563201e+02   1.6668475826e+01    0.3294146    0.1829699  85.86  0.001546341    2.609    0.617
        28  -9.0750    143.5233    216.9539   1.0329185849e+02   9.6574375811e+00    0.1735589    0.1303232 -55.03 0.0005337741    1.554    0.356
        29  -9.8523    131.1214    214.7888   1.0548518880e+02   1.2150509173e+01     0.244769    0.1848692 -50.26 0.0009619872    1.550    0.355
        30  -9.9903     78.5943    211.8462   1.1573501428e+02   2.0951918613e+01    0.2505872    0.2030843 -10.93  0.001478184    2.229    0.551
        31  -8.4972    115.4970    210.4743   1.0809006380e+02   1.5554830384e+01    0.1318589    0.1101888  59.70 -4.70806e-05    1.035    0.034
        32  -9.1156    202.5214    208.9596   9.0413902056e+01   6.8453075672e-01    0.1823467    0.1253542 -32.15  0.001025228    1.575    0.365
        33  -8.7341     99.3619    206.6738   1.1093136819e+02   1.8881142598e+01    0.1408352   0.08505241  67.37 0.0007041126    1.790    0.441
        34  -8.7000     49.3329    202.6701   1.2069035020e+02   2.6685213953e+01    0.1312473   0.07100543  67.68 0.0005465738    1.722    0.419
        35  -9.4671     89.0732    199.5067   1.1220666952e+02   2.1916003175e+01    0.2434649    0.1620865  85.16 0.0009346221    1.607    0.378
        36 -10.9517    172.9930    195.7917   9.3918817479e+01   8.1150312048e+00    0.3164847    0.2991537 -39.05 0.0007983025    1.184    0.156
        37  -9.2736    174.2902    191.7083   9.2923474198e+01   8.5949068241e+00    0.2207851    0.1583452  52.50 0.0005021832    1.447    0.309
        38  -9.3206    250.6297    197.7836   7.9690077242e+01  -5.6630084442e+00    0.1667767    0.1061552 -35.92 0.0007732505    1.681    0.405
        39  -9.6635    126.4426    197.4065   1.0396464851e+02   1.6246240004e+01    0.2865281    0.2349688  22.84  0.001267204    1.440    0.306
        40  -8.8532    112.7748    198.1809   1.0699771890e+02   1.8418217828e+01    0.2340451    0.1277866  71.13 0.0009518404    2.815    0.645
        41  -8.9770     67.3410    195.6772   1.1634259579e+02   2.5834751407e+01    0.1370908   0.07922335  68.17 0.0007050705    1.725    0.420
        42  -8.9618     44.6270    194.3008   1.2090519000e+02   2.8999762479e+01    0.1326366   0.07077418  65.73 0.0007029696    1.751    0.429
        43  -9.1823    180.6849    193.3698   9.1918726176e+01   7.1117279536e+00     0.202292    0.1644273  75.66  0.001080773    1.685    0.406
        44  -8.5054     78.3485    193.6647   1.1378802578e+02   2.4723689660e+01    0.1415024   0.08348312  68.91 0.0007047707    1.778    0.438
        45  -8.7449    124.3829    192.1274   1.0360677123e+02   1.7659630476e+01    0.1782866    0.1269481 -74.94 0.0004669356    1.636    0.389
        46  -9.0985    139.0704    190.0370   1.0008518899e+02   1.5453637151e+01    0.2237617      0.16229  74.33  0.001125171    1.712    0.416
        47  -9.3686    156.8143    188.1466   9.5946724022e+01   1.2531745995e+01    0.2126562    0.1853117  62.67 0.0008946795    1.203    0.169
        48 -10.7218     96.0914    187.5740   1.0915322760e+02   2.3340381111e+01    0.5347201    0.2237482  52.63   0.00209084    2.459    0.593
        49  -9.1364     55.9925    187.9857   1.1793655584e+02   2.8969779141e+01    0.2394738   0.09383021  56.64   0.00102028    2.675    0.626
        50  -8.9826     35.2190    187.9836   1.2228513115e+02   3.1415487168e+01    0.2299526   0.07656629  60.86 0.0008840825    3.638    0.725
        51  -8.9807    120.6768    186.9017   1.0360857537e+02   1.9377517272e+01    0.1975207    0.1246556 -69.76 0.0009451542    1.857    0.461
        52  -9.7881    109.2828    185.9563   1.0599346023e+02   2.1530492439e+01    0.3993761    0.2096423  73.84   0.00141259    3.677    0.728
        53 -10.8489    211.1791    183.3065   8.3986707508e+01   3.1441868039e+00    0.4894941    0.2869547  18.59  0.002187892    2.186    0.542
        54 -10.0719    197.9248    183.5136   8.6603088488e+01   5.5726908222e+00    0.4143445    0.1863885 -49.61   0.00162026    2.925    0.658
        55 -10.7717     13.6164    183.5504   1.2632575153e+02   3.4532435731e+01     0.339741    0.2511424 -27.10  0.002164405    2.456    0.593
        56  -8.8403    147.9939    181.4812   9.6666595083e+01   1.5492101059e+01    0.2011943    0.1142664  61.73   0.00073993    2.388    0.581
        57 -10.2775    204.6076    176.2513   8.3844714655e+01   5.5374859168e+00    0.3555594    0.2370833 -27.17  0.001011558    1.571    0.363
        58  -9.9677     77.4519    176.2876   1.1182219471e+02   2.8649750392e+01    0.4426355    0.1597721  52.66  0.001657961    3.076    0.675
        59  -9.3108     60.7068    177.3545   1.1574786524e+02   3.0710429975e+01    0.3867016   0.09076701  49.56  0.001235843    4.556    0.781
        60  -8.9332     44.8174    182.8448   1.1980969858e+02   3.1448305445e+01    0.1795481    0.1172475  67.25 0.0007519713    1.364    0.267
        61  -8.7015    160.4819    176.0117   9.2926189732e+01   1.4169066024e+01    0.1945947    0.1281939 -74.67 0.0007710813    2.484    0.597
        62  -9.8739    106.6834    176.0007   1.0505425935e+02   2.4115145065e+01    0.3081851    0.1498749  60.51  0.001177494    2.739    0.635
        63  -8.9342     24.3363    175.6627   1.2352937814e+02   3.5223819405e+01    0.1302374   0.06935307  68.87 0.0007051619    1.750    0.429
        64  -8.8224     45.3238    172.6564   1.1867393376e+02   3.3655239486e+01    0.1364435   0.07852757  70.86 0.0007050557    1.734    0.423
        65  -9.6448    207.5182    170.4686   8.2091750370e+01   5.9627875640e+00    0.2836241    0.1319814  42.47  0.001044132    2.085    0.520
        66  -9.2874    122.1721    170.1242   1.0048121737e+02   2.2678827614e+01    0.2927461    0.1728639  63.83  0.001040063    2.149    0.535
        67  -9.3864     55.3221    170.1602   1.1613086829e+02   3.3020746247e+01    0.2564036    0.1311382  61.23  0.001013283    2.077    0.518
        68 -10.2729    214.4476    167.7525   8.0193446555e+01   5.0923710941e+00    0.3137064    0.2092583  -1.35  0.001025982    1.919    0.479
        69  -9.3649    100.1943    166.8589   1.0510842276e+02   2.7241074364e+01    0.3805463     0.145643  52.65  0.001330147    3.099    0.677
        70  -9.1991    139.8250    165.5562   9.5543646884e+01   2.0337732361e+01    0.2850482    0.1921634  84.77  0.001193177    2.330    0.571
        71  -9.8231     80.9645    165.0735   1.0943040358e+02   3.0683839277e+01    0.4328434    0.2125539  69.56  0.001571219    3.374    0.704
        72  -9.2038     38.1720    165.1611   1.1950671631e+02   3.6154246057e+01       0.1782    0.1220844  71.44 0.0005910277    1.331    0.248
        73  -9.1901    148.8210    164.1084   9.3198916861e+01   1.8875122074e+01    0.2283049     0.198683  74.69  0.001212041    1.255    0.203
        74  -9.1335     70.3368    163.6864   1.1177877787e+02   3.2533761324e+01    0.1432075   0.09115466  71.33 0.0006135344    1.692    0.409
        75  -9.6379      9.7072    161.5277   1.2554688426e+02   3.9670165848e+01    0.3065544    0.1224807  75.21  0.001380502    2.806    0.644
        76  -8.5363    178.3153    161.6223   8.6175965588e+01   1.3395080815e+01    0.1498946    0.1187049 -87.10 0.0007027764    1.804    0.446
        77  -9.4040     93.4446    161.0919   1.0579161917e+02   2.9665045737e+01    0.2998589    0.1640795  56.40  0.001315962    1.994    0.498
        78  -8.8804     23.4857    160.0010   1.2234630568e+02   3.8806381315e+01     0.180515   0.08086424  80.27 0.0008099056    2.517    0.603
        79  -8.7100    205.2928    159.3521   8.0166278478e+01   8.3312381515e+00    0.1500057    0.1084089   1.45 0.0007030207    1.679    0.404
        80  -9.6310    106.1591    158.7022   1.0227738896e+02   2.8084171524e+01    0.3542587     0.205712  61.58  0.001512766    2.075    0.518
        81  -8.8611    167.9573    157.9573   8.7639491113e+01   1.6248176526e+01      0.29629    0.1874613  87.78 0.0009519965    4.075    0.755
        82 -10.1387     50.8495    155.8564   1.1544380932e+02   3.6871139449e+01    0.3819564    0.1765364  58.99  0.001669669    2.520    0.603
        83  -9.7506    213.2321    155.4156   7.7772598208e+01   7.4352113830e+00    0.2705204     0.225476  46.82 0.0009158175    1.287    0.223
        84  -9.3030    120.2416    156.1072   9.8361007762e+01   2.6140428367e+01    0.3066119    0.1850363  66.24  0.001250873    2.238    0.553
        85  -9.8544     83.0447    155.6142   1.0746226914e+02   3.2570214017e+01     0.449867    0.1880007  57.25  0.001569393    3.383    0.704
        86 -10.0986     69.5159    154.6923   1.1068766008e+02   3.4749465300e+01    0.4399012    0.1749829  54.12  0.001649109    3.086    0.676
        87  -9.4061    134.0573    153.8214   9.4572653776e+01   2.4005204621e+01    0.3301005    0.2197898  81.45  0.001343397    2.344    0.573
        88  -9.3710     99.8777    151.9188   1.0261377043e+02   3.0728593180e+01    0.3544492    0.1601406  52.63  0.001346447    2.525    0.604
        89  -9.4518    190.6429    150.6699   8.1197070834e+01   1.2928324334e+01    0.2961292    0.2244651 -84.02  0.001335792    2.069    0.517
        90  -9.5190     29.4740    150.7471   1.2001959446e+02   4.0363394326e+01     0.315355    0.1278815  63.07  0.001285607    3.224    0.690
        91 -10.1797     40.6363    148.4320   1.1702437294e+02   3.9768692012e+01    0.4776883    0.1987908  58.74  0.001962163    3.036    0.671
        92  -8.4245    229.6334    149.2945   7.3398979899e+01   5.2481279880e+00    0.1345433    0.1135871 -77.37 0.0007029178    1.718    0.418
        93 -10.3695    108.3044    146.0642   9.9374864368e+01   3.0623358411e+01    0.6627384    0.3365236  65.60  0.002153318    3.690    0.729
        94 -10.7340     57.2722    146.6944   1.1260059703e+02   3.8254095168e+01     0.574086    0.2573989  60.14  0.002257522    3.036    0.671
        95 -10.3552    149.7433    145.6571   8.9106693991e+01   2.2600057340e+01     0.575965    0.3513832  75.86  0.001977439    3.267    0.694
        96  -9.7149    125.9308    143.9574   9.4504181985e+01   2.7804046191e+01    0.4423052    0.2727126  81.80  0.001568649    3.101    0.677
        97  -9.9842     88.9359    144.5917   1.0407601626e+02   3.4255275047e+01    0.3701896     0.208639  61.58  0.001103234    2.230    0.552
        98  -9.5003     13.3198    146.2328   1.2342952211e+02   4.2830922420e+01    0.2274573    0.1147522  59.19  0.001187471    2.031    0.508
        99  -9.0670      3.0198    142.4982   1.2553581404e+02   4.4454211959e+01    0.2519938   0.09364818  70.39  0.001036215    3.473    0.712
       100  -8.5370    182.6631    142.3445   8.0969511861e+01   1.6235014486e+01    0.1554356    0.1227555 -84.04 0.0007049209    1.771    0.435
       101  -9.8579     71.0200    141.8873   1.0828749118e+02   3.7586233838e+01    0.4240561    0.1823423  56.48  0.001547312    3.220    0.689
       102 -10.1787     24.0766    138.9395   1.2004852257e+02   4.3616325852e+01    0.4798245    0.2133048  66.28  0.002093727    2.907    0.656
       103  -8.8591    214.9667    140.0000   7.3968304247e+01   9.7866389909e+00    0.2341289   0.08293606  47.90 0.0007999858    2.925    0.658
       104  -9.9124     39.6102    136.6523   1.1576475988e+02   4.2667439114e+01    0.2988079    0.1796864  65.25  0.001060964    1.838    0.456
       105  -8.9918    180.2914    134.6367   7.9658939747e+01   1.8276588427e+01    0.1562959    0.1226069 -76.14 0.0005670408    1.702    0.413
       106  -9.3664    113.4413    133.9516   9.5534593791e+01   3.2501366940e+01    0.3169038     0.179282  71.93  0.001034936    3.533    0.717
       107 -10.5399     84.7227    132.7076   1.0295673326e+02   3.7760024496e+01    0.6007213    0.2913932  55.23  0.001863032    2.631    0.620
       108 -10.2752    133.4829    132.7701   9.0129660134e+01   2.8816118884e+01    0.4448748    0.2650121  64.37  0.001700448    2.357    0.576
       109  -9.2954    143.6779    132.3113   8.7501029277e+01   2.6782069490e+01    0.2523427    0.1891305  88.77   0.00110169    1.832    0.454
       110  -9.2335    153.9716    130.4835   8.4591187558e+01   2.4954681758e+01    0.3121226    0.1960717 -80.83  0.001033069    3.345    0.701
       111 -10.5178    100.9388    129.4001   9.7870790283e+01   3.5849021566e+01    0.6884492    0.3400016  56.84  0.002523829    2.741    0.635
       112 -10.6560     74.3416    130.3999   1.0535944682e+02   3.9877975113e+01    0.4008896    0.2097694  53.57  0.001716489    2.246    0.555
       113 -10.1203     14.0018    130.3991   1.2167437770e+02   4.6436601890e+01    0.3821747    0.1775328  58.26  0.001749996    2.468    0.595
       114  -9.0608    169.7048    130.7428   8.1036140271e+01   2.1417069026e+01    0.2449468    0.1299151  58.34  0.000889749    2.354    0.575
       115  -9.9813    119.6557    126.6022   9.2241454132e+01   3.3007591401e+01    0.6348472    0.2885867  58.66  0.001959916    3.636    0.725
       116 -10.9731     60.8708    125.3730   1.0819496101e+02   4.2925211458e+01    0.6930506    0.3486264  63.47  0.002682751    3.115    0.679
       117 -10.9666     45.3070    124.3304   1.1240146054e+02   4.5014395248e+01    0.7046689    0.3419063  64.75  0.002810457    3.191    0.687
       118 -10.7984     29.5914    123.4521   1.1665159314e+02   4.6783517489e+01    0.7414731    0.3205875  69.42  0.002639099    4.326    0.769
       119  -9.3666    180.2042    125.2578   7.7386837895e+01   2.0161219049e+01    0.3138302    0.1995248  73.33  0.001176175    2.554    0.608
       120  -8.5732    173.6392    122.3003   7.8069479750e+01   2.2249256455e+01    0.1602414    0.1255798 -86.88 0.0007035929    1.718    0.418
       121  -9.8815     72.6028    121.1059   1.0404338543e+02   4.2368579352e+01    0.4980806    0.2367555  57.26  0.001844006    3.135    0.681
       122 -10.1235    142.6810    120.1094   8.4758341770e+01   2.9673639930e+01    0.5043014    0.3567955  88.05  0.001780941    2.179    0.541
       123  -9.8312    132.0056    119.7565   8.7366720739e+01   3.2044190158e+01    0.4571306    0.2706784  70.35  0.001580799    2.974    0.664
       124 -10.2615      4.1648    118.2575   1.2295625840e+02   4.9930423970e+01    0.4197543     0.190048  63.61  0.002027037    2.728    0.633
       125 -10.2635    110.6019    115.6685   9.2053922286e+01   3.7291057537e+01    0.5532297    0.3522959  82.75  0.002017774    2.938    0.660
       126 -10.5594     80.4650    114.0262   1.0026137411e+02   4.2900015088e+01    0.5738255    0.3451307  67.73  0.002272312    2.555    0.609
       127 -10.5788     94.3745    113.5751   9.6117066030e+01   4.0735350720e+01    0.6652462    0.2995428  50.90  0.002375666    2.723    0.633
       128  -9.7294    123.1629    113.4036   8.8073380241e+01   3.5313486536e+01     0.425862    0.1885515  52.68  0.001457216    2.700    0.630
       129 -10.8082     68.1388    112.0011   1.0347039355e+02   4.5182789564e+01    0.4362538    0.2537777  56.82  0.001950929    2.198    0.545
       130  -8.8553    175.3311    112.6492   7.5217170573e+01   2.3796012591e+01    0.1648122    0.1250007 -77.04 0.0007047657    1.773    0.436
       131  -9.5195    134.1114    110.2398   8.4369981924e+01   3.3703394384e+01    0.3020056    0.2199207  66.71  0.001330045    1.673    0.402
       132 -10.7772     14.7272    110.7509   1.1911639424e+02   5.0975209852e+01    0.4299546    0.2447717  74.55  0.002079649    2.052    0.513
       133 -11.3170     46.8792    103.6160   1.0824384478e+02   4.9806927349e+01    0.8402215    0.4189193  65.23  0.003054684    4.004    0.750
       134 -11.1515     23.7811    103.3597   1.1534795147e+02   5.2032312801e+01    0.7384455    0.3570314  66.48  0.003089167    3.389    0.705
       135  -9.7048    140.9105    105.9118   8.1470594626e+01   3.3141554971e+01    0.3569499     0.221675  71.45  0.001300066    2.577    0.612
       136  -9.6732    150.8933    104.2047   7.8540402695e+01   3.1227310697e+01    0.4184275    0.2859707 -80.31  0.001478985    2.381    0.580
       137  -8.8887    167.3313    104.6847   7.4853000077e+01   2.7272421020e+01    0.1625901    0.1261371 -79.75 0.0005670665    1.682    0.406
       138 -10.1299    129.0980    102.7208   8.3648052192e+01   3.6431759140e+01    0.4627262    0.2838063  71.07  0.001666976    2.745    0.636
       139 -10.2149      7.9783    103.9787   1.2018822639e+02   5.2996695364e+01    0.2711308    0.1326647  41.76  0.001462024    2.396    0.583
       140 -11.0404    112.2763    100.8744   8.7745823796e+01   4.0332678127e+01     1.043229    0.4500864  57.41  0.003090239    4.037    0.752
       141  -9.6998     83.2836    100.9246   9.6310743924e+01   4.5546942517e+01    0.3943095    0.2201031  58.05  0.001574193    2.583    0.613
       142 -10.8136     65.8088     97.4769   1.0092059021e+02   4.8944212651e+01    0.7394965    0.3490133  50.73  0.002676563    2.884    0.653
       143 -10.2682     97.2219     97.9554   9.1322958736e+01   4.3849922356e+01    0.6273285    0.2421958  44.02  0.002228863    2.771    0.639
       144  -9.9561    140.7130     93.6022   7.8059977505e+01   3.5773680509e+01    0.5444978    0.2791646  64.50  0.001766417    3.147    0.682
       145 -10.4008    126.9247     92.2375   8.1254041295e+01   3.9151313979e+01    0.7646013    0.3488774  55.96  0.002596896    2.798    0.643
       146 -10.4189      7.8781     92.9865   1.1868760822e+02   5.5536109022e+01    0.5304304    0.1508599  30.43  0.002340644    3.807    0.737
       147 -10.6863     36.2260     90.7359   1.0906647698e+02   5.3915277583e+01    0.5458874    0.3386375  52.46  0.002878626    2.059    0.514
       148 -10.6407     88.5513     88.0137   9.1218564167e+01   4.7610482761e+01    0.7469561    0.3534252  54.85  0.002623883    3.292    0.696
       149 -10.7477     50.6842     86.1516   1.0316697701e+02   5.3466927019e+01    0.7002831    0.3316473  54.16  0.002669522    3.674    0.728
       150 -10.4337    107.0204     84.9086   8.4683593949e+01   4.4861832599e+01    0.7259427    0.3969038  61.61  0.002615234    2.938    0.660
       151  -9.4289    141.6832     83.9917   7.4972602116e+01   3.7485373849e+01    0.3166118    0.2051649  80.53  0.001158915    2.653    0.623
       152 -10.5592     25.8643     81.7357   1.1072507512e+02   5.6883020319e+01    0.5056772    0.2623419  54.72  0.002221269    2.948    0.661
       153 -10.3785     10.1230     82.2642   1.1623934218e+02   5.7849124956e+01    0.4377261    0.2716389  23.91   0.00267772    2.011    0.503
       154  -9.7017     75.5066     81.5454   9.3571624337e+01   5.1167895475e+01    0.3014698    0.2141431  82.85  0.001243242    2.352    0.575
       155  -8.9530    151.4712     81.4869   7.1848350993e+01   3.5636341253e+01    0.2840748    0.1549798  64.46  0.001027204    2.380    0.580
       156  -9.1778    120.9373     81.7301   7.9733112466e+01   4.2631864363e+01    0.3611331    0.1866708  59.95  0.001279437    2.717    0.632
       157  -9.3691     62.0701     77.8046   9.7063150979e+01   5.3929961725e+01    0.2760583    0.1727919 -77.82  0.001178541    2.611    0.617
       158 -10.1663    129.9130     76.7751   7.5759419732e+01   4.1621905246e+01    0.6012483    0.3022858  61.11  0.002108089    2.729    0.634
       159  -9.0372    141.9608     76.4848   7.2600920600e+01   3.8869007988e+01    0.2200129    0.1414798  78.95 0.0008097959    2.546    0.607
       160 -10.2720     83.7673     74.0105   8.8574718134e+01   5.1452316139e+01    0.5243286    0.3421116  69.94  0.002101053    2.860    0.650
       161  -9.5597      8.6467     73.7321   1.1521759079e+02   5.9849472869e+01    0.2629131    0.1636253  45.89  0.001565424    2.091    0.522
       162  -9.5906    107.2944     72.9454   8.0862446012e+01   4.7269634986e+01    0.3919009    0.2076862  56.10  0.001516025    2.420    0.587
       163  -9.6975     96.1225     72.4272   8.4100850507e+01   4.9566043450e+01    0.3453354    0.2526053 -71.24  0.001472073    1.949    0.487
       164  -9.2518     43.5050     73.5296   1.0249737128e+02   5.7101391075e+01    0.2158644    0.1117109  41.68  0.001026963    2.383    0.580
       165 -10.4129     53.2474     71.2890   9.8340374843e+01   5.6483840889e+01    0.5508288    0.3330605  53.08  0.002596494    2.406    0.584
       166 -10.4490     18.2102     71.0620   1.1120111976e+02   5.9846721269e+01    0.3636314    0.1920985  35.40  0.001982429    2.328    0.570
       167  -9.2840    122.6235     67.1294   7.4589591233e+01   4.5101808389e+01     0.293568    0.2135894  78.87  0.001283434    1.996    0.499
       168 -10.0254     39.4424     65.6862   1.0187952941e+02   5.9231112592e+01    0.4691051    0.2223086  44.29   0.00212172    2.909    0.656
       169 -10.0110    148.0598     68.9937   6.8787969315e+01   3.8771654125e+01     0.460635    0.1944461  59.69  0.001531405    2.789    0.642
       170  -9.5890    111.6512     65.0620   7.6971258673e+01   4.7884606345e+01    0.4271314    0.2184206  59.69  0.001562643    2.762    0.638
       171  -9.6768    101.8674     61.7397   7.8739499782e+01   5.0529125263e+01    0.3956672    0.2673354  76.31  0.001605116    2.730    0.634
       172 -10.4123     75.0911     60.7322   8.7172852659e+01   5.5587499839e+01    0.5899791    0.2837029  48.70  0.002338198    2.700    0.630
       173  -9.8920     27.9805     60.7181   1.0495068953e+02   6.1354217498e+01    0.3840552    0.1688979  35.34  0.001860501    2.746    0.636
       174 -10.8009      9.6216     58.7228   1.1172651833e+02   6.3071400592e+01     0.477695    0.1994467  34.28  0.002413539    3.021    0.669
       175  -9.5143    121.0346     57.5104   7.1755779897e+01   4.7181405167e+01    0.3859027    0.2493657  76.55  0.001525128    2.575    0.612
       176  -9.7504     44.9328     56.4319   9.6983229624e+01   6.0584676049e+01    0.2965631     0.199526  71.25  0.001352457    3.168    0.684
       177  -9.7095    108.8072     55.5720   7.4500382235e+01   5.0204945491e+01    0.3553141    0.2375004  69.55  0.001252408    2.223    0.550
       178  -9.9216     64.0207     55.8067   8.9462445968e+01   5.8248458466e+01    0.3830799    0.2364602  51.03  0.001829784    2.247    0.555
       179  -9.9512     55.2336     55.3126   9.2607926185e+01   5.9556955101e+01    0.3695017    0.2696223 -77.42  0.001875562    2.250    0.556
       180  -9.4958    100.3271     53.8711   7.6421844072e+01   5.2263955774e+01    0.3018527    0.2387805  80.97 0.0005581317    1.874    0.466
       181 -10.0892     93.6994     51.9618   7.7796412809e+01   5.3912694199e+01    0.3871993    0.2823167  74.03  0.001798461    2.230    0.552
       182  -9.9020     35.1979     53.6108   9.9989583081e+01   6.2183210015e+01    0.2633775    0.2046207  -8.78  0.001661275    1.355    0.262
       183  -9.5097     31.6202     52.3232   1.0105584960e+02   6.2784825875e+01    0.2267929    0.1825784  61.38  0.001071848    1.824    0.452
       184  -9.8206     22.9010     53.8149   1.0509061262e+02   6.3216524586e+01    0.3874896    0.1716356  31.04  0.001959395    2.662    0.624
       185  -9.5127    131.8281     58.6750   6.9342591279e+01   4.4482755485e+01    0.3830124    0.1462571  62.00  0.001090343    4.114    0.757
       186  -9.4168     85.3280     48.6744   7.9309466059e+01   5.6065735106e+01    0.2241712    0.1441002  45.48 0.0007706633    1.672    0.402
       187  -9.1407     82.0350     47.4973   7.9979271862e+01   5.6866014837e+01    0.1948807    0.1781723   9.65 0.0006472946    1.082    0.076
       188  -9.0139    123.0072     46.5015   6.7345091558e+01   4.8532633410e+01    0.2039813    0.1340201  82.71 0.0008105121    2.556    0.609
       189 -10.3571     19.2745     45.8349   1.0429430551e+02   6.5122189089e+01    0.4822704    0.1840976  26.74  0.002350513    2.992    0.666
       190  -9.4909     46.6874     45.5572   9.2575634195e+01   6.2520019424e+01    0.3870106    0.1445596  39.82  0.001609677    3.276    0.695
       191 -10.2972      6.9103     43.4156   1.0900929309e+02   6.6406847672e+01    0.4199817    0.2706099  50.33  0.002517007    2.412    0.585
       192  -9.9531     71.8715     43.0707   8.1859032028e+01   5.9376037596e+01    0.4768817    0.2754931  57.20  0.002053582    2.905    0.656
       193  -9.5718     59.0784     43.8213   8.6973845301e+01   6.1210507473e+01    0.2625843    0.2057881 -85.39  0.001360783    2.397    0.583
       194  -9.4606    107.5618     42.3912   7.0015653293e+01   5.2637946532e+01    0.3526123    0.1899355  66.52  0.001317576    3.014    0.668
       195  -9.8083     38.5608     41.8085   9.4611672830e+01   6.4156589703e+01    0.3577123    0.1825351  36.94  0.001829968    2.350    0.574
       196  -9.4432     97.2178     39.5727   7.1984609492e+01   5.5250354585e+01    0.2667303     0.137114  53.34   0.00113794    2.151    0.535
       197  -9.2836     83.5024     38.9088   7.6127299474e+01   5.8029244986e+01    0.2941985    0.2291048  83.02  0.001470105    2.246    0.555
       198 -10.0213     28.3176     37.1062   9.7392086465e+01   6.6068233031e+01    0.3559695    0.1310845  35.28  0.001614585    3.288    0.696
       199  -9.2767    113.3222     36.3068   6.6112458792e+01   5.2262276939e+01    0.2821846    0.1832096  80.05  0.001173799    2.587    0.614
       200  -8.8546    105.8656     35.8654   6.7990828701e+01   5.3975946184e+01    0.1894513    0.1724912 -61.49  0.001076261    1.346    0.257
       201  -9.0896    120.7075     34.3837   6.3481033819e+01   5.0832933970e+01    0.2829196    0.1382711  60.22  0.001138653    2.194    0.544
       202  -9.9458     62.8102     33.8441   8.1529632823e+01   6.2364211643e+01     0.433437    0.2224561  51.61  0.001890429    2.967    0.663
       203  -9.8404     51.4148     33.8189   8.6081571442e+01   6.4022469736e+01    0.3389363    0.2160342  51.71  0.001734241    2.467    0.595
       204  -9.9313     74.9506     32.8029   7.6584906971e+01   6.0522392347e+01    0.4149341    0.2146715  51.53  0.001866502    2.424    0.587
       205  -8.8084    222.3259     32.6742   4.5730962312e+01   2.5496104963e+01    0.1501216   0.09193953 -63.18 0.0004853382    1.695    0.410
       206 -10.3614     14.5912     31.9721   1.0191717611e+02   6.8156948132e+01    0.3684775    0.1645116  27.38  0.001994655    2.604    0.616
       207  -9.2930    103.1003     30.3371   6.6589503508e+01   5.5343739644e+01    0.3487971    0.1719544  60.55  0.001417807    2.493    0.599
       208  -9.7389     83.5007     29.1865   7.2122351343e+01   5.9490911790e+01    0.3961281    0.2638554  76.32  0.001674577    3.282    0.695
       209  -9.2283     44.2911     30.4890   8.7712855959e+01   6.5510461326e+01    0.2804481     0.117046  35.19  0.001312468    2.609    0.617
       210  -9.8642      4.9370     28.6238   1.0544613219e+02   6.9404321764e+01    0.2070184    0.1628723  36.90  0.001291575    1.781    0.439
       211  -9.6232     93.6934     28.2275   6.8487123274e+01   5.7608124857e+01    0.3114756    0.1939359  67.33  0.001400765    2.416    0.586
       212  -8.6813     43.9509     25.5020   8.5719569526e+01   6.6371726423e+01    0.1656945    0.1139181  23.64 0.0004580814    1.490    0.329
       213  -8.9130    106.4384     23.6392   6.2978316221e+01   5.5471169122e+01    0.2591607    0.1312669  70.78 0.0009448692    3.343    0.701
       214 -10.3606     65.6263     21.9015   7.5236664363e+01   6.3706351066e+01    0.3727002    0.2285928  51.66   0.00193395    2.081    0.519
       215 -10.5694     51.7805     22.3231   8.0933231545e+01   6.5799818716e+01    0.4830465    0.2124528  40.22  0.002306994    2.450    0.592
       216  -8.8443     34.9253     23.0000   8.8691674458e+01   6.7862447468e+01    0.1782612   0.06530304  31.25 0.0008035089    2.950    0.661
       217  -8.8285     21.0102     22.5155   9.5170291199e+01   6.9345667259e+01    0.1415415   0.09486074  47.76 0.0008103849    2.572    0.611
       218 -10.0518     76.3665     20.6156   7.0793005100e+01   6.1989025005e+01    0.4993131    0.2383738  53.66  0.002218109    2.523    0.604
       219  -9.3411    188.6747     20.3283   4.6421974047e+01   3.5401640694e+01    0.1508604   0.09689028 -64.87 0.0007050052    1.699    0.411
       220  -9.3340     12.8660     21.3225   9.8781899860e+01   7.0214187270e+01    0.1875688     0.125337   2.01 0.0007500122    1.553    0.356
       221  -9.4039     40.8571     19.4205   8.4347822107e+01   6.7712885147e+01    0.2576416    0.1723077  35.27  0.001568939    1.697    0.411
       222  -9.7328     90.0566     18.2846   6.5363470917e+01   5.9610545348e+01    0.3906471    0.1696299  55.25  0.001653488    2.435    0.589
       223  -9.9808     32.1264     17.1225   8.7343559596e+01   6.9109339929e+01    0.2931492    0.1541951  36.18   0.00151961    2.219    0.549
       224  -9.4852     98.9099     16.2223   6.1942998130e+01   5.7982931868e+01    0.3248198    0.1832416  66.66  0.001465336    2.287    0.563
       225  -8.7863      8.6670     16.3147   9.8927838326e+01   7.1382874103e+01   0.09356195   0.08835842 -81.84 0.0007046186    1.685    0.406
       226  -9.1558     18.9465     14.9690   9.2927521903e+01   7.0784952054e+01    0.2312397    0.1324801  38.46  0.001345562    2.458    0.593
       227 -11.1920    245.9108    247.9151   8.9156313356e+01  -1.0923922177e+01     0.480963    0.2139848  37.85  0.002722818    1.936    0.483
       228 -10.8164    250.0926    241.6396   8.7463280793e+01  -1.0828386108e+01    0.4285502    0.1529576 -28.97  0.002125092    2.989    0.665
       229 -10.9107    165.9187    248.7209   1.0333574253e+02   9.7887985815e-01    0.2753532    0.1724196  41.70   0.00102467    1.264    0.209
       230  -9.1140     48.7664     10.6079   7.6589247733e+01   6.7865268754e+01    0.1557358    0.1109414  43.29 0.0009485965    1.695    0.410
       231  -9.2103    107.5210    248.9117   1.1398600958e+02   1.0016843066e+01    0.1447701    0.1119738 -71.25  0.000755384    1.519    0.342
       232 -10.9252    173.9370    244.6331   1.0132751159e+02   2.7290965234e-01    0.3517385     0.244202 -74.44  0.001963952    2.680    0.627
       233  -8.8049      2.4654     11.4944   1.0028560831e+02   7.2609537890e+01    0.1122311    0.0803472 -31.47 0.0002867421    1.004    0.004
       234 -11.4468    237.6579    240.7209   8.9406650593e+01  -8.9925819970e+00      0.35169    0.2777287  22.87  0.001545113    1.166    0.142
       235 -10.6455    167.6718    242.7090   1.0221955207e+02   1.5483804263e+00      0.22832    0.1716008  41.51 0.0007644925    1.093    0.085
       236 -10.1701    107.6949    237.1338   1.1275642579e+02   1.1953804394e+01    0.3552914     0.198215  88.10  0.001756966    2.764    0.638
       237  -8.7091     14.0056      9.0000   9.2761163378e+01   7.2164404804e+01    0.1588036    0.0591612  24.83 0.0007980105    2.912    0.657
       238  -9.6339    169.7565    232.7502   1.0044585852e+02   2.6657063779e+00     0.229828    0.1527897  39.78  0.001030647    1.234    0.190
       239 -10.0719    236.3988    230.5580   8.7966281559e+01  -7.6332889573e+00    0.2542222    0.1785202 -42.84  0.001590492    2.009    0.502
