#   1 NUMBER                 Running object number                                     
#   2 MAG_AUTO               Kron-like elliptical aperture magnitude                    [mag]
#   3 X_IMAGE                Object position along x                                    [pixel]
#   4 Y_IMAGE                Object position along y                                    [pixel]
#   5 X_WORLD                Barycenter position along world x axis                     [deg]
#   6 Y_WORLD                Barycenter position along world y axis                     [deg]
#   7 A_WORLD                Profile RMS along major axis (world units)                 [deg]
#   8 B_WORLD                Profile RMS along minor axis (world units)                 [deg]
#   9 THETA_WORLD            Position angle (CCW/world-x)                               [deg]
#  10 FWHM_WORLD             FWHM assuming a gaussian core                              [deg]
#  11 ELONGATION             A_IMAGE/B_IMAGE                                           
#  12 ELLIPTICITY            1 - B_IMAGE/A_IMAGE                                       
         1 -14.7027    180.8882     31.6752   3.5411639867e+02   3.6683951381e+01     2.276896    0.7043334 -39.22  0.009572376    2.535    0.606
         2 -14.5773    188.6405     15.7125   3.4941313216e+02   3.6854271779e+01     1.621843    0.7793856 -39.55  0.007083623    1.730    0.422
         3 -13.5493    216.0250     27.8354   3.5032823712e+02   2.9994061993e+01    0.7502027    0.5753673 -46.90  0.005245529    1.130    0.115
         4 -14.7287    241.2827      8.2332   3.4488116390e+02   2.7559962095e+01     1.213513     1.019266 -64.47  0.009199103    1.238    0.192
         5 -12.3739     57.8642      3.6353   5.1940797524e+00   6.9159017223e+01    0.7062212    0.2185656  44.53  0.002580694    3.233    0.691
         6 -14.4392    189.7453     53.6211   3.5872468410e+02   3.1922194635e+01     1.215955    0.8325356 -41.16  0.004414421    1.282    0.220
         7 -10.5847     61.5610    203.0164   5.9677490946e+01   2.3361364914e+01     0.178284    0.1334403 -77.03   0.00041685    1.463    0.316
         8 -13.3997    247.9074    246.1088   2.7049198155e+01  -4.5253484421e+00     0.562082    0.2874638 -27.10  0.004084092    1.493    0.330
         9 -15.5804    121.7039    236.1448   4.8758598579e+01   9.5008650333e+00     5.189132     3.998982 -65.68   0.03288198    1.730    0.422
        10 -12.9153     93.5635    174.7110   4.7357785170e+01   2.5857472234e+01    0.7183946    0.3972182  88.47 0.0006063826    3.894    0.743
        11 -12.1877     87.3390    171.4273   4.8591419467e+01   2.7541104010e+01     0.658226    0.4466408  -3.26  0.002304628    1.991    0.498
        12 -11.0310     59.3257    180.3626   5.7873791995e+01   2.9041666593e+01    0.4205208    0.2247297 -38.11  0.001291222    2.473    0.596
        13 -10.2503     50.4500    181.4263   6.0572109265e+01   2.9812783238e+01    0.1404672     0.128491  51.02 8.441749e-05    1.006    0.006
        14 -10.1048     53.9355    180.2504   5.9429958968e+01   2.9707563757e+01    0.1628097    0.1131108  32.29 0.0002842689    1.339    0.253
        15 -10.9403     39.8384    200.9557   6.5315242773e+01   2.6201652839e+01     0.259257    0.1474001  41.13  0.001104549    1.517    0.341
        16  -9.6226     46.4983    174.5516   6.1018041312e+01   3.1997296536e+01     0.144375    0.1292592  55.99 -1.348635e-05    1.035    0.034
        17 -12.5559    104.6791    171.9543   4.3887742555e+01   2.4862861772e+01    0.3511102    0.2981842 -32.76  0.001489236    1.229    0.186
        18 -11.5101    179.8433    169.5520   2.6145126930e+01   1.3910193043e+01    0.4625409    0.3124173 -47.95  0.002558662    1.525    0.344
        19 -10.7683     46.0561    163.6286   5.9943722809e+01   3.4887398558e+01    0.2190033    0.1823905  64.45 0.0004268538    1.166    0.142
        20 -11.0836    100.4823    161.9810   4.3331295770e+01   2.7856267129e+01    0.2657098    0.1941425  49.62 0.0005493074    1.444    0.307
        21 -10.1918     82.2068    195.6334   5.3356958293e+01   2.2532854917e+01    0.2029602    0.1829301  85.11 0.0004903779    1.215    0.177
        22 -16.4613     68.3819    143.3794   4.9811899445e+01   3.7415871531e+01     5.890969     3.493661  61.39   0.01256493    2.119    0.528
        23  99.0000     33.2390    211.6731   6.7813802421e+01   2.4380578438e+01     4.541364     2.741214  81.07   0.02393644    1.773    0.436
        24 -11.5399     90.7741    149.6017   4.3900940439e+01   3.2416569332e+01    0.3243851    0.2632601 -67.19 0.0005928291    1.284    0.221
        25 -11.7443    133.9324    145.7593   3.1375814135e+01   2.6027668705e+01    0.8336481    0.2453842 -54.37  0.002365795    4.303    0.768
        26 -11.0090    138.3859    147.7177   3.0707789835e+01   2.4829111908e+01    0.3169625    0.1917393  37.02  0.001046562    1.704    0.413
        27 -10.4585    174.5497    180.5019   2.9163849669e+01   1.2701020711e+01    0.2320254    0.1731859 -27.96 0.0007535994    1.211    0.174
        28 -13.1310     94.9415    143.7879   4.1548088215e+01   3.3193403358e+01     0.725555     0.533453  24.65  0.002989042    1.444    0.307
        29 -10.8497    104.9994    137.7408   3.7366619830e+01   3.2967168446e+01    0.2288133    0.2213758 -60.71  0.000255758    1.034    0.033
        30 -11.5949    107.2133    133.9326   3.5913720403e+01   3.3493739063e+01    0.4539864    0.3212612 -45.22  0.002115851    1.412    0.292
        31 -12.0718     95.9663    131.6712   3.8740351228e+01   3.6034243181e+01    0.3699407    0.2775522 -46.02  0.000699376    1.342    0.255
        32 -10.2993    134.9726    130.4956   2.7795589847e+01   2.9177691056e+01    0.2227426    0.1465886  43.03  0.001027038    1.584    0.369
        33 -10.5585    114.8213    125.9418   3.1974326060e+01   3.3990092230e+01    0.2404922    0.2067701 -18.45  0.000750222    1.308    0.236
        34 -10.5609    102.4014    120.9085   3.4358897340e+01   3.7511453266e+01    0.2697236    0.2250282  22.31 0.0005661879    1.320    0.243
        35 -10.2558     43.4587    193.9474   6.3751539712e+01   2.7497101081e+01    0.1856983    0.1317917 -76.11  0.000415857    1.471    0.320
        36 -11.0328    161.0405    118.1924   1.9147923985e+01   2.6786154041e+01    0.4118872    0.2390208 -60.97  0.001734889    2.258    0.557
        37  -9.2799    110.2951    116.2606   3.0928555333e+01   3.7113266128e+01    0.1469837    0.1215048  -6.85 0.0001894816    1.502    0.334
        38 -12.2505      3.4788    192.9278   7.4675673380e+01   3.1326896203e+01    0.3657617    0.2156677 -12.72  0.001763877    2.451    0.592
        39 -12.1998     66.6012    104.1628   4.2369578054e+01   4.8060877938e+01    0.3056603    0.2843221  87.86  0.001093805    1.103    0.094
        40 -12.4022    202.2455     70.0792   1.2103524428e+00   2.7069401006e+01    0.4539815    0.2600358 -59.98  0.002356063    1.804    0.446
        41 -18.9675     16.6038     94.6353   6.1837944718e+01   5.6747670688e+01     16.39591     1.183621 -72.38   0.02679502   12.587    0.921
        42 -11.5942    172.9428    176.9880   2.8852562942e+01   1.3559286976e+01    0.4605244    0.2921508 -31.91  0.002477222    1.481    0.325
        43 -12.1001    174.0206     66.5067   4.0093449339e+00   3.3316093978e+01    0.3512764     0.276844 -48.12 0.0007945446    1.122    0.108
        44 -11.1392     53.3192    231.0481   6.4159295987e+01   1.8179455953e+01    0.2217497    0.1165688 -73.99  0.001136672    2.202    0.546
        45 -10.5679     48.2285    230.1832   6.5323442411e+01   1.8881354195e+01    0.3269968    0.1029418 -60.44  0.001357803    3.347    0.701
        46 -11.8145    196.5273     47.9436   3.5661337742e+02   3.1315460864e+01    0.2822256    0.2726947  55.33 0.0009435603    1.344    0.256
        47 -11.9827    223.6096     51.7579   3.5497313866e+02   2.5645489050e+01    0.4787224    0.2039864 -52.08  0.002436091    2.003    0.501
        48 -12.5818    226.5794     37.2551   3.5163813302e+02   2.6927515404e+01    0.4782334    0.2149215 -44.26  0.002672415    1.639    0.390
        49 -11.5974     59.7119    228.8833   6.2450242410e+01   1.7948478410e+01    0.1791025    0.1531706 -27.53  0.000932459    1.401    0.286
        50 -11.6828     88.9686    219.1291   5.4386359183e+01   1.6615892445e+01    0.3724259    0.3530809 -65.31  0.001634714    1.211    0.174
        51  -9.5575     60.6767     21.3455   1.4016612211e+01   6.6485061998e+01    0.1363345    0.1054758 -77.05 0.0007050086    1.738    0.425
        52 -11.7213    250.4766    207.1724   2.0989838285e+01  -6.3962828819e-02    0.3150741   0.07734036 -37.16  0.001451808    3.165    0.684
