#   1 NUMBER                 Running object number                                     
#   2 MAG_AUTO               Kron-like elliptical aperture magnitude                    [mag]
#   3 X_IMAGE                Object position along x                                    [pixel]
#   4 Y_IMAGE                Object position along y                                    [pixel]
#   5 X_WORLD                Barycenter position along world x axis                     [deg]
#   6 Y_WORLD                Barycenter position along world y axis                     [deg]
#   7 A_WORLD                Profile RMS along major axis (world units)                 [deg]
#   8 B_WORLD                Profile RMS along minor axis (world units)                 [deg]
#   9 THETA_WORLD            Position angle (CCW/world-x)                               [deg]
#  10 FWHM_WORLD             FWHM assuming a gaussian core                              [deg]
#  11 ELONGATION             A_IMAGE/B_IMAGE                                           
#  12 ELLIPTICITY            1 - B_IMAGE/A_IMAGE                                       
         1  -9.9643    231.4673     16.7232   6.0484633401e+01   2.6035198765e+01    0.2870338    0.2233505 -29.90  0.001267335    1.594    0.373
         2  -9.2459    190.2109     14.3987   6.4359996683e+01   3.6019424333e+01    0.2604944    0.1977646 -66.90   0.00113683    1.302    0.232
         3  -8.5223     55.6657     10.1116   9.1995054076e+01   6.5224805166e+01    0.1732221    0.1462532  30.88 0.0007956334    1.323    0.244
         4  -7.9917     47.5462     10.0242   9.4934169508e+01   6.6413522879e+01    0.1403038   0.09133936 -46.35 0.0008079425    2.503    0.600
         5  -8.0825     27.7560     10.0427   1.0295705772e+02   6.8882098836e+01    0.1379219   0.07704007 -30.58 0.0007101124    1.581    0.368
         6 -10.6393    246.5966      5.0767   5.6824417770e+01   2.4032189694e+01    0.4576754    0.3467986  62.04  0.001969602    1.535    0.349
         7  -8.8587      5.8482      8.6100   1.1234304742e+02   7.1109853269e+01    0.1251759   0.08585926  22.77 0.0007634033    1.673    0.402
         8  -8.5930     33.3472      5.2347   9.8434069142e+01   6.8793726211e+01     0.243443    0.1517435 -49.97  0.001317242    3.462    0.711
         9  -7.7987    194.6590      5.6736   6.1706787711e+01   3.5852232051e+01    0.1296841   0.08687869  45.85 0.0007051326    1.734    0.423
        10  -8.4214     78.9359      3.8173   8.1928957009e+01   6.1923668637e+01    0.1996951    0.1410201 -46.52  0.001201909    2.081    0.519
        11  -7.5001     44.6588      3.3155   9.3053890233e+01   6.7519256200e+01   0.09251352   0.08956508 -26.55 0.0007048083    1.707    0.414
        12  -8.3131     16.2921      3.6282   1.0520562827e+02   7.0839922332e+01   0.08908138   0.07875837 -29.74 0.0007024649    1.725    0.420
        13  -8.4312     62.2396      1.5878   8.6079668379e+01   6.5013209318e+01    0.1534884    0.1277261  40.92 0.0004081157    1.348    0.258
        14  -8.6518    232.8218    247.1590   1.0935278383e+02  -1.1603606586e+01    0.1723673    0.1497226  25.82 0.0006395878    1.227    0.185
        15  -9.4687     65.5207    249.5148   1.4088349311e+02   1.5078714948e+01    0.2699746    0.1550303  63.86 0.0009623204    1.452    0.311
        16  -8.3955     67.7745    246.0785   1.4018552866e+02   1.5412036551e+01    0.2410286    0.1296287  81.52  0.001297321    1.978    0.494
        17  -9.7009     52.7842    249.8041   1.4310914728e+02   1.6752067383e+01     0.254813    0.1485416  48.54 0.0008391796    1.495    0.331
        18 -10.0604    224.0791    244.2781   1.1045803257e+02  -9.8819905216e+00     0.409491    0.2383505 -45.45  0.001980056    2.206    0.547
        19  -8.7667    210.9217    246.5275   1.1325039952e+02  -8.1084231775e+00    0.1976459    0.1742358 -60.19 0.0007097396    1.619    0.382
        20  -7.8058     76.5176    247.4848   1.3875029222e+02   1.3892587673e+01    0.1222976   0.09399306  68.29 -3.83383e-05    1.003    0.003
        21  -9.3503     10.2944    245.6377   1.4979653735e+02   2.2592051880e+01    0.1661605   0.09061029  75.49 0.0007423933    1.380    0.275
        22  -9.2113    120.1245    245.1826   1.3039901413e+02   7.4837784834e+00    0.3386096    0.1841041  73.56  0.001495343    2.809    0.644
        23  -8.9256     27.4731    250.4106   1.4734957941e+02   1.9785599236e+01    0.2843573   0.08986522  39.95  0.001406748    2.997    0.666
        24  -8.7496    139.5135    244.9902   1.2665304343e+02   4.2422799445e+00    0.1692545    0.1071105 -89.76 0.0007383753    2.506    0.601
        25  -9.1663     45.8017    244.7820   1.4391561011e+02   1.8611346970e+01    0.1895328    0.1197792  48.83 0.0007816543    1.450    0.310
        26  -9.6663    248.5154    242.4636   1.0577461059e+02  -1.3305221783e+01    0.2831908    0.2170905 -38.32  0.001346606    1.631    0.387
        27  -9.1212    247.7969    235.2343   1.0464875682e+02  -1.2264220115e+01    0.2344463    0.1975154 -35.84  0.001209098    1.489    0.328
        28  -8.5073    201.8632    243.4648   1.1445107940e+02  -6.1896494306e+00    0.2155461    0.1653843 -62.96 0.0009253435    1.965    0.491
        29  -8.0955    159.5298    244.5080   1.2271895928e+02   8.7231012847e-01    0.1297447    0.1089801  46.34 3.412788e-05    1.024    0.024
        30  -9.3330    160.2267    240.6320   1.2202243149e+02   1.3991531909e+00    0.3230346     0.221067 -75.78  0.001334307    2.182    0.542
        31  -8.4339    169.0480    243.2987   1.2070201525e+02  -5.7826154025e-01    0.1806496    0.1484694  46.46 0.0005033458    1.085    0.079
        32  -8.4098     77.6524    243.0811   1.3812534786e+02   1.4562848035e+01    0.2008172    0.1247912  79.04  0.001163247    1.564    0.361
        33  -9.6556     30.0818    241.9550   1.4636940807e+02   2.1081947686e+01    0.2562953    0.1585052  73.32 0.0005563837    1.237    0.192
        34  -9.5117    182.3793    240.8375   1.1775175439e+02  -2.4898454702e+00    0.5389163    0.2916005  42.97   0.00208035    1.595    0.373
        35  -7.8268    153.6325    242.3173   1.2355027867e+02   2.2638508200e+00    0.1352692   0.09128381  66.57 0.0007037753    1.781    0.438
        36  -7.8775     88.3518    242.2113   1.3606313138e+02   1.3124923772e+01    0.1651963    0.1029762 -85.11 0.0005641445    1.702    0.413
        37  -9.4629      3.3652    240.7526   1.5061794650e+02   2.4229160379e+01    0.2204068    0.1298707  78.43 0.0006437856    1.218    0.179
        38  -8.0466    214.3229    241.6584   1.1182240028e+02  -7.9685691939e+00    0.1150744   0.09806361  68.40 0.0007050668    1.726    0.421
        39  -7.8663     62.3030    241.6761   1.4077230542e+02   1.7020023713e+01    0.1270256   0.07092512  70.07 0.0003544605    1.637    0.389
        40  -8.7582     37.4337    241.2169   1.4507869507e+02   2.0343224876e+01    0.1594574   0.08554723  87.60 0.0006304467    1.654    0.395
        41  -9.2558    241.8724    238.0346   1.0618567832e+02  -1.1758509555e+01    0.5111336    0.2344846 -13.06  0.001795621    4.988    0.799
        42  -8.9021    194.1308    239.7865   1.1532752305e+02  -4.3396264283e+00    0.1857175    0.1565823  45.56 0.0004767287    1.203    0.168
        43  -8.6501     53.0717    239.1942   1.4220380279e+02   1.8749585506e+01     0.227152    0.1151515  75.98  0.000856488    1.987    0.497
        44  -8.8849    135.7975    239.0629   1.2658232157e+02   5.9305501614e+00    0.2082726    0.1532678  66.84  0.001079818    1.386    0.278
        45  -8.6535    125.7949    239.5969   1.2860666692e+02   7.5475328617e+00    0.1898331    0.1009575  51.83 0.0004874922    1.653    0.395
        46  -7.9423     84.0235    239.0212   1.3654039425e+02   1.4396624001e+01    0.1524582    0.1169086  61.86 0.0004027235    1.069    0.064
        47  -9.4142     19.3646    238.5865   1.4792493134e+02   2.2953469760e+01    0.2169664    0.1437766  76.51 0.0005031366    1.089    0.082
        48  -8.0749    107.0583    238.5202   1.3210561999e+02   1.0871121762e+01    0.1974293     0.108367  45.39  0.001024648    1.569    0.363
        49  -8.1924     71.6734    238.7098   1.3880072895e+02   1.6278225155e+01    0.1006857   0.09859314 -14.32 0.0002627494    1.616    0.381
        50  -9.0988    230.8145    236.7660   1.0795820112e+02  -9.9009040306e+00    0.2424045    0.1702813 -40.93  0.001029811    1.685    0.406
        51  -8.0558    189.6143    237.2529   1.1578736541e+02  -3.1724757599e+00    0.1638952    0.1207721 -27.23 0.0009445734    1.572    0.364
        52  -8.0152     57.9927    237.2297   1.4115615618e+02   1.8477964325e+01    0.1545434   0.08481059  45.76 0.0008799394    1.651    0.394
        53  -7.8076    209.2318    238.6133   1.1226968065e+02  -6.6963790573e+00    0.1101387   0.09933379 -84.25 0.0004092797    1.633    0.388
        54  -9.8619    214.8280    233.2081   1.1030497530e+02  -6.8233580454e+00    0.5116047    0.3699892 -85.04  0.002362637    3.468    0.712
        55  -8.9548    203.1565    234.7557   1.1277749476e+02  -5.1019629764e+00    0.2772803    0.2016791 -65.58   0.00131956    2.225    0.551
        56  -9.6402    175.7704    233.4823   1.1788287392e+02  -1.3823103660e-01    0.4606061    0.2362641 -59.88  0.001974129    3.083    0.676
        57  -8.4339    170.1600    235.8711   1.1936025173e+02   4.5408721143e-01    0.2132565    0.1551574 -58.57 0.0009190989    1.702    0.412
        58  -9.0784    108.5002    234.4632   1.3133823188e+02   1.1411268994e+01     0.300431    0.1956832  74.39  0.001047802    1.660    0.397
        59  -8.3788     92.6395    232.3235   1.3417392932e+02   1.4382895610e+01    0.2819392    0.1351715  73.21   0.00110741    3.309    0.698
        60  -8.8088     78.9552    234.5310   1.3702981102e+02   1.6036581566e+01    0.2365581    0.1460153  84.91 0.0008263087    1.653    0.395
        61  -9.1251     53.7521    234.1575   1.4165426250e+02   1.9654714059e+01    0.2527875    0.0862988 -67.76   0.00102612    2.758    0.637
        62  -8.4491      7.4945    235.4750   1.4967210733e+02   2.4817965114e+01    0.1101922   0.07606225  78.37 0.0003065041    1.005    0.005
        63  -8.3665    122.6851    234.3470   1.2853502102e+02   9.0538819122e+00    0.2082063    0.1343431  69.95 0.0008207454    1.733    0.423
        64  -9.2221     68.4068    232.5356   1.3881112107e+02   1.7967789895e+01     0.428667    0.1836405  68.40  0.001786486    3.070    0.674
        65  -8.5901    194.1806    232.8557   1.1418591656e+02  -3.2673889789e+00    0.1871946    0.1669121  50.79  0.000577273    1.232    0.189
        66  -8.6982    140.2068    230.2929   1.2448484501e+02   6.7641457055e+00    0.3444127    0.1763041  59.98  0.001277147    2.398    0.583
        67  -9.2955    186.6926    230.9587   1.1533010514e+02  -1.6520187465e+00     0.339867    0.2410714 -80.38  0.001659501    2.579    0.612
        68  -8.1860    157.5318    232.0666   1.2127812894e+02   3.3553863801e+00     0.179142    0.1333932 -51.33 0.0004709589    1.545    0.353
        69  -8.9745    236.1988    230.7878   1.0593815799e+02  -9.9064479017e+00    0.2255999    0.1896877 -15.76 0.0007893103    1.183    0.155
        70  -8.4032      1.6226    230.8471   1.5035970173e+02   2.6303100561e+01    0.1585388   0.07235593  86.48  0.000835706    1.773    0.436
        71  -9.1758    246.5205    229.1745   1.0380289919e+02  -1.1260403341e+01    0.3369833      0.17801 -34.43  0.001819194    1.903    0.475
        72  -9.8672    149.3575    226.5575   1.2208552362e+02   5.8205019304e+00    0.5989407    0.4177061  80.60  0.003027968    1.974    0.493
        73 -10.0875     61.6553    228.5026   1.3968672319e+02   1.9727162992e+01    0.4484415    0.1960849  43.10  0.002254882    2.088    0.521
        74  -8.7550    162.3143    228.2003   1.1972472592e+02   3.1819649929e+00    0.3138036    0.1677638  54.15  0.001050159    1.989    0.497
        75  -8.9031    128.1007    227.4795   1.2652544961e+02   9.4286025896e+00    0.2892691    0.1901428  72.20   0.00114214    1.796    0.443
        76  -8.6058    120.0096    227.9823   1.2822534244e+02   1.0732750497e+01    0.2180453    0.1430761  71.90  0.001122119    1.712    0.416
        77  -9.0972     48.9103    227.6448   1.4197117635e+02   2.1600354427e+01    0.2956374    0.2247968  57.32  0.002006754    1.234    0.190
        78  -8.9259    180.4899    224.3003   1.1545028493e+02   5.7418815801e-01    0.2382634    0.1952334  86.30 0.0005040047    1.664    0.399
        79  -9.0500     94.4769    224.8117   1.3293703435e+02   1.5600946001e+01    0.4368573    0.2231971  74.31   0.00182377    2.850    0.649
        80  -8.7602      6.4260    226.3068   1.4931178942e+02   2.6719800194e+01    0.2181708    0.1215099  67.33 0.0008991961    1.411    0.291
        81  -9.1069    205.8905    225.9485   1.1075064421e+02  -4.2012530177e+00    0.2139095    0.1803495 -43.79 0.0007238812    1.388    0.279
        82  -8.8573     74.8571    225.1657   1.3683440917e+02   1.8533014516e+01    0.1939383     0.139649  72.01 0.0004289831    1.185    0.156
        83  -8.7138    216.4171    222.9339   1.0820859584e+02  -5.5318745218e+00    0.2826011    0.1915586 -48.61  0.001119507    1.827    0.453
        84  -8.7330    172.9329    223.1066   1.1676674614e+02   2.1562844008e+00    0.2540561    0.1933959 -77.64  0.000756502    1.844    0.458
        85  -8.6589    104.7589    223.8689   1.3075947418e+02   1.4122616833e+01    0.2497256    0.1644912  86.85  0.001306941    1.725    0.420
        86  -9.1587    239.2253    221.5816   1.0373916646e+02  -9.0684200299e+00    0.2360587    0.2228581 -15.37  0.001228682    1.289    0.224
        87  -9.0133    225.5730    221.5819   1.0624503551e+02  -6.8596412390e+00    0.2446465    0.1868291   9.62  0.001165353    1.266    0.210
        88  -9.2566    192.4596    221.4737   1.1259079654e+02  -1.1042327229e+00     0.289031    0.2403001  84.21    0.0010474    1.700    0.412
        89  -9.5565    160.0856    221.0974   1.1904563539e+02   4.8750607539e+00     0.484398    0.2234728  56.92  0.001830552    2.907    0.656
        90  -8.8592     54.9111    221.9578   1.4033766797e+02   2.1986575043e+01    0.2052896    0.1527114  57.67 0.0006749807    1.216    0.178
        91  -9.4250    133.1093    217.1348   1.2399815348e+02   1.0566307898e+01     0.599009    0.3460275 -76.43   0.00258385    2.598    0.615
        92  -9.0302    120.4464    219.3965   1.2695516310e+02   1.2359691457e+01    0.4343849     0.223454  70.29   0.00161611    3.342    0.701
        93  -8.6586     82.7948    220.6697   1.3477738338e+02   1.8276547269e+01    0.2502375    0.1419274  80.64  0.001208897    2.074    0.518
        94  -8.2358     73.2132    221.1674   1.3672706679e+02   1.9601732769e+01    0.1876165    0.1237795  74.47  0.001067646    1.398    0.285
        95  -7.7005     27.6209    221.2105   1.4530716772e+02   2.5494904620e+01    0.1587037   0.08649983 -68.16 0.0009443783    1.716    0.417
        96  -8.6316     18.7659    221.2074   1.4687521446e+02   2.6469521685e+01    0.1959546    0.1161594  62.38 0.0009775815    1.393    0.282
        97  -8.1576    202.5401    220.0193   1.1035713499e+02  -2.6608749654e+00    0.1859549    0.1302449 -39.05 0.0006832465    1.546    0.353
        98  -8.5900    249.5028    218.8381   1.0140125135e+02  -1.0270976663e+01    0.2055153    0.1487757  58.71   0.00113276    2.259    0.557
        99  -8.4645    210.1612    218.9343   1.0868683211e+02  -3.8241637631e+00    0.2189849    0.1510095 -46.52 0.0008007344    1.686    0.407
       100  -8.8175     32.8763    230.3316   1.4506320120e+02   2.3035960946e+01    0.1865786    0.1200163  84.00 0.0002921227    1.235    0.190
       101  -7.9301     99.0045    219.4993   1.3136944291e+02   1.5961915777e+01    0.1854831   0.09206434  61.24 0.0005206331    2.227    0.551
       102  -7.9546      1.4728    219.5107   1.4973559579e+02   2.8557733132e+01    0.1118008   0.07721049  81.26 3.758416e-05    1.011    0.011
       103  -8.4904    108.3209    217.6508   1.2921747956e+02   1.4798149204e+01    0.2459762     0.138675  59.69  0.001081207    1.789    0.441
       104  -8.8194     51.3506    217.7019   1.4061373396e+02   2.3345159709e+01    0.2219326    0.1470127  75.89 0.0006730544    1.290    0.225
       105  -8.7773    169.1700    216.3810   1.1640554694e+02   4.0626460345e+00    0.2655793    0.1995483  84.50 0.0007371345    1.891    0.471
       106  -8.6781    142.8301    216.5241   1.2187918621e+02   8.9188840337e+00    0.2610143    0.1775686 -77.81  0.000983725    1.940    0.484
       107  -8.2367     61.7363    217.1501   1.3855191836e+02   2.2072976268e+01    0.2067139     0.128681  81.16 0.0009062936    1.518    0.341
       108 -10.4947     35.0411    214.4070   1.4340407837e+02   2.6055963674e+01    0.6204163    0.3336522  66.59   0.00353352    1.674    0.403
       109  -9.9759     72.2810    212.2757   1.3592938149e+02   2.1621099383e+01    0.7239488    0.3333224  60.12  0.003267659    2.292    0.564
       110  -8.5772     12.7668    216.1508   1.4757899449e+02   2.8129545479e+01    0.1843633    0.1165926  61.46 0.0005664731    1.338    0.253
       111  -8.7509    232.2465    214.5746   1.0372338039e+02  -6.8976487867e+00    0.2337677    0.1671762 -33.68 0.0007410856    1.419    0.295
       112  -8.5015    185.8319    214.5580   1.1270122727e+02   1.2962561429e+00    0.2500136    0.1842026 -67.09  0.001022378    1.884    0.469
       113  -8.1970    154.4136    215.1984   1.1925550485e+02   7.0345826122e+00    0.1810881    0.1321894 -69.73 0.0005444579    1.678    0.404
       114  -8.0739     87.1548    215.4091   1.3327558810e+02   1.8709426699e+01    0.1883158     0.102398  54.16 0.0004451197    1.676    0.403
       115  -8.7145     93.2006    214.1378   1.3187709475e+02   1.8023057493e+01    0.2723681     0.140967  62.60  0.001227157    2.119    0.528
       116  -8.4581    224.6688    212.4888   1.0474462640e+02  -5.3008241155e+00     0.217674    0.1176306 -37.56 0.0006009806    1.895    0.472
       117  -9.4129    213.8077    212.0587   1.0672918700e+02  -3.3470955829e+00    0.3097613    0.2810117  81.04  0.001345115    1.504    0.335
       118  -8.6166    161.8058    212.5494   1.1727695227e+02   6.1576527588e+00    0.2493956    0.1830984 -75.50 0.0007380332    1.809    0.447
       119  -8.8595    204.3837    211.0065   1.0836599333e+02  -1.4875764129e+00     0.247477    0.2012742 -64.79 0.0006875141    1.661    0.398
       120  -8.0406      4.0056    212.2285   1.4885336651e+02   2.9794742578e+01    0.1501392    0.1091077  76.36 0.0003609711    1.086    0.080
       121  -9.4853    175.5427    210.1049   1.1400945581e+02   4.0261268793e+00    0.3615289    0.2601042  76.73  0.001313415    2.058    0.514
       122  -8.9359    147.7259    210.8009   1.1993493987e+02   9.1397457020e+00    0.3097668    0.2630913  49.15  0.001137242    1.067    0.063
       123  -8.9472    116.2050    210.5334   1.2657005207e+02   1.4924034047e+01    0.3022698    0.1974127  74.84 0.0008433635    1.809    0.447
       124  -8.5326     98.9830    210.7601   1.3023338854e+02   1.7802471217e+01    0.2365383    0.1297621  64.16  0.001070916    2.033    0.508
       125  -8.1664    192.2288    210.2832   1.1064693782e+02   8.6628278147e-01    0.1796563    0.1606216  76.24 0.0009201817    1.378    0.274
       126  -8.4688     85.8019    210.1859   1.3290892327e+02   2.0036415706e+01    0.2414716    0.1197358  71.61   0.00095633    2.897    0.655
       127  -9.1360    236.5031    208.4778   1.0179780238e+02  -6.6640413384e+00    0.2967845    0.2020296 -46.53 0.0009102031    1.745    0.427
       128  -8.8513    137.3705    208.4824   1.2175382360e+02   1.1533008111e+01    0.4643134    0.2141269  37.08  0.001889304    2.242    0.554
       129  -9.0226     25.9834    208.5900   1.4461670036e+02   2.8314292028e+01    0.2216895    0.1410442 -83.41  0.000529343    1.268    0.212
       130  -9.2895    246.2773    207.3741   9.9826381215e+01  -8.0875335388e+00    0.2527399    0.1948605 -22.28 0.0005877581    1.201    0.167
       131  -7.6537    156.6308    208.2871   1.1763590359e+02   7.9581455397e+00    0.1462994    0.1047209  69.63 0.0007021081    1.707    0.414
       132  -8.1321    126.4644    208.5033   1.2408344052e+02   1.3523586162e+01     0.142422    0.1226203  67.77  0.000127188    1.068    0.064
       133  -9.2905     99.5512    206.2689   1.2950190827e+02   1.8674179301e+01    0.4003455     0.225513  82.56  0.001370462    2.580    0.612
       134  -9.4567     79.5348    206.4180   1.3374495346e+02   2.1815854474e+01    0.3282951    0.1760388  49.91  0.001383118    1.711    0.416
       135  -8.9473     56.7880    205.6829   1.3833853345e+02   2.5211255315e+01    0.2524648    0.1338425  80.66 0.0009455094    2.109    0.526
       136  -9.4965    194.8608    203.8665   1.0893175069e+02   1.5167620585e+00    0.3606001    0.3082116 -59.02  0.001140031    1.392    0.282
       137  -9.7574    192.5656    197.4638   1.0818193376e+02   3.1204729119e+00    0.4212677    0.3065786 -71.35  0.001466478    2.038    0.509
       138  -9.1690    183.6110    204.0235   1.1125015269e+02   3.6213739181e+00    0.3526155    0.2335957  64.51 0.0009644827    2.066    0.516
       139  -8.5875    179.2420    203.9828   1.1214346343e+02   4.4645358705e+00    0.2447678    0.1818356  33.62 0.0004320857    1.301    0.232
       140  -8.2249    109.0436    205.2318   1.2732418079e+02   1.7294176245e+01    0.2034694    0.1386483 -88.10 0.0007046812    1.674    0.403
       141  -9.3309     12.9846    203.8409   1.4666446953e+02   3.0674608428e+01    0.2485292    0.1590299  75.60 0.0007842273    1.256    0.204
       142  -9.7570    163.7209    203.0650   1.1522667166e+02   7.6270967238e+00    0.4018706    0.2717097  67.05 0.0008618802    1.904    0.475
       143  -8.7191    131.2022    204.0916   1.2237096677e+02   1.3580504138e+01    0.2747122    0.1670091  66.08 0.0009317903    2.016    0.504
       144  -8.2661    122.0688    204.0233   1.2433405909e+02   1.5258663999e+01    0.1905824     0.171446  -9.72 0.0003869907    1.495    0.331
       145  -9.4619    250.0884    201.9936   9.8121997843e+01  -7.8820402779e+00    0.3593418    0.1740028 -35.81  0.001180168    1.960    0.490
       146  -9.1687     48.6716    202.5515   1.3965031222e+02   2.6950319292e+01    0.2269326    0.1260478  84.82 0.0009495084    1.810    0.448
       147  -9.1049    243.0464    200.8843   9.9157316743e+01  -6.5655690887e+00    0.2928903    0.1793714 -39.14 0.0008743381    1.637    0.389
       148  -8.3707    211.0154    202.0094   1.0537562926e+02  -1.1573355685e+00    0.2022322    0.1724062  89.02 0.0005815465    1.690    0.408
       149  -9.1046    140.3577    200.9734   1.1987407993e+02   1.2523102360e+01    0.3528294    0.2302271 -86.86  0.001358188    2.304    0.566
       150  -8.5278     79.9832    201.4737   1.3302951872e+02   2.2836922642e+01     0.277823    0.1366289  77.71  0.001025093    3.373    0.704
       151  -8.2739    204.8014    206.1615   1.0738214202e+02  -7.3476558060e-01    0.1887727    0.1515787   3.49 0.0005067732    1.332    0.249
       152  -9.4952    149.5956    198.5584   1.1745377813e+02   1.1259701225e+01    0.4732675    0.3103549 -84.09  0.001389686    2.393    0.582
       153  -8.7456    123.9421    199.3929   1.2319396009e+02   1.5910199452e+01    0.2694857    0.1904474 -83.01 0.0008382038    1.662    0.398
       154  -9.2447    113.0266    198.6288   1.2546795111e+02   1.8034117099e+01     0.494384    0.2742985  76.05  0.001876521    2.992    0.666
       155  -7.7455     29.6630    200.7371   1.4324727218e+02   2.9596931136e+01    0.1041738   0.08731793 -54.23 0.0003275384    1.585    0.369
       156  -8.6232    236.9859    198.5792   9.9805041191e+01  -5.1834323303e+00    0.2441655    0.1769282 -48.70 0.0009756886    1.649    0.394
       157  -8.5003    176.9966    199.1530   1.1171801901e+02   5.8155895716e+00     0.212271    0.1880507  77.62 0.0005717835    1.299    0.230
       158  -8.9851    105.6028    199.0560   1.2715987823e+02   1.9230209467e+01    0.2311127    0.1893583  48.22 0.0004256384    1.204    0.169
       159  -9.0370     88.6690    198.5428   1.3077639249e+02   2.2140584414e+01    0.3492457    0.2127941  82.09  0.001629435    1.956    0.489
       160  -8.4204    202.0441    197.9706   1.0636782941e+02   1.2208997564e+00    0.2099161    0.1746186  86.65 0.0006321857    1.697    0.411
       161  -9.7081     61.5693    197.1365   1.3639816130e+02   2.6459720515e+01    0.4308634    0.2118838  74.29  0.001805349    2.693    0.629
       162  -9.4627     52.9795    197.5919   1.3824471046e+02   2.7498363012e+01    0.2336364     0.224117 -84.29  0.001612195    1.351    0.260
       163  -7.9078     12.3564    197.6954   1.4631732997e+02   3.2045326148e+01    0.1244288   0.06555239  69.59 0.0007040144    1.717    0.418
       164  -8.6734    215.8210    195.7060   1.0321859445e+02  -9.4985167972e-01    0.2438985    0.1767357 -65.12  0.000792375    2.078    0.519
       165  -8.9788    185.1697    194.9012   1.0920997363e+02   5.0360533042e+00    0.2888567    0.2299722 -70.33 0.0007519854    1.605    0.377
       166  -8.3405    132.8535    195.9597   1.2066701103e+02   1.4997973517e+01     0.230896    0.1592101 -87.52 0.0008258093    1.896    0.473
       167  -9.2096    245.6447    193.6429   9.7277723657e+01  -5.8547522245e+00    0.2734318    0.2288845 -74.25  0.001368533    1.890    0.471
       168  -8.8034    224.2654    193.9556   1.0125858211e+02  -2.1880534912e+00      0.26618    0.1784558 -49.10 0.0009199844    1.724    0.420
       169  -8.9115    160.9585    194.4188   1.1424776406e+02   9.8936525531e+00    0.2643896    0.2045831 -75.53 0.0007263137    1.589    0.371
       170  -7.9895    231.0018    194.4936   1.0010337519e+02  -3.4793419735e+00    0.1616352    0.1205701  69.51  0.000382489    2.169    0.539
       171  -8.7557     76.9518    193.7752   1.3268197242e+02   2.5019509840e+01      0.25502    0.1740148 -82.72 0.0006681971    1.405    0.288
       172  -9.1604     43.7848    193.3057   1.3969003067e+02   2.9605350541e+01    0.4024591     0.187727  69.92  0.001794057    2.586    0.613
       173  -8.3781      6.1560    194.1812   1.4722135843e+02   3.3379416774e+01    0.1620497     0.127256 -84.38 0.0004587476    1.168    0.144
       174  -7.7099    154.6852    193.3476   1.1541164621e+02   1.1346354876e+01     0.150753    0.1124995  80.53 0.0007047351    1.721    0.419
       175  -8.4893     56.2698    193.4257   1.3708709547e+02   2.8004226761e+01    0.1782963    0.1039271  53.72 0.0009439134    1.629    0.386
       176  -8.4437    198.9842    191.7532   1.0576753767e+02   2.9391377263e+00    0.2456382    0.1793873 -55.02  0.000640914    1.609    0.379
       177  -8.6194    172.3077    191.8343   1.1132637266e+02   8.1701125920e+00    0.2705784    0.2200781  89.31  0.001088449    1.561    0.359
       178  -9.1760    139.5985    190.8755   1.1828867916e+02   1.4806555317e+01     0.395902    0.2525819  75.88  0.001184667    2.308    0.567
       179  -8.1519    118.1185    192.1902   1.2331353990e+02   1.8542534021e+01    0.2032893    0.1567265  72.31 0.0005016865    1.325    0.245
       180 -10.4962     92.4671    189.0490   1.2858257205e+02   2.3672858947e+01    0.9699277    0.3154921  52.55  0.003147519    3.761    0.734
       181  -7.8151    179.2847    191.6648   1.0981564001e+02   6.8196646686e+00    0.1421816    0.1150047  87.10 0.0003736155    1.623    0.384
       182  -7.7551     22.9897    192.0000   1.4378563775e+02   3.2221247319e+01    0.1679223   0.06502619  33.93  0.000800646    2.930    0.659
       183  -8.1567     17.2055    191.4578   1.4488096146e+02   3.2923100954e+01     0.157507   0.08934228  55.29 0.0008819005    1.662    0.398
       184  -8.3643    148.6396    189.5565   1.1604364044e+02   1.3328436922e+01     0.247592    0.1792558 -78.95 0.0008007991    1.759    0.432
       185  -8.2625    237.3828    188.6804   9.7774148460e+01  -3.6341695349e+00     0.239886    0.1202365 -42.03 0.0006995067    1.995    0.499
       186  -9.2616    155.9992    187.7247   1.1407805784e+02   1.2259063804e+01    0.3864483    0.2317391 -61.07  0.001026715    1.992    0.498
       187  -8.9321    129.3030    188.6745   1.2020558271e+02   1.7250517201e+01    0.3046767    0.2189651  79.38 0.0008774029    1.673    0.402
       188  -9.7501    120.9693    186.8796   1.2178064471e+02   1.9204295504e+01    0.5764026    0.3041529 -75.31  0.002102587    3.016    0.668
       189  -8.1035     71.1399    189.1042   1.3333980167e+02   2.6937132263e+01    0.1847151    0.1349772  73.57 0.0003177086    1.285    0.222
       190  -8.6808    216.5558    187.9760   1.0153831656e+02   2.7048865207e-01    0.2411888    0.1963392  60.56 0.0006656586    1.508    0.337
       191  -8.8622    191.5005    187.7691   1.0650423140e+02   5.1537136785e+00    0.2723083    0.2281043  81.84  0.001096842    1.539    0.350
       192  -8.7988    164.9433    187.3472   1.1205002216e+02   1.0549236361e+01    0.2795815    0.2059168 -68.95 0.0007501643    1.666    0.400
       193  -9.2312     54.5101    186.7891   1.3668567930e+02   2.9741319749e+01    0.4024822     0.205649  83.14   0.00151305    2.464    0.594
       194  -8.7911     48.8623    188.1873   1.3806365669e+02   3.0138128085e+01    0.3896935    0.1020644  44.21  0.001283105    3.435    0.709
       195  -8.5377     33.9051    187.7969   1.4117107480e+02   3.1986289393e+01    0.2502361    0.1257281  81.83  0.001212551    2.156    0.536
       196  -7.7451    230.3318    187.6346   9.8858904999e+01  -2.2058636289e+00    0.1334706     0.110614 -78.26 0.0004262842    1.817    0.450
       197  -9.1317    109.4789    186.1492   1.2427427434e+02   2.1444536693e+01    0.3884981    0.2455543  75.80  0.001102565    2.034    0.508
       198  -8.7407     28.4623    187.2561   1.4224108736e+02   3.2699417859e+01    0.1915462    0.1508998  56.69  0.000582082    1.307    0.235
       199  -8.5426    249.0636    185.4778   9.5050454852e+01  -5.1175725514e+00    0.2396197    0.1729056 -47.91 0.0008704392    1.581    0.368
       200  -8.8288    182.9308    185.5420   1.0784555308e+02   7.2961175269e+00    0.2799874    0.2172367 -51.14 0.0008049143    1.378    0.274
       201  -9.0147    210.2143    184.5088   1.0207319321e+02   2.1024285385e+00    0.2447275    0.1918957 -38.34 0.0005376125    1.282    0.220
       202  -8.7640    202.8197    184.7687   1.0359659773e+02   3.4916626213e+00    0.2724521    0.1970496 -53.45 0.0008900484    1.580    0.367
       203  -9.1280     66.7205    184.5612   1.3372077844e+02   2.8610329266e+01     0.363932    0.2068287  72.00  0.001162867    2.042    0.510
       204  -8.4249    224.1460    183.8298   9.9246202169e+01  -4.1557951063e-01     0.195589    0.1872857 -54.20 0.0004445919    1.222    0.182
       205  -8.3219    196.9820    183.9519   1.0461241462e+02   4.7966489802e+00    0.2219146    0.1814296 -86.35 0.0007988708    1.677    0.404
       206  -8.9371    174.3176    183.6601   1.0930239899e+02   9.4117895243e+00    0.2963844     0.233719  86.45 0.0008747355    1.670    0.401
       207  -8.1520    143.6152    184.2643   1.1618425072e+02   1.5453414586e+01    0.2017656    0.1391108 -42.53 0.0007871318    1.600    0.375
       208  -8.5620    240.9539    181.8088   9.5741547569e+01  -3.1139776558e+00    0.3388559    0.2179137 -69.08  0.001340574    3.582    0.721
       209  -8.9707     44.5359    182.3451   1.3832994413e+02   3.1998097428e+01    0.3701932    0.1915635  69.55  0.001232573    2.199    0.545
       210  -7.8822      1.7723    183.7899   1.4727909088e+02   3.6002025198e+01    0.1607971   0.06395572  45.77  0.000860522    2.436    0.589
       211  -8.0719    235.4422    181.9454   9.6764499803e+01  -2.1557393445e+00     0.177946      0.11543 -59.39 0.0005483152    2.314    0.568
       212  -8.2141     60.1582    182.1199   1.3486575857e+02   3.0073348241e+01     0.184456    0.1335061  75.81 0.0003990947    1.299    0.230
       213  -8.8552     26.7964    181.1668   1.4199078171e+02   3.4240558582e+01    0.3392878    0.1477463  67.01  0.001510705    2.788    0.641
       214  -8.6967     24.4913    176.9946   1.4206080205e+02   3.5417251471e+01    0.3418216    0.1484528  79.61  0.001432155    3.062    0.673
       215  -9.0732    147.5105    180.6120   1.1461501608e+02   1.5474228475e+01    0.3427216    0.2521964  78.32  0.001053166    1.710    0.415
       216  -8.5189    137.7003    179.6290   1.1665744718e+02   1.7634756566e+01    0.2970584    0.2007374  77.65  0.001170431    2.023    0.506
       217  -8.3051    114.7355    180.5815   1.2212560013e+02   2.1771376594e+01    0.2016959    0.1287201  53.88  0.000772171    1.553    0.356
       218  -9.3064    191.5470    178.4382   1.0460191471e+02   6.9543253623e+00    0.3053941    0.2524629  68.89 0.0005863706    1.439    0.305
       219  -8.1699    169.3414    178.6759   1.0938137758e+02   1.1451613420e+01    0.2241658    0.1740963  85.70 0.0006061117    1.689    0.408
       220  -9.0517     35.8711    176.8084   1.3959101754e+02   3.4262082253e+01    0.4967088    0.2030356  82.72  0.001641905    4.718    0.788
       221  -8.5409    250.5204    172.8980   9.2240039891e+01  -3.2971817559e+00    0.1927086    0.1574429 -26.40 0.0005120559    1.098    0.089
       222  -9.0910    248.9668    177.5399   9.3459657911e+01  -3.8003187683e+00    0.2655191    0.2420329  38.06 0.0006121266    1.248    0.199
       223  -8.3723    247.2449    173.9951   9.3031102548e+01  -2.9082995585e+00    0.3019134    0.1467889 -29.98 0.0008773818    2.117    0.528
       224  -8.6723    205.0403    177.9729   1.0175564259e+02   4.3312849941e+00    0.2193136    0.2142157 -30.79 0.0006762603    1.081    0.075
       225  -8.5529    128.9945    177.3328   1.1823338228e+02   1.9841325584e+01    0.2687017    0.2017032  89.78  0.000642591    1.571    0.363
       226  -8.0055    101.4602    178.4754   1.2485688625e+02   2.4605209579e+01     0.207605     0.125737  52.87 0.0001300816    1.644    0.392
       227  -8.1764     97.9572    177.5171   1.2551743352e+02   2.5424582740e+01    0.2070387    0.1372382  42.49  0.000496588    1.529    0.346
       228  -8.4026    231.0851    177.0231   9.6550478749e+01  -5.0895034305e-01    0.2099288    0.1694696 -67.99 0.0006824607    1.700    0.412
       229  -8.3723    217.2514    177.2479   9.9205980711e+01   2.0710525814e+00    0.1861054    0.1679508 -70.54  0.000599351    1.352    0.260
       230  -9.2292    183.1537    176.3863   1.0593894924e+02   9.0792038097e+00    0.2719832    0.2355285 -71.10 0.0004862615    1.327    0.246
       231  -8.6826     89.0609    176.9083   1.2750135269e+02   2.7033442820e+01    0.2960042    0.1771939  73.64 0.0009982327    2.138    0.532
       232  -9.9122     57.4151    173.5198   1.3435929863e+02   3.2438990229e+01    0.7830298    0.3536378  84.46   0.00247256    4.776    0.791
       233  -8.3898     13.2055    177.1095   1.4443503881e+02   3.6469418085e+01    0.2261493    0.1123887  62.29 0.0009645317    2.042    0.510
       234  -7.7826    211.6707    176.2917   1.0009179782e+02   3.3356815897e+00    0.1384724    0.1161634  89.60 0.0003283264    1.625    0.385
       235  -9.3043    158.7732    175.0635   1.1098852320e+02   1.4388810270e+01    0.3918152    0.2651595  77.81  0.001276308    2.215    0.549
       236  -9.3227    104.2874    174.8322   1.2357617601e+02   2.4963625346e+01    0.5088751    0.2602397  65.98  0.001550709    3.077    0.675
       237 -10.7094     75.9034    170.2314   1.2956078082e+02   3.0642579214e+01     1.270664     0.457909 -72.96  0.003730366    4.670    0.786
       238  -8.3674    224.4092    174.2262   9.7211109997e+01   1.2438403660e+00      0.19607    0.1284825 -48.43 0.0005177367    1.639    0.390
       239  -9.5383    175.7527    172.5775   1.0673440948e+02   1.1392392455e+01    0.3034678    0.2563846 -54.86 0.0006011266    1.239    0.193
       240  -8.2440    143.0690    173.0257   1.1415020348e+02   1.8035684739e+01    0.2402725    0.1805191  85.35   0.00067337    1.662    0.398
       241  -8.6810    134.4594    172.0031   1.1594757036e+02   1.9982325449e+01    0.2794546    0.2509347  77.98  0.001107414    1.101    0.091
       242  -9.5933    121.3255    170.3890   1.1873280587e+02   2.2893101719e+01    0.4539606    0.2868373 -75.31  0.001175502    1.997    0.499
       243  -9.1705     45.0716    171.3268   1.3689756644e+02   3.4480898469e+01    0.3333259    0.1846536  77.19   0.00129559    2.094    0.522
       244  -8.6136    198.6681    170.5187   1.0147511149e+02   7.0537345453e+00    0.2422999    0.1806535 -65.13 0.0006858643    1.703    0.413
       245  -8.7546     20.0446    170.4934   1.4235853376e+02   3.7322953600e+01    0.1790314    0.1339665 -86.04 0.0006329436    1.040    0.039
       246  -8.2406    237.3276    169.9446   9.3938867260e+01  -4.2456202844e-01    0.1969647    0.1642001 -33.19 0.0004987466    1.126    0.112
       247  -8.8805    230.4698    170.0478   9.5205437544e+01   8.4072654616e-01    0.2057569    0.1891342  17.86 0.0006499553    1.093    0.085
       248  -8.2186    205.7078    170.1543   9.9976642260e+01   5.6878343468e+00    0.2277597    0.1778308 -58.22 0.0006508013    1.475    0.322
       249  -8.4616    149.9816    169.9905   1.1195181110e+02   1.7302731239e+01    0.2455099    0.1838299  82.89 0.0007770071    1.708    0.414
       250  -9.2072    111.5469    168.4717   1.2071137964e+02   2.5155631667e+01    0.4286544    0.2374502 -56.29  0.001519228    1.773    0.436
       251  -8.3077     39.5434    170.5056   1.3804938931e+02   3.5307392020e+01    0.1288526     0.103844 -84.60 4.819452e-05    1.008    0.008
       252  -7.7982    244.4847    169.4717   9.2573901705e+01  -1.6488643143e+00    0.1355004    0.1237158 -25.84  3.36553e-05    1.068    0.064
       253  -9.0537    167.1259    168.6239   1.0779796449e+02   1.4031016775e+01    0.3329734    0.2429054  74.50 0.0009753757    1.797    0.443
       254  -8.3457     88.6114    168.8101   1.2629316163e+02   2.9014938019e+01    0.2025449     0.126281 -74.68 0.0007770924    1.687    0.407
       255  -8.2621    218.7555    168.5829   9.7091011236e+01   3.3729834011e+00    0.1869894    0.1382537  56.01 0.0004563426    1.558    0.358
       256  -8.9587    191.9241    166.7166   1.0205096954e+02   9.2065503396e+00     0.280257    0.2138268 -51.21 0.0005852605    1.371    0.271
       257  -9.2423    185.1465    166.6708   1.0346639666e+02   1.0639806909e+01    0.3045967    0.2305133 -74.12 0.0009762888    1.746    0.427
       258  -9.0116     20.3933    166.2767   1.4184824824e+02   3.8249006836e+01    0.2745955    0.1276108  64.14    0.0011135    2.515    0.602
       259  -9.9028    136.7574    164.5062   1.1391516402e+02   2.1227208643e+01    0.6188391     0.326593  62.64  0.002185111    2.778    0.640
       260 -10.2352     94.9767    162.8423   1.2371551870e+02   2.9387695285e+01    0.8224139    0.4596824  84.98  0.002802027    3.340    0.701
       261  -8.0263    233.9805    165.0437   9.3505900613e+01   1.0689671742e+00    0.2097803    0.1679987 -66.43 0.0006477346    1.625    0.384
       262  -8.7822    159.3943    164.4733   1.0865622179e+02   1.6555174518e+01    0.3221151    0.2324877  79.86  0.000789041    1.896    0.473
       263  -9.7173     63.0090    164.5123   1.3177510098e+02   3.3825172008e+01    0.5351022    0.1839389  43.26  0.002103284    2.914    0.657
       264  -8.6689     60.9021    160.4242   1.3167269608e+02   3.5078669368e+01    0.3801302    0.2064248  75.12  0.001588155    2.633    0.620
       265  -9.2600     33.4357    163.5231   1.3860244457e+02   3.7591599434e+01    0.4796707     0.207057  59.92  0.002061295    2.948    0.661
       266  -8.2190    240.0027    164.3400   9.2281935480e+01   6.2291024163e-02     0.182004    0.1751675   2.33 0.0004512488    1.096    0.088
       267  -8.7146    212.9004    163.6827   9.7167062115e+01   5.4661804077e+00    0.2785736    0.2029566 -47.06 0.0005892778    1.395    0.283
       268  -8.5826    246.2890    162.9934   9.0903353816e+01  -8.5988528655e-01    0.1979091    0.1608922 -30.45 0.0004393034    1.114    0.102
       269  -8.5813    204.9452    162.7880   9.8541291651e+01   7.2706168275e+00    0.2530013    0.1871199 -57.55  0.000528958    1.546    0.353
       270  -9.2628      3.3327    162.5134   1.4518805988e+02   4.0557602221e+01    0.3482871    0.1521526  57.67  0.001793795    2.506    0.601
       271  -8.8709    177.6438    160.8904   1.0382446593e+02   1.3435238123e+01    0.3088196    0.2247464 -67.97 0.0009296009    1.714    0.417
       272  -8.6551    151.5352    160.9278   1.0970451379e+02   1.8991444557e+01    0.2886898    0.2332706  86.04 0.0007834205    1.457    0.314
       273  -7.7482    242.2327    159.9776   9.0965395732e+01   4.1395273083e-01    0.1780573    0.1071724 -38.18 0.0003413047    1.526    0.345
       274  -8.5685    227.4224    159.2854   9.3464558467e+01   3.3815281762e+00    0.2566088    0.1643874 -47.39 0.0009750203    1.587    0.370
       275  -8.9415     84.5054    159.5327   1.2571761722e+02   3.1879516038e+01    0.2443633    0.2281183 -47.64 0.0007576025    1.221    0.181
       276 -10.0248     81.1841    154.4933   1.2566501149e+02   3.3604021761e+01    0.5503291     0.312223  77.41  0.001730876    2.874    0.652
       277  -9.5740    250.2529    157.9877   8.9174187342e+01  -7.1622126736e-01    0.3112462    0.1671532 -38.09 0.0007562008    1.679    0.404
       278  -7.8674    237.3607    159.1528   9.1643301482e+01   1.4789078647e+00    0.2028021    0.1203317 -47.43 0.0007176268    1.723    0.420
       279  -8.3152    128.2384    159.1086   1.1485080869e+02   2.4168947335e+01    0.2904046    0.1880298  68.84 0.0008905457    2.015    0.504
       280  -9.9788    105.5571    157.8375   1.2017038183e+02   2.8746070325e+01    0.4964883    0.3266077 -86.08  0.001138073    1.999    0.500
       281  -8.6217    196.7034    157.8918   9.9133420046e+01   9.9714168221e+00    0.2683731     0.199446 -58.81 0.0005623184    1.524    0.344
       282  -8.4024    188.0286    157.7718   1.0091149661e+02   1.1852165144e+01    0.2748838    0.1929038 -58.64 0.0007699366    1.627    0.385
       283  -9.0833    167.6474    157.4157   1.0526674395e+02   1.6327997231e+01    0.3594944    0.2531492  86.93  0.001200411    2.159    0.537
       284  -7.8447     79.3467    158.3014   1.2678738790e+02   3.2971033705e+01     0.137478    0.1090638 -28.81 0.0007038614    1.686    0.407
       285  -9.0794     42.4034    157.4854   1.3572563998e+02   3.8032627481e+01    0.2147031    0.1869175 -87.18 0.0004750165    1.076    0.071
       286  -8.2880    217.9263    156.7659   9.4689912376e+01   5.7578329712e+00    0.2695175    0.1815905 -63.72 0.0008559722    2.034    0.508
       287  -9.2080    157.5011    156.1361   1.0728852421e+02   1.8789821861e+01    0.3093207    0.2165785 -62.46 0.0006628084    1.607    0.378
       288  -8.6848    100.2926    156.7970   1.2128363881e+02   2.9921386049e+01    0.2412984    0.1784341 -84.59  0.001171668    1.494    0.331
       289  -9.9513    117.4563    154.1246   1.1647299491e+02   2.7427764971e+01    0.7669181       0.3695  57.95  0.002291388    2.814    0.645
       290  -9.2164     49.5722    155.1969   1.3366609503e+02   3.7744771626e+01    0.3695647    0.2035432  78.57  0.001638985    2.439    0.590
       291  -9.2515    242.5567    154.9851   8.9842036602e+01   1.2347761193e+00    0.2718946    0.1631393 -52.06 0.0004371473    1.880    0.468
       292  -8.0562    204.5531    155.1018   9.6925338824e+01   8.8610346882e+00    0.2284328    0.1430439 -43.29  0.001013746    1.564    0.360
       293  -8.5659    144.5707    155.3041   1.1012836447e+02   2.1715400046e+01    0.2376626    0.1824348 -89.90   0.00100196    1.619    0.382
       294  -9.6744    132.8518    153.0259   1.1245338096e+02   2.4653308422e+01    0.4753191    0.3439268 -84.68  0.001334224    1.782    0.439
       295  -9.1089    133.5119    148.4950   1.1130801009e+02   2.5565453357e+01    0.3664798    0.2549987 -46.28  0.001438422    1.449    0.310
       296  -9.9670     68.0466    154.0022   1.2889104297e+02   3.5645415366e+01    0.4735364    0.2698348  77.10   0.00144847    2.569    0.611
       297  -8.6350    151.5429    153.0201   1.0798453861e+02   2.0756872139e+01    0.3422224    0.1961917 -54.08   0.00126561    1.827    0.453
       298 -10.2355    149.0212    145.0939   1.0679612558e+02   2.3077847147e+01    0.6239122    0.4074416 -85.61  0.001650428    2.616    0.618
       299  -8.8453     20.0819    153.0015   1.4045508538e+02   4.1319727656e+01    0.1941915     0.121744  74.79 0.0006106565    1.643    0.391
       300  -9.6358     28.5276    150.2575   1.3811400214e+02   4.1172425475e+01    0.6048247    0.2524391  62.97  0.002322983    3.862    0.741
       301  -9.5156    248.8367    149.2432   8.7548355881e+01   1.0662796351e+00    0.3703027    0.1758056 -41.88  0.000817914    1.912    0.477
       302  -8.9103    247.0184    144.0036   8.6719827151e+01   2.3337015507e+00     0.275549    0.1847307 -33.10 0.0005058907    1.387    0.279
       303  -8.9547    189.2923    150.1120   9.8923352473e+01   1.3155282497e+01    0.3511447    0.2492141 -66.55 0.0007511593    1.786    0.440
       304  -8.0495    182.4060    151.2369   1.0064149891e+02   1.4429851714e+01    0.2157897    0.1435846 -55.61 0.0005450226    1.643    0.391
       305  -7.9870    162.5721    150.7505   1.0492609904e+02   1.8879956785e+01    0.2136863     0.147511 -59.20 0.0008107949    1.590    0.371
       306  -9.1637     98.2012    150.3495   1.2056621594e+02   3.1823284357e+01    0.3940633    0.2280621 -62.80  0.001685001    1.726    0.421
       307  -8.3875    243.0379    150.2485   8.8739321662e+01   1.9847585946e+00     0.194979    0.1751238 -35.71 0.0006751255    1.042    0.041
       308  -8.8736    238.3566    150.0515   8.9501579150e+01   2.9223298756e+00    0.3186736    0.1728906  30.43  0.001303349    2.545    0.607
       309  -7.8601    212.9700    150.0368   9.4143069558e+01   8.0752834538e+00    0.1749728    0.1653715 -33.10  0.000310691    1.016    0.015
       310  -8.6706     53.7913    149.5798   1.3177112267e+02   3.8570346394e+01    0.2582785    0.1775566  72.64  0.000956542    1.611    0.379
       311 -10.2783     54.9746    144.8555   1.3071567399e+02   3.9551142050e+01    0.7560843    0.4018977  77.11  0.002954846    3.162    0.684
       312  -9.7830     39.7654    148.0535   1.3506033743e+02   4.0545392211e+01    0.4601022    0.2319174  69.52  0.001868418    2.916    0.657
       313  -8.8081      3.0006    150.0392   1.4406958674e+02   4.3375199692e+01    0.2181969   0.09699028  83.57 0.0008814284    2.613    0.617
       314  -8.4274    198.8490    149.0356   9.6706531680e+01   1.1291973426e+01    0.2311433    0.1980966 -71.51 0.0004876624    1.328    0.247
       315 -10.2632     89.3164    146.4128   1.2208292019e+02   3.4256851365e+01    0.6726868     0.372541 -85.51  0.002358315    3.301    0.697
       316  -8.5235    233.2992    147.9573   8.9928988979e+01   4.2987761709e+00    0.2085025     0.170894 -33.29 0.0004194068    1.138    0.122
       317  -9.2532     78.0138    147.2759   1.2517588120e+02   3.5819512809e+01    0.2693071    0.1867636 -89.29 0.0008347378    1.668    0.401
       318  -8.1442    223.4610    146.9545   9.1479473143e+01   6.4791507761e+00    0.2182175    0.1366922 -40.74 0.0004624775    1.506    0.336
       319  -9.4794    138.9368    144.9894   1.0920024270e+02   2.5246808103e+01    0.5464602    0.2814579 -56.94  0.001235732    2.141    0.533
       320 -10.0717    132.4867    131.7004   1.0771019749e+02   2.9641009655e+01    0.8961336    0.5313679 -81.89  0.002780198    3.834    0.739
       321  -8.5487    104.5126    139.4494   1.1669043873e+02   3.3307533713e+01    0.2696515    0.2127515 -28.20 0.0008350168    1.550    0.355
       322  -9.0225     13.4875    146.3106   1.4123556573e+02   4.3414241996e+01    0.3233507    0.1601342  60.41  0.001245499    2.413    0.586
       323  -8.3572    240.4218    145.4917   8.8151323203e+01   3.3421694226e+00    0.2415512    0.1869073 -33.12 0.0005447435    1.197    0.165
       324  -9.0625    242.6937    143.3126   8.7290337211e+01   3.2909788321e+00    0.2144806     0.166962 -36.31 0.0005218043    1.168    0.144
       325  -8.0465    206.8156    146.5881   9.4559843248e+01   1.0058865307e+01    0.1982305    0.1452955  61.09 0.0005266114    1.559    0.358
       326  -8.1171    175.4247    146.2084   1.0100711166e+02   1.7033413620e+01    0.2158036    0.1457749 -57.13 0.0005611132    1.625    0.385
       327 -10.7120     61.7032    135.8701   1.2739386096e+02   4.0841099482e+01    0.6523533    0.2753623  37.08  0.002605805    2.567    0.610
       328  -9.9213     72.9783    129.5011   1.2309393956e+02   4.0810452309e+01    0.3803733    0.2539552 -78.61 0.0009530456    1.729    0.422
       329 -11.1804     68.8819    142.1447   1.2662456009e+02   3.8373193868e+01    0.6409375    0.4280838 -57.92  0.002230241    1.339    0.253
       330 -10.4387     71.7718    134.3503   1.2438822570e+02   3.9830019483e+01    0.7501358    0.3086519  31.13  0.002903032    2.976    0.664
       331  -8.6750     32.7653    145.1325   1.3639366310e+02   4.1954765304e+01    0.2924815    0.1508901  75.09  0.001284375    2.750    0.636
       332  -9.7617    125.1505    142.9820   1.1216440258e+02   2.8538567344e+01    0.5281413    0.3346377 -83.79  0.001490956    2.607    0.616
       333  -7.6656    194.6077    144.2821   9.6482260900e+01   1.3182399949e+01    0.1580042    0.1214272  88.70  0.000700043    1.752    0.429
       334  -8.7328    165.6351    144.0950   1.0270381392e+02   1.9661632806e+01    0.2663837    0.2122328  64.72 0.0006625269    1.364    0.267
       335  -9.4147      2.8881    142.1623   1.4328035145e+02   4.5153712025e+01    0.3257928    0.1636206  73.77  0.001487452    2.352    0.575
       336  -8.1690    182.1642    142.1042   9.8588386387e+01   1.6400026455e+01    0.2148762    0.1827041 -76.07 0.0005082487    1.330    0.248
       337  -8.4311    250.4719    140.9516   8.5495185825e+01   2.2148031454e+00    0.2121072    0.1240811 -38.55 0.0005102404    1.526    0.345
       338  -8.4431     46.5155    140.8480   1.3225863728e+02   4.1505065169e+01    0.2073641    0.1615239  80.32 0.0005851807    1.323    0.244
       339  -8.3585    134.0000    140.0441   1.0928741201e+02   2.7412878639e+01    0.2596041   0.08742588 -48.75 0.0008003746    2.928    0.658
       340  -9.6416     23.3974    138.3481   1.3781654285e+02   4.4411064488e+01    0.4910832    0.2414518  67.66  0.002096344    2.939    0.660
       341  -8.8747     18.9981    139.0000   1.3900522715e+02   4.4638042551e+01    0.2879547    0.1183642  29.81  0.001410374    2.874    0.652
       342  -8.5430    172.3099    138.3893   9.9864287861e+01   1.9402531718e+01    0.2665973    0.1827591 -63.25 0.0006142469    1.736    0.424
       343  -7.7513    218.6841    138.7105   9.0498397313e+01   9.0488043605e+00    0.1464295    0.1164132   5.04 0.0002877155    1.592    0.372
       344  -8.0907    207.4871    137.9918   9.2453351261e+01   1.1609792402e+01    0.2096006    0.1259395 -62.48  0.000640464    2.312    0.567
       345  -8.4662    197.4935    137.4988   9.4314647357e+01   1.3919299906e+01    0.2573516    0.1397655 -51.84 0.0005548671    1.991    0.498
       346  -8.8946    114.3204    138.1513   1.1385181521e+02   3.1789711515e+01    0.3046979    0.1930048  67.93 0.0009439122    2.181    0.542
       347  -8.5648     93.0605    137.5139   1.1930268900e+02   3.5765938721e+01    0.2895335    0.1724723  56.29   0.00125131    1.981    0.495
       348 -10.3269     83.2797    133.4476   1.2108431696e+02   3.8323484343e+01    0.6144576     0.366159 -58.09  0.001886168    1.548    0.354
       349  -8.4848    241.2889    137.6811   8.6289662044e+01   4.5809449086e+00    0.1407529    0.1068745 -66.16 0.0007005619    1.597    0.374
       350  -8.1962    162.5707    136.7063   1.0166256003e+02   2.1957139326e+01    0.2133518    0.1492111 -56.53 0.0006262333    1.512    0.339
       351  -9.4900     39.1359    136.3871   1.3348134634e+02   4.3360029067e+01    0.2481936    0.1755789  83.34 0.0007842343    1.518    0.341
       352  -9.1057    248.3979    135.4498   8.4634853821e+01   3.5848671213e+00    0.2967248    0.2010711 -45.21  0.000719186    1.357    0.263
       353  -8.6060    246.8918    130.3310   8.3755028526e+01   4.7899234516e+00    0.2710098    0.1733694 -50.72 0.0007906463    1.545    0.353
       354  -7.8209    187.6817    135.3382   9.5820772648e+01   1.6567718723e+01    0.1613175    0.1229048 -80.38 0.0007049168    1.706    0.414
       355  -8.6368    179.4675    133.8484   9.7211205720e+01   1.8744523394e+01    0.3068052     0.208878 -63.16 0.0009457747    1.767    0.434
       356  -9.3798    112.7922    133.3750   1.1317190436e+02   3.3201726898e+01    0.3470359    0.2454619  79.67  0.001055776    1.932    0.482
       357  -8.0850      9.7557    134.0152   1.4068161594e+02   4.6503219726e+01    0.1629463   0.08046646 -70.93 0.0005324057    1.567    0.362
       358  -8.0945    237.4487    133.5045   8.6006784978e+01   6.1109939999e+00    0.1443512    0.1299282 -48.30 0.0001899511    1.064    0.060
       359 -10.4148     98.2377    130.4146   1.1637822161e+02   3.6561057251e+01    0.6450411    0.3002603 -57.44  0.001649786    2.152    0.535
       360  -8.9380    143.0988    131.7639   1.0509062222e+02   2.7361420054e+01     0.315444    0.2431025 -70.78 0.0007822781    1.486    0.327
       361  -8.9446    250.7319    130.2205   8.3123285889e+01   4.0563708665e+00    0.4153874    0.1152769 -36.44  0.001307093    3.557    0.719
       362  -8.6459     31.0729    130.6359   1.3471882212e+02   4.5503423247e+01    0.2148064    0.1512724 -78.96  0.000588062    1.285    0.222
       363  -9.8678     13.0114    129.4467   1.3927476597e+02   4.7300017260e+01    0.4299798    0.2265002  75.23  0.002002969    2.526    0.604
       364  -7.6164    220.6295    130.2685   8.8203359830e+01   1.0244609343e+01    0.1490154    0.1153826 -82.84 0.0003764257    1.667    0.400
       365  -7.9326    204.5145    130.4894   9.1271928549e+01   1.3751893728e+01    0.1529309    0.1447439 -61.71 5.530244e-05    1.048    0.046
       366  -7.9889    192.6448    129.8724   9.3486852562e+01   1.6560742131e+01      0.22261      0.13843 -50.99 0.0005904545    1.651    0.394
       367  -9.0510    168.3885    129.6348   9.8629767812e+01   2.2169262030e+01    0.3300528    0.2478027 -83.61 0.0008570231    1.758    0.431
       368  -9.4653    152.8775    128.8465   1.0202156605e+02   2.5853861512e+01    0.4486375    0.2664598 -59.23 0.0009487998    1.980    0.495
       369  -7.5942    211.6471    129.3428   8.9640649803e+01   1.2388056489e+01    0.1597584    0.1173189 -76.70 0.0007040715    1.813    0.448
       370 -10.5048     60.0339    125.2581   1.2584782724e+02   4.3570573642e+01    0.7081683    0.4171261  83.75  0.002577302    2.878    0.653
       371 -10.7542     44.9212    123.7585   1.2979641539e+02   4.5705948133e+01     1.029088    0.5412367  82.57  0.003773718    3.952    0.747
       372 -10.0108    117.9010    125.4014   1.0995461985e+02   3.4058949393e+01    0.5558329     0.377917 -85.96  0.001476991    2.251    0.556
       373  -7.8607    228.4494    125.4884   8.5724598517e+01   9.4654358981e+00    0.1469912    0.1347441 -49.49  0.000131672    1.026    0.026
       374  -8.7594    179.3849    124.9411   9.5059712577e+01   2.0627100707e+01    0.2874455    0.2191801  73.91 0.0006204355    1.556    0.357
       375  -8.6864     83.8238    123.8371   1.1887607056e+02   4.0509988680e+01    0.3399074    0.1695044 -39.69 0.0009950415    2.327    0.570
       376 -10.4065     28.5672    122.5381   1.3412290452e+02   4.7606773391e+01    0.6818563    0.3483659  79.98  0.002762602    3.512    0.715
       377 -10.3370    132.1775    120.0885   1.0493476164e+02   3.2328533497e+01    0.9021384    0.5468331 -88.40  0.002715186    4.189    0.761
       378  -8.0023    194.9795    122.1838   9.1153271481e+01   1.7577674429e+01    0.2287913    0.1626604 -61.61 0.0006018074    1.592    0.372
       379  -8.5969    172.2146    121.8993   9.5862463415e+01   2.2927070214e+01    0.2803946    0.2171534  83.62 0.0007355058    1.601    0.375
       380  -8.9911    158.7404    121.6913   9.8860626180e+01   2.6083356126e+01    0.2959241    0.2394706 -81.99 0.0007406056    1.465    0.317
       381  -9.8034    245.4194    120.8151   8.1884170488e+01   6.7814708924e+00    0.2415626    0.2037208  57.83 0.0007736729    1.317    0.241
       382  -8.7202     99.4000    120.4429   1.1375906277e+02   3.8683629399e+01    0.3444771    0.2171635   2.56  0.001210088    3.486    0.713
       383  -9.6585     71.0583    119.5119   1.2153942803e+02   4.3434538018e+01    0.4792251    0.2422107 -68.77  0.001519314    2.435    0.589
       384  -9.7621    141.4812    118.3183   1.0214569236e+02   3.0702965629e+01    0.5347995    0.3038955 -61.72   0.00109203    2.305    0.566
       385  -9.2678     20.7742    118.7103   1.3566289138e+02   4.9142702667e+01    0.2513901    0.1546362  45.62  0.001168823    1.947    0.486
       386  -9.7689      2.6779    117.2440   1.4036576070e+02   5.0749232308e+01    0.4060732     0.200304  85.66  0.001980881    2.611    0.617
       387 -10.2599    106.4382    144.4806   1.1725982371e+02   3.1763882913e+01    0.6992324     0.423452  81.08  0.002118571    2.983    0.665
       388  -7.9196    185.5486    116.4550   9.1652408978e+01   2.0928574013e+01    0.1563628    0.1484976 -73.04 7.755466e-05    1.038    0.037
       389 -10.1435    109.2761    114.2919   1.0952764340e+02   3.8265598928e+01    0.5356878    0.3353556 -66.56  0.001262878    2.028    0.507
       390  -9.8308    249.4917    114.3459   7.9828055935e+01   7.1004278681e+00    0.4168923    0.2387835 -63.58  0.001759171    2.397    0.583
       391  -8.0214    192.8417    115.5779   8.9954840201e+01   1.9393397799e+01    0.2054993    0.1487961  68.12 0.0004166069    1.566    0.361
       392  -9.8872     79.1154    112.6837   1.1767236373e+02   4.3827179115e+01    0.4878834    0.3345286  87.52  0.001792472    2.229    0.551
       393  -9.1984     36.6751    115.2066   1.3058250422e+02   4.8534117855e+01    0.1969779    0.1661556  54.59 0.0005986532    1.384    0.278
       394  -7.9739    167.4451    114.5077   9.5046286104e+01   2.5584637658e+01     0.157775    0.1512085 -75.58 0.0001367851    1.031    0.030
       395 -10.5639    133.8644    109.7430   1.0182878237e+02   3.4236275724e+01    0.7946313    0.3336352 -50.83  0.002721521    2.553    0.608
       396 -10.1505     92.5830    111.3516   1.1346528425e+02   4.1951644019e+01    0.8554524    0.3612139 -56.26  0.002700011    2.498    0.600
       397  -8.8755     60.7325    114.5553   1.2345912220e+02   4.5976557157e+01      0.24625    0.1397687  25.35  0.001159559    2.181    0.542
       398  -9.2467     51.1707    113.2614   1.2598911337e+02   4.7438462780e+01    0.2593621    0.2173751  63.06 0.0006933738    1.390    0.280
       399  -9.6989    121.9725    112.7530   1.0571071377e+02   3.6092629392e+01    0.3251355    0.2657238  70.19 0.0007596929    1.406    0.289
       400  -8.3049    174.8439    112.0650   9.2797034805e+01   2.4344856778e+01    0.2451748    0.2046117 -72.44 0.0005427793    1.313    0.238
       401  -8.4633    159.1725    111.9253   9.6255652389e+01   2.8055627582e+01    0.2451727    0.2077198 -73.02 0.0006020113    1.293    0.226
       402 -10.0745     66.4407    110.7332   1.2094026606e+02   4.6101376938e+01    0.4079009    0.2984674 -83.37  0.001387485    1.697    0.411
       403  -9.4085     67.0291    105.4780   1.1955066632e+02   4.7212446532e+01    0.2960298    0.1982477   0.94  0.001397657    2.227    0.551
       404  -9.6275     14.1813    111.3277   1.3635021780e+02   5.1306063342e+01    0.3040081    0.1768367  76.00  0.001057745    2.389    0.581
       405  -9.3659      8.0301    109.8932   1.3786386901e+02   5.2043316366e+01    0.3063805    0.1306179  43.80  0.001522962    3.005    0.667
       406 -10.4707    249.0193    107.7418   7.8438054152e+01   8.3524071420e+00    0.4705454    0.2692313 -39.72  0.002231608    1.566    0.362
       407  -8.6780     78.1939    105.6505   1.1625104780e+02   4.5560481227e+01    0.3027333    0.1888492 -23.27  0.001198795    2.291    0.564
       408 -10.4792     45.5389    102.4092   1.2539742760e+02   5.0525525816e+01    0.6407841    0.3897663  78.04  0.002780677    3.104    0.678
       409 -10.6377     22.8354    102.8867   1.3239613147e+02   5.2535291961e+01    0.6211922     0.361663  83.70  0.002771456    2.665    0.625
       410  -8.5608    166.6958    104.3550   9.2568061507e+01   2.7840688622e+01    0.2833301    0.1839483 -53.71 0.0006314073    1.640    0.390
       411  -9.4301    150.6745    103.2146   9.5936593660e+01   3.1834966119e+01    0.4460571    0.2715627 -61.36  0.001350959    2.113    0.527
       412  -9.1126    139.8073    104.6956   9.8981071175e+01   3.4000201218e+01    0.3225037    0.2659666  87.26  0.000783356    1.450    0.311
       413 -10.0542    128.4971    102.2049   1.0118613470e+02   3.7002919006e+01    0.3723762    0.2813659 -74.97 0.0007425983    1.705    0.414
       414  -8.9777      6.6517    102.8830   1.3717948162e+02   5.3673460236e+01    0.2269259    0.1533231  84.33  0.001398894    1.720    0.419
       415  -7.9529    175.5171    102.4937   9.0172776455e+01   2.6104930445e+01    0.1582096    0.1478582 -78.97 9.784021e-05    1.068    0.064
       416 -10.3627    109.0274     99.1110   1.0559819182e+02   4.1643011395e+01    0.6056394    0.4078149  76.93  0.001870672    2.521    0.603
       417  -8.1887    159.6405    100.8385   9.3212077090e+01   3.0220488486e+01    0.2251916    0.1405905 -51.84 0.0004912916    1.689    0.408
       418  -9.3883     82.1413    100.0903   1.1366872200e+02   4.6179393691e+01    0.3393053    0.2349444 -70.24  0.000952963    1.810    0.448
       419  -9.1555     95.0523     97.0952   1.0904672014e+02   4.4664741281e+01    0.3163551    0.2229053 -59.69   0.00064547    1.550    0.355
       420 -10.0352     63.8678     96.0336   1.1822615885e+02   4.9730508112e+01    0.4697567    0.3118762 -84.07  0.001645247    2.465    0.594
       421  -9.2874     56.4985     95.0098   1.2028381699e+02   5.0896622036e+01    0.2809876    0.1787587  49.50  0.001148182    2.001    0.500
       422  -8.1635    176.4876     93.5183   8.7601739065e+01   2.7609458385e+01    0.2685027    0.1363638 -50.48 0.0006778389    2.125    0.529
       423  -7.9434    164.6536     93.9018   9.0217352099e+01   3.0393637243e+01      0.22453    0.1367193 -51.15 0.0005010184    1.736    0.424
       424  -9.1750    139.2787     92.6664   9.5794048382e+01   3.6578748780e+01    0.3573372    0.2562217 -77.40 0.0008518189    1.991    0.498
       425  -8.1723    189.3690    108.2140   8.8802849870e+01   2.1667926075e+01    0.2270699    0.1373707 -50.72 0.0006558573    1.690    0.408
       426 -10.0966    123.1421     91.5733   9.9628438852e+01   4.0338635217e+01      0.75097    0.4216113  38.64  0.001539025    1.903    0.474
       427  -9.0015    107.8166     92.4553   1.0408390196e+02   4.3272901144e+01    0.3500833    0.2231984  15.05  0.001086344    2.478    0.597
       428  -9.0164     46.9247     92.3317   1.2268033976e+02   5.2590233948e+01     0.349458    0.2067406  14.36  0.001769721    2.214    0.548
       429  -9.6860      5.0646     92.3067   1.3590963890e+02   5.6054992797e+01    0.2975291    0.1800139  58.67  0.001436638    2.383    0.580
       430  -7.8074    158.0000     91.9535   9.1163646133e+01   3.2361257846e+01    0.2443731   0.08798098 -39.97 0.0004583131    2.796    0.642
       431  -9.4022     34.7451     89.9109   1.2603945018e+02   5.4346637402e+01    0.3896683    0.2368248 -82.80  0.001646086    2.509    0.601
       432  -8.3444     29.9478     91.9594   1.2802988790e+02   5.4337972622e+01    0.1848028    0.1411204  88.95 0.0008166299    1.655    0.396
       433  -9.0972     23.4512     90.2367   1.2974439958e+02   5.5247364276e+01     0.252045    0.2001156  14.82  0.001411776    1.521    0.342
       434  -8.4491    151.1949     89.1965   9.1955859865e+01   3.4503681482e+01    0.2147029    0.1791075 -71.42 0.0004562431    1.349    0.259
       435  -9.9416     86.3816     86.7237   1.0875071680e+02   4.8327016973e+01    0.4245849    0.3240912 -83.70  0.001214657    1.961    0.490
       436  -8.3147    151.4822     95.4557   9.3629853865e+01   3.3213948355e+01     0.153929     0.149989  18.84 0.0008075424    1.078    0.072
       437  -9.8923     48.3511     84.5670   1.2030655405e+02   5.4084426630e+01    0.4322333      0.29893  81.52  0.001791205    2.606    0.616
       438  -8.5524     15.2957     86.4277   1.3159094437e+02   5.6659867366e+01    0.1361818     0.111316  37.07 0.0009383549    1.547    0.354
       439  -9.5787    104.8412     83.4882   1.0233641017e+02   4.5656487272e+01    0.3807305    0.2873277 -75.83 0.0009214503    1.904    0.475
       440  -8.2018    158.1066     84.1169   8.8959867497e+01   3.3819553945e+01    0.2111286    0.1780657 -70.37 0.0004896945    1.300    0.231
       441  -9.0142    140.8795     83.2081   9.2699649861e+01   3.8043178546e+01    0.3294064    0.2049443 -55.03 0.0007182289    1.877    0.467
       442  -9.9511      9.8607     81.3538   1.3234448529e+02   5.8078761212e+01    0.3428692    0.2079188  80.24  0.001782772    2.819    0.645
       443  -8.5446    150.1575     80.6465   8.9769750249e+01   3.6353434020e+01    0.2670597    0.2027852 -51.23  0.000686078    1.379    0.275
       444  -8.8093     74.7208     80.8470   1.1070125422e+02   5.1375773751e+01     0.246803    0.1802659 -61.86 0.0008689964    1.618    0.382
       445  -8.3804    166.5620     79.9184   8.5966110910e+01   3.2538948126e+01    0.2203392     0.149342 -38.28 0.0005696508    1.508    0.337
       446  -8.6380    119.0739     80.0423   9.7347436211e+01   4.3452302189e+01    0.2300898    0.1831011 -78.80 0.0006711435    1.686    0.407
       447  -9.3445     65.2288     78.2325   1.1301951740e+02   5.3273469988e+01     0.303769    0.1918015 -48.23  0.001420878    1.458    0.314
       448  -9.8383     63.3913     73.6371   1.1229223188e+02   5.4433905738e+01    0.4346456    0.2170008 -56.05  0.001374428    2.303    0.566
       449  -8.6691    184.0344     78.2897   8.2058350092e+01   2.8541660938e+01    0.2091845    0.1936248  75.37 0.0006106332    1.046    0.044
       450  -8.1437    146.7799     78.3912   8.9900298043e+01   3.7560584468e+01    0.2060809    0.1375891  42.43 0.0002664807    1.530    0.346
       451  -9.3079    128.2268     75.5279   9.3585494334e+01   4.2315437183e+01    0.3822126    0.2421378 -59.25 0.0007068394    2.086    0.521
       452  -8.6848    106.0358     76.7554   9.9972419429e+01   4.6721220143e+01    0.3112309    0.1737062  21.06   0.00114198    3.003    0.667
       453  -7.9737    157.2518     76.6075   8.7024602621e+01   3.5386349995e+01    0.1565705     0.113701 -66.88 0.0004259114    1.682    0.406
       454  -8.4938    140.4117     75.2611   9.0487298621e+01   3.9608143012e+01    0.2067653    0.1393544 -49.08 0.0004616705    1.585    0.369
       455  -8.3307    163.5053     73.8927   8.4919146186e+01   3.4345579142e+01     0.221684    0.1478022 -40.27 0.0008221654    1.527    0.345
       456  -9.5641     82.3691     72.7120   1.0584543770e+02   5.1755681278e+01    0.3577935    0.2528122 -62.36  0.000863341    1.880    0.468
       457  -8.1666    151.4682     73.4945   8.7408189638e+01   3.7320863479e+01    0.1495285    0.1437327  83.21 0.0008093829    1.046    0.044
       458  -8.8169    115.6127     72.6879   9.6050561438e+01   4.5536412518e+01    0.2715681     0.174151 -41.34 0.0006048754    1.568    0.362
       459  -8.2148     42.5873     72.8395   1.1915834631e+02   5.7106770618e+01    0.1709085    0.1101644 -61.04 0.0005348311    1.683    0.406
       460  -7.5539    175.3111     72.7105   8.2215912396e+01   3.1652019386e+01    0.1525427    0.1141493 -77.65 0.0002846789    1.583    0.368
       461  -8.5862    106.0339     71.8472   9.8459977869e+01   4.7629669757e+01    0.2085557    0.1932516 -78.20 0.0005172233    1.290    0.225
       462  -9.2915     95.1195     71.2498   1.0146677345e+02   4.9812446327e+01    0.3306978    0.2143853 -53.97  0.001080138    1.826    0.452
       463  -9.7515     24.6057     80.4589   1.2723834678e+02   5.7220213454e+01    0.3861867    0.2327148 -81.48  0.001353637    2.495    0.599
       464  -9.5097     51.3557     69.5141   1.1517479121e+02   5.6773150867e+01    0.3789358    0.2214561 -64.53  0.001393809    2.450    0.592
       465  -8.7914     28.4831     70.6987   1.2352932741e+02   5.8883735610e+01    0.2060004    0.1286785 -16.96 0.0009132702    1.829    0.453
       466  -8.8279     16.6675     70.3108   1.2760432856e+02   5.9883655382e+01    0.2142195    0.1760889  80.46  0.001079482    1.710    0.415
       467  -8.2775    157.0000     69.9324   8.5166125012e+01   3.6603882682e+01    0.2355004   0.08561929 -36.49 0.0003676097    2.844    0.648
       468  -8.8634    147.0347     68.5025   8.6943653860e+01   3.9232393464e+01    0.2707332     0.201095 -54.60 0.0005964395    1.491    0.330
       469  -8.5017    138.6736     66.5433   8.8293223466e+01   4.1520329170e+01      0.24542    0.1705453 -57.23 0.0006968318    1.728    0.421
       470  -8.8788    121.6273     66.1080   9.2400271578e+01   4.5414426301e+01    0.3180684    0.2310124 -62.39 0.0009398505    1.806    0.446
       471  -9.5859    239.7550     65.1936   7.0204343288e+01   1.7455058599e+01    0.2515645    0.2158692  84.67 0.0003775552    1.144    0.126
       472  -8.6131     37.1530     64.3219   1.1869455598e+02   5.9324255889e+01    0.2803862    0.1854238 -74.34  0.001428232    2.495    0.599
       473  -8.8002     64.9590     63.0551   1.0852030414e+02   5.6211920586e+01     0.430195     0.225124   9.38  0.001605916    3.829    0.739
       474  -9.5131     97.7982     61.3311   9.7492734334e+01   5.1066218025e+01     0.352514     0.281731 -70.07  0.001274737    1.785    0.440
       475  -8.5352     86.9876     63.3368   1.0142765747e+02   5.2683695123e+01     0.224789    0.1033972  23.13 0.0007051191    4.368    0.771
       476  -8.2860    158.0390     61.9835   8.2648966173e+01   3.7659173194e+01    0.1729699    0.1669797  72.82 0.0003708789    1.017    0.017
       477  -9.6620     73.2911     59.6256   1.0461163603e+02   5.5586244274e+01    0.3616008    0.2190565 -50.03  0.001062243    1.856    0.461
       478  -9.1337    110.1585     63.8839   9.4782320519e+01   4.8202805331e+01    0.2650447    0.1890814 -50.57 0.0006027289    1.598    0.374
       479  -8.2544     32.2341     68.1900   1.2153652616e+02   5.9045863893e+01    0.1467959    0.1386638 -66.17 0.0004811114    1.314    0.239
       480  -9.8981     23.3590     56.4159   1.2152363161e+02   6.2060356284e+01    0.3770602    0.2615638 -82.22  0.002038416    2.625    0.619
       481  -9.5991      7.5702     57.3676   1.2773977533e+02   6.2994587273e+01    0.3391382    0.1970236 -76.17   0.00147965    2.565    0.610
       482  -8.0674    130.6323     57.8282   8.7534762810e+01   4.4776727020e+01    0.1964589    0.1301003 -45.68  0.000455888    1.645    0.392
       483  -9.0153    119.2477     56.0890   8.9833650568e+01   4.7566311178e+01    0.2719718    0.2199985 -55.16 0.0006297499    1.457    0.313
       484  -9.5126     54.3175     55.7319   1.0986116863e+02   5.8952759299e+01    0.3180013    0.2100012 -55.06  0.001222463    1.841    0.457
       485  -8.1168    139.8658     56.3707   8.4913779505e+01   4.2879511892e+01     0.193718    0.1772871 -58.07 0.0004536641    1.182    0.154
       486  -8.9494     44.1580     55.5157   1.1347331221e+02   6.0211436036e+01    0.2589523    0.1471227 -50.30  0.001328735    1.741    0.425
       487  -8.6244    105.5683     53.3121   9.2602964021e+01   5.0851905347e+01     0.240372    0.1290318 -39.66 0.0006157585    1.924    0.480
       488  -9.3415     92.3303     50.5522   9.5508080811e+01   5.3837010069e+01    0.3506263    0.2064355 -45.65   0.00117373    1.937    0.484
       489  -8.1902    167.5477     49.2508   7.7141999972e+01   3.7255768178e+01    0.1931432    0.1436234 -14.71 0.0009542001    1.693    0.409
       490  -8.2806    129.5799     49.4753   8.5143839607e+01   4.6278600327e+01     0.139272    0.1307201  33.22 9.754821e-05    1.015    0.015
       491  -8.5982    121.0202     47.5722   8.6610789917e+01   4.8460372515e+01    0.2185069     0.187358 -42.38 0.0004901467    1.277    0.217
       492  -8.5098      9.6271     48.6814   1.2462801540e+02   6.4477424138e+01    0.1233211   0.06232875 -30.12 0.0007032434    1.800    0.444
       493  -8.4431    112.1555     46.9098   8.8666651219e+01   5.0457511654e+01    0.1984568    0.1859314 -60.29 0.0006102094    1.266    0.210
       494  -9.0051     81.9376     46.5192   9.7316181215e+01   5.6312498459e+01    0.2367394    0.1810584 -38.15 0.0007049423    1.375    0.273
       495  -8.3426     44.9549     44.5296   1.0951398913e+02   6.2002320400e+01    0.1882066    0.1358275 -33.79 0.0004231038    1.213    0.176
       496  -8.7787     16.8343     44.7730   1.2060536195e+02   6.4670622817e+01    0.1788203    0.1399393 -73.30 0.0006825549    1.930    0.482
       497  -8.7760    133.0169     43.5656   8.2463133943e+01   4.6327724844e+01    0.2636184    0.1886746 -52.39  0.001340471    1.659    0.397
       498  -8.6892     93.0660     42.7799   9.2579874801e+01   5.4856704072e+01    0.2657513    0.1679378  26.55  0.001350226    1.677    0.404
       499  -9.3175     69.4919     41.7433   9.9690986047e+01   5.9075415672e+01    0.3016338    0.2140209 -53.35  0.001104193    1.986    0.497
       500  -8.7257     58.0818     42.6361   1.0400102209e+02   6.0621389459e+01    0.2336207    0.1611519 -48.69   0.00134742    1.761    0.432
       501  -9.8499      5.1267     41.9617   1.2450340488e+02   6.5953589804e+01    0.3164663    0.1833733 -67.02  0.001853062    2.310    0.567
       502  -8.7738    105.9170     41.2768   8.8417213951e+01   5.2542475248e+01    0.2170886    0.1785782 -40.44  0.000583213    1.361    0.265
       503  -8.1323    206.2257     41.5772   6.9031615399e+01   2.8803031147e+01    0.1880974    0.1182733  57.36 0.0004578299    1.565    0.361
       504  -8.3997     36.8513     41.0611   1.1141594906e+02   6.3478081394e+01     0.166864    0.1477158 -30.44 0.0006074493    1.276    0.216
       505  -9.9030    136.4889     39.0452   8.0262060275e+01   4.6127582838e+01    0.3569348    0.2705841 -81.53 0.0006119836    1.734    0.423
       506  -8.6891     95.0879     38.0282   9.0301581214e+01   5.5131383286e+01    0.1905617    0.1651536 -75.10  0.001018491    1.666    0.400
       507  -8.2714     80.5236     36.9685   9.4320235391e+01   5.7941552040e+01    0.1845737    0.1184377 -31.81 0.0004600672    1.549    0.354
       508  -8.4226    200.9256     35.8119   6.8320226812e+01   3.0864262375e+01    0.2008046    0.1701452  58.54 0.0005573537    1.235    0.190
       509  -8.1442    125.8576     35.8387   8.1597581525e+01   4.8969166112e+01    0.1728404    0.1590704 -83.61 0.0003686958    1.266    0.210
       510  -9.3860     26.0009     35.4917   1.1380160470e+02   6.5457752317e+01    0.2344797    0.1728845 -44.92  0.000982887    1.424    0.298
       511  -8.4933    111.6400     34.7404   8.4662198985e+01   5.2211874547e+01    0.2202081     0.162236 -37.63 0.0007646202    1.497    0.332
       512  -8.5880    119.2537     33.6385   8.2413090311e+01   5.0708932348e+01    0.2303934    0.1531389 -40.86 0.0006423015    1.694    0.410
       513  -7.8735     88.5323     34.4990   9.0949484985e+01   5.6837114349e+01    0.1290211    0.1133028  13.42 0.0001168359    1.018    0.018
       514  -8.7990     48.4216     33.5377   1.0419915908e+02   6.3282498067e+01    0.2013113    0.1641816 -23.79 0.0007149062    1.173    0.148
       515  -8.6830     60.3958     32.5252   9.9410971974e+01   6.1781403960e+01    0.2035781    0.1773582 -51.99 0.0008149126    1.659    0.397
       516  -9.0329     72.1912     31.2746   9.4882226768e+01   6.0116416194e+01    0.2019233    0.1542412 -52.50 0.0006765476    1.914    0.478
       517  -9.2382     12.9496     30.2258   1.1743857256e+02   6.7393890616e+01    0.2402258     0.137606 -53.75  0.001008411    1.958    0.489
       518  -8.2558    101.4806     29.4827   8.5463515794e+01   5.4958812891e+01    0.2089583    0.1138242 -40.29 0.0006194482    2.121    0.529
       519  -8.5429    208.7978     27.6664   6.5348144243e+01   3.0001577495e+01    0.2022517    0.1454595  59.48 0.0005206587    1.390    0.280
       520  -8.7674     81.4701     27.4916   9.0477165598e+01   5.9007641012e+01    0.2294737    0.1833075 -69.95 0.0007302196    2.181    0.541
       521  -9.0023      3.7822     27.9179   1.2064353698e+02   6.8396255651e+01    0.1785981    0.1352243 -55.52  0.001018596    1.606    0.377
       522  -8.7049     91.6927     26.2853   8.6997757765e+01   5.7262210526e+01    0.2558579    0.1404147 -38.99 0.0009416572    2.091    0.522
       523  -8.7265    183.9680     24.1530   6.7661577097e+01   3.6451567262e+01    0.2308811    0.1373672 -79.85 0.0007161777    2.029    0.507
       524  -8.1949     34.4725     23.4797   1.0577450848e+02   6.6387768449e+01    0.1137365   0.08955683 -10.73 -1.586096e-06    1.048    0.045
       525  -8.9550     63.6893     21.3237   9.3848718390e+01   6.2731179276e+01    0.2538116    0.1703455 -39.35 0.0009690622    1.785    0.440
       526  -8.8390     48.4303     21.8276   9.9581694543e+01   6.4889374023e+01    0.1848785    0.1716156 -10.51 0.0005943764    1.407    0.289
       527  -8.4503     19.4961     21.9116   1.1150535990e+02   6.8119581030e+01    0.1616541   0.08869644 -38.68 0.0004812783    1.556    0.357
       528  -7.8586    120.6794     21.2945   7.7925472977e+01   5.1804606412e+01    0.1242826    0.1008566 -78.68 0.0004097426    1.612    0.380
       529  -8.8591     74.0350     19.6073   8.9740687844e+01   6.1232385096e+01    0.2094776    0.1575137 -37.24 0.0006616319    1.601    0.375
       530  -8.8572    175.7848    247.8080   1.2007680535e+02  -2.4530950155e+00     0.307843    0.2011889  72.41  0.001230531    2.659    0.624
       531  -8.1206     87.8274     17.8097   8.4901870524e+01   5.8938722298e+01     0.151292    0.1436906 -26.27 0.0004501874    1.310    0.237
       532  -8.1003     38.7273     18.6718   1.0207863470e+02   6.6533951435e+01    0.1164287   0.07168389  -6.12 0.0006718931    1.585    0.369
       533  -7.9843    112.7732     16.9810   7.8228152296e+01   5.3969579170e+01    0.1512743    0.1052309 -19.55 0.0003905777    1.577    0.366
       534  -8.0995     30.1361     16.2054   1.0459273713e+02   6.7844665054e+01    0.1375707    0.1203375 -14.27 0.0007636103    1.371    0.270
       535  -8.1485    113.3225    248.5545   1.3208591910e+02   7.9951512860e+00    0.2107656    0.1057066 -77.52 0.0009291394    3.071    0.674
       536  -8.4380      7.2268     15.2283   1.1440714287e+02   7.0087643108e+01    0.1317777    0.1126385 -27.88  0.001073709    1.404    0.288
       537  -8.1767     17.1375     14.2230   1.0944759491e+02   6.9408867755e+01    0.1332244    0.1107083 -22.69 0.0004805033    1.335    0.251
       538  -8.3259     93.8386    249.2795   1.3578189002e+02   1.0956689113e+01    0.2068441   0.09978563  68.80 0.0009294927    2.632    0.620
       539  -9.4619     21.4207    248.3719   1.4819410311e+02   2.0861884848e+01    0.2097898    0.1302203  71.37  0.000790549    1.174    0.148
       540  -8.9620    243.1385    246.8645   1.0746669625e+02  -1.3087706221e+01    0.2868316    0.1601696 -27.96  0.001660811    1.841    0.457
       541  -8.4817    218.5324    248.0940   1.1210028482e+02  -9.5333748707e+00    0.1621728    0.1169185 -32.73 0.0006726649    1.545    0.353
       542  -8.5785    156.0520    248.0584   1.2388932345e+02   8.8556781413e-01    0.1916105    0.1395617  69.00 0.0005269462    1.628    0.386
       543  -8.5349    144.2455    248.2264   1.2617369245e+02   2.8784555066e+00      0.30967   0.07362907  46.12  0.001047016    3.587    0.721
       544  -9.5331    146.9638    246.0382   1.2535792520e+02   2.7840843720e+00    0.3041975    0.1891675  68.85  0.001524384    2.138    0.532
       545  -8.9771    132.0978    247.7512   1.2843328939e+02   5.0219812077e+00    0.2017142    0.1593288  87.28 0.0005475843    1.413    0.292
       546  -8.9145    103.8903    247.0722   1.3368539673e+02   9.7848370612e+00     0.341894    0.1816668 -82.22  0.001637653    2.613    0.617
       547  -9.2323     34.7708    248.0761   1.4600732859e+02   1.9356012357e+01    0.2119488    0.1076893  63.02    0.0011398    1.574    0.365
