#   1 NUMBER                 Running object number                                     
#   2 MAG_AUTO               Kron-like elliptical aperture magnitude                    [mag]
#   3 X_IMAGE                Object position along x                                    [pixel]
#   4 Y_IMAGE                Object position along y                                    [pixel]
#   5 X_WORLD                Barycenter position along world x axis                     [deg]
#   6 Y_WORLD                Barycenter position along world y axis                     [deg]
#   7 A_WORLD                Profile RMS along major axis (world units)                 [deg]
#   8 B_WORLD                Profile RMS along minor axis (world units)                 [deg]
#   9 THETA_WORLD            Position angle (CCW/world-x)                               [deg]
#  10 FWHM_WORLD             FWHM assuming a gaussian core                              [deg]
#  11 ELONGATION             A_IMAGE/B_IMAGE                                           
#  12 ELLIPTICITY            1 - B_IMAGE/A_IMAGE                                       
         1 -14.1555    246.2593    169.5817   7.8291401002e+01   6.9497515541e-01     3.795682     1.305429 -32.71   0.01607588    2.745    0.636
         2 -14.0254    241.0401     78.9289   5.8176410137e+01   1.4632821310e+01      7.45921    0.9354641 -32.42   0.01850176    5.482    0.818
         3 -13.8516    237.2762    147.2386   7.5090544741e+01   5.3093208039e+00     2.320432     1.118621 -24.03   0.01029717    2.117    0.528
         4 -11.7673    219.3361     34.7707   4.9030160415e+01   2.5763148795e+01     1.311828    0.3633114 -43.03  0.004282446    3.249    0.692
         5 -10.9150     65.7221     20.4740   7.6652235374e+01   6.4894335190e+01    0.6721824    0.3880698  -8.77  0.003018178    2.293    0.564
         6 -11.7013     20.9185     21.8139   9.8402245789e+01   7.0624291292e+01    0.4874083     0.349721 -31.86   0.00317134    1.149    0.130
         7 -11.3144     28.9371     17.2065   9.1956543227e+01   7.0682076048e+01    0.4786567    0.2175847 -31.94  0.002305954    2.122    0.529
         8 -10.5339    203.4167     17.6319   4.5859900665e+01   3.1797526460e+01    0.4982866    0.2483316  66.48  0.002168927    1.953    0.488
         9  -9.7280    156.4617      9.6225   4.9091956292e+01   4.5018303819e+01    0.5153295    0.1918693  -8.71  0.001571357    4.222    0.763
        10  -9.8220     75.3367     13.7990   6.9672654006e+01   6.4045554416e+01    0.2897986    0.2251762  64.28  0.001611642    1.700    0.412
        11 -10.1292    141.6538      9.2285   5.1253452776e+01   4.8963717691e+01    0.6416691    0.2768137   5.68  0.001892929    4.712    0.788
        12 -10.2899      2.6261     10.0869   1.0384195475e+02   7.4208558490e+01    0.4764516    0.1993257 -35.74  0.002549909    2.020    0.505
        13 -10.9879      5.0428      2.3241   9.8428786150e+01   7.5457842075e+01     0.461798    0.2474589   7.08  0.001897225    2.189    0.543
        14 -10.7421     91.2202      8.4420   6.1935081617e+01   6.1365815143e+01    0.4945875    0.3212508   3.47  0.002473225    1.663    0.399
        15 -11.0656     68.1815      6.4465   6.8291942294e+01   6.6332147651e+01    0.8127493    0.4198932  19.68   0.00349279    2.601    0.616
        16 -11.1395     40.9689      4.8220   7.8912506219e+01   7.1122579869e+01    0.5919121    0.3921391 -23.76  0.003439502    1.281    0.219
        17  -9.0399    136.9346      6.9805   5.1168899251e+01   5.0405865765e+01    0.2061455    0.1970912  39.31 0.0003087729    1.019    0.019
        18  -8.1628    169.8266      8.4188   4.6855247451e+01   4.1577192818e+01    0.1880196    0.1245013  57.75 0.0004933793    1.442    0.306
        19  -8.5388     23.5384      1.4293   8.6217894396e+01   7.3876828932e+01    0.1201928   0.09105862 -17.54 7.529899e-05    1.030    0.029
        20 -10.0819     18.2647      5.6585   9.1870893642e+01   7.3763641641e+01    0.3077679    0.1941902 -54.14  0.001394583    1.934    0.483
        21 -10.1562    102.6626      1.6774   5.5688615469e+01   5.9412781997e+01    0.3416272    0.1120863  57.83  0.001291567    2.634    0.620
        22  -8.9581    119.2640      2.6071   5.2574348814e+01   5.5300237278e+01    0.2049415    0.1135834  52.78 0.0007849716    1.620    0.383
        23  -9.1578     77.5469    177.0654   1.1350919430e+02   2.8850364772e+01     0.177304    0.1492957  65.23  0.000338458    1.058    0.055
        24 -11.5636    248.0038    224.9259   8.7979629895e+01  -5.9300250057e+00    0.4803059    0.3116269  11.00  0.002524376    1.296    0.228
        25 -11.6854    248.9266    247.2000   9.1246388429e+01  -8.1598168373e+00     1.057579    0.4145103  33.84  0.006161146    1.962    0.490
        26 -11.7738    248.5834    235.1302   8.9491610932e+01  -7.0052704720e+00    0.6302491    0.4285816  -8.31      0.00462    1.375    0.273
        27  -9.3521    234.3079    195.8447   8.5263009580e+01  -6.7278815020e-01    0.2418521    0.2243762 -89.56  0.001624619    1.873    0.466
        28  -9.2874    215.4911    168.6627   8.3358683171e+01   6.1801123351e+00     0.251315    0.1616795  44.53 0.0008525946    1.563    0.360
        29  -9.8939     77.9893    161.7155   1.1146783567e+02   3.2096446203e+01    0.2886322    0.1796792  27.61  0.001172341    2.051    0.512
        30  -8.8686     37.3361    162.3171   1.2093471016e+02   3.7023929207e+01    0.1131526   0.08704491 -48.84 0.0003084675    1.698    0.411
        31  -8.6984    212.1230    161.3025   8.2465695925e+01   7.9066232097e+00    0.1811198    0.1572881  26.31 0.0003401761    1.100    0.091
        32 -10.0455    226.5016    195.9864   8.6608030199e+01   5.5725691663e-01    0.2938727     0.178471   1.71 0.0009031676    1.937    0.484
        33 -11.8367    133.4432    144.7421   9.5396766134e+01   2.6435309700e+01     1.832029    0.4187543 -54.04  0.004356033    6.473    0.846
        34 -11.8736    134.6537    110.2147   8.7127189959e+01   3.3599159799e+01     1.750911    0.4326732 -46.44  0.004093481    4.017    0.751
        35 -12.0296    136.1087    131.5967   9.1944994585e+01   2.8699537584e+01     1.596832    0.3305788 -50.43   0.00387162    5.650    0.823
        36 -10.0840    134.9878    120.7477   8.9685313654e+01   3.1258634073e+01    0.3586897     0.187326 -43.50  0.001297133    1.926    0.481
        37  -9.0689     29.6385    158.6877   1.2235804966e+02   3.8615846599e+01    0.1130602   0.08451084 -48.55 0.0003993304    1.751    0.429
        38 -10.6784     23.3423    156.3484   1.2359512403e+02   3.9738256846e+01    0.3391494    0.1885132 -63.72  0.001436601    1.722    0.419
        39 -12.4478    144.3194    147.3619   9.3422667599e+01   2.3768795558e+01     2.447374    0.7026221 -55.04  0.006065473    6.171    0.838
        40  -9.7613     37.9742    242.8534   1.2624784604e+02   2.1460116187e+01    0.2149868    0.1575788  14.84  0.001472246    2.698    0.629
        41  -9.8101    153.7151    153.4502   9.2570387111e+01   2.0703124763e+01    0.2991934    0.2000163  60.70  0.001242268    1.755    0.430
        42 -10.1215    151.0646    149.2701   9.2300011985e+01   2.2049482245e+01    0.3007382    0.2351636  56.35  0.001555145    1.317    0.241
        43  -8.6204    114.7421    153.7430   1.0152937269e+02   2.7969852422e+01    0.2519681    0.1756286 -84.79  0.001219149    1.780    0.438
        44  -8.8022    112.5927    150.5118   1.0146009582e+02   2.9047644173e+01    0.2082335    0.1609334  85.86 6.317798e-05    1.444    0.307
        45 -13.3945    221.1707    187.2571   8.5940116707e+01   2.5713994513e+00      2.06765    0.6284167  41.33  0.008181978    2.984    0.665
        46 -10.5755     54.0451    147.1323   1.1533383609e+02   3.8563006002e+01     0.572925    0.3600241 -68.31  0.002811729    1.426    0.299
        47  -9.8902     60.0208    145.7101   1.1366071031e+02   3.8152156174e+01     1.296531    0.2599742 -61.07  0.004309992    3.915    0.745
        48 -11.9598     68.1637    140.4418   1.1084326600e+02   3.8309766956e+01     1.144684    0.6845068 -68.44  0.005861752    1.535    0.349
        49 -11.6007     66.3593    127.9101   1.0932868135e+02   4.1513353303e+01    0.8410201    0.7159786 -17.81  0.003987649    1.611    0.379
        50 -10.0714     45.5171    147.1676   1.1744337621e+02   3.9547720397e+01    0.2764914    0.1783289  28.73  0.001553254    1.898    0.473
        51  -9.5248    161.8614    145.7036   8.9170691527e+01   2.0572095455e+01     0.240572    0.1802852  25.34   0.00117214    1.485    0.327
        52  -9.8187    215.2626    141.8734   7.7691866070e+01   1.0331866423e+01    0.3872809    0.2092471 -17.27  0.001586399    2.390    0.582
        53 -10.8414    172.4721    138.1430   8.5213526896e+01   1.9815166530e+01    0.5329189    0.2823266  31.52   0.00207347    2.353    0.575
        54  -9.9502    169.3907    135.2260   8.5200755491e+01   2.1021032664e+01    0.2591227    0.1819031 -57.86 0.0006077286    1.709    0.415
        55  -9.5665     27.1915    145.6157   1.2175327111e+02   4.1792493838e+01    0.2681305    0.1381464 -74.80 0.0009574473    1.607    0.378
        56 -11.8892    186.5815    119.4614   7.7810213373e+01   2.0225463996e+01    0.7994835    0.4447722 -24.19  0.003157239    2.177    0.541
        57 -12.2363    182.2877    135.1622   8.2481832943e+01   1.8291373159e+01    0.7781859    0.5422508  54.37  0.003719769    1.553    0.356
        58 -12.0663    188.5862    131.1813   8.0271313428e+01   1.7667075240e+01    0.6306448    0.5142105 -33.42  0.002937128    1.211    0.174
        59 -11.8467    184.8080    129.0414   8.0520559004e+01   1.8868256572e+01    0.5885758     0.469958 -37.61  0.001812123    1.246    0.198
        60  -9.6370     55.3609    133.4419   1.1315005112e+02   4.1606204311e+01    0.3684693    0.1925474 -70.62  0.001469516    1.719    0.418
        61  -9.9143    154.3521    132.3931   8.7864430397e+01   2.4762495674e+01    0.3498965    0.2656151 -35.59  0.001717605    1.374    0.272
        62 -10.7638    197.7188    129.8907   7.8174453641e+01   1.5940369864e+01    0.4930895    0.1821894 -38.69  0.001756361    2.631    0.620
        63 -12.0378    161.3750    128.7418   8.5429645515e+01   2.3998578514e+01    0.6343601    0.5541837  34.37  0.001826281    1.152    0.132
        64 -10.0220    149.4924    131.0069   8.8655637745e+01   2.6066071120e+01     0.286393    0.2107519  62.37  0.001216561    1.544    0.352
        65 -13.3526    224.0571    176.6506   8.3422161124e+01   3.5207957477e+00     1.461204    0.8075927  27.99  0.006936173    1.827    0.453
        66  -8.1863    118.5766    150.5176   1.0003463897e+02   2.7981105522e+01    0.1393897    0.1320209  78.22 6.641457e-05    1.021    0.020
        67  -9.5988    125.6857    127.7654   9.3634109190e+01   3.1609942528e+01    0.4432802    0.1907368 -51.66  0.001396933    2.354    0.575
        68 -10.6478    172.5004    126.7761   8.2533875966e+01   2.1968928178e+01    0.3511334    0.2596887  47.25  0.001698708    1.358    0.263
        69 -11.0094    146.4627    124.0091   8.7708187383e+01   2.8154670595e+01    0.4449264    0.2984478  48.00  0.001558152    1.497    0.332
        70 -10.0591    153.8092    126.0857   8.6501115965e+01   2.6157915449e+01    0.2980783    0.2710534 -77.79 0.0008527526    1.210    0.174
        71 -10.3839    151.4974    122.5118   8.6167019590e+01   2.7386253927e+01    0.3586901    0.2663577  40.35 0.0007491247    1.370    0.270
        72  -9.6785    218.3258    123.4461   7.2853277645e+01   1.2657011721e+01    0.3001339    0.2066124  -5.44  0.001155503    1.702    0.412
        73 -11.3285    156.8759    120.2764   8.4378445262e+01   2.6671364887e+01    0.5979514    0.3706844 -59.19  0.002458579    2.029    0.507
        74  -8.2881    203.3245    115.3091   7.3538442407e+01   1.7236953544e+01    0.1540525    0.1129624  10.96 0.0005038875    1.652    0.395
        75 -10.2860    117.3592     93.4036   8.7095724828e+01   4.0899476140e+01    0.5453394    0.4956084  38.92  0.002427405    1.161    0.139
        76 -10.8128    113.2851    107.6386   9.2048682938e+01   3.8547191410e+01     1.221654    0.4532361 -55.79  0.003883886    3.162    0.684
        77 -11.8061    120.0386    110.0311   9.0845697098e+01   3.6671382745e+01    0.9168394    0.5398868 -59.94  0.003791815    1.913    0.477
        78 -11.8596    121.6647    102.5037   8.8448750581e+01   3.8010149412e+01     1.361843    0.8359963  67.11  0.005318088    2.388    0.581
        79 -11.6049      7.1092    112.3506   1.2375706283e+02   5.1124799535e+01     0.483351    0.2212542 -65.87  0.001902965    1.714    0.416
        80  -9.0761    204.0771    110.8950   7.2279806356e+01   1.7823537612e+01    0.3194411     0.191752  23.27   0.00126307    2.368    0.578
        81 -11.8420    188.9222    104.7900   7.3548994381e+01   2.2349117583e+01    0.7697505     0.633599  12.77  0.003826962    1.362    0.266
        82 -10.7069    187.8853     97.6890   7.1831681606e+01   2.3862624988e+01    0.4625349    0.2976004 -27.64  0.002016332    1.587    0.370
        83 -11.0776    187.1828     91.8147   7.0339032024e+01   2.5072585748e+01    0.5412927    0.3500563 -30.92  0.002379372    1.516    0.340
        84  -8.5697     97.7990    110.8015   9.7109159492e+01   4.0700040384e+01    0.1936058    0.1617196 -85.98 0.0002254104    1.277    0.217
        85  -9.9565     61.0878    109.2531   1.0747564325e+02   4.6695290642e+01    0.4473675    0.3127251 -47.40   0.00238304    1.455    0.313
        86 -10.4207     66.1399    105.3751   1.0517296349e+02   4.6959516862e+01    0.4489036     0.375764  10.40  0.002281404    1.544    0.352
        87 -10.4529      3.2360    112.2914   1.2483085555e+02   5.1384692582e+01    0.2692837    0.1656808 -70.02  0.001506901    1.297    0.229
        88  -9.3571    213.0823    107.0150   6.9685689428e+01   1.6466514002e+01    0.2147389    0.1987357 -12.23 0.0002915353    1.015    0.015
        89  -9.4186    156.9394    111.2485   8.2053644063e+01   2.8479696889e+01    0.2571142    0.2163701 -39.64 0.0003558634    1.172    0.147
        90  -8.5412    218.4228    103.7720   6.7948718845e+01   1.5811946527e+01    0.2068485    0.1346325 -20.03 0.0009390747    1.593    0.372
        91 -12.1131    230.9576    168.5109   8.0618833834e+01   3.4439050888e+00     1.085501    0.5357197 -44.86  0.003142224    2.672    0.626
        92  -9.9137    227.2421     95.4289   6.4391152442e+01   1.5185301939e+01     0.424654    0.2860394  10.97 0.0007233181    1.988    0.497
        93  -9.9889    174.2401    114.2442   7.9025760249e+01   2.3974346958e+01    0.2787543    0.2034066 -86.01   0.00117809    2.129    0.530
        94  -8.7674    153.6842     95.6200   7.8520471860e+01   3.2360713542e+01    0.1661392    0.1246304   3.29 0.0004523953    1.812    0.448
        95 -10.8582      2.3976     89.1997   1.2265092306e+02   5.6838824622e+01    0.4557452    0.1985264 -81.29  0.002292102    1.908    0.476
        96 -11.2688      4.0477     82.4402   1.2124520483e+02   5.8336368549e+01    0.5658212    0.2039555 -52.14  0.002703347    2.338    0.572
        97  -8.5382    101.3004     89.0026   9.0423553365e+01   4.5065191570e+01     0.204844    0.1807226 -52.55 0.0002319911    1.067    0.062
        98  -9.1364    184.2228     78.5054   6.7078073514e+01   2.8112677989e+01    0.2897083    0.2166231 -30.55 0.0008500819    1.299    0.230
        99  -8.2223    108.4143     76.5279   8.4539284524e+01   4.6378178011e+01    0.1534697    0.1407268 -25.30 0.0001177927    1.092    0.085
       100  -8.3422    191.6298     75.7202   6.4905620374e+01   2.6742012859e+01    0.1602976    0.1169276  23.72 0.0007011788    1.692    0.409
       101 -10.8291     10.2698     71.8541   1.1741694812e+02   6.0467746921e+01    0.2931371    0.1939268 -86.21  0.001762205    1.441    0.306
       102 -10.8919      6.2437     67.9636   1.1825057648e+02   6.1598487068e+01    0.3237525    0.2583141  33.48  0.002235493    1.584    0.369
       103 -10.3243    116.0307     67.8614   7.9480205009e+01   4.6533009997e+01    0.2450889    0.2101869 -31.43  0.001247293    1.129    0.114
       104  -8.8650     45.3975     67.8013   1.0321994526e+02   5.8445057482e+01    0.1866789    0.1366581 -54.12 0.0005742153    1.142    0.124
       105  -7.7663     60.2510     67.6709   9.7641170314e+01   5.6628784832e+01    0.1323517    0.1034191 -79.91 0.0001763448    1.550    0.355
       106 -14.2733    183.6598    175.0725   9.0597665326e+01   1.1059559405e+01     3.056772      2.20076  20.82   0.01112174    1.472    0.321
       107  -9.4043    144.6086    179.0434   9.9252215457e+01   1.7551320857e+01    0.1730734    0.1691248 -47.90 0.0005355972    1.136    0.119
       108  -8.1936    162.3596     61.2921   6.6029416648e+01   3.6557881536e+01    0.1642308    0.1192741  24.07 0.0003790735    1.695    0.410
       109  -8.5627    212.4392     59.0082   5.6752337686e+01   2.4182236538e+01    0.2304412    0.1394739 -27.80 0.0008161256    1.583    0.368
       110 -10.1278      4.4814     43.1441   1.1387714135e+02   6.7308323676e+01    0.2837751    0.1756207 -29.58  0.001750335    1.689    0.408
       111 -10.8146     11.6166     39.2043   1.0945086478e+02   6.7765261771e+01     0.395487    0.2561457 -69.01  0.001904159    1.454    0.312
       112  -9.5037      2.1926     56.8016   1.1783227965e+02   6.4362315667e+01    0.3135068    0.1401414 -53.95    0.0016976    1.677    0.404
       113 -10.2660      3.3882     50.4492   1.1604689435e+02   6.5739892750e+01    0.5815929    0.1294086 -44.69  0.002238715    3.681    0.728
       114 -11.1780    227.5541     49.5620   5.2148267428e+01   2.1844045014e+01    0.8519028    0.4203155 -23.36  0.003524496    2.078    0.519
       115  -9.7726    223.1817    241.5700   9.4492061722e+01  -4.1416468465e+00    0.3021535    0.1408904  16.49  0.001448702    3.070    0.674
       116 -11.3948    211.5514     26.8903   4.7667461320e+01   2.8667416173e+01    0.5957772    0.4010732  87.23  0.002875915    1.602    0.376
       117  -8.7685    137.2111     51.5988   6.8226318494e+01   4.4524717303e+01    0.2211597    0.1396366  44.28  0.000573945    1.629    0.386
       118  -9.7578    151.6612     48.2577   6.3829641026e+01   4.1404309100e+01    0.5473962    0.1956009  46.43  0.001753668    2.971    0.663
       119  -9.4885     23.2655     48.0849   1.0668729338e+02   6.5002980801e+01    0.2242941    0.1618416 -12.59 0.0005973788    1.622    0.384
       120  -9.7256    200.7576     35.8344   5.1589432423e+01   3.0316324208e+01    0.4486714    0.2786407  51.33    0.0018494    1.694    0.410
       121  -9.1084    190.0152     36.8168   5.3356068214e+01   3.2977647813e+01    0.2518077    0.2085989 -28.96 0.0005632835    1.192    0.161
       122  -9.2641    183.5138     33.6349   5.3290955112e+01   3.5097795949e+01    0.2762875    0.2385323   9.02 0.0007081367    1.305    0.234
       123  -8.1647      1.6417     36.3243   1.1348689894e+02   6.8928893763e+01    0.1107149   0.08253658  75.03 0.0007044268    1.775    0.436
       124  -7.7748     64.6825     35.7092   8.4210968754e+01   6.2534132529e+01    0.1375808   0.09832716  -7.11 0.0002808936    1.598    0.374
       125  -8.5478    145.0000     29.9441   5.8547822807e+01   4.5744130381e+01    0.2471963   0.08481391 -26.47 0.0008015966    2.937    0.659
       126 -10.3125     68.9191     27.7879   7.8963855259e+01   6.3186075834e+01    0.4395497     0.334802  -6.42   0.00245554    1.322    0.244
       127 -10.5915     24.3763     27.3394   9.8929232558e+01   6.9242617809e+01    0.2692415    0.1545202 -30.01  0.001348905    1.670    0.401
       128 -10.3002    153.8684     26.6490   5.5680035188e+01   4.3835194301e+01    0.4666564    0.2600885  52.91  0.002000844    1.722    0.419
       129  -8.4655     10.3139     27.6752   1.0639672698e+02   7.0271796892e+01    0.1074349   0.08811013  87.70 0.0007041957    1.664    0.399
       130  -9.9484    125.6165    239.9366   1.1101521668e+02   1.0527891089e+01    0.1922624    0.1592975  37.24  0.000386566    1.210    0.174
       131  -8.1467    140.3020    238.6627   1.0828191168e+02   8.5343036638e+00      0.11323   0.07573308  62.87 0.0007037082    1.665    0.399
       132  -8.9441    220.7368    230.2026   9.3217991195e+01  -2.5882736832e+00    0.2252605   0.09401525 -30.75  0.001185222    2.761    0.638
       133  -9.8496      3.4640     22.3270   1.0823146964e+02   7.1767031422e+01    0.2830589    0.1483687 -47.85 0.0008782946    1.388    0.280
       134  -8.7857     11.7943     22.7819   1.0377554944e+02   7.1159081694e+01    0.1516761    0.1246546 -61.69 0.0004573623    1.321    0.243
       135  -8.2106     90.3285    230.3174   1.1639689560e+02   1.7058155429e+01   0.09843495   0.08702179  13.27 0.0003559274    1.680    0.405
       136 -11.1385    244.2427    206.0966   8.5439473522e+01  -3.3942871423e+00    0.5849584    0.2801063  16.03  0.002738201    2.756    0.637
       137 -11.1337    240.3297    219.5022   8.8326597230e+01  -4.2847437483e+00    0.4813973     0.136849 -34.95  0.002115567    3.875    0.742
       138 -11.8548    235.1506    211.8022   8.7897060034e+01  -2.6786384516e+00    0.5021147    0.4514333   3.58  0.002997397    1.324    0.245
       139 -10.0759    156.5365    228.8833   1.0420687272e+02   7.4330558903e+00     0.277448    0.1151859  31.12  0.001222393    2.794    0.642
       140  -8.4999      7.6798    221.3007   1.3028570879e+02   2.8223585826e+01    0.1099779   0.04903382  62.64 0.0001867253    1.624    0.384
       141  -9.0223     47.0102    219.3044   1.2336761064e+02   2.4477830958e+01     0.144228   0.09061966  12.08 0.0007023832    4.105    0.756
       142 -11.2224     33.6645    213.9349   1.2543781483e+02   2.6948842903e+01    0.4010645    0.2398939 -67.21  0.002712603    1.846    0.458
       143  -8.3059     56.6998    212.6512   1.2112813453e+02   2.4539689421e+01   0.09646931   0.08672436 -47.69 0.0007037655    1.688    0.408
       144 -11.9456     10.3612    207.3113   1.2925906035e+02   3.0518095987e+01    0.5635554    0.3954151  28.54  0.003799258    1.934    0.483
       145  -8.1136     88.2446    206.6945   1.1454886147e+02   2.1480510749e+01    0.1176819   0.07631619  69.83 0.0001954494    1.497    0.332
       146 -12.1886    192.7107    195.0921   9.2476576133e+01   6.3416432285e+00    0.9370039    0.5758103 -62.01  0.004259577    3.273    0.694
       147  -8.4073    198.4625    246.5084   9.9234847192e+01  -1.1280553441e+00    0.1114189   0.08359389  29.91 6.745483e-05    1.027    0.026
       148  -8.5531    180.5509    244.4487   1.0197970768e+02   1.7388025079e+00    0.1129714   0.08550736  33.46 0.0001042819    1.000    0.000
