#   1 NUMBER                 Running object number                                     
#   2 MAG_AUTO               Kron-like elliptical aperture magnitude                    [mag]
#   3 X_IMAGE                Object position along x                                    [pixel]
#   4 Y_IMAGE                Object position along y                                    [pixel]
#   5 X_WORLD                Barycenter position along world x axis                     [deg]
#   6 Y_WORLD                Barycenter position along world y axis                     [deg]
#   7 A_WORLD                Profile RMS along major axis (world units)                 [deg]
#   8 B_WORLD                Profile RMS along minor axis (world units)                 [deg]
#   9 THETA_WORLD            Position angle (CCW/world-x)                               [deg]
#  10 FWHM_WORLD             FWHM assuming a gaussian core                              [deg]
#  11 ELONGATION             A_IMAGE/B_IMAGE                                           
#  12 ELLIPTICITY            1 - B_IMAGE/A_IMAGE                                       
         1 -14.7419    164.7415     41.0487   7.8445624611e+01   3.8963033303e+01      1.49038     1.072382  -3.79  0.004104063    1.479    0.324
         2 -14.5432    180.2140      8.1343   6.4244078392e+01   3.8601860392e+01      1.56569    0.9874716  55.42  0.005945256    1.478    0.323
         3 -11.5198    133.7768    247.3702   1.2737110805e+02   1.1787772103e+01    0.1310948    0.1013088  47.75 0.0003042539    1.108    0.097
         4 -19.8392     72.3870    167.5373   1.3077897126e+02   3.2186610089e+01     14.95222     6.222676 -69.80   0.07489877    2.556    0.609
         5 -11.8883    168.9833    202.5157   1.1612243951e+02   1.2273237024e+01    0.1844479    0.1677002  85.22 0.0006231222    1.524    0.344
         6 -10.5133    139.3149    201.0148   1.2141065255e+02   1.7129719344e+01    0.1579052    0.1305661  84.04 0.0005567666    1.526    0.344
         7  -9.9930     21.9129    244.0940   1.4448397380e+02   2.4943169102e+01    0.1215013   0.07457839  67.45  0.000887983    1.186    0.157
         8 -13.2128    180.5503    193.4459   1.1265156596e+02   1.1584444552e+01    0.3442264    0.3408148  55.76  0.001787423    1.358    0.264
         9 -13.4740    165.6276    188.6532   1.1470853472e+02   1.4719131822e+01    0.7008798    0.3316857  45.11  0.003537935    1.824    0.452
        10 -13.5788    174.7525    193.0897   1.1367043695e+02   1.2592174644e+01    0.5347963    0.2980409 -48.46  0.002622849    2.424    0.588
        11 -13.8876    175.4434    186.0893   1.1244525157e+02   1.3432713423e+01    0.6161658    0.3816319 -50.10  0.002480113    2.201    0.546
        12 -11.4576    169.6906    195.1680   1.1492569827e+02   1.3143397944e+01    0.2100701    0.1392852  45.17 0.0009828269    1.326    0.246
        13 -13.5716    207.3400    178.2087   1.0518085734e+02   8.9787944420e+00     0.852931    0.4868456 -36.73  0.004623945    2.077    0.518
        14 -12.1422    203.6363    172.3563   1.0479240815e+02   1.0374513715e+01    0.4723261    0.3424372 -11.48  0.002815105    1.450    0.310
        15 -10.6545     11.1388    240.8368   1.4592910603e+02   2.6346393519e+01   0.08970975   0.04582149  86.14 0.0006823775    1.730    0.422
        16 -12.1349    117.2316    180.5208   1.2306554527e+02   2.3714212092e+01    0.7063928    0.3124777  62.78  0.002392327    5.296    0.811
        17 -10.7511     13.4786    233.1941   1.4535648062e+02   2.7237094606e+01    0.1035153    0.0669301  80.33 0.0004645495    1.294    0.227
        18 -10.3630    150.7558    245.7398   1.2446639793e+02   9.6691359724e+00    0.1363771    0.1017101  37.63 0.0004317659    1.074    0.069
        19 -11.7160      3.9411    180.4087   1.4502762743e+02   3.6482187415e+01    0.2210108    0.1657164  22.87  0.001828182    1.846    0.458
        20 -11.2501    153.8573    185.3374   1.1647118571e+02   1.7151270796e+01    0.1884156     0.174803 -83.66  0.001310244    1.354    0.262
        21 -11.2998    170.5000    185.0784   1.1322332670e+02   1.4410213801e+01    0.2374585    0.2104183  69.61 0.0007933499    1.464    0.317
        22 -12.0418     25.1152    225.4750   1.4331928590e+02   2.7342561275e+01    0.2490632     0.114599 -66.40   0.00177807    2.505    0.601
        23 -13.3338    195.7481    170.1230   1.0585131449e+02   1.2079570546e+01     0.516826    0.3996059 -34.73  0.001946788    1.523    0.343
        24 -11.8774    193.8229    164.9967   1.0525962371e+02   1.3132662972e+01    0.3186492    0.2733754  30.88  0.001138479    1.121    0.108
        25 -10.7402     10.7417    174.6398   1.4354764171e+02   3.6985682998e+01    0.1495578    0.1041718  88.34 0.0002767969    1.185    0.156
        26 -13.3523    143.3806    168.0643   1.1588787688e+02   2.1633483258e+01    0.6344898    0.4052001  62.10  0.003265526    2.006    0.501
        27 -11.4949    140.6991    174.3104   1.1742046121e+02   2.1050946843e+01     0.244556    0.1621094  51.80 0.0007448741    1.456    0.313
        28 -12.6613    138.0117    171.0400   1.1746777173e+02   2.2034718191e+01    0.4648436    0.3577961  47.12  0.002084007    1.162    0.140
        29 -11.5927    125.9213    171.7807   1.2008068796e+02   2.3864824917e+01    0.2504043    0.2003196 -69.73 0.0009891903    1.464    0.317
        30 -11.8441    177.4712    169.9330   1.0932929865e+02   1.5383347886e+01    0.2648126    0.1259417 -45.75  0.001215309    2.640    0.621
        31 -10.6846    219.1572    224.1531   1.1055145481e+02   2.0151383953e+00    0.1381669    0.1119209  32.50 0.0003597694    1.313    0.239
        32 -11.9580    112.7050    168.9485   1.2244280158e+02   2.6406980768e+01    0.4314902    0.1903091  52.40  0.001960931    2.414    0.586
        33 -11.3469    201.3677    164.2495   1.0368880806e+02   1.1856824326e+01    0.4398479    0.2611914 -37.91  0.002299945    1.956    0.489
        34 -10.9687    110.2251    222.9392   1.2905677700e+02   1.8118605083e+01    0.1428123    0.1127248  57.51 0.0004096429    1.115    0.103
        35 -10.2007      3.2468    164.2834   1.4447840114e+02   3.9440685955e+01   0.08576072   0.06489971 -69.20 0.0002573402    1.462    0.316
        36 -10.4276     13.5461    163.2331   1.4243985722e+02   3.8865004246e+01    0.1535442   0.09494346  77.54 0.0002991938    1.297    0.229
        37 -10.6957    222.2546    161.5789   9.9346353248e+01   8.4037651512e+00    0.2294591    0.1594683 -41.21 0.0008937303    1.925    0.480
        38 -11.4029    130.1178    161.2142   1.1757885281e+02   2.5027794961e+01    0.2079095    0.1806192  79.27 0.0005260544    1.294    0.227
        39 -10.2843     24.7432    165.4240   1.4036276866e+02   3.7532896391e+01    0.1163321   0.09799076  30.86 0.0004410584    1.504    0.335
        40 -12.3541    163.1172    155.3438   1.0956072807e+02   2.0244206271e+01    0.2991043    0.2907459  19.10  0.001184675    1.141    0.124
        41 -11.4951    160.3143    152.3178   1.0957562603e+02   2.1258215874e+01    0.2126799    0.1824905  15.79 0.0006515394    1.153    0.132
        42 -11.7469    139.8893    120.6571   1.0761541583e+02   3.0789076489e+01    0.3287227    0.1837516  48.87   0.00119354    1.824    0.452
        43 -12.6503    134.7081    109.6691   1.0632552210e+02   3.3914507405e+01     1.090898    0.1752712 -45.27  0.002570942    6.435    0.845
        44 -14.1605    133.8034    145.4916   1.1407150469e+02   2.7239975595e+01     1.272534    0.3987859 -55.32  0.004013319    4.826    0.793
        45 -12.6956    128.0597    142.9686   1.1491123376e+02   2.8706597422e+01    0.3682674    0.1930686  39.98  0.001215205    1.789    0.441
        46 -14.6023    135.3209    128.2731   1.1034878031e+02   3.0198623212e+01     1.595771    0.4354841 -48.66  0.005064195    4.036    0.752
        47 -13.7792    144.2987    145.7178   1.1177566399e+02   2.5329472529e+01     0.816418    0.4253527 -61.54  0.003284872    3.141    0.682
        48 -11.2170    174.5522    149.0319   1.0596839372e+02   1.9116504694e+01    0.2540309    0.2184206  41.03 0.0007919256    1.148    0.129
        49 -11.5615     19.6083    222.9991   1.4407659212e+02   2.8212296680e+01     0.121076    0.1057311  72.38  0.001180081    1.373    0.272
        50 -11.4484     22.4945    138.0816   1.3891670801e+02   4.3088064382e+01    0.1734544    0.1591386  27.22 0.0006895885    1.423    0.297
        51 -11.6508      5.4518    137.2345   1.4263726835e+02   4.4503222472e+01     0.245972    0.2028116 -32.89  0.001757496    1.746    0.427
        52 -12.3710    116.1391    212.0687   1.2694499153e+02   1.8883558767e+01    0.2225148    0.1593727  74.65  0.001258019    1.618    0.382
        53 -12.2218    160.5567    128.0303   1.0451606510e+02   2.5371929987e+01    0.3751495    0.3143294 -48.99  0.002061825    1.361    0.265
        54 -11.6498    110.5387    212.0377   1.2795107738e+02   1.9659772292e+01    0.3195304    0.1740637  67.79  0.001725693    2.495    0.599
        55 -11.2029    108.4912    207.5625   1.2787067256e+02   2.0614572309e+01    0.1955942    0.1531739  53.35 0.0006633149    1.046    0.044
        56 -13.1187     11.7970    206.2093   1.4468599315e+02   3.1510306095e+01    0.3587486    0.2212472  33.96  0.002239095    1.772    0.436
        57  -9.9907      9.5035    201.5119   1.4488607100e+02   3.2462765392e+01    0.0913692   0.06965311  71.64 1.249244e-05    1.111    0.100
        58 -10.7354    167.6505    112.6588   9.9324091457e+01   2.6599005259e+01    0.2876295    0.2238308 -85.71   0.00133031    2.084    0.520
        59 -10.8506    125.1778    243.6111   1.2842473974e+02   1.3388017835e+01   0.09383956   0.07797118 -56.66 0.0007855413    1.647    0.393
        60 -12.0769    161.4673    197.8431   1.1684563123e+02   1.4109061364e+01     0.261664    0.2126189  64.12  0.001556097    1.506    0.336
        61 -12.1210    163.8113    203.0900   1.1714868403e+02   1.3020052368e+01    0.2788753    0.2050712  50.97 0.0003903136    1.352    0.260
        62 -10.6891    205.4830    110.1820   9.0919063058e+01   1.8790827385e+01    0.2640442    0.1954477  39.25 0.0006402569    1.287    0.223
        63 -11.1809      7.7112    102.1517   1.3953406568e+02   5.1690206492e+01    0.2405613     0.180031  45.03  0.001752754    1.493    0.330
        64 -11.8179    157.7596    202.0701   1.1812107657e+02   1.4115593038e+01    0.4543296    0.2881688  67.23  0.002186232    2.573    0.611
        65 -11.1160    154.9271    196.3290   1.1785636841e+02   1.5369162200e+01     0.341017    0.2232692  73.96  0.001749048    2.816    0.645
        66 -10.5127    144.9612     80.3094   9.5863453100e+01   3.7377804888e+01    0.2176412    0.1930918  29.65 0.0004876727    1.103    0.093
        67 -14.4650    153.0959     56.0413   8.6151011359e+01   3.9663937195e+01     1.246165     1.138245  33.49 0.0009361313    1.086    0.079
        68 -10.2284    159.9978    248.3031   1.2323374335e+02   8.1053576312e+00    0.1437514    0.1015421  38.70 0.0006575328    1.003    0.003
        69 -12.7902    168.6880     33.1178   7.4892959737e+01   3.8977114529e+01     0.477803     0.356654  18.66 0.0008532981    1.399    0.285
        70 -10.6948     13.5416     59.9434   1.3248743280e+02   6.0715864829e+01    0.1645396    0.1383254 -64.99 0.0004115311    1.084    0.077
        71 -10.3118    141.9527     32.9690   8.0433759380e+01   4.5871881935e+01    0.2265666    0.1867453 -66.20 0.0004130064    1.591    0.371
