#   1 NUMBER                 Running object number                                     
#   2 MAG_AUTO               Kron-like elliptical aperture magnitude                    [mag]
#   3 X_IMAGE                Object position along x                                    [pixel]
#   4 Y_IMAGE                Object position along y                                    [pixel]
#   5 X_WORLD                Barycenter position along world x axis                     [deg]
#   6 Y_WORLD                Barycenter position along world y axis                     [deg]
#   7 A_WORLD                Profile RMS along major axis (world units)                 [deg]
#   8 B_WORLD                Profile RMS along minor axis (world units)                 [deg]
#   9 THETA_WORLD            Position angle (CCW/world-x)                               [deg]
#  10 FWHM_WORLD             FWHM assuming a gaussian core                              [deg]
#  11 ELONGATION             A_IMAGE/B_IMAGE                                           
#  12 ELLIPTICITY            1 - B_IMAGE/A_IMAGE                                       
         1  -8.6248     54.1708    209.5410   1.2754380778e+02   2.5315100738e+01    0.2202227    0.1370968  61.96  0.001084749    1.362    0.266
         2 -21.2686    142.7732    164.6115   1.0245857105e+02   2.0731362602e+01     10.66786       8.5088  49.28   0.04955226    1.210    0.174
         3 -11.7373     46.2068    207.8633   1.2893355197e+02   2.6575986276e+01    0.1771995    0.1444929  72.17 0.0002943532    1.074    0.069
         4 -10.6194     39.4098    204.9481   1.3000906625e+02   2.7908782177e+01    0.2211894    0.1522088  85.23 0.0009129719    1.231    0.188
         5  -9.7525     43.5769    200.5461   1.2886402794e+02   2.8312630576e+01    0.1791716    0.1311791  79.27  9.38554e-05    1.125    0.111
         6 -11.8990     42.8860    195.4017   1.2858210234e+02   2.9422353125e+01    0.3313082    0.1966828  81.79 0.0005976789    1.561    0.359
         7 -11.4994    164.4578    250.2648   1.1127833520e+02   2.7183128672e+00    0.1199661    0.1154343 -30.14 0.0003707807    1.337    0.252
         8 -11.0376    137.9210    248.7012   1.1581390215e+02   6.9294383425e+00     0.203236    0.1072141 -52.18  0.001187432    2.411    0.585
         9 -10.9417    158.7184    248.4894   1.1207874089e+02   3.8247198088e+00    0.1053688   0.09051262  45.49 0.0004619872    1.153    0.133
        10 -12.4724    180.5017    246.1378   1.0790642605e+02   8.2175804748e-01    0.1972322    0.1708011  26.51  0.001140234    1.129    0.115
        11 -11.4242     20.8991    149.1920   1.2925745410e+02   4.1538558588e+01    0.2245373    0.1633821 -78.48 0.0003415373    1.130    0.115
        12  -9.3209     21.9128    143.6333   1.2847040794e+02   4.2702075551e+01    0.1578029    0.1307238  80.14 0.0004548212    1.101    0.092
        13 -11.7204    110.4858    244.3408   1.2026606865e+02   1.1616779049e+01    0.1738297    0.1443437 -46.38  0.001260582    1.623    0.384
        14 -10.6711    122.7641    240.3764   1.1763186538e+02   1.0439639831e+01     0.139274   0.09988147  37.55 0.0004303174    1.249    0.200
        15 -11.3195    238.3714    139.2776   7.7920437528e+01   6.3677138883e+00    0.2837776    0.2077609  12.42 0.0007840652    1.472    0.321
        16 -11.9595    243.5557    135.9979   7.6339826703e+01   5.8915526278e+00    0.4518003     0.276828  -2.94  0.001380933    2.156    0.536
        17 -12.0876     26.9977    137.7072   1.2657564778e+02   4.3606029151e+01    0.3791627     0.189365 -71.95  0.001111463    1.656    0.396
        18  -5.9553    187.0891    243.2243   1.0634353230e+02   1.8937033838e-01    0.4704836    0.1773282  36.11  0.002264174    2.190    0.543
        19 -11.8717    151.4652    247.2874   1.1322869710e+02   5.0904670977e+00    0.1457223     0.113726  41.60 0.0007120423    1.022    0.022
        20 -10.0502     24.2996    131.0246   1.2649830005e+02   4.5376966813e+01    0.1962998    0.1574063  66.73 0.0003398952    1.253    0.202
        21 -11.5104    189.5211    238.4192   1.0523576397e+02   4.3029562756e-01    0.2217228    0.1746542  -1.52  0.001080363    1.372    0.271
        22  -9.5641     19.7979    128.1251   1.2733914785e+02   4.6415808684e+01    0.1702277    0.1324882  88.56 0.0003272452    1.122    0.109
        23 -10.7488     33.9618    129.4289   1.2375274935e+02   4.4876950628e+01    0.2503256    0.1783282 -62.46 0.0004703921    1.242    0.195
        24 -10.0982    116.6951    243.5700   1.1907156243e+02   1.0837582306e+01    0.1611007    0.1234203 -82.41   0.00073782    1.559    0.359
        25 -12.0181    240.4360    113.6315   7.1702855687e+01   9.9238012853e+00    0.4063424    0.2901609   1.01  0.001872634    1.663    0.399
        26 -11.6131     43.5033    111.8634   1.1841642555e+02   4.8046339397e+01    0.3327178    0.2392523   6.79  0.001869111    1.902    0.474
        27 -10.9758     84.5939    244.4865   1.2487678857e+02   1.5186767649e+01    0.1107765   0.08486596  59.40 0.0001559288    1.019    0.019
        28 -11.0244    249.0005    107.0021   6.8864039459e+01   9.2258696072e+00    0.3112594    0.2191334  13.77 0.0009128676    1.777    0.437
        29 -10.4929    219.6373    241.3958   1.0040925306e+02  -4.4608265092e+00    0.3953369    0.1380956  44.28  0.001803166    2.847    0.649
        30 -11.4413     95.5074    240.5681   1.2259352454e+02   1.4340427274e+01     0.204511    0.1382213 -66.22  0.001374528    1.718    0.418
        31 -10.1610     29.0836    105.8021   1.2170799752e+02   5.0830913792e+01    0.2385402    0.1737703  32.17 0.0008981992    1.622    0.383
        32 -10.9704     33.8014    103.4675   1.1989046061e+02   5.0958808580e+01    0.3368215    0.1886812 -52.09  0.001213475    1.565    0.361
        33 -16.5961     12.7052    220.9195   1.3579527765e+02   2.7619491858e+01     4.056449     1.390785 -74.38   0.02269886    2.581    0.613
        34 -10.6205    143.5732    241.6031   1.1397478255e+02   7.1077723786e+00    0.1211695   0.08725843  56.62 0.0003884118    1.372    0.271
        35 -10.0334    189.3144    250.6940   1.0696965718e+02  -1.0715816629e+00    0.1059117   0.08030915  54.35 0.0007025657    1.623    0.384
        36  -9.8866    223.1028     93.7006   6.9570884533e+01   1.6728438249e+01    0.3064541    0.2228276  82.39  0.001464971    1.881    0.468
        37  -9.6754    219.4803     92.4754   6.9841445446e+01   1.7733156437e+01    0.2173683    0.2023614 -19.16 6.470439e-05    1.034    0.033
        38 -10.8869    204.0026     93.4306   7.2711176667e+01   2.1113073793e+01    0.3039617    0.2150002  59.87  0.001336812    1.545    0.353
        39 -10.7783    131.2186    239.4695   1.1598383333e+02   9.3101570447e+00     0.100174   0.09203551  71.93 0.0001672654    1.210    0.174
        40 -11.0764     59.8623     91.3808   1.0915019143e+02   5.0942677729e+01    0.3025146    0.1717385 -49.40 0.0009798205    1.547    0.353
        41  -9.6527    108.2893    239.8138   1.2021024640e+02   1.2651698205e+01    0.1098663   0.06598108  54.26 0.0004313934    1.421    0.296
        42 -11.3779     76.3647    239.2783   1.2589738723e+02   1.7136306707e+01    0.1402306     0.109254  57.74 0.0007921899    1.053    0.050
        43 -10.6247    124.4543    246.9138   1.1802682226e+02   9.1894629339e+00    0.1993685    0.1363991  25.58  0.001110244    1.704    0.413
        44 -10.5287    200.3375     89.1476   7.2224930200e+01   2.2687935195e+01    0.3793618    0.2705887  38.61  0.001674666    1.516    0.340
        45 -11.5020     71.1530     88.4134   1.0475003133e+02   5.0088465605e+01    0.3382404    0.2398192 -25.87  0.001261358    1.644    0.392
        46 -11.3215     46.5887     87.9307   1.1272173356e+02   5.3291332056e+01    0.2333812    0.2279731 -27.37 0.0005406203    1.154    0.134
        47 -12.2458    214.0990    234.6756   1.0034238969e+02  -2.8572395835e+00    0.4184728    0.2541051  48.35  0.001853601    1.914    0.478
        48 -10.5802    184.4719     83.0368   7.3485082153e+01   2.7512913899e+01    0.2694831    0.2415303  42.96 0.0003899466    1.138    0.121
        49 -10.8797    176.5095     83.2531   7.5113360753e+01   2.9402176741e+01     0.344476    0.2811446 -53.10 0.0008066032    1.300    0.231
        50 -11.7975     62.6455     77.9305   1.0476548859e+02   5.3599786602e+01    0.3408142    0.2445795 -43.31 0.0004567076    1.242    0.195
        51  -9.9098    174.2131     77.7913   7.3999656109e+01   3.0906974170e+01    0.2272604    0.2096882 -62.06 0.0008626244    1.145    0.127
        52 -10.3134    168.0715     75.0515   7.4446165454e+01   3.2879449909e+01    0.3132789    0.2613175  57.77 0.0007976337    1.230    0.187
        53 -10.1742    170.4996     71.8976   7.3010199092e+01   3.2819216049e+01    0.2795124    0.2265796  63.09 0.0005821136    1.294    0.227
        54  -9.9413    202.6015    236.8012   1.0267806605e+02  -1.3739969317e+00    0.1333547    0.1122415 -34.81 0.0005853388    1.513    0.339
        55 -10.8464    157.2606     73.4342   7.6268152725e+01   3.5794614647e+01    0.3627092    0.2756739  81.70 0.0005146199    1.694    0.410
        56 -11.4446    174.9714    236.5393   1.0759448635e+02   2.9458961098e+00    0.1583074    0.1267021  32.23  0.001079278    1.009    0.009
        57 -10.3232    115.1464    237.1339   1.1867870696e+02   1.2082056313e+01    0.1449068    0.1249477  54.07 0.0006370601    1.090    0.082
        58 -12.2234     86.6304     66.9362   9.3355617960e+01   5.2209272245e+01    0.3844037    0.2855925   7.67  0.001198108    1.633    0.388
        59 -10.2406     56.9796    237.3567   1.2915249997e+02   1.9900013110e+01    0.1352668   0.09623697  54.71 0.0002143818    1.125    0.111
        60 -10.7628     79.3623     65.0601   9.5148632636e+01   5.3819002940e+01     0.236928    0.2042745  40.65 0.0003150423    1.289    0.224
        61 -11.0583    127.0369    242.3754   1.1707250321e+02   9.4942072191e+00    0.2019903    0.1602864 -89.93   0.00140506    1.527    0.345
        62 -12.1783    129.6473     61.5014   7.8990533539e+01   4.4423623041e+01    0.3315713    0.2806541  78.30 0.0009708864    1.435    0.303
        63 -11.3911     84.3296    232.8539   1.2391447159e+02   1.7170807445e+01     0.256792    0.1158271 -61.14  0.001326277    2.486    0.598
        64 -11.3834    113.4921    246.7330   1.1996624050e+02   1.0812761042e+01    0.1322918    0.1125817 -86.93 0.0007833784    1.345    0.257
        65 -10.4562     88.0176    230.6897   1.2303817885e+02   1.7040081824e+01    0.1598878      0.12039  72.34  0.000635204    1.218    0.179
        66 -11.1110    213.9269    227.0500   9.9180870389e+01  -1.8991462667e+00     0.171482     0.137987  21.44  0.001176201    1.048    0.046
        67 -10.4394     64.4704    227.1278   1.2705168285e+02   2.0774266191e+01    0.1110684   0.09509677  74.78 0.0008309369    1.162    0.140
        68 -11.5859    106.9720     47.6712   8.0260390894e+01   5.1771879066e+01    0.2908559    0.2405015  47.77 0.0005341074    1.261    0.207
        69 -10.9375     56.9522    221.4690   1.2798075949e+02   2.2731828873e+01    0.2147425    0.1285431 -71.71 0.0009540755    1.695    0.410
        70 -11.8253     47.4037    213.8795   1.2916866095e+02   2.5284161763e+01    0.3593659    0.2166895 -58.53  0.002259446    1.966    0.491
        71  -9.4282    217.9482    216.3533   9.6721150146e+01  -1.1691876932e+00    0.1631698    0.1199125  28.62   0.00041602    1.144    0.126
