#   1 NUMBER                 Running object number                                     
#   2 MAG_AUTO               Kron-like elliptical aperture magnitude                    [mag]
#   3 X_IMAGE                Object position along x                                    [pixel]
#   4 Y_IMAGE                Object position along y                                    [pixel]
#   5 X_WORLD                Barycenter position along world x axis                     [deg]
#   6 Y_WORLD                Barycenter position along world y axis                     [deg]
#   7 A_WORLD                Profile RMS along major axis (world units)                 [deg]
#   8 B_WORLD                Profile RMS along minor axis (world units)                 [deg]
#   9 THETA_WORLD            Position angle (CCW/world-x)                               [deg]
#  10 FWHM_WORLD             FWHM assuming a gaussian core                              [deg]
#  11 ELONGATION             A_IMAGE/B_IMAGE                                           
#  12 ELLIPTICITY            1 - B_IMAGE/A_IMAGE                                       
         1 -11.4593    130.4832     35.4706   5.6366748221e+01   4.8221403380e+01     1.012462     0.682358 -78.00  0.002464012    2.340    0.573
         2 -10.2308     41.1879     21.1931   8.0001964049e+01   6.7387021161e+01    0.4986468    0.4075161 -73.43  0.002709157    2.668    0.625
         3 -12.3129    107.5986     29.1846   5.9691939456e+01   5.4304930107e+01    0.5030046    0.3806525 -22.30  0.001255937    1.376    0.273
         4 -11.1214    105.5262     21.1059   5.7106314703e+01   5.5715018936e+01     0.432621    0.2748301  68.09  0.000405268    1.889    0.471
         5 -10.2087     27.0439     21.1040   8.6808951793e+01   6.9069261232e+01    0.8578264    0.4462729 -17.05  0.003593547    2.129    0.530
         6 -10.3100     16.1837     17.4687   9.0871259767e+01   7.0690664539e+01     0.395036    0.2199791  12.94  0.001593931    1.823    0.451
         7 -10.9840     18.2487     22.8770   9.2100423135e+01   6.9618373259e+01     0.490334    0.1938451 -45.96  0.002471495    2.144    0.534
         8 -11.2899    165.9648     18.4138   4.4356443757e+01   4.1466878682e+01    0.3968346    0.2978455  30.79 0.0009813739    1.562    0.360
         9 -12.4389    116.9593     22.3833   5.4776855281e+01   5.2975650336e+01    0.2822149    0.2635991  29.48 0.0003919873    1.056    0.053
        10 -10.6810    183.0052     17.4719   4.1795998424e+01   3.7356028494e+01     0.700835     0.338647  37.45  0.001725705    3.072    0.675
        11 -10.3520    127.7888     19.0025   5.1165963272e+01   5.0785259666e+01    0.5019876    0.2802705 -34.92  0.002169504    1.940    0.485
        12  -9.8113     60.6041     17.5139   6.9983888498e+01   6.4985453645e+01    0.3913473    0.2458841  23.94   0.00188118    1.499    0.333
        13 -11.2035     67.8570     15.4657   6.6295657408e+01   6.3976324662e+01    0.3730948    0.3430305 -21.14 0.0006114668    1.335    0.251
        14  -9.6682    199.6191     18.3058   4.0071915875e+01   3.3238453817e+01    0.3010018    0.2223651 -32.04 0.0009207069    1.446    0.308
        15 -10.8207    230.6417     14.8670   3.6262799084e+01   2.6473221448e+01    0.4973912    0.2209105 -31.54  0.002105239    2.242    0.554
        16  -9.4302    225.7120     16.7207   3.7107739092e+01   2.7361860495e+01    0.2627909    0.1959468 -20.70  0.001134181    1.647    0.393
        17 -10.1648     30.7457      3.1975   7.6100030012e+01   7.1169228198e+01    0.4432727    0.1899687 -31.81   0.00177727    2.147    0.534
        18  -9.1640      1.2910      9.3946   9.5751278336e+01   7.3116987782e+01    0.2363769   0.08916329 -50.28  0.000999284    2.360    0.576
        19 -11.3728      5.5037     16.0776   9.6186250671e+01   7.1738741537e+01    0.4561915    0.3018976  12.11  0.001077345    1.569    0.363
        20  99.0000      5.8968      9.3673   9.3004964125e+01   7.2806523953e+01    0.3419413    0.2178036  11.53 0.0008166717    1.555    0.357
        21  -9.7323     23.6901      1.3618   7.8785075426e+01   7.2260209018e+01     0.194225    0.1121774  31.81 0.0001711331    1.774    0.436
        22 -10.2130     17.6036      1.7865   8.2380463901e+01   7.2877018381e+01    0.4181724    0.2100329  12.64  0.002096208    2.110    0.526
        23 -11.8199     16.2664      7.9692   8.6352310719e+01   7.2146717835e+01    0.4825559    0.2795717 -30.16  0.002120424    1.399    0.285
        24 -11.2227     24.8267      6.8175   8.1083899544e+01   7.1416216802e+01    0.2270598    0.1911937  11.79 0.0003630228    1.350    0.259
        25 -11.6981     20.4715      6.1653   8.3097202599e+01   7.1981586421e+01     0.344351    0.2208576  -3.43  0.001990152    1.368    0.269
        26  -9.4986     45.5944     15.6911   7.5407683791e+01   6.7555591737e+01    0.3821407    0.2496999  25.01  0.002308849    1.410    0.291
        27  -8.7744    112.2198     14.9891   5.3093136265e+01   5.4844323073e+01     0.239366    0.1279813 -25.55  0.001145198    2.007    0.502
        28  -9.4341     69.5260     11.5918   6.3905121154e+01   6.4109681869e+01    0.2897232    0.1455068  55.45  0.001159784    2.395    0.582
        29 -10.4102    243.9329     14.2209   3.5058034938e+01   2.3677664507e+01    0.3702023    0.1895637 -85.44  0.001445512    2.074    0.518
        30  -9.7526    209.6123     13.9650   3.7957041721e+01   3.1348305545e+01    0.2529339     0.196087  75.78 0.0007394298    1.201    0.168
        31  -9.6940    211.8733      8.8663   3.6519546908e+01   3.1359688724e+01    0.4109427     0.191743  61.45  0.002004966    2.033    0.508
        32 -10.4015    208.2604      4.0664   3.5698203793e+01   3.2679852639e+01      0.47829    0.2866341 -59.12  0.002630451    1.593    0.372
        33 -10.9638    175.7434     11.0996   4.0933398896e+01   3.9791050500e+01    0.4661781    0.2845872  44.22  0.000355953    1.801    0.445
        34 -10.9617    133.1246     12.7922   4.7948029810e+01   5.0117408200e+01    0.2304797    0.2139877  30.75 0.0003116804    1.103    0.093
        35  -9.9821     89.1093     13.2608   5.8394264848e+01   6.0085914534e+01    0.2124396    0.1819582  33.03 0.0004776581    1.058    0.055
        36  -9.4127     51.8365     13.6641   7.1719291135e+01   6.6883129491e+01    0.4169647    0.1559255 -28.98  0.001856902    2.635    0.621
        37  -9.1754     41.0644     10.3501   7.4836766764e+01   6.8894006992e+01    0.7589695    0.2442744  32.97  0.003191452    3.184    0.686
        38  -9.3536     53.7828      9.9455   6.9092303408e+01   6.7021573088e+01    0.3889813    0.2784996  67.20  0.001298377    2.885    0.653
        39  -8.8489     49.6504      8.3160   7.0002931374e+01   6.7867851780e+01    0.2168664    0.1659705 -39.37  0.001348151    1.747    0.427
        40  -9.6284     32.7727     12.5044   7.9887235611e+01   6.9698655706e+01     0.208588    0.1887379  26.26  0.001494171    1.560    0.359
        41  -9.5355     27.0316     12.6942   8.2886944365e+01   7.0346123119e+01    0.4154413    0.1910436  39.39  0.002110423    2.800    0.643
        42 -10.7660    147.1824     12.8434   4.5521442307e+01   4.6677785656e+01    0.4888997     0.360475 -56.60 0.0006347135    1.542    0.352
        43  -9.6684    150.6578     11.7445   4.4617402379e+01   4.5925545307e+01    0.1989017    0.1899425 -77.17 0.0001326879    1.115    0.103
        44  -8.8526     75.6424     12.6500   6.2303063271e+01   6.2845154284e+01    0.2350417    0.1811347 -57.90  0.001319432    2.090    0.522
        45  -9.1599     79.1416     11.1541   6.0494016762e+01   6.2321368190e+01    0.2592012     0.154306  -3.40 0.0008863442    1.877    0.467
        46  -9.0699    219.1452     11.6607   3.6525125635e+01   2.9398393031e+01    0.2188373    0.1508355 -49.91 0.0007484439    1.331    0.249
        47  -8.6002     98.0309     11.9589   5.5390518779e+01   5.8315756385e+01    0.1550078    0.1336671   3.01 0.0003824015    1.164    0.141
        48 -11.0962    194.4644      4.6259   3.7125814737e+01   3.5874805574e+01    0.7197371     0.428217  49.25  0.003348957    1.852    0.460
        49 -10.5508    164.8419      7.4673   4.1283539068e+01   4.2820861774e+01    0.3245543    0.2258559 -42.91 0.0004103921    1.528    0.346
        50 -10.8256    160.4253      2.9699   4.0532902444e+01   4.4306415862e+01    0.4460727    0.2800203  62.81  0.001540252    1.376    0.273
        51  -9.2066    128.0552      8.8291   4.7511845064e+01   5.1701067915e+01    0.2725303    0.2098766 -41.88  0.001041491    1.486    0.327
        52 -10.7647    248.0584      5.0032   3.2847212170e+01   2.3820964421e+01    0.3362878     0.275964  -5.75 0.0003951509    1.797    0.443
        53  -9.7776    224.7939      8.9823   3.5429795225e+01   2.8409403449e+01    0.2223539    0.1601302 -73.86 0.0003315828    1.228    0.186
        54  -9.4489    224.2136      3.5990   3.4267801883e+01   2.9095383293e+01    0.2413955    0.1943351 -32.78  0.001581382    1.391    0.281
        55 -10.0369    202.7001      8.7379   3.7348998315e+01   3.3515679210e+01    0.2391429    0.1875124 -73.03            0    1.158    0.136
        56 -11.7655    119.5120      2.0389   4.6687452143e+01   5.4296186727e+01     0.417695    0.2744364 -14.85 0.0003344765    1.722    0.419
        57 -10.4654    115.6575      1.7523   4.7332552934e+01   5.5220277168e+01    0.2314302    0.1644704  36.39 0.0002526761    1.313    0.238
        58  -8.8908    109.7197      1.2209   4.8343919278e+01   5.6632885957e+01    0.3872814    0.1456331  54.55  0.001305768    2.086    0.521
        59 -10.3745    107.3100      6.0484   5.0752976359e+01   5.6789554849e+01    0.4602084    0.3430545 -48.46  0.002634387    1.694    0.410
        60  -9.4373    111.4997      6.4928   4.9996800295e+01   5.5794788993e+01    0.2516652    0.1936274  37.10 0.0006850142    1.170    0.145
        61  -9.6199     92.1455      8.0457   5.5323170627e+01   5.9952922938e+01    0.2412931    0.1761229  -6.18  0.001308633    1.422    0.297
        62  -9.4608     81.0703      1.8848   5.5727996086e+01   6.2802367429e+01    0.3168607    0.2113864  79.65  0.001441139    2.449    0.592
        63 -10.5996     74.0667      1.8118   5.7812841025e+01   6.4205034115e+01    0.4144247    0.2015146  53.41  0.001537859    1.930    0.482
        64  -9.7315     68.6834      1.8444   5.9575392676e+01   6.5235681888e+01    0.2960502    0.1589183  38.79 0.0009556022    1.576    0.365
        65 -10.6487     86.7252      5.7710   5.5838654845e+01   6.1300516838e+01    0.3550952    0.2867302  -7.43  0.001560593    1.269    0.212
        66  -9.9291     90.8957      1.4194   5.2824816235e+01   6.0791247326e+01    0.3711396    0.1968863  63.93  0.001161953    1.989    0.497
        67  -8.9223     97.9047      7.2363   5.3479735205e+01   5.8782698818e+01    0.2403333    0.1397125  20.36 0.0005722537    1.934    0.483
        68  -8.8751     74.1616      8.0908   6.0706318200e+01   6.3600340838e+01    0.2033253    0.1435448  21.85 0.0007565182    1.264    0.209
        69  -9.3859    133.3340      6.4532   4.5730156410e+01   5.0637722633e+01    0.2408558    0.2110287  89.38 0.0007602198    1.216    0.178
        70  -8.9751    138.8561      6.6199   4.4849177826e+01   4.9283683658e+01     0.240449    0.1639352  -8.30  0.001035587    1.750    0.429
        71  -9.6983     61.8135      5.4923   6.3769023845e+01   6.6143309485e+01    0.2379098    0.2096671  -1.47  0.001321719    1.217    0.178
        72  -9.2371    173.6634      5.3323   3.9570255986e+01   4.0847094277e+01    0.3292392    0.1912943  68.94  0.001702037    1.504    0.335
        73  -8.6319     40.6876      6.6764   7.3134693855e+01   6.9401651274e+01    0.1259368   0.07623547   4.68 0.0007039977    1.658    0.397
        74  -9.2433     39.0123      3.3429   7.2161920572e+01   7.0032678643e+01    0.4549717    0.2620033  15.32  0.002616722    1.698    0.411
        75 -11.2543    179.7342      2.2465   3.8030886306e+01   3.9644224317e+01    0.4040225    0.2344273  89.71 0.0007464932    1.734    0.423
        76 -10.2240    237.7740      3.0304   3.3141911859e+01   2.6191675736e+01    0.3113789    0.1892062 -88.61   0.00135054    1.509    0.337
        77 -10.5074    218.8168      2.7316   3.4498482341e+01   3.0393396378e+01    0.3137576    0.2247171  68.62  0.001254843    1.362    0.266
        78 -10.0731    145.8346      2.8486   4.2523309533e+01   4.7897606184e+01    0.4650168    0.2169939  57.85  0.002184299    1.780    0.438
        79 -10.3025     49.5891      2.3017   6.6948152594e+01   6.8538685719e+01    0.2975335    0.1654301  26.93 0.0002147243    1.628    0.386
        80  -9.4655      3.3924      2.3558   9.1127958273e+01   7.4067634069e+01    0.2750384    0.1284685 -18.18  0.001307767    2.148    0.534
        81  -9.0245    127.6335      1.7125   4.5081901224e+01   5.2396361813e+01      0.24932    0.1233207  53.41 0.0009291493    1.675    0.403
        82  -9.1590    186.0489      1.3168   3.7117837074e+01   3.8199897386e+01    0.1863042    0.1041253  74.16 0.0003060524    1.576    0.365
        83 -10.8792     54.6841    118.1076   1.0429037145e+02   4.5613185119e+01    0.2251503    0.2165164 -83.36 0.0002290321    1.099    0.090
        84  -9.5172    201.4957    249.5079   9.1746417387e+01  -4.9525612428e+00    0.2196419    0.1599199  25.14  0.000734607    1.096    0.087
        85  -9.2033     83.5950    117.3207   9.5188378776e+01   4.1827004790e+01    0.2424904     0.216658  78.40 0.0005769301    1.247    0.198
        86  -8.8598     67.1602    118.3616   1.0047026039e+02   4.3974278061e+01    0.1950068    0.1274515  44.43 0.0007176839    1.687    0.407
        87 -10.0338      9.7825    118.0653   1.1795261365e+02   4.9633192895e+01    0.2237099    0.1636338  31.55  0.001385318    1.643    0.391
        88  -8.8491     62.5277    104.5428   9.8918763817e+01   4.7932965127e+01    0.2760986    0.2099898 -68.13    0.0011734    1.339    0.253
        89  -9.2071     66.1525    103.1995   9.7413350710e+01   4.7771823669e+01    0.2296607    0.1913814   0.14  0.000634207    1.368    0.269
        90  -9.2125     61.7361    114.9723   1.0145509469e+02   4.5513977820e+01     0.239147    0.1933861 -69.11 0.0002976248    1.196    0.164
        91 -10.3096     62.9575    110.9133   1.0020339723e+02   4.6343250878e+01    0.2911072    0.1863997 -50.36  0.001428054    1.400    0.286
        92  -8.5194    112.5036    114.5727   8.5948131794e+01   3.7397088886e+01    0.1517686    0.1491794 -49.84 3.991387e-05    1.032    0.031
        93  -9.3740     33.5208    114.0372   1.1016632440e+02   4.8804436269e+01    0.2034484    0.1133603 -66.66 0.0005949095    1.533    0.348
        94  -8.6658    121.9412    112.0134   8.2623326061e+01   3.6107654715e+01    0.2427834    0.1945848 -89.51  0.001018043    1.652    0.395
        95  -9.3516    232.4459    110.1205   5.8298963689e+01   1.2288105000e+01    0.2726133    0.1977462  80.06  0.001343346    1.956    0.489
        96  -9.1804    105.8714    109.8659   8.6656358516e+01   3.9744204478e+01    0.2199958    0.1994578 -14.91            0    1.154    0.133
        97  -9.5390    129.6513    109.4094   7.9819552721e+01   3.5086675536e+01    0.2977654    0.1515754  47.78  0.001123442    2.058    0.514
        98  -8.8805     29.5279    102.9058   1.0951863798e+02   5.1837970081e+01    0.2458302     0.100927 -60.04  0.001094457    1.916    0.478
        99 -10.0117     32.0169    105.5065   1.0916819530e+02   5.1001449469e+01    0.4060284    0.2079853 -26.35  0.001755488    2.813    0.644
       100  -9.4111     36.6481    109.1330   1.0831969822e+02   4.9708225642e+01    0.3353732    0.1521423 -53.95 0.0009341741    1.814    0.449
       101  -9.7081     36.1253    103.7257   1.0748744849e+02   5.1061398037e+01    0.3157874    0.2410431  59.26  0.001542708    1.577    0.366
       102 -10.1607    137.2807    107.3422   7.7235692795e+01   3.3897370643e+01    0.2794679    0.2663724  88.75 0.0004400084    1.144    0.126
       103  -8.2909    153.6911    107.2501   7.3092327240e+01   3.0263441517e+01    0.1504183    0.1251463  88.15            0    1.511    0.338
       104  -9.5722    117.8927    105.4018   8.1986189276e+01   3.8409097925e+01    0.3450322    0.2296012 -34.31 0.0008934989    1.582    0.368
       105  -9.7363     51.9725    105.6868   1.0264504301e+02   4.8949649813e+01    0.5121343    0.2270598 -71.73  0.001868922    3.016    0.668
       106  -9.5373     50.8981     99.2625   1.0160437962e+02   5.0610345682e+01    0.2400034    0.1757217 -57.55 0.0003709879    1.209    0.173
       107  -9.3482     92.1500    106.3678   8.9889514175e+01   4.3021852470e+01    0.2064338      0.13799  47.83 0.0009345959    1.661    0.398
       108  -9.7429     74.5090    104.6871   9.5046832103e+01   4.6235269777e+01    0.3025283    0.2632624 -75.36  0.001657404    1.250    0.200
       109  -9.3144    106.4683     87.5661   8.0234434431e+01   4.4572157711e+01    0.2580444    0.1874971  14.41 0.0007896952    1.700    0.412
       110 -11.1980    108.9913     98.6171   8.2687641916e+01   4.1686834341e+01    0.7644638    0.6301272  43.50  0.001923605    1.263    0.208
       111 -10.7311    103.8436     90.4771   8.1895812582e+01   4.4463356348e+01    0.5725401    0.3678393  64.71   0.00116128    2.421    0.587
       112 -10.4363    102.8460    101.3995   8.5297953155e+01   4.2242341831e+01    0.4789114    0.3259122  -1.22  0.001498527    2.264    0.558
       113  -9.6522    100.9997     98.3135   8.5006898075e+01   4.3280463877e+01    0.2705929    0.2102336 -38.09 0.0002696683    1.247    0.198
       114  -9.3493    175.4816    102.3348   6.6819889126e+01   2.6236547707e+01    0.4552419    0.2902447  14.47  0.001672273    2.726    0.633
       115  -8.4288     20.6612    101.6956   1.1223281325e+02   5.2814694887e+01    0.1349223   0.07880745 -41.20 0.0007039923    1.674    0.403
       116  -9.5968     77.6788     99.0410   9.2595378676e+01   4.7083680386e+01    0.3941127    0.2954099 -86.66  0.001875794    1.863    0.463
       117 -10.4108     23.2122     95.6489   1.1032753348e+02   5.4062719798e+01    0.3716284    0.2131882 -44.19 0.0005144352    1.580    0.367
       118  -8.8436     16.1637     98.8212   1.1324586857e+02   5.3805841001e+01     0.345313    0.2026855 -48.06  0.001923924    1.484    0.326
       119  -9.0801     12.7249     95.8869   1.1391827706e+02   5.4715135357e+01    0.4153572    0.1560863 -73.02  0.001773178    2.463    0.594
       120  -9.8418    124.5527     98.3938   7.8164645991e+01   3.8557591940e+01    0.4721057    0.2721741  33.01  0.001491304    1.984    0.496
       121  -9.3525     33.9589     97.7833   1.0706272089e+02   5.2678516209e+01    0.2289022    0.1672051 -63.79 0.0003967234    1.194    0.162
       122  -8.2744     21.4005     87.5286   1.0943119679e+02   5.6097071761e+01    0.1823013    0.1272488  13.67 0.0001577745    1.715    0.417
       123  -9.9192     33.0331     91.9559   1.0619911084e+02   5.4137324664e+01    0.4360793    0.2542773 -31.84  0.002060806    1.876    0.467
       124  -9.9401     27.5542     91.5376   1.0804055265e+02   5.4695453076e+01     0.278989    0.2272475  56.54  0.001109383    1.505    0.335
       125 -11.1298     30.3874     84.9703   1.0565297119e+02   5.5990986031e+01    0.6499513      0.36634 -27.71  0.001499278    2.040    0.510
       126  -8.8620    141.4559     97.5161   7.3423789392e+01   3.5037824557e+01    0.1576002    0.1501543  -4.24 -8.282569e-05    1.057    0.054
       127  -8.4969     67.4738     97.9976   9.5708173926e+01   4.8818801506e+01     0.214477    0.1303588 -54.11 0.0003771164    1.503    0.335
       128  -9.8136     43.6105     88.1056   1.0157833806e+02   5.4022481090e+01    0.2259264    0.2094553  29.67 0.0004023451    1.250    0.200
       129  -9.2988     53.5092     81.6574   9.6355175578e+01   5.4382933807e+01    0.3685694    0.1895575 -31.29  0.001561744    2.306    0.566
       130  -9.4924     42.3352     95.3459   1.0367432443e+02   5.2459056463e+01    0.2824952    0.2032355  74.51 0.0007692202    1.898    0.473
       131 -10.4314     47.0222     92.9318   1.0149919919e+02   5.2535640552e+01    0.4747629    0.2273434 -53.81  0.002160512    1.750    0.429
       132 -10.0223     48.3887     87.9698   9.9832719228e+01   5.3539619395e+01    0.2820168    0.2045768  40.78  0.001541552    1.614    0.381
       133  -9.5726     48.2331     83.6271   9.8800859621e+01   5.4551763304e+01    0.3375277    0.2676165 -75.15  0.001899952    1.468    0.319
       134  -9.7604     57.3658     99.6306   9.9501073731e+01   4.9757059769e+01    0.2449064    0.1891897 -58.87 0.0004654574    1.192    0.161
       135  -8.9385    179.2717     93.4539   6.3638585742e+01   2.7030777529e+01    0.2875683    0.1844101 -26.35  0.001223982    1.741    0.425
       136 -10.1082     52.0123     94.0245   1.0001561716e+02   5.1719418081e+01    0.2016842    0.1803916 -49.70            0    1.036    0.035
       137  -9.8077    116.8402     91.7860   7.8429277027e+01   4.1580449527e+01    0.2660314     0.247691  -3.95  0.000291767    1.078    0.073
       138  -8.9532    157.9851     90.6801   6.7472038444e+01   3.2580661959e+01    0.2124624    0.2032174  49.86 0.0004040726    1.059    0.056
       139 -10.3600    124.4685     88.3173   7.5248705591e+01   4.0683671288e+01    0.4746297     0.304351 -49.68   0.00180986    1.647    0.393
       140  -9.5204     87.7163     88.8085   8.6501688449e+01   4.7770406604e+01    0.3477882    0.2629844 -44.49 0.0009644288    1.247    0.198
       141  -9.5243     87.0180     83.7228   8.5233374640e+01   4.8997591633e+01    0.4372161    0.2975433 -79.09  0.001777977    2.672    0.626
       142 -10.4252     55.9119     87.3730   9.6997001015e+01   5.2794493292e+01    0.4498936    0.2732441  50.74  0.002097484    2.215    0.549
       143  -8.9182    189.1052     87.7029   6.0163786226e+01   2.5754938586e+01    0.2416057    0.2035959  -8.15 0.0005656074    1.362    0.266
       144  -9.3706     95.0419     87.1520   8.3656012446e+01   4.6833235887e+01     0.395847     0.252771  53.49    0.0012664    1.933    0.483
       145  -9.8395     80.3737     83.8805   8.7501356549e+01   5.0077463456e+01    0.4844185    0.3262885 -21.09  0.002242588    1.772    0.436
       146  -9.9582     68.6890     87.0569   9.2418195389e+01   5.1162314393e+01    0.4691679    0.3432762  29.69  0.002454701    1.475    0.322
       147 -10.4969     73.5574     81.2735   8.9072661194e+01   5.1721354779e+01    0.5659977    0.3857672 -40.19  0.002836676    1.352    0.260
       148  -9.9567     16.5811     86.4890   1.1095428814e+02   5.6666029598e+01    0.4277295    0.1996491 -47.60  0.002157353    1.765    0.433
       149  -8.3865      2.4089     86.7306   1.1598559126e+02   5.7398073033e+01    0.1712507    0.0843144 -59.48 0.0007123823    1.501    0.334
       150  -9.4671    180.6564     85.9147   6.1305494525e+01   2.8075484945e+01    0.3082074    0.2056758  74.61 0.0009310627    1.948    0.487
       151 -10.2576    155.1392     84.8689   6.6452989732e+01   3.4356525301e+01    0.3696728    0.2897992 -49.27 0.0009717123    1.320    0.243
       152 -10.7056    150.6476     80.2514   6.6136851843e+01   3.6281385131e+01    0.5446068    0.3389418  60.58   0.00229541    1.797    0.444
       153 -10.1792    129.4452     85.7043   7.3107634127e+01   4.0119707966e+01    0.3987107    0.3006503  24.93  0.001124557    1.497    0.332
       154 -10.3366     59.3943     83.1533   9.4627902217e+01   5.3309768466e+01    0.3444557     0.314229  43.20  0.001263187    1.280    0.219
       155 -10.4163     63.7495     76.0753   9.1027415198e+01   5.4281303544e+01    0.5506602    0.4492572  55.44  0.002270491    1.581    0.368
       156  -9.5978     35.3907     82.3304   1.0321094316e+02   5.6156321225e+01    0.2581647    0.2009686 -51.14 0.0006328571    1.079    0.074
       157  -8.2874     38.2746     79.6337   1.0148214292e+02   5.6496709885e+01    0.1803033    0.1566755 -22.19 0.0005958508    1.151    0.132
       158  -9.8477     20.3977     81.2278   1.0853003237e+02   5.7620122277e+01    0.3659269    0.2878399  83.99  0.002250478    1.556    0.357
       159  -8.4128     15.5956     79.4486   1.0995124527e+02   5.8345120088e+01    0.3675269    0.1620523  -9.74  0.001537313    3.628    0.724
       160 -11.2643     17.0587     73.9567   1.0825031050e+02   5.9491766831e+01    0.3743852    0.2489921 -45.56 0.0004489571    1.227    0.185
       161  -8.6542    133.1873     81.7942   7.0929388645e+01   4.0047880933e+01    0.2127985    0.1794763   4.31 0.0005826461    1.329    0.248
       162  -9.3886     42.4362     80.4550   1.0013126047e+02   5.5894498448e+01    0.3324148    0.1820017 -39.66  0.001619403    1.689    0.408
       163 -10.0520      1.8701     78.0178   1.1475879186e+02   5.9407829773e+01    0.5548227    0.1316181 -67.49  0.002141719    3.129    0.680
       164  -9.8254    167.9547     79.1405   6.1981707098e+01   3.2331675088e+01    0.4528536    0.2862076 -10.59  0.001754119    2.446    0.591
       165  -9.8261    107.1510     77.7804   7.7011003906e+01   4.6446766911e+01    0.4489698    0.2883787 -18.42  0.001881754    2.035    0.509
       166 -10.6049    179.8452     75.2160   5.8500819497e+01   3.0135046131e+01    0.6934277    0.3192189 -26.95  0.002466417    2.684    0.627
       167  -9.2470    175.0561     75.0656   5.9382726837e+01   3.1321228409e+01    0.2489169    0.2137496  59.13 0.0003143596    1.174    0.148
       168  -9.3166    173.5875     69.2401   5.8008015181e+01   3.2658245826e+01    0.3818186    0.2322254  32.96  0.001150134    2.145    0.534
       169 -10.1400    170.4033     73.3886   5.9827371280e+01   3.2738247785e+01     0.378161    0.2639942  51.24 0.0007470954    1.427    0.299
       170  -9.5174    166.3157     73.3096   6.0637176401e+01   3.3746342885e+01    0.2737213    0.2084313  30.52 0.0006229395    1.503    0.335
       171 -10.6610    158.0815     76.7852   6.3416668534e+01   3.5132441709e+01    0.2895485    0.2849866  -3.86 0.0003482403    1.022    0.021
       172  -9.6192    116.6301     77.1729   7.4027485333e+01   4.4594197356e+01    0.3863665    0.2579874  24.37 0.0009223877    1.808    0.447
       173  -8.3750    129.6124     77.7133   7.0613670530e+01   4.1637898890e+01    0.1622288    0.1177577  15.44  0.000700875    1.752    0.429
       174 -10.7815     46.0485     68.6410   9.5520482204e+01   5.8105504762e+01    0.6473247    0.3404556 -27.76  0.001747537    2.230    0.552
       175 -12.0713     53.0195     75.1530   9.4731921548e+01   5.5882414491e+01    0.3132413    0.2530628 -34.61 0.0002985685    1.089    0.082
       176 -10.2018     53.1393     70.2205   9.3242384135e+01   5.6931376610e+01    0.2649578     0.184212 -52.19 0.0005324884    1.367    0.269
       177 -11.7778    199.7535     71.8534   5.4075979360e+01   2.5917993516e+01    0.3289267    0.2789716 -23.43 0.0004537949    1.261    0.207
       178  -8.9149    127.0225     75.0303   7.0463869748e+01   4.2726926584e+01    0.2602407    0.1874767  10.43  0.001139896    1.829    0.453
       179  -9.3262     93.2261     67.0452   7.7875166111e+01   5.1273104097e+01    0.2788747    0.1986785 -34.73 0.0009614928    1.355    0.262
       180 -11.0899     89.8117     71.7119   8.0546228241e+01   5.0994268997e+01    0.5912393    0.4908477 -54.37  0.002585883    1.354    0.262
       181  -9.0046     94.5084     71.0151   7.8779897715e+01   5.0261437386e+01    0.3077649    0.2134762 -46.95  0.001483307    1.485    0.327
       182  -9.6162     83.4470     74.4545   8.3568982921e+01   5.1562420973e+01    0.3589168    0.2415642   6.48  0.001035365    1.972    0.493
       183  -8.9520     76.2589     74.9982   8.6223053624e+01   5.2639305334e+01    0.3374111    0.2074386  -5.42  0.001363053    2.604    0.616
       184 -11.9677     79.7978     69.9320   8.3367354385e+01   5.3101272875e+01    0.2730878    0.2516396 -17.61 0.0003208549    1.036    0.035
       185  -9.6541     75.1681     65.8915   8.3667260800e+01   5.4671896252e+01    0.3286189    0.2362026 -24.36 0.0007703967    1.391    0.281
       186  -8.4315     37.1994     75.5944   1.0086939386e+02   5.7506824844e+01    0.1712216    0.1194005  -3.75  0.000939157    1.658    0.397
       187  -8.7946     28.4819     75.1007   1.0410117061e+02   5.8393712673e+01    0.2051207    0.1075765 -57.71  0.001032487    1.591    0.371
       188 -11.0021    152.0754     72.4294   6.3458130343e+01   3.7348099246e+01     0.284326    0.2546217 -47.02 9.650608e-05    1.144    0.126
       189  -9.2699     68.9677     74.0704   8.8527120405e+01   5.3958614258e+01    0.2166368    0.1835906 -29.35 0.0006901011    1.064    0.060
       190  -8.7798    137.9928     72.0348   6.6682712208e+01   4.0762024449e+01    0.1851631    0.1781575 -17.58 0.0004949631    1.038    0.037
       191  -9.5243    145.4479     71.0147   6.4558512211e+01   3.9183295652e+01     0.338813    0.2031395  43.19  0.001227762    1.688    0.408
       192  -9.5884    110.6756     77.0044   7.5709770492e+01   4.5879152205e+01     0.302431    0.2447619 -47.57 0.0008199868    1.289    0.224
       193  -8.9104    101.1411     69.9195   7.6310435005e+01   4.9189724774e+01    0.2115352    0.2019733 -54.93 0.0004252617    1.190    0.159
       194  -8.9143     10.1359     69.3210   1.0995518591e+02   6.0941483587e+01    0.2191619    0.1211759 -48.99 0.0007768919    1.396    0.284
       195  -9.5011     14.8464     64.5672   1.0699557266e+02   6.1706332161e+01    0.2706286    0.2459991 -33.59  0.001588727    1.167    0.143
       196 -10.0958      9.1509     61.8238   1.0869613576e+02   6.2634459635e+01    0.4183245     0.244956 -41.67  0.001658712    1.390    0.281
       197 -11.0464      2.3933     67.3341   1.1260149166e+02   6.1767087698e+01    0.4330522    0.2111889 -53.35  0.002218438    1.498    0.333
       198 -11.2722      1.8135     61.8356   1.1171854777e+02   6.2992527876e+01    0.6307693    0.1575402 -63.30 0.0007319624    2.839    0.648
       199 -10.4340      6.1137     59.1088   1.0933760468e+02   6.3377322539e+01    0.3641558    0.2471002 -62.11 0.0007604428    1.271    0.213
       200  -9.1660    157.0293     68.6944   6.1232473537e+01   3.6793133325e+01    0.2154567    0.1906987  54.29 0.0005764831    1.117    0.105
       201  -9.6415    120.2439     67.5535   6.9902986905e+01   4.5613672036e+01    0.3262749    0.3130308 -10.01  0.001808871    1.035    0.034
       202 -10.6849     23.5663     62.8817   1.0298258895e+02   6.1462975742e+01    0.6909395    0.5643068 -28.16  0.003170909    1.127    0.113
       203  -9.7541     24.0481     55.3721   1.0069407011e+02   6.3007743376e+01    0.6303868    0.2082903 -41.56  0.002131987    2.541    0.606
       204 -10.2069     39.9129     58.1137   9.4792430463e+01   6.0974229820e+01    0.4548735    0.3932378 -14.34  0.002138166    1.108    0.098
       205 -10.7458     30.3779     53.0414   9.7245051895e+01   6.2943799870e+01    0.5596918     0.264585  25.36  0.002799631    2.323    0.570
       206 -10.1075     47.1666     46.8583   8.7902938532e+01   6.2337614412e+01     1.048303    0.2147527 -42.00  0.003296765    4.314    0.768
       207 -10.0613     32.2791     41.8371   9.2619776677e+01   6.4942995340e+01    0.3237392    0.2457677 -51.29  0.001201312    1.424    0.298
       208 -12.1121     41.2205     38.0409   8.7150103102e+01   6.4653132974e+01    0.4443661    0.2581774 -16.03  0.002269338    1.924    0.480
       209  -9.1386     42.8394     44.5959   8.8926885276e+01   6.3279848225e+01    0.1977832    0.1838336 -28.98 0.0007692341    1.265    0.209
       210 -10.7376     42.3465     50.5627   9.1270306149e+01   6.2208700588e+01    0.6861699    0.2466455 -50.84  0.002815761    2.638    0.621
       211 -10.6293     37.8722     46.1531   9.1660994343e+01   6.3548656994e+01    0.3476748    0.3127855  67.33  0.002159772    1.699    0.412
       212 -11.2508     32.5667     64.5344   9.9733556983e+01   6.0354368776e+01    0.4677256    0.2760902 -36.59 0.0001134982    1.502    0.334
       213 -10.7988     31.3782     58.6254   9.8522218214e+01   6.1708120392e+01    0.3873766    0.2654701 -63.09  0.001828214    1.597    0.374
       214 -10.9085    135.0930     65.0521   6.5187674211e+01   4.2666997521e+01    0.5033035    0.3982222  52.17  0.002523548    1.257    0.205
       215 -10.5295    143.5408     66.2587   6.3526703727e+01   4.0461457411e+01     0.359681    0.3376965  73.61  0.001009372    1.128    0.113
       216  -9.3981    147.5308     64.4823   6.2047098767e+01   3.9803056830e+01    0.2568842    0.1908101 -20.47 0.0005648535    1.497    0.332
       217  -9.1324    106.1963     66.3226   7.3557212069e+01   4.8843813532e+01     0.298229    0.2253362  30.94 0.0007106643    1.340    0.254
       218  -8.7919    170.8276     64.8283   5.7266666903e+01   3.4054879578e+01     0.196283    0.1699485 -74.92 0.0002973415    1.249    0.199
       219 -10.1707     82.9349     63.0413   7.9966684206e+01   5.3914017481e+01    0.3787174    0.3024059 -64.92  0.001282516    1.693    0.409
       220 -10.0107    203.6122     63.4887   5.1274359329e+01   2.6319297251e+01    0.4018799    0.2496168  72.46  0.001184221    1.798    0.444
       221  -9.1814     98.8231     63.7778   7.4968995919e+01   5.0803624122e+01    0.5205777     0.148831  40.57  0.001593188    3.693    0.729
       222  -8.6961     63.9462     69.4627   8.8928113589e+01   5.5654036896e+01    0.1954149    0.1348254  30.45 0.0005311636    1.543    0.352
       223  -8.7203     67.3174     63.3716   8.5690864220e+01   5.6398804239e+01     0.188973    0.1347039   9.90 0.0009684491    1.562    0.360
       224 -10.3311     70.6820     60.0864   8.3323022300e+01   5.6522361496e+01    0.3026014    0.2883761  65.40 0.0007913058    1.368    0.269
       225  -9.7599    194.0067     60.7388   5.2042266287e+01   2.9034600773e+01    0.3529013    0.2063054 -34.84  0.001599016    1.685    0.407
       226  -9.3426    170.7204     57.6685   5.5197061412e+01   3.5206540836e+01    0.2178177     0.187918  65.97 0.0004581992    1.143    0.125
       227  -9.7336    160.2759     60.9393   5.8208347438e+01   3.7272505129e+01    0.4271605    0.3117062   2.54  0.001506367    1.850    0.460
       228 -10.3041    167.1827     56.5496   5.5532132339e+01   3.6252091123e+01    0.2751978    0.2585969  22.27 0.0002559696    1.139    0.122
       229 -10.1031    163.1824     54.9813   5.5830952852e+01   3.7479776474e+01    0.5919094    0.2326746 -41.76  0.002149767    2.587    0.614
       230  -8.5425    212.1164     61.1319   4.9423150649e+01   2.4683415297e+01    0.1854812    0.1486524 -64.77            0    1.240    0.193
       231  -9.2504     53.5196     60.9007   9.0170017520e+01   5.8816513159e+01    0.2608735    0.1813792 -15.86 0.0007148803    1.519    0.342
       232  -7.9261    216.6494     60.6984   4.8685120757e+01   2.3702396709e+01    0.1375199    0.1075827  26.13 0.0007038914    1.696    0.410
       233  -9.8611    152.8056     59.4026   5.9301065804e+01   3.9348880056e+01    0.3635823    0.2660151  37.02  0.000906771    1.450    0.310
       234  -8.9096    149.6855     59.3081   5.9947886735e+01   4.0125228854e+01    0.2286205    0.1493343 -37.37 0.0004444747    1.556    0.357
       235  -8.5982     98.5154     60.5184   7.3939463200e+01   5.1457088709e+01    0.1452058    0.1350567  -0.32 5.011231e-05    1.020    0.019
       236  -8.7526     16.0309     59.8212   1.0533491768e+02   6.2652515934e+01    0.1641932    0.1534232 -60.06 0.0007914804    1.251    0.201
       237  -9.0339    181.2844     58.8320   5.3634292066e+01   3.2424838353e+01    0.2398499    0.1751477 -55.25  0.001173785    1.441    0.306
       238 -10.1832    149.3085     54.9058   5.8645054011e+01   4.0906889178e+01    0.4331464    0.2931481  31.23 0.0001756593    1.724    0.420
       239  -9.7438    155.3169     50.3617   5.5969338272e+01   4.0112534421e+01    0.3457904    0.2180903  38.38 0.0009999634    1.745    0.427
       240  -9.8504    152.7427     48.4308   5.5884839045e+01   4.1028788491e+01    0.3981353    0.2378497  58.45 0.0009562534    1.608    0.378
       241  -9.9036    136.6594     56.0467   6.1879427261e+01   4.3783319555e+01    0.3423299    0.2594695 -19.39 0.0009742154    1.439    0.305
       242  -9.5113    128.9291     57.8756   6.4386427510e+01   4.5307275423e+01    0.2822626    0.2070453  55.78  0.001372046    1.387    0.279
       243 -10.4023    105.1428     57.7327   7.0924000733e+01   5.0595005717e+01    0.2460128    0.2232293 -11.46 0.0002460936    1.061    0.058
       244  -9.3435     60.6374     57.8346   8.6346649336e+01   5.8462059571e+01    0.2578164    0.2317604 -32.41  0.001180225    1.144    0.126
       245  -8.5311     48.5244     57.8792   9.1176497906e+01   6.0045429352e+01    0.1985791    0.1143305 -44.52  0.001004132    1.521    0.343
       246 -11.5535    225.8654     55.3618   4.6181593086e+01   2.2391573369e+01    0.2755776    0.2248673 -49.45 0.0002717052    1.110    0.099
       247 -12.3834    117.6397     54.3984   6.6176316045e+01   4.8447779090e+01    0.6350229    0.3785421  33.50 0.0009192066    1.835    0.455
       248  -9.4574    135.9655     36.4971   5.5505451005e+01   4.6770669142e+01    0.3608084    0.2540707 -38.61 0.0006769555    1.516    0.340
       249 -11.3918    125.2130     45.6273   6.1150118851e+01   4.8068673443e+01    0.4634509    0.3344784  25.67 0.0009942799    1.522    0.343
       250  -9.9680    127.8470     40.0110   5.8555393980e+01   4.8244456763e+01    0.3068965    0.2885797  38.51  0.001784104    1.021    0.021
       251  -9.7780    115.8669    248.6439   1.0816166414e+02   8.0596387288e+00    0.2083072    0.1885482  27.69 0.0007150564    1.230    0.187
       252 -11.1567      5.1572     37.6737   1.0409747240e+02   6.7821966661e+01    0.4990242    0.4595509 -47.95  0.003806644    1.306    0.235
       253  -9.8213      5.0954     31.7844   1.0225941715e+02   6.8955117028e+01    0.3853157     0.191435   2.12  0.002163735    2.257    0.557
       254 -10.9940     11.4944     47.0343   1.0386804876e+02   6.5597617383e+01    0.7779287    0.1393461 -52.77  0.002999499    3.200    0.687
       255 -10.7068      7.0522     50.4314   1.0680665319e+02   6.5156102088e+01    0.2986459    0.2140544 -62.63  0.001043672    1.331    0.248
       256  -8.1173    243.3086     55.7169   4.4227862148e+01   1.8552129930e+01    0.1343819   0.08753612 -63.83 0.0006706599    1.566    0.361
       257 -10.7525    191.5049     54.3695   5.0712294559e+01   3.0592250785e+01    0.2912417    0.2575492 -30.36 0.0008479801    1.188    0.158
       258  -9.6491    145.3545     53.5408   5.9072517341e+01   4.2080029154e+01    0.7290433     0.222706 -31.05  0.002267183    3.595    0.722
       259 -10.0621     83.6228     45.3695   7.3296305607e+01   5.6913079290e+01    0.3687372    0.2580242 -53.97 0.0009901674    1.944    0.486
       260  -9.4438     90.9696     41.1241   6.9215825166e+01   5.6168600270e+01    0.2573268    0.1928359 -38.08 0.0008547585    1.428    0.300
       261  -9.5409     88.4593     47.9209   7.2632964218e+01   5.5585186812e+01    0.5170082    0.2534563 -46.60  0.002134688    2.444    0.591
       262 -11.4571     94.3798     50.2862   7.1583596476e+01   5.4042349332e+01     0.597182    0.4215903 -16.93  0.001414306    1.506    0.336
       263 -10.3431     94.8617     44.8520   6.9401473604e+01   5.4818365407e+01    0.4481862    0.2692484  33.81   0.00109309    1.675    0.403
       264  -8.5598     83.2615     52.2541   7.6009633278e+01   5.5822106966e+01    0.4007328    0.1672152 -44.59  0.001248832    2.564    0.610
       265  -9.3896     79.9319     49.3639   7.6096349818e+01   5.6918695573e+01    0.7486374    0.2668798 -47.15  0.002561036    3.577    0.720
       266 -10.6852     71.4375     52.0925   8.0187161363e+01   5.7889067335e+01    0.4417359    0.3414041 -41.14 0.0003860109    1.322    0.244
       267  -9.7347     61.4469     52.1371   8.4013557950e+01   5.9426625621e+01    0.3095584    0.2683122  83.83  0.001300575    1.837    0.456
       268 -10.8429     57.0981     34.1148   7.8737981586e+01   6.3175703621e+01    0.6865116    0.3912474  44.90  0.003456983    2.131    0.531
       269  -9.2308     55.7557     29.2481   7.7223377664e+01   6.4131310604e+01    0.2242358    0.1761305  -5.77 0.0003577156    1.094    0.086
       270 -10.3714     65.6354     49.2332   8.1317913957e+01   5.9324105599e+01    0.3677484    0.2231451 -25.88 0.0009838389    1.666    0.400
       271 -12.4441     61.8491     44.0358   8.0815030588e+01   6.0816691743e+01      0.42951    0.2700035 -38.99 0.0005149576    1.514    0.340
       272 -10.4835     67.6445     44.1622   7.8613977334e+01   5.9888244468e+01    0.5120203     0.296445  18.60  0.002385103    2.079    0.519
       273 -10.0341     51.8323     29.0034   7.8766041385e+01   6.4747319803e+01    0.1984715    0.1681978  24.71 0.0003667097    1.286    0.222
       274  -9.8786     49.3718     25.5289   7.8298533555e+01   6.5625167815e+01    0.2858626    0.1942867   9.94 0.0008232578    1.426    0.299
       275  -9.5341     52.5300     54.0141   8.8237309081e+01   6.0302733583e+01    0.2881115    0.2058052 -44.04  0.001307951    1.320    0.243
       276  -9.3311     53.7489     50.2418   8.6401181094e+01   6.0858083831e+01     0.221835    0.1817141  -9.08 0.0003867149    1.107    0.097
       277  -8.5271    106.8053     52.8601   6.8705356218e+01   5.1063439092e+01    0.1774503     0.170565  77.45 0.0002976966    1.238    0.193
       278 -10.1554     26.6758     45.1210   9.6319590808e+01   6.4845018227e+01    0.4343207     0.154531 -40.57  0.001920086    2.347    0.574
       279  -8.9173     17.5615     46.2142   1.0084257990e+02   6.5359003503e+01     0.259037    0.1485601 -33.79  0.001151714    1.477    0.323
       280  -9.8590     19.9075     50.6117   1.0111181770e+02   6.4302379847e+01    0.4832482    0.1649032 -51.65  0.002134081    2.205    0.547
       281  -8.5919     22.0086     45.9884   9.8734545258e+01   6.5067087533e+01    0.1891933    0.1301332 -29.02  0.001167298    1.232    0.189
       282  -9.0289     30.3411    247.6715   1.2397166909e+02   1.9351618647e+01    0.1203641   0.05724167  62.61  0.000705145    1.740    0.425
       283  -9.8280    174.8292     50.4557   5.2357563230e+01   3.5260812466e+01    0.2817016    0.2528509  51.61 0.0008367896    1.121    0.108
       284  -9.4476     14.2452     54.8378   1.0479925602e+02   6.3820091572e+01    0.3961995    0.1591106 -59.86  0.001182201    2.114    0.527
       285 -10.3837    114.3745     46.4514   6.4265370494e+01   5.0420453518e+01    0.4314115    0.2635914 -17.84  0.001339285    1.933    0.483
       286  -9.3929    181.1430     48.9311   5.0859753300e+01   3.3916552745e+01    0.2294549    0.1879683 -67.07  0.001222432    1.271    0.213
       287  -8.0811    224.4842     48.5446   4.4710829776e+01   2.3659483188e+01    0.1325103    0.1213256 -65.33 0.0001542079    1.045    0.043
       288  -9.2743    203.5661     46.5746   4.6877039049e+01   2.8791056987e+01    0.3839554    0.2070016  38.80   0.00144067    2.623    0.619
       289  -8.7771    196.8116     48.1713   4.8243575161e+01   3.0191681651e+01    0.1833259    0.1623203  34.20 0.0004112834    1.307    0.235
       290  -9.5630     31.8352     47.8517   9.4917169826e+01   6.3837757546e+01    0.1781605    0.1487204 -24.36 0.0005418056    1.053    0.050
       291 -11.7242     14.4624     39.4466   1.0015083285e+02   6.6905470395e+01    0.5406967    0.3704735 -62.71  0.002782188    1.651    0.394
       292 -10.0480    232.3197     45.3529   4.3061188158e+01   2.2348746864e+01     0.385423    0.2222968 -47.31  0.001884655    1.551    0.355
       293  -9.5579    245.1958     45.4125   4.1720765497e+01   1.9570209347e+01    0.4041583    0.2140015  86.28  0.001905619    2.369    0.578
       294  -8.8817    164.3670     46.4364   5.3030225957e+01   3.8431159196e+01    0.2686298    0.1287621  55.42 0.0005659711    1.944    0.486
       295  -8.1971    139.2896     45.2782   5.7720667423e+01   4.4771325574e+01    0.1451515    0.1070628  26.62 0.0002753724    1.521    0.343
       296  -9.5062    199.9387     43.3553   4.6530323180e+01   3.0098409127e+01    0.2254286    0.1956146 -29.80 0.0003357699    1.240    0.194
       297  -9.2054    186.4304     44.0236   4.8653250814e+01   3.3294848796e+01    0.3863122      0.15652  59.16   0.00151924    2.303    0.566
       298  -9.3779    175.8485     44.3973   5.0432981374e+01   3.5859015167e+01    0.2192744    0.1722047  84.52  0.001142427    1.331    0.249
       299  -9.1617    149.6966     43.7070   5.5003888928e+01   4.2447845610e+01    0.2572812    0.1837994  46.44 0.0005521406    1.354    0.261
       300  -8.9817    145.1983     42.6509   5.5586682675e+01   4.3699233025e+01    0.4075237    0.1377922  61.47  0.001336723    3.130    0.680
       301  -9.2856      8.4471     43.8872   1.0437042680e+02   6.6411541332e+01    0.1881347    0.1476321 -54.99 0.0003858999    1.234    0.189
       302 -11.9247    103.7170     39.1489   6.4566955589e+01   5.3824960688e+01     0.434916    0.3312727 -28.59 0.0005173369    1.344    0.256
       303  -8.5327    108.5210     43.5083   6.4820127048e+01   5.2152089701e+01    0.2288901    0.1833413 -14.52 0.0006710533    1.278    0.218
       304  -9.6589     53.1874     43.1521   8.3983132931e+01   6.2221584525e+01     0.217884     0.204271 -48.38 0.0005376969    1.403    0.287
       305  -8.4405    246.3083     41.3459   4.0712673676e+01   1.9875418613e+01    0.1177533   0.09938015  19.16 0.0004544635    1.701    0.412
       306  -9.7300    192.1733     38.2772   4.6247576438e+01   3.2651202476e+01    0.4589666    0.2869383   2.83  0.001873888    2.811    0.644
       307 -10.5973    228.2402     37.7889   4.1736900981e+01   2.4252587506e+01    0.3620232    0.2090057 -44.60 0.0004660934    1.552    0.356
       308  -8.8116    157.9837     39.1120   5.1959615395e+01   4.1014212233e+01    0.3250759    0.1609859 -54.58  0.001230547    2.759    0.638
       309  -8.9689    215.5035     39.1074   4.3477439598e+01   2.6982023306e+01    0.1951088    0.1685488 -86.93 0.0007382612    1.088    0.081
       310  -9.7941    186.5624     37.0136   4.6696065876e+01   3.4188332685e+01     0.283748    0.2335682 -62.17 0.0005540017    1.209    0.173
       311 -10.0103    182.2090     38.8772   4.7856054007e+01   3.5020517471e+01    0.2595164    0.2170258 -77.15  0.000480098    1.209    0.173
       312  -9.5681    176.5351     36.5865   4.8073036822e+01   3.6721677852e+01    0.4731625    0.2404643  74.14  0.001632441    2.188    0.543
       313  -8.7407    166.0074     39.3816   5.0615339968e+01   3.8980540721e+01    0.1983439    0.1681795  67.45 0.0004299298    1.121    0.108
       314  -8.7282    120.5261     39.0884   6.0015059238e+01   5.0081510048e+01    0.2091501    0.1379249 -32.73  0.001016401    1.582    0.368
       315  -9.5277     82.4757     38.7790   7.1115067660e+01   5.8161394215e+01    0.2227636    0.2027254  13.15  0.000599632    1.092    0.085
       316  -9.6291     86.3820     36.1241   6.8743456700e+01   5.7809170737e+01    0.5081127    0.2839153  -3.83  0.001816125    2.837    0.647
       317 -10.0117     24.9825     38.6566   9.4862223286e+01   6.6225656282e+01    0.2378117    0.1544341 -34.34 0.0005178896    1.241    0.194
       318  -9.1163    238.0495     37.9075   4.0756401446e+01   2.2081091009e+01    0.1912086    0.1664927 -64.59 0.0004457545    1.030    0.029
       319  -8.7077    202.2424     38.1910   4.4877713212e+01   3.0228180594e+01    0.1945403    0.1422347 -64.48 0.0005183187    1.374    0.272
       320 -10.7136    116.3610     33.9335   5.9195973479e+01   5.1726317857e+01    0.5591173     0.340237  17.66 0.0006200532    2.202    0.546
       321 -10.2195    208.8915     34.2378   4.3047089637e+01   2.9153258524e+01    0.4641777    0.2960567  -4.84  0.002134952    2.531    0.605
       322  -9.6282    217.3750     34.1739   4.2056547192e+01   2.7182181751e+01    0.4691178    0.2191864 -80.28  0.001308563    3.592    0.722
       323 -10.0638    153.5498     31.3407   5.0333479289e+01   4.3097195025e+01    0.4556263    0.2146315  53.79   0.00194167    1.911    0.477
       324 -10.0115    145.8047     28.5771   5.0873027288e+01   4.5343449396e+01    0.4512853    0.3351516 -79.19   0.00187502    1.649    0.394
       325  -8.4421     95.3188     35.6284   6.5708073135e+01   5.6089228199e+01    0.1347889    0.1103538 -68.38            0    1.797    0.443
       326  -9.7254     81.4879     32.0000   6.8707256594e+01   5.9336031923e+01    0.5138054    0.2082087  37.93  0.002095431    2.460    0.593
       327  -9.9922     77.1351     34.6753   7.1316429011e+01   5.9760377488e+01    0.4615935    0.2343516  42.49  0.001218593    1.919    0.479
       328  -8.6819     75.5197     31.4663   7.0561349507e+01   6.0518196880e+01    0.2001683     0.187836 -11.23 8.659828e-05    1.224    0.183
       329  -9.6724     71.5043     29.5383   7.1199114327e+01   6.1509366400e+01    0.2797631    0.2377167  54.17  0.001119026    1.538    0.350
       330  -9.7290     75.6040     27.3458   6.8790540717e+01   6.1073760601e+01    0.4925089    0.2375623  47.34 0.0009713664    2.102    0.524
       331  -9.6234     95.2780     28.9699   6.3081694264e+01   5.6989640911e+01     0.486267    0.2625591   6.68  0.001860099    3.181    0.686
       332  -8.9292    100.1864     26.7946   6.0792908775e+01   5.6220736732e+01    0.3093823    0.1524696  45.56  0.000754569    1.824    0.452
       333  -9.8687    163.6063    246.0789   9.8496180772e+01   1.2158449571e+00    0.2277834    0.1694977  -7.94  0.001388645    1.648    0.393
       334  -8.3592    188.3093    244.6840   9.3515288614e+01  -2.3460824748e+00    0.1126016   0.09123995  54.48 0.0006474259    1.634    0.388
       335  -8.7892    232.8032     31.8477   3.9898966267e+01   2.3994515056e+01    0.1878432     0.129149 -66.40 0.0006052579    1.369    0.269
       336  -8.2401    235.3035     29.7032   3.9173143451e+01   2.3711963726e+01    0.1622135    0.1168289 -28.24 0.0002921116    1.528    0.345
       337  -8.2663    203.2159     31.9665   4.3151340048e+01   3.0783552846e+01    0.1722138    0.1053312 -33.95 0.0006556025    1.645    0.392
       338 -10.8860    186.3415     30.5618   4.4951604518e+01   3.5047187101e+01    0.5482544     0.345903  65.03  0.001512215    1.483    0.326
       339  -9.3939    179.4878     25.2964   4.4429799220e+01   3.7357537323e+01     0.447512    0.2117429  84.96  0.001413479    2.889    0.654
       340  -9.0159      1.4606    244.0406   1.2866093958e+02   2.2913234102e+01    0.1459226   0.07970456 -89.65 0.0004421056    1.529    0.346
       341 -10.2138     37.8543     26.8036   8.4059438186e+01   6.6943563008e+01    0.8089272    0.3049437  32.48  0.003711934    2.730    0.634
       342  -9.9490    202.8907    242.3358   9.0388791116e+01  -4.1926123970e+00     0.206055    0.1569574  -6.73 0.0004498904    1.287    0.223
       343  -9.6139     14.3114     28.6423   9.6431318994e+01   6.8930868654e+01      0.30064    0.1440585  24.79  0.001664734    2.288    0.563
       344  -9.1099    101.6153    240.8090   1.1011130843e+02   1.1511473721e+01    0.1618554    0.1111527 -84.32 0.0009584554    1.743    0.426
       345 -11.9984     25.9543     30.9732   9.1499448563e+01   6.7527492033e+01    0.7877538    0.2811145  22.91  0.003528962    3.100    0.677
       346 -11.1125     19.1282     29.0790   9.4147877361e+01   6.8471409539e+01    0.2116286    0.1663197 -26.53  0.000437364    1.053    0.050
       347  -9.4258    247.3024     30.4516   3.8249589766e+01   2.1054954365e+01    0.2134139     0.182056 -52.90 0.0006825937    1.109    0.098
       348  -9.7752    142.6207     32.1408   5.2661959801e+01   4.5698832050e+01    0.3203762    0.1955597 -25.02  0.001414235    1.790    0.441
       349 -10.7691    221.8956     26.5588   3.9753820820e+01   2.7083060964e+01    0.3846246    0.3326321  10.33  0.001391919    1.575    0.365
       350  -8.6261    195.7385     29.0166   4.3306444668e+01   3.2941166564e+01    0.1833505    0.1565121 -52.59 0.0004560233    1.147    0.128
       351 -10.0948    165.2104     25.8798   4.6694959361e+01   4.0836331688e+01    0.4795149    0.2714183 -75.05  0.001980762    2.578    0.612
       352  -9.5723    246.8957    239.1183   8.1903246474e+01  -9.9033381422e+00    0.1689849    0.1423064  10.87  0.001236792    1.309    0.236
       353  -8.9795    134.1870     27.4238   5.2783645714e+01   4.8317731341e+01    0.2861001    0.1334435  69.50 0.0009421024    2.551    0.608
       354  -8.9557    207.6989     26.3603   4.1210308862e+01   3.0398002523e+01    0.2066359    0.1274536  76.30 0.0007554601    1.568    0.362
       355  -9.6159    205.5560     23.4243   4.0712999076e+01   3.1248354181e+01    0.2916898    0.2173173  56.23  0.001668807    1.407    0.289
       356  -9.0368    140.5395     26.0684   5.1050576355e+01   4.6927253300e+01     0.217997    0.1752557  74.09  0.001195623    1.266    0.210
       357 -10.9145      2.0299     25.2290   1.0161967967e+02   7.0340641498e+01    0.2509682    0.1520377 -55.18 0.0005889009    1.536    0.349
       358  -9.3116    242.6531     25.1345   3.7501929364e+01   2.2683134773e+01    0.3050046    0.1261567  56.01  0.001395879    2.714    0.632
       359  -8.8588    236.5030     25.4578   3.8112695344e+01   2.3966232659e+01    0.2054644    0.1277771 -65.86 0.0008483379    1.533    0.347
       360  -9.7280    159.0444     24.5153   4.7263436249e+01   4.2525955570e+01    0.2285631    0.2007148 -28.62  0.001336812    1.242    0.195
       361  -9.4967    221.5069    237.5014   8.6156787297e+01  -6.2441351848e+00    0.2179811    0.1343858   6.41 0.0007609135    1.667    0.400
       362 -10.0819    123.4815     22.4834   5.3330924618e+01   5.1437692056e+01    0.4917732    0.2929419 -89.11  0.001693003    3.018    0.669
       363 -10.5337     61.6036     23.8214   7.2467472453e+01   6.3991054603e+01    0.3132991    0.2239112  -7.17  0.001835958    1.315    0.240
       364  -8.6608     65.8687     22.6229   7.0283874615e+01   6.3434903186e+01    0.1952073    0.1716474 -15.55  0.001258471    1.216    0.178
       365 -10.9182    153.7388     22.9653   4.7658619974e+01   4.4016584803e+01    0.2681378    0.2315052  50.00 0.0003180685    1.110    0.099
       366  -9.1520    152.0273     18.3320   4.6481156275e+01   4.4934777822e+01    0.2269322    0.1890579   7.24 0.0006468825    1.398    0.285
       367  -9.7424    187.3569    235.0122   9.2225744602e+01  -7.9595103858e-01    0.2694836     0.115719  45.12  0.001199879    2.425    0.588
       368  -8.1836    169.7035     23.2727   4.5242017869e+01   4.0012281632e+01    0.2200077    0.1314875  71.07 0.0001989351    1.588    0.370
       369  -9.8955    173.8394     22.1725   4.4328544819e+01   3.9107584854e+01    0.3065889    0.2370177  30.07  0.001681486    1.547    0.354
       370  -8.2459     85.7830     23.0073   6.3544317546e+01   5.9674728568e+01    0.1621283    0.1034729 -24.16 0.0004521062    1.592    0.372
       371  -9.3105     10.0661     22.9062   9.6445673349e+01   7.0255123293e+01     0.169163     0.122122 -28.95 0.0004002544    1.033    0.032
       372  -9.4007    132.2505     21.5391   5.1146268296e+01   4.9444674899e+01    0.2641067    0.2381281 -67.96  0.001120748    1.262    0.208
       373  -8.5393     32.4368    232.5273   1.2270016373e+02   2.1960146846e+01    0.1130188   0.08595026  69.96 1.717721e-05    1.010    0.010
       374  -8.3352     80.3725     22.7080   6.5170340473e+01   6.0774315072e+01    0.1209149    0.1069989 -84.37 3.910662e-05    1.727    0.421
       375  -8.5794    223.7698    225.1656   8.3670673188e+01  -4.9068932593e+00    0.1717592    0.1197249   6.79 0.0005420422    1.305    0.234
       376  -8.5473    132.2430    225.6133   1.0202400466e+02   9.5793338351e+00    0.1256103     0.094769  74.13 0.0004782224    1.652    0.395
       377  -9.3700     36.2072     20.7889   8.2157539524e+01   6.8078267483e+01    0.2191375     0.157052 -21.11 0.0006283727    1.162    0.139
       378  -9.9190    218.9380     19.0921   3.8282933370e+01   2.8627867568e+01    0.3515655    0.2101435 -61.09  0.001865114    1.621    0.383
       379 -10.4607    212.5005     19.0228   3.8897148190e+01   3.0119999182e+01    0.4863768    0.1924885  60.09  0.001679174    2.385    0.581
       380  -8.2722      1.9621    224.2234   1.2773438291e+02   2.6591926695e+01    0.1254977   0.07477558  42.38 0.0004491052    1.594    0.373
       381  -9.1298    198.9997     14.2224   3.9099281356e+01   3.3826605977e+01    0.2769999    0.1770203  88.56 0.0008957389    1.526    0.345
       382 -10.2385     93.6112     19.9164   5.9886832218e+01   5.8428841026e+01    0.2660244    0.1912033  44.53 0.0002393969    1.257    0.205
       383  -9.3400    235.4905     18.5086   3.6661639407e+01   2.5000538559e+01    0.1834096    0.1072701 -88.64 0.0001574878    1.720    0.419
       384  -9.0409    196.7260    222.4129   8.8350262404e+01  -3.6254277872e-01    0.1878436    0.1063737  26.72 0.0009502047    1.653    0.395
       385  -9.1281     88.7259    221.0160   1.1059015620e+02   1.7125450165e+01    0.2210309    0.1656442  43.07 0.0006129152    1.212    0.175
       386  -9.7661    144.4535     17.2609   4.7414944267e+01   4.6914270450e+01    0.3176197    0.2166742  53.32  0.001371155    1.313    0.238
       387  -8.0907    183.3187    219.3176   9.0500083943e+01   2.2920617419e+00    0.1350286   0.09364804   4.80 0.0006549029    1.658    0.397
       388  -8.9698    203.0172    217.9361   8.6356137234e+01  -6.7635540300e-01    0.1923342    0.1582288  11.45 0.0003169993    1.028    0.027
       389  -8.3723      2.0256    212.0021   1.2714257877e+02   2.9011045949e+01    0.1336483   0.09831198  75.49 0.0004336519    1.010    0.010
       390  -9.1661    230.9283    209.3306   7.9540572855e+01  -3.7297658919e+00    0.2192227    0.1477645  -3.07 0.0004208073    1.459    0.315
       391  -9.7187     34.7190    200.6202   1.1997411513e+02   2.8247030706e+01    0.2892297    0.1287646  69.12  0.001338032    2.501    0.600
       392  -8.6045    120.4281    199.2576   1.0079557568e+02   1.6650270022e+01    0.1755523    0.1325326 -75.88 0.0006724644    1.546    0.353
       393  -9.1278      7.1551    194.5236   1.2519718813e+02   3.2210407762e+01    0.2282068     0.127133  60.56  0.001397656    1.552    0.356
       394  -8.3314     92.4360    188.4679   1.0568573396e+02   2.3468989581e+01    0.1362104    0.1235667  71.39 0.0005246595    1.010    0.010
       395  -9.3641     55.3462    181.3401   1.1352800895e+02   3.0206820780e+01    0.2346825    0.1888516  75.30 0.0004062934    1.119    0.107
       396  -9.3590      7.6123    174.7965   1.2380646729e+02   3.6504307024e+01     0.173968   0.08938507  89.06 0.0006935062    1.678    0.404
       397  -9.6466    116.8095     15.2243   5.2139688202e+01   5.3760567720e+01    0.3243997    0.1862855  49.83 0.0009082662    1.506    0.336
       398 -10.0255     17.6067    168.9750   1.2110661244e+02   3.7000806261e+01    0.2194338    0.1841574   6.03  0.001474686    1.669    0.401
       399  -8.9597     47.3345     34.4507   8.3008840277e+01   6.4499077802e+01    0.1987866    0.1150318  23.45  0.001046959    1.770    0.435
       400 -10.2110      6.2524    167.4839   1.2357769284e+02   3.8263870238e+01    0.2928942    0.1592489 -45.91  0.001590961    2.345    0.573
       401 -10.2430     15.3125    165.8422   1.2137212924e+02   3.7918084103e+01    0.2999976    0.1795776 -23.87  0.001513944    3.008    0.668
       402 -11.6209     37.8121    159.4333   1.1527683339e+02   3.7343344838e+01    0.5965611    0.3513726  61.44  0.002840552    1.794    0.443
       403 -12.1646     30.5212    154.9722   1.1661330831e+02   3.9129113597e+01    0.7538936    0.4263208  49.79  0.002991292    1.824    0.452
       404 -10.4919     24.1219    162.6209   1.1899170976e+02   3.7905221981e+01    0.3445606    0.1909514  40.98  0.001897876    1.849    0.459
       405  -9.2228    179.3122     13.3027   4.1105601985e+01   3.8694863469e+01    0.2054687    0.1677305  66.63 0.0004832906    1.133    0.117
       406 -10.6350     12.0829    151.9861   1.2092473825e+02   4.1406799333e+01    0.3946358    0.2528374  54.20  0.002078113    1.590    0.371
       407  -8.9271    139.5723     13.8040   4.7125494855e+01   4.8452955205e+01    0.2385586    0.1517322  52.76 0.0006853295    1.388    0.279
       408 -11.3672     14.4362    143.2273   1.1948273137e+02   4.3301051918e+01    0.8002428    0.4280905 -24.21  0.003733529    3.242    0.692
       409 -10.5297      2.2300    153.7325   1.2345935127e+02   4.1708987965e+01    0.5976704    0.1370036 -71.97    0.0022147    3.111    0.679
       410 -10.6938      4.7808    146.8644   1.2227289452e+02   4.3132793740e+01    0.4144084    0.2252519  72.50  0.001331991    1.856    0.461
       411  -9.7064      5.7821    141.2822   1.2152078709e+02   4.4375893291e+01    0.3031605    0.1667235 -57.37  0.001608011    1.642    0.391
       412 -10.3459     45.8059    151.7290   1.1225761161e+02   3.8355207836e+01    0.3433829    0.1829503 -54.73  0.001670275    1.766    0.434
       413  -9.0177    249.6483    153.6947   6.5204810174e+01   1.8532772962e+00    0.1382237   0.09441851   0.31 0.0007041566    1.708    0.414
       414  -9.0003    230.2100    147.6147   6.7191093489e+01   6.2804018050e+00     0.184867    0.1269629  29.79 0.0004282595    1.585    0.369
       415  -9.4139     54.1214    146.0179   1.0921204283e+02   3.8804543204e+01    0.1994343    0.1750776 -75.58 0.0003155243    1.015    0.014
       416  -8.3633    154.8923     13.4972   4.4513175892e+01   4.4710836637e+01    0.1938882    0.1199938  65.43 0.0003926999    1.435    0.303
       417  -9.0475     41.6847    139.0799   1.1162993901e+02   4.1884688714e+01    0.1961175    0.1508298 -73.02 0.0008047996    1.128    0.114
       418  -9.6569    235.8806    136.9869   6.3863908441e+01   7.0449781558e+00    0.2210088    0.2042144  25.41 0.0005726761    1.181    0.153
       419  -9.7266     15.6930    134.9832   1.1826791732e+02   4.5177407066e+01    0.2132348    0.1509629 -43.11 0.0006699067    1.561    0.359
       420 -10.7449      3.0287    132.5826   1.2141578252e+02   4.6602651736e+01    0.5304413    0.2262337 -81.65  0.002570236    2.023    0.506
       421 -10.5775      7.9868    133.1908   1.2015357189e+02   4.6144290300e+01    0.3758939    0.1618245 -43.52  0.001747719    2.710    0.631
       422 -10.5851     12.7250    131.0016   1.1863202886e+02   4.6344896723e+01    0.2042211    0.1741308  49.82  0.001381477    1.335    0.251
       423 -10.5277     43.0612    131.1852   1.1005985090e+02   4.3681732995e+01    0.5324814    0.2376382 -49.46   0.00222303    2.139    0.533
       424  -8.2961    248.6877    133.6803   6.1061313040e+01   5.2613548675e+00      0.13712    0.0984126  -2.93 0.0002744991    1.648    0.393
       425  -8.8098     30.0168    125.6373   1.1303201810e+02   4.6287684456e+01    0.1930433    0.1568747  88.79  0.001179252    1.196    0.164
       426 -11.4586     28.7172    132.0031   1.1429186806e+02   4.4849493410e+01    0.2371419    0.2081996 -80.50 0.0003271495    1.059    0.055
       427 -10.2385     33.8807    128.7170   1.1235213101e+02   4.5187970390e+01    0.3210076    0.2264456 -49.28 0.0006882478    1.374    0.272
       428  -8.7166     23.7517    133.2554   1.1584831040e+02   4.4965371964e+01    0.1684093    0.1277978 -50.07 0.0003724484    1.328    0.247
       429  -9.7017     61.5600    131.0391   1.0462807872e+02   4.1587854392e+01    0.2459921     0.183691  55.33 0.0004554826    1.475    0.322
       430  -9.5260     20.2076    131.1819   1.1657966237e+02   4.5749873263e+01    0.1865819    0.1432698 -60.75 0.0006159927    1.169    0.145
       431  -9.5582     34.4665    136.5895   1.1329607579e+02   4.3208149600e+01    0.2615072    0.2160068  43.91  0.000833725    1.345    0.256
       432 -11.0929      6.2273    123.7771   1.1963469662e+02   4.8493045956e+01    0.4205179    0.3297724  50.49  0.002325158    1.447    0.309
       433 -10.5558      2.6381    116.3946   1.1983656503e+02   5.0450549075e+01    0.4227877    0.2396321 -73.90  0.001966876    1.386    0.278
       434  -9.2336      8.1401    107.0428   1.1703606103e+02   5.2353719622e+01    0.3571254    0.1504185 -76.50  0.001657755    2.113    0.527
       435 -10.3618      4.3377    110.1229   1.1859554026e+02   5.1839327541e+01    0.5461377     0.210438 -76.65    0.0024783    2.245    0.554
       436  -9.3679      3.1491    102.4381   1.1798435359e+02   5.3711776704e+01     0.368543    0.1452701 -68.94  0.001192189    1.916    0.478
       437  -9.5170      2.0443     92.8313   1.1702102178e+02   5.6007311200e+01      0.20184    0.1769304  80.52 0.0007612489    1.281    0.219
       438  -9.1479      7.6898     89.5458   1.1460739177e+02   5.6483304987e+01    0.2381831    0.1486392  64.71  0.001305133    2.127    0.530
       439  -9.0844     10.8238     86.2046   1.1295070590e+02   5.7082485761e+01    0.4655294   0.08806442 -53.96  0.001757753    3.075    0.675
       440 -10.4596      6.2757     98.2231   1.1640397842e+02   5.4536189732e+01    0.4514104    0.2379551  28.38  0.002491973    2.271    0.560
       441  -9.4520      6.4034     93.7331   1.1569927434e+02   5.5578691699e+01    0.3350658    0.1654139 -66.87  0.001355683    1.568    0.362
       442  -9.0599     59.9273    125.6976   1.0413037944e+02   4.3110844732e+01    0.1846724    0.1740429 -71.31 0.0002146969    1.053    0.050
       443  -8.6575     38.7420    126.3493   1.1057022613e+02   4.5305439353e+01    0.2080221    0.1457517 -67.65 0.0005060064    1.224    0.183
       444 -10.1708     38.4599    122.7640   1.1008489065e+02   4.6212092228e+01    0.3889189    0.2045827  30.70  0.001900142    2.127    0.530
       445  -9.7651     32.7106    121.8108   1.1166255890e+02   4.6982780678e+01    0.4331023    0.1860938  35.28  0.001973376    2.522    0.604
       446  -8.7938    218.0312    125.2900   6.4279690621e+01   1.2573602439e+01    0.2038314    0.1896824 -30.08  0.001158652    1.042    0.040
       447  -8.8350     71.9330    123.7235   1.0012394222e+02   4.2004126187e+01    0.1926968    0.1829748  74.33 0.0004841379    1.112    0.101
       448  -9.1311    236.9924    121.2145   6.0130924363e+01   9.5101142604e+00    0.1782624    0.1152131  49.50  0.000882883    1.745    0.427
       449  -9.1245    123.6234    121.0248   8.4478865074e+01   3.3722570926e+01    0.2414184    0.2106305  56.62 0.0003770568    1.226    0.184
       450 -10.5222     19.5728    109.8437   1.1386871183e+02   5.0944335026e+01     0.420574    0.2778023 -58.69   0.00163428    1.238    0.192
       451 -10.3959     13.8908    113.5749   1.1615177680e+02   5.0441578889e+01    0.3726517    0.2831835  46.80  0.001425604    1.530    0.347
       452 -10.7090     21.2342    119.6669   1.1478056827e+02   4.8454676746e+01    0.5114443    0.3549612  67.66  0.002946796    1.622    0.383
       453 -10.9384     27.5466    116.6437   1.1243331650e+02   4.8686483986e+01    0.4974557    0.4342294  40.92  0.003052179    1.333    0.250
       454 -10.0659     93.5627    119.2063   9.2625536791e+01   3.9745549944e+01    0.2885165    0.2695495 -13.88  0.001575857    1.133    0.117
       455  -8.5868     61.8511    119.8596   1.0241596495e+02   4.4303889009e+01    0.1894462    0.1578178  89.68 0.0003926865    1.300    0.231
       456  -8.8028     44.8682    119.8671   1.0764860803e+02   4.6275170358e+01    0.2064544    0.1702723 -41.01 0.0008427497    1.241    0.194
