#   1 NUMBER                 Running object number                                     
#   2 MAG_AUTO               Kron-like elliptical aperture magnitude                    [mag]
#   3 X_IMAGE                Object position along x                                    [pixel]
#   4 Y_IMAGE                Object position along y                                    [pixel]
#   5 X_WORLD                Barycenter position along world x axis                     [deg]
#   6 Y_WORLD                Barycenter position along world y axis                     [deg]
#   7 A_WORLD                Profile RMS along major axis (world units)                 [deg]
#   8 B_WORLD                Profile RMS along minor axis (world units)                 [deg]
#   9 THETA_WORLD            Position angle (CCW/world-x)                               [deg]
#  10 FWHM_WORLD             FWHM assuming a gaussian core                              [deg]
#  11 ELONGATION             A_IMAGE/B_IMAGE                                           
#  12 ELLIPTICITY            1 - B_IMAGE/A_IMAGE                                       
         1 -15.3213    187.2010     73.8011   2.9007053234e+02   5.8142592160e+00    0.1411859   0.08073971 -10.26   0.00594497    2.546    0.607
         2 -15.2695    242.4228    108.1427   2.8963505291e+02   5.1291191642e+00    0.3958015    0.1422771 -32.68   0.01491511    8.026    0.875
         3 -15.2260    190.2092     87.3947   2.9011527295e+02   5.6451086906e+00    0.1152744   0.08224785 -52.65  0.008153745    1.364    0.267
         4 -15.4132    214.6382     60.7855   2.8967820535e+02   5.8120393014e+00    0.2015109   0.09892385 -15.89   0.01396096    4.170    0.760
         5 -15.1766    213.0133     47.5270   2.8961937575e+02   5.9698502487e+00   0.09339486   0.06022003 -50.40  0.008694727    1.504    0.335
         6 -17.7459    219.1621     90.1846   2.8979795540e+02   5.4570267895e+00    0.3234496    0.2812628  -5.71   0.03785777    1.173    0.148
         7 -12.3711    175.2268     31.1155   2.8995906846e+02   6.3589178864e+00    0.0458432   0.02672295 -79.24  0.004267253    2.255    0.557
         8 -10.2437    141.1074     29.6558   2.9034429788e+02   6.5598338362e+00   0.01420441  0.008541137 -49.19 0.0004472439    1.615    0.381
         9 -11.7150    239.8947     23.2132   2.8916733934e+02   6.0971873256e+00   0.02107166   0.01447689  73.66  0.002137414    1.983    0.496
        10 -10.0926    247.6534     15.4114   2.8903228190e+02   6.1426609226e+00   0.01740234   0.01057638 -59.74  0.001221514    1.626    0.385
        11 -11.0530    203.2139     14.2861   2.8953778864e+02   6.3964009764e+00   0.01489884   0.01373308 -60.81 0.0008202532    1.107    0.097
        12 -10.3117    187.2412     12.3628   2.8971073607e+02   6.5045560261e+00   0.01082969   0.01050889  82.40 0.0004640009    1.106    0.096
        13 -10.9412    238.5974     10.5047   2.8910784372e+02   6.2469128449e+00   0.01644219   0.01273652   0.05  0.001049766    1.390    0.280
        14 -10.0968    142.9147      8.0408   2.9019702651e+02   6.7929794885e+00  0.009548606  0.009130871 -24.92 0.0003195145    1.014    0.014
        15 -10.0245    210.0686      6.2445   2.8941166413e+02   6.4495404334e+00  0.009937099  0.008815351 -45.77 0.0003540322    1.106    0.096
        16  -8.8700    117.2423      7.6476   2.9049124556e+02   6.9360789385e+00  0.006396759  0.004958212  71.96 0.0002660015    1.581    0.368
        17 -10.0319    166.4081      2.3502   2.8989250646e+02   6.7298258521e+00    0.0119822   0.01125305 -13.77 0.0007442494    1.042    0.040
        18  -9.2877    151.4638      2.7581   2.9006740617e+02   6.8061014674e+00    0.0126389  0.006629566 -70.06  0.001142434    2.188    0.543
        19  -9.3238    180.4704      1.4521   2.8972497223e+02   6.6637725491e+00  0.006397942   0.00622016  -9.95 1.468993e-05    1.014    0.014
        20  -9.3491     96.8878    208.8831   2.9189854765e+02   4.7807439603e+00  0.009636539  0.008154718 -29.57 0.0002861092    1.191    0.160
        21  -9.0774    237.9989    206.5032   2.9025983566e+02   4.0466300792e+00   0.01018378  0.006374227  21.61  0.001038678    1.615    0.381
        22  -9.3125     89.8372    206.3870   2.9196532381e+02   4.8467814574e+00  0.008776875  0.006117205   5.99 0.0003733471    1.583    0.368
        23  -9.3438    191.0049    201.1722   2.9076955600e+02   4.3604298777e+00   0.01141946  0.006662499  51.65  0.001075253    2.080    0.519
        24 -10.4970    214.3597    197.9568   2.9048201673e+02   4.2705154189e+00   0.02032751   0.01466523  56.48  0.001516552    1.629    0.386
        25  -9.3091    249.3116    195.6150   2.9006628162e+02   4.1079820196e+00    0.0102447  0.007456271  59.67  0.001017081    1.650    0.394
        26 -10.0041    149.7585    196.0632   2.9121484148e+02   4.6404459022e+00  0.009947463  0.008756555  67.00 0.0008382877    1.275    0.216
        27 -10.8757    201.1256    193.0076   2.9060551205e+02   4.3976933174e+00   0.02041092   0.01280529 -41.60  0.002101665    1.625    0.385
        28  -8.9309    166.6731    195.7061   2.9101792576e+02   4.5532581547e+00  0.006838833  0.004742438 -25.15 0.0003498824    1.625    0.384
        29 -10.8094    155.2803    194.3893   2.9114149428e+02   4.6295251313e+00   0.02593832   0.01155134  39.92   0.00225834    2.305    0.566
        30 -11.1655    207.8652    191.0463   2.9051651158e+02   4.3833695571e+00   0.02141314   0.01029121 -59.10  0.001112478    2.011    0.503
        31  -9.7705    226.7076    190.8655   2.9029861684e+02   4.2836025669e+00   0.01619642   0.00847578 -59.40  0.001539758    1.864    0.463
        32  -8.9008    130.0738    192.2261   2.9141933904e+02   4.7897372208e+00  0.008534749  0.007395369  65.46 0.0006343557    1.302    0.232
        33 -10.1524    118.0847    191.3336   2.9155232291e+02   4.8643603894e+00   0.01164162  0.008473049 -48.36 0.0005981874    1.341    0.254
        34 -10.2350    231.7467    188.0721   2.9022435985e+02   4.2878001049e+00   0.01588279   0.01221118  55.99  0.001397686    1.485    0.327
        35  -9.9466    213.5999    186.6124   2.9042467636e+02   4.4022910041e+00   0.02117184   0.01067192 -41.20  0.001114961    2.123    0.529
        36 -10.2985    198.1160    185.1917   2.9059463951e+02   4.5019194206e+00   0.01287893  0.008448379  44.20  0.000858407    1.627    0.385
        37 -10.7273    193.9052    182.9199   2.9062988891e+02   4.5502302282e+00   0.02214724  0.008571882 -57.71  0.001846668    2.410    0.585
        38 -10.7499    179.0872    184.8766   2.9081191978e+02   4.6082009930e+00   0.01312577  0.009653987  13.45 0.0007491555    1.408    0.290
        39 -11.2074    189.0643    177.9642   2.9065676574e+02   4.6321534227e+00   0.01769196  0.007787944 -48.24  0.001540613    2.209    0.547
        40 -11.3999    203.3061    178.3333   2.9049493138e+02   4.5510794055e+00   0.01687546  0.009229057 -37.19   0.00144272    2.040    0.510
        41  -9.3235    236.2039    177.6384   2.9011225718e+02   4.3810964615e+00    0.0100449  0.007518462  44.11  0.000681355    1.411    0.291
        42  -8.8205     33.3193    177.2917   2.9244827014e+02   5.4781365050e+00  0.006791774  0.004737878 -25.56 0.0002814675    1.604    0.376
        43 -10.3776    146.9382    176.3054   2.9113239899e+02   4.8781391786e+00  0.009425637  0.008590057  14.83  0.001167989    1.087    0.080
        44 -10.1433    214.4821    173.0368   2.9033540777e+02   4.5502998181e+00   0.01917887   0.01063565  77.82  0.001470199    3.562    0.719
        45 -15.9983    219.8974    121.7803   2.8997404435e+02   5.0977069501e+00    0.3219767   0.08302746  33.08   0.02291835    3.367    0.703
        46  -9.0563    165.3340    249.6664   2.9134700819e+02   3.9529115568e+00  0.006871228  0.004853857  60.28 0.0005822717    1.734    0.423
        47  -9.0574    132.0068    246.5691   2.9171268984e+02   4.1672805312e+00  0.009820104  0.006189354  26.41 0.0004105622    1.564    0.361
        48  -9.9278    215.1575    244.1753   2.9074183635e+02   3.7460544278e+00   0.01119295   0.01033915 -23.22 0.0005019755    1.063    0.059
        49 -10.5350    226.1688    241.5510   2.9059993210e+02   3.7161587439e+00   0.01136373  0.009107031 -58.85 0.0004506385    1.246    0.197
        50  -9.4061     66.1714    242.4157   2.9244690061e+02   4.5680214449e+00  0.009204598  0.005691391  37.29 0.0005387343    1.625    0.385
        51  -8.9857    127.3199    238.3206   2.9171879569e+02   4.2854083539e+00  0.006960284  0.004698029 -27.56 0.0002664793    1.668    0.400
        52  -9.9424    245.6958    146.9686   2.8982412713e+02   4.6747622181e+00   0.02133491     0.018588  57.94  0.002595372    1.265    0.210
        53  -9.6900    241.4614    149.4683   2.8988743881e+02   4.6695618160e+00   0.01887034  0.009376139  27.68   0.00175454    1.959    0.489
        54  -9.0856    240.6640    146.2753   2.8987797916e+02   4.7097936796e+00  0.009782583  0.006603748 -64.20 0.0004095706    1.518    0.341
        55  -9.7380    246.7450    142.3551   2.8978512448e+02   4.7209732200e+00   0.01255817  0.009659266  89.29 0.0005510188    1.577    0.366
        56  -9.5796    247.3353    138.6900   2.8975693484e+02   4.7589978829e+00   0.01438005   0.01120039  85.40 0.0008764118    1.564    0.361
        57 -10.7956    148.6250    147.2209   2.9094362552e+02   5.1965198622e+00   0.01182759  0.007830325 -50.67 0.0008230432    1.465    0.317
        58 -11.1479    135.0203    142.7431   2.9107439929e+02   5.3203118183e+00   0.01462983  0.009507874 -76.65  0.001482689    1.823    0.451
        59 -10.6557     11.0739    146.3111   2.9252531018e+02   5.9464600422e+00   0.01174096   0.01083318  52.48 0.0001678513    1.159    0.137
        60 -10.0951    228.8987    145.1767   2.9000697546e+02   4.7858132954e+00   0.01444148   0.01035855 -16.95   0.00155098    1.593    0.372
        61 -12.3521    139.9636    134.2323   2.9096782126e+02   5.3894726136e+00   0.02849513   0.01180604 -51.06  0.002448931    2.271    0.560
        62 -12.0445    129.3407    131.1006   2.9107208520e+02   5.4820185062e+00   0.02029297   0.01342505  30.31  0.001583717    1.487    0.328
        63  -9.8925    101.2721    124.9900   2.9136030633e+02   5.7020708573e+00    0.0089657  0.008316433 -46.44  0.000323818    1.064    0.060
        64  -9.8124    194.5320    168.9767   2.9054144053e+02   4.7037866238e+00  0.009631797  0.006375331 -63.02 0.0003922709    1.533    0.348
        65  -9.1508     32.5063    135.5309   2.9221531560e+02   5.9529970945e+00  0.006525839  0.006126418 -21.73 0.0001219508    1.039    0.037
        66 -11.3453     98.5889    117.7469   2.9134909699e+02   5.7980760072e+00   0.02417819   0.01000569  28.99 0.0001478521    2.301    0.565
        67  -8.8588     56.6790    116.7043   2.9182681272e+02   6.0352590474e+00   0.00682265  0.004734251 -25.73  0.000225058    1.615    0.381
        68  -9.5895    211.3037    166.3024   2.9033274085e+02   4.6432614764e+00  0.006786808  0.004726078 -27.24 0.0003078345    1.593    0.372
        69 -10.8214    100.1435    106.4905   2.9126559284e+02   5.9164339537e+00   0.01733327   0.01259587 -10.56  0.001727253    1.567    0.362
        70  -9.5446     29.2967    106.9576   2.9208636003e+02   6.2920466347e+00  0.009719093  0.008701136  74.02 0.0006798701    1.253    0.202
        71 -10.6005    169.3645    172.5048   2.9085187608e+02   4.7999568015e+00   0.01498747  0.008964164  68.20  0.001325889    2.593    0.614
        72  -9.8424    236.0568    164.1850   2.9003549338e+02   4.5332496201e+00    0.0166673   0.00953385  29.36  0.001350903    1.706    0.414
        73 -10.1027    229.5241    164.9825   2.9011531914e+02   4.5596088841e+00   0.01213579  0.009422529  15.04 0.0004689826    1.309    0.236
        74 -10.9814    124.6766     90.1212   2.9088703077e+02   5.9684471854e+00   0.01355785   0.01302073  57.89  0.001101799    1.113    0.101
        75 -10.2216    107.2669     89.7616   2.9108587604e+02   6.0663609021e+00  0.009575011  0.007253832 -30.43  0.001068706    1.382    0.277
        76 -11.8905    141.9531     84.9042   2.9065723820e+02   5.9339205628e+00   0.02833924     0.015489 -45.60  0.002743417    1.823    0.451
        77 -10.4765    115.6810     84.5110   2.9095813408e+02   6.0800943782e+00   0.01550307   0.01058081  34.61  0.001070751    1.460    0.315
        78 -10.8992    140.9282     78.7899   2.9063337901e+02   6.0082454711e+00   0.01464836  0.009144153  25.09 0.0008781753    1.587    0.370
        79 -10.8733    125.8420     77.5278   2.9080011300e+02   6.1038682531e+00   0.01310915   0.01016019  -2.18 0.0009895858    1.393    0.282
        80 -11.4690    131.9287     72.7539   2.9070200294e+02   6.1247339369e+00    0.0153581   0.01155395   5.51  0.001109325    1.420    0.296
        81 -10.6992    105.2409     73.3701   2.9101368043e+02   6.2617446669e+00   0.01118461  0.008082541  84.57 0.0007095966    1.788    0.441
        82 -11.2544    154.5130    161.2575   2.9095750934e+02   5.0067212658e+00   0.01621662   0.01136905 -70.47  0.001461366    1.544    0.352
        83 -10.9506    139.8233     65.7980   2.9057028234e+02   6.1603629790e+00   0.01230639   0.01015938  60.18 0.0003940094    1.375    0.273
        84 -12.2194    136.5064     62.9996   2.9059222263e+02   6.2097487517e+00   0.02650217   0.01106934  31.15  0.002292994    2.265    0.559
        85 -11.9905    141.8922     70.1737   2.9057195548e+02   6.0999697589e+00   0.02231009   0.01380416  35.86  0.002308544    1.610    0.379
        86 -11.0343    145.5174     68.4773   2.9052021800e+02   6.0994740117e+00   0.01634524  0.009398499 -45.70 0.0009550246    1.726    0.421
        87 -10.8169    119.6289     69.7344   2.9082635464e+02   6.2250710343e+00   0.01299838   0.01019779  44.64  0.000784473    1.346    0.257
        88 -11.0460    107.4796     66.4113   2.9094723554e+02   6.3279755859e+00   0.01203694   0.01153158 -24.39 0.0002429011    1.011    0.011
        89 -11.6984    127.7557    155.9011   2.9123476815e+02   5.2113150649e+00   0.02085842   0.01419567  62.47  0.002139886    1.879    0.468
        90 -11.0992    126.7402     56.4043   2.9066644516e+02   6.3366524232e+00   0.01345285   0.01026987 -38.51  0.001042579    1.317    0.241
        91  -9.8127     88.1841     56.9947   2.9111514856e+02   6.5378934724e+00   0.01086779  0.009149494  21.55 0.0002630097    1.180    0.152
        92 -10.7254    139.1515    155.0583   2.9109847886e+02   5.1593723029e+00   0.01119903  0.008932657   4.18 0.0005058846    1.312    0.238
        93 -10.5229    135.3241     49.3240   2.9052599903e+02   6.3699406251e+00   0.01009673  0.008548127  23.89  0.001133989    1.173    0.147
        94 -10.7900    132.8418     47.3613   2.9054318977e+02   6.4054159847e+00   0.01747819  0.009368893 -33.75  0.001345078    2.234    0.552
        95 -10.9067    124.3170     48.7669   2.9064982165e+02   6.4356283752e+00   0.01478274  0.009043958  31.73  0.001192443    1.602    0.376
        96  -9.2819     16.3294    156.3323   2.9252277162e+02   5.8053899317e+00  0.007063327  0.004666335 -27.83 0.0005844117    1.719    0.418
        97  -9.9927    140.0785     41.4837   2.9042530681e+02   6.4324218566e+00  0.009742237  0.006356913  21.48 0.0004429097    1.545    0.353
        98 -10.4667    173.8228     19.5256   2.8990746061e+02   6.4967492489e+00   0.01667011   0.01339027 -18.25  0.001081899    1.321    0.243
        99  -9.7464    187.9542    236.4651   2.9100997207e+02   3.9795911433e+00  0.009581136  0.008580011 -57.02 0.0003383326    1.121    0.108
       100 -10.7881    182.0353     26.3376   2.8985257398e+02   6.3757525059e+00    0.0230486   0.01650914  52.05  0.002184176    1.582    0.368
       101 -10.2148    177.0089     22.9823   2.8989092744e+02   6.4406641723e+00   0.01617712   0.01105314  -6.10  0.001181107    1.739    0.425
       102  -9.2153    126.9756     40.0000   2.9056791449e+02   6.5198636431e+00   0.01077059  0.003650143  24.93 0.0008024416    2.942    0.660
       103 -10.3666    147.6020     37.0573   2.9031259196e+02   6.4415349344e+00   0.01826035  0.006373819  41.39  0.001372496    3.084    0.676
       104 -10.7480    142.3814     34.6263   2.9035864477e+02   6.4970754902e+00   0.01710189   0.01197226 -15.31  0.001807447    1.666    0.400
       105  -9.8650    246.5708     30.9529   2.8913577703e+02   5.9740405351e+00   0.02622905   0.01939993  62.01  0.002871863    1.635    0.388
       106 -11.4274    250.1744     24.1462   2.8905441708e+02   6.0309093256e+00   0.01468595   0.01218032 -48.35 0.0006098034    1.181    0.153
       107  -8.7737    222.6330    171.3063   2.9023150222e+02   4.5257141407e+00  0.006927076  0.004775821  57.04 0.0007036266    1.749    0.428
       108  -9.6796    132.7002     31.3866   2.9045148170e+02   6.5857938422e+00   0.01245825  0.006894276 -42.89  0.001191314    1.853    0.460
       109  -9.9569    237.0581    234.6357   2.9043447278e+02   3.7351790683e+00   0.01137842   0.01042533  -6.14  0.001213719    1.083    0.077
       110  -9.1376    167.5124    232.4759   2.9122206771e+02   4.1347230587e+00  0.006504695  0.006158198 -20.85 -7.253487e-05    1.027    0.026
       111 -11.5730    225.6964     24.4424   2.8933811013e+02   6.1604236427e+00   0.01940628   0.01803306 -45.60   0.00245691    1.062    0.058
       112  -9.1214    223.5407     19.5296   2.8933418241e+02   6.2272894834e+00  0.009363737  0.005747456  36.67 3.956554e-05    1.628    0.386
       113 -13.7657    222.1660     75.5158   2.8967761196e+02   5.6056769123e+00   0.02322152   0.01815993  79.14  0.001076961    1.567    0.362
       114  -9.1473    123.8151     24.3659   2.9051305477e+02   6.7126943018e+00  0.009042586  0.006079668   7.90 0.0004803238    1.649    0.394
       115  -9.4592    227.6824     19.0804   2.8928382649e+02   6.2098658390e+00  0.009795361  0.008695029  54.46  0.000399581    1.221    0.181
       116 -12.3797    141.7881    148.7670   2.9103144909e+02   5.2159912689e+00   0.02429211   0.01766213 -64.61  0.001306308    1.412    0.292
       117  -9.2737    121.2025    149.8231   2.9127495802e+02   5.3150738958e+00   0.01177964   0.00633918  60.69 0.0009602265    2.933    0.659
       118 -11.6728    201.8218     21.7112   2.8959730836e+02   6.3205470380e+00   0.01260083   0.01081657   1.57 0.0003480164    1.188    0.158
       119  -9.4358    128.2945     22.6608   2.9045135534e+02   6.7076742115e+00  0.006662624   0.00492801  63.69  0.000702929    1.653    0.395
       120 -10.0617    159.8556     20.3519   2.9007347418e+02   6.5630414583e+00   0.01288388  0.008730083 -52.57 0.0007986934    1.433    0.302
       121  -8.8812     21.5370     30.5960   2.9173158593e+02   7.1931618879e+00  0.006385613  0.006134125  -5.45 7.220001e-05    1.016    0.016
       122  -9.1224    153.7850    230.9928   2.9137149399e+02   4.2254044435e+00  0.008734777   0.00818263 -54.45 0.0003406883    1.075    0.070
       123 -11.1732    238.0762    224.0348   2.9036105262e+02   3.8489564371e+00   0.01297849   0.01189636 -11.12 0.0003623328    1.082    0.076
       124 -10.2843    180.9585    223.1241   2.9101292085e+02   4.1675114994e+00   0.01803609  0.008792643   9.31  0.001471239    2.775    0.640
       125  -8.7717     93.5221    222.3922   2.9201571775e+02   4.6466568863e+00  0.006383675   0.00613065   1.33 0.0001003652    1.024    0.024
       126  -9.6976     63.1100    219.8030   2.9235118479e+02   4.8392422486e+00   0.01308663  0.005959949  43.22  0.001115737    2.405    0.584
       127  -9.1365    124.0396    216.0126   2.9162707390e+02   4.5543253354e+00  0.007966169  0.007475364   8.19 0.0008614049    1.052    0.049
       128 -10.0886     59.4613    215.1516   2.9236628357e+02   4.9112435339e+00   0.02182104  0.006264861  34.25  0.001602291    3.129    0.680
       129  -9.7570    218.7596    167.9871   2.9025673344e+02   4.5840024072e+00   0.01267397   0.01222901 -51.58 0.0009286033    1.054    0.051
       130  -9.7615    234.3669    213.9315   2.9034487739e+02   3.9826720678e+00   0.01300294  0.006477089 -73.03  0.001105411    2.524    0.604
       131  -9.6537      3.4517    214.1334   2.9300608568e+02   5.2230160782e+00   0.01145804  0.008612553   8.11 0.0003016295    1.405    0.288
