#   1 NUMBER                 Running object number                                     
#   2 MAG_AUTO               Kron-like elliptical aperture magnitude                    [mag]
#   3 X_IMAGE                Object position along x                                    [pixel]
#   4 Y_IMAGE                Object position along y                                    [pixel]
#   5 X_WORLD                Barycenter position along world x axis                     [deg]
#   6 Y_WORLD                Barycenter position along world y axis                     [deg]
#   7 A_WORLD                Profile RMS along major axis (world units)                 [deg]
#   8 B_WORLD                Profile RMS along minor axis (world units)                 [deg]
#   9 THETA_WORLD            Position angle (CCW/world-x)                               [deg]
#  10 FWHM_WORLD             FWHM assuming a gaussian core                              [deg]
#  11 ELONGATION             A_IMAGE/B_IMAGE                                           
#  12 ELLIPTICITY            1 - B_IMAGE/A_IMAGE                                       
         1 -12.2299    164.6293     45.3124   7.6642620603e+01   3.8044029250e+01     1.242115     1.047318   3.67  0.004541961    1.417    0.294
         2 -10.4838    177.4405     17.3650   6.6251237791e+01   3.8123728929e+01    0.5659549    0.3439026  83.36  0.002293304    1.660    0.398
         3 -11.8829    180.1722     12.2601   6.4434421088e+01   3.7944706752e+01    0.9211044     0.749436  88.92  0.004265887    1.126    0.112
         4  -9.0044    232.4172     13.7214   5.9448864335e+01   2.4813107888e+01    0.3059255    0.2156514 -29.50  0.001760159    1.554    0.356
         5  -9.1769    120.1686      8.8741   7.2954578227e+01   5.3545749201e+01     0.302414    0.2693313  69.28  0.001142623    1.142    0.125
         6  -9.7749    204.8434      8.6530   6.0736972529e+01   3.2027967346e+01    0.2475256    0.1784677 -46.54 0.0007337636    1.367    0.269
         7  -9.1067    175.9244      1.6357   6.1915622414e+01   4.0046544455e+01    0.1903988    0.1547077  79.76  0.001114831    1.063    0.059
         8 -10.5678    167.1900    225.4666   1.1794592793e+02   4.9279396846e+00    0.3848543    0.3074329  26.27 0.0007551012    1.190    0.160
         9  -8.1483    165.8907    250.5791   1.2166514350e+02   1.4864284422e+00    0.1746758   0.09263443  40.12  0.000118273    1.449    0.310
        10  -9.9120    133.9627    249.0257   1.2739160281e+02   6.8445555967e+00    0.7770477    0.2196108  40.66  0.002018824    2.770    0.639
        11 -10.4558    134.8085    243.9905   1.2664836774e+02   7.4824963450e+00    0.6780727    0.3416089  35.69   0.00282033    1.796    0.443
        12 -18.4294     66.6205    228.9706   1.3810080678e+02   2.0382112598e+01     4.312562     3.470484  80.52   0.01807404    1.158    0.136
        13 -10.5731    113.2998    169.8492   1.2069966851e+02   2.5061742203e+01    0.6294896    0.5072531 -33.71  0.002938922    1.566    0.362
        14  -9.8097    109.6351    168.2987   1.2131089347e+02   2.6053832601e+01    0.3893743    0.2559133 -79.60  0.001436141    1.897    0.473
        15  -7.8369     11.4873    174.9253   1.4491473306e+02   3.7613498275e+01    0.1537104   0.09150515 -80.31 0.0009592496    1.387    0.279
        16  -8.5465     24.7241    173.3590   1.4192106404e+02   3.6709800526e+01    0.2090339    0.1717793 -28.05  0.001118994    1.865    0.464
        17  -9.0565    201.9048    168.4932   1.0092733442e+02   7.7786487148e+00     0.441564    0.1955229  33.39  0.001661889    2.637    0.621
        18  -9.1927    190.4925    156.4957   1.0069002937e+02   1.2209280411e+01    0.5195126    0.3751563  72.95  0.002383273    2.014    0.503
        19  -9.9365    193.6730    167.0071   1.0225696277e+02   9.6839026005e+00    0.3396939     0.327176  78.16 0.0009814841    1.219    0.179
        20  -9.5099    190.5607    161.8413   1.0181249603e+02   1.1233341095e+01    0.4147353    0.3709375 -74.06  0.002290946    1.385    0.278
        21  -9.6384     16.7445    165.9394   1.4307628959e+02   3.9081618434e+01    0.4169331    0.2345714  64.10  0.002455872    1.644    0.392
        22  -8.9317     25.0022    166.0100   1.4121247270e+02   3.8290135977e+01    0.2031841    0.1741011  28.18 0.0007421788    1.501    0.334
        23  -8.7003    153.4770    165.1594   1.1047634358e+02   1.8264428433e+01    0.2727594    0.1873969  77.88  0.001166926    2.216    0.549
        24  -8.3625    140.3660    164.0676   1.1326456508e+02   2.1132426332e+01    0.2548229    0.1914266  66.68 0.0006099003    1.493    0.330
        25  -8.3166    203.7951    161.7723   9.9159534256e+01   8.5436369822e+00    0.1865942    0.1727301 -86.36 0.0008682691    1.359    0.264
        26 -10.0179    145.9115    157.4065   1.1064974981e+02   2.1387907159e+01    0.5562371    0.4072496  75.79  0.002375614    1.779    0.438
        27  -9.0762    141.5340    199.9900   1.1928361636e+02   1.3834264121e+01    0.3287039    0.2749889 -14.54  0.001882889    1.566    0.362
        28  -9.5272    157.6092    156.2419   1.0772330930e+02   1.9195122890e+01    0.4636536    0.3076795 -81.44  0.001336688    2.682    0.627
        29  -9.4088    121.3968    156.4175   1.1631171992e+02   2.6476107672e+01    0.2587521    0.2277957 -47.99 0.0007056579    1.228    0.185
        30  -9.2097     22.5494    156.8795   1.4093437387e+02   4.0550199399e+01    0.1921619    0.1613201  50.81 0.0007005864    1.284    0.221
        31  -9.1180      9.4872    153.5347   1.4371197404e+02   4.2424286683e+01     0.322337    0.2095507 -27.20  0.001870073    2.557    0.609
        32  -9.3875    136.2867    201.3473   1.2061109489e+02   1.4532852289e+01    0.2596337    0.2077938  44.74 0.0009241082    1.087    0.080
        33 -10.7098    122.8556    143.0409   1.1325838438e+02   2.9133726856e+01    0.4092586    0.3868802  10.14  0.001038455    1.195    0.163
        34 -10.2240    127.8692    144.7497   1.1236278281e+02   2.7758417163e+01    0.4045777    0.3450789 -10.79  0.001940933    1.481    0.325
        35  -9.9777    130.0759    135.6129   1.0982217980e+02   2.9306242755e+01    0.4320824    0.2638805  58.38  0.001339084    1.859    0.462
        36  -8.8049      5.5054    156.4857   1.4486743306e+02   4.2091214290e+01    0.2354388    0.1554083 -36.28 0.0007945767    2.251    0.556
        37  -9.3471    147.2033    150.8837   1.0899088861e+02   2.2472439430e+01    0.3044837    0.2218565  76.56  0.001263501    1.823    0.451
        38  -9.3532    136.0452    196.8919   1.1997267936e+02   1.5416183535e+01    0.3562436    0.2511316 -66.56   0.00177187    1.708    0.415
        39  -8.3445    182.8871    143.8027   9.9467568023e+01   1.6185103962e+01    0.2171847    0.1907714  22.46 0.0003110606    1.161    0.139
        40 -11.0261    133.7135    146.6274   1.1131896086e+02   2.6166592935e+01     1.085094    0.4905933 -61.51  0.003579982    3.340    0.701
        41 -10.1483     16.7585    142.4505   1.4093266562e+02   4.4304242809e+01    0.3612113    0.2272163  -2.18  0.001569208    2.723    0.633
        42 -10.5725    172.0372    196.2325   1.1226395141e+02   8.8276562321e+00    0.6104255    0.3147152 -57.27  0.002549473    2.906    0.656
        43 -10.2657      6.8791    140.0227   1.4316716651e+02   4.5624416568e+01    0.3374429    0.2325771 -59.70  0.001357828    1.411    0.291
        44  -8.2028      1.7438    140.7812   1.4449690631e+02   4.5821644333e+01    0.1956462    0.1460056  58.93 0.0009123759    1.337    0.252
        45 -10.3690     11.6166    206.8696   1.4691184452e+02   3.1054182389e+01    0.3136719    0.2055928  45.92  0.001543805    1.454    0.312
        46 -10.0849    229.0323    137.1068   8.9131944170e+01   7.5457703939e+00    0.2531544    0.2173384  46.80 0.0004201994    1.234    0.190
        47 -10.1363    156.3347    191.9135   1.1479942304e+02   1.2567414870e+01      0.75303    0.4260762 -74.05  0.002611045    4.343    0.770
        48 -10.1758     26.6784    136.9721   1.3777908003e+02   4.4681213300e+01    0.3555969    0.2136804   0.34  0.001777016    2.945    0.660
        49  -8.8964    159.4043    127.9997   1.0094308697e+02   2.4532471757e+01    0.3652325    0.2498285  83.67   0.00143949    2.367    0.577
        50  -9.8704    127.1330    188.8901   1.2065773567e+02   1.8596156482e+01     0.610867    0.3060674  63.16  0.001558321    3.095    0.677
        51  -8.3686    195.9449    183.9402   1.0517168648e+02   6.3535343297e+00     0.323469    0.1684652 -28.09 0.0009945759    2.394    0.582
        52  -9.8586    139.7710    180.5962   1.1644841294e+02   1.7891982956e+01    0.5525721    0.3268837  64.12  0.001442474    2.245    0.555
        53  -7.7047    175.9448    121.2238   9.5596905721e+01   2.2074514327e+01     0.201176    0.1251622  50.58 0.0003402736    1.585    0.369
        54 -11.2769    193.1366    195.7697   1.0793469540e+02   4.9564078252e+00     1.114495    0.5800074 -59.29  0.004113279    4.120    0.757
        55  -8.9374    109.5946    124.3907   1.1263368121e+02   3.5899699339e+01    0.2640261    0.2446168 -35.81 0.0008077134    1.157    0.136
        56  -8.9429    247.2503    118.5475   8.2038978336e+01   6.8349706962e+00    0.2294317    0.2024351 -15.71 0.0002677975    1.089    0.082
        57  -9.6908     39.7340    118.9242   1.3163056551e+02   4.7587901564e+01    0.2207773    0.1538478  53.23 0.0007185917    1.559    0.359
        58  -8.2670    114.2459    118.2398   1.0991978932e+02   3.6367931086e+01    0.2063184    0.1740226  82.21 0.0003569457    1.339    0.253
        59  -7.5864    232.9481    117.7803   8.4088851352e+01   9.8765729995e+00    0.1783618    0.1146457  50.36 0.0008021211    1.638    0.390
        60  -7.4333    180.2800    116.6595   9.3539072968e+01   2.1934547997e+01     0.155211    0.1213933 -74.48 0.0007008045    1.625    0.385
        61  -8.8788    164.5271    180.6311   1.1102335031e+02   1.3065173540e+01    0.2731617    0.2065232  72.22  0.001304682    1.718    0.418
        62  -9.8206     98.0457    112.1518   1.1298372609e+02   4.0830912464e+01    0.3592588    0.2140505 -48.29   0.00109392    1.648    0.393
        63  -7.6478     16.6601    180.2503   1.4420497060e+02   3.6010311153e+01    0.1455383   0.08994092 -72.91 0.0002594704    1.447    0.309
        64  -8.1395     19.1720    177.6627   1.4347742110e+02   3.6322898000e+01    0.1659917    0.1290136 -50.27  0.001121764    1.680    0.405
        65  -9.3256    153.0989    201.2345   1.1704053587e+02   1.1484964455e+01    0.5042747    0.2688464 -57.67  0.002220116    2.449    0.592
        66  -8.6297     42.5472    106.0199   1.2853449605e+02   5.0288051376e+01    0.1824143     0.174211  42.32 0.0005105038    1.187    0.158
        67 -10.1634    204.7627    176.7355   1.0203638552e+02   5.8469405643e+00    0.4035124    0.2798545  48.04  0.001150479    1.465    0.317
        68  -8.7347    197.5262    177.5078   1.0360618648e+02   7.1196943908e+00    0.2996342    0.1285885  44.49  0.001212235    2.177    0.541
        69  -7.7523     19.5059     92.5322   1.3354043682e+02   5.5450626316e+01    0.1223424    0.1010534 -63.19 6.394673e-05    1.004    0.004
        70  -8.2622     54.6463     90.8591   1.2138765569e+02   5.2352475918e+01    0.2092304    0.1525367  37.36  0.000821856    1.508    0.337
        71  -8.8228     28.9993     86.3356   1.2916180689e+02   5.6072859333e+01    0.3190593    0.1812125  10.92  0.001658796    2.333    0.571
        72  -8.9968    105.5089     80.9505   1.0229353523e+02   4.6104568118e+01     0.233583    0.1934074  42.88 0.0004837485    1.213    0.176
        73  -7.6750    148.2110     76.5667   8.9636934609e+01   3.7232267569e+01     0.158191    0.1126016 -60.71 0.0006809621    1.695    0.410
        74  -8.6586    185.3434     73.9515   8.1189312212e+01   2.8330096403e+01    0.2270532    0.1982913  79.88 0.0003028066    1.165    0.142
        75  -7.3206      1.6594     68.7051   1.3559741873e+02   6.1774239160e+01    0.1212661   0.06557953 -41.89 0.0007030406    1.657    0.397
        76  -9.8703    147.0350     65.7969   8.6617870755e+01   3.9394238540e+01    0.5073783    0.3129297 -13.20  0.001987907    2.400    0.583
        77  -9.7653    241.0531     62.4266   6.9932794034e+01   1.6622757833e+01    0.2402809    0.2317591  77.57 0.0004592824    1.139    0.122
        78 -11.0900    153.2676     59.4828   8.3277172347e+01   3.8857353642e+01    0.4914121    0.4293715  46.46  0.001295293    1.116    0.104
        79  -8.7953    126.9092     60.3398   8.9745188157e+01   4.5200171556e+01    0.2555072      0.21301 -23.90 0.0003124042    1.265    0.209
        80  -8.6131    245.1242     58.3606   6.8512060134e+01   1.6287022120e+01    0.2160532    0.1802464 -26.37 0.0005237584    1.292    0.226
        81  -8.8079    168.6375    242.0059   1.2001842179e+02   2.2348141176e+00    0.1698945    0.1461794  34.73  0.001173026    1.100    0.091
        82  -7.4378    183.2411     47.3884   7.4058381953e+01   3.2916064049e+01    0.1444416     0.112742  18.57 0.0006929263    1.652    0.395
        83 -10.3180    169.1651     36.9389   7.3300132533e+01   3.7984979358e+01    0.4017229    0.3823722  37.83 0.0008613911    1.132    0.116
        84 -10.1463    137.6008     37.2279   7.9409138477e+01   4.6065758880e+01    0.2596484    0.2504986  38.29 0.0003007194    1.050    0.047
        85 -10.1751    134.3042    170.0094   1.1579312167e+02   2.1093417110e+01     0.608637    0.3120288  59.07   0.00233447    2.517    0.603
        86 -10.5250    127.0939    173.7328   1.1813267131e+02   2.1695561548e+01     0.558272    0.3658487  45.77  0.001942425    1.395    0.283
        87  -9.8049     21.5705    237.3707   1.4678249992e+02   2.4307488813e+01    0.1651618    0.1233218  76.49   0.00057474    1.128    0.114
        88  -9.2036    121.2089    171.7240   1.1915426789e+02   2.3215737186e+01    0.3771346     0.231059  65.53 0.0008988467    2.034    0.508
        89 -10.2066    185.4579    225.2385   1.1438801866e+02   1.8179643532e+00    0.5923145     0.209596 -48.00   0.00238752    3.898    0.743
