#   1 NUMBER                 Running object number                                     
#   2 MAG_AUTO               Kron-like elliptical aperture magnitude                    [mag]
#   3 X_IMAGE                Object position along x                                    [pixel]
#   4 Y_IMAGE                Object position along y                                    [pixel]
#   5 X_WORLD                Barycenter position along world x axis                     [deg]
#   6 Y_WORLD                Barycenter position along world y axis                     [deg]
#   7 A_WORLD                Profile RMS along major axis (world units)                 [deg]
#   8 B_WORLD                Profile RMS along minor axis (world units)                 [deg]
#   9 THETA_WORLD            Position angle (CCW/world-x)                               [deg]
#  10 FWHM_WORLD             FWHM assuming a gaussian core                              [deg]
#  11 ELONGATION             A_IMAGE/B_IMAGE                                           
#  12 ELLIPTICITY            1 - B_IMAGE/A_IMAGE                                       
         1 -13.5319    143.7542      7.2259   5.1112700878e+01   4.8226084494e+01    0.8587424    0.6160845  31.49  0.004520572    1.429    0.300
         2 -13.5513    184.9390      9.3385   4.5814953403e+01   3.7413131393e+01    0.5100911    0.3209942 -59.23  0.002461164    1.745    0.427
         3 -12.3341      2.3074      3.7995   9.9085341416e+01   7.3474529722e+01    0.4253046    0.1611088 -43.65  0.002377583    1.892    0.472
         4 -16.2908     93.9165    160.3613   1.0798529053e+02   2.9745262579e+01     5.359783      2.09859 -55.77   0.02167045    2.454    0.593
         5 -15.8366    231.6421    240.0744   9.3262416394e+01  -7.4701392611e+00     3.131937     1.324453  29.49   0.01561312    2.143    0.533
         6 -13.1196    140.2234    225.0069   1.0758655458e+02   9.3964428598e+00    0.9044045     0.256429  45.22  0.003537048    2.919    0.657
         7 -11.1615    118.1662    239.6741   1.1338601698e+02   1.0539624877e+01    0.9012663    0.2926753  52.92  0.003697591    3.196    0.687
         8 -13.1790    136.9273    243.4333   1.1044829867e+02   7.0475522085e+00    0.8022296    0.5618014 -13.29   0.00447047    2.828    0.646
         9 -13.2297    149.9698    231.5185   1.0661366231e+02   6.7594490940e+00    0.6215777    0.5879147  -8.01  0.003887115    1.300    0.231
        10 -13.9309    157.7990    225.3790   1.0432213859e+02   6.4036759961e+00    0.9286603     0.861037 -32.20  0.005634053    1.305    0.234
        11 -12.3565    127.7260    249.2823   1.1271802368e+02   7.5986029660e+00    0.5246763    0.2838745  34.82  0.002996812    1.826    0.452
        12 -11.8385    119.0710    249.1317   1.1420932078e+02   8.9312797696e+00    0.4086104    0.3008856  34.78  0.002804646    1.422    0.297
        13 -13.3100    106.4414    248.7885   1.1635961789e+02   1.0854317720e+01    0.9708883    0.4011416  41.83  0.005180739    1.965    0.491
        14 -11.4502     98.2137    248.3981   1.1773492012e+02   1.2103530166e+01    0.2968876    0.1349999  52.82  0.001230486    1.770    0.435
        15 -11.7416     88.5253    249.9955   1.1951536950e+02   1.3211779679e+01    0.3775538    0.1632555  39.58  0.001877357    2.081    0.519
        16 -11.4354     80.6651    248.0605   1.2067701080e+02   1.4597892452e+01     0.392838    0.2103681  66.74  0.002253746    1.758    0.431
        17 -12.8968     64.0471    245.5309   1.2324951463e+02   1.7195956804e+01     0.891038    0.2015042  53.11  0.003666832    3.773    0.735
        18 -15.0391     50.4071    146.0707   1.1631422906e+02   3.9008950179e+01     3.255789     1.257149 -48.87   0.01326731    3.063    0.674
        19 -13.5879     96.3424    229.2002   1.1624616705e+02   1.5562580785e+01     1.270896    0.5646968  55.52  0.006480104    2.061    0.515
        20 -16.6682     80.5858    193.7466   1.1548628049e+02   2.4573115642e+01     9.908375     4.665927  70.01    0.0410433    3.099    0.677
        21 -15.5156      6.6555    214.4710   1.3087480212e+02   2.9105816384e+01     1.688696    0.6196369  84.29  0.009098809    2.507    0.601
        22 -17.0101      9.1038    182.5516   1.2868386765e+02   3.5130606186e+01     3.086835     1.577167 -81.57   0.01609536    1.545    0.353
        23 -16.5812     16.5596    165.1833   1.2597145091e+02   3.8135563011e+01     1.745439     1.146241  49.07  0.008699948    1.532    0.347
        24 -12.3099    148.5962    194.1115   1.0141759236e+02   1.3296945007e+01    0.7544617    0.4183066  60.78  0.003299786    2.347    0.574
        25  99.0000    187.2615    188.5349   9.2592858188e+01   7.0809817927e+00     2.239461    0.6238531  36.31  0.006582374    4.476    0.777
        26 -13.6208    158.5857    197.2071   9.9883550240e+01   1.0924343212e+01    0.6498821    0.6226147  72.40  0.002925461    1.140    0.123
        27 -14.4110    166.3470    194.1992   9.7803872816e+01   1.0025413381e+01    0.9493667    0.6872025 -35.13  0.004088143    1.582    0.368
        28 -12.1678    124.7445    197.9798   1.0693334439e+02   1.6774608164e+01    0.8258912    0.3322563  58.68  0.002761191    4.107    0.757
        29 -11.4167    118.4998    196.5074   1.0801192834e+02   1.8111823185e+01    0.4520322    0.2469406  62.91  0.001924504    2.216    0.549
        30 -12.4127    154.5044    180.4179   9.7832116422e+01   1.4754552750e+01    0.4551259    0.3036722  73.57  0.002046968    2.266    0.559
        31 -13.0733    161.6210    176.6710   9.5632018698e+01   1.4097505016e+01    0.8218445    0.3778018  52.47  0.003223206    2.417    0.586
        32 -12.9745    178.3516    175.6552   9.1937183315e+01   1.1018480249e+01     0.711409     0.347363  50.47  0.002949463    2.145    0.534
        33 -12.9435    199.6625    169.5671   8.6401276802e+01   7.8827414172e+00     1.586289    0.4826927  43.38  0.005386318    3.111    0.679
        34 -13.3021    186.7833    165.5572   8.8160476852e+01   1.1155812318e+01    0.9012192    0.6016729  71.89  0.003790607    2.568    0.611
        35 -13.0054    246.8112    163.2539   7.6377584530e+01  -5.6145697632e-02    0.8902905    0.5270469 -16.45  0.004384718    1.762    0.432
        36 -13.1199    248.3200    153.9067   7.4107472070e+01   1.0477873091e+00     1.165129    0.4158919 -29.48  0.004408595    2.790    0.642
        37 -13.0431     58.1440    165.0787   1.1691894766e+02   3.3750301214e+01    0.7323225    0.4693221  56.85  0.004178555    1.502    0.334
        38 -15.2740     72.6711    222.9120   1.1996192084e+02   2.0018820565e+01     6.491148      2.21523  64.46   0.02064822    6.099    0.836
        39 -16.4786     33.3469    237.4503   1.2773495256e+02   2.2236240004e+01     3.609045     1.476486 -85.01   0.02098116    2.370    0.578
        40 -16.2038      9.5285    239.7504   1.3155944459e+02   2.4327641990e+01     1.592086    0.7856328  69.22   0.01133085    1.480    0.324
        41 -12.5189    216.5597    142.8873   7.7265037924e+01   9.0159724316e+00      0.59688    0.3997935 -62.07  0.002574735    2.371    0.578
        42 -11.6432     67.3468    142.6861   1.1163322844e+02   3.7696084332e+01     0.347046    0.1917696  59.58  0.001618842    2.103    0.524
        43 -13.2803    163.4742    203.9346   1.0000176756e+02   8.8826162122e+00    0.4794552    0.3903998  13.67  0.002785681    1.387    0.279
        44 -12.8860     71.2461    126.5597   1.0786683255e+02   4.0967913146e+01    0.6140308    0.3322685  33.36  0.002870383    2.116    0.527
        45 -12.9056     86.2099    107.1221   9.9574375037e+01   4.3332941429e+01    0.7958253    0.6847494 -46.13  0.004445354    1.109    0.098
        46 -13.9489    240.0220    101.3056   6.3172296758e+01   1.0951572317e+01     1.583205    0.6649197 -51.21  0.005264779    3.462    0.711
        47 -13.1087     20.9623    102.9325   1.1801265234e+02   5.1892926625e+01      0.35625    0.1758991  25.26  0.001893992    2.527    0.604
        48 -12.6885      4.3486     94.1430   1.2163007149e+02   5.4990366290e+01    0.3639809     0.220348  -2.52  0.002188834    2.428    0.588
        49 -11.1637     94.5023     85.4761   9.1400813825e+01   4.6840883492e+01    0.3354732    0.2209397 -11.58  0.001388867    2.384    0.580
        50 -11.0642    148.0013     44.9765   6.3610755730e+01   4.2642580803e+01    0.2594216    0.1787315  23.79  0.001150285    1.739    0.425
        51 -12.2153    126.5902    232.5240   1.1105834990e+02   1.0379099403e+01    0.4996706    0.3433733  21.02  0.002705644    2.075    0.518
        52 -12.9141    114.1784    224.2054   1.1240320254e+02   1.3727753255e+01     0.807155     0.372103  52.05  0.004055765    1.921    0.479
