#   1 NUMBER                 Running object number                                     
#   2 MAG_AUTO               Kron-like elliptical aperture magnitude                    [mag]
#   3 X_IMAGE                Object position along x                                    [pixel]
#   4 Y_IMAGE                Object position along y                                    [pixel]
#   5 X_WORLD                Barycenter position along world x axis                     [deg]
#   6 Y_WORLD                Barycenter position along world y axis                     [deg]
#   7 A_WORLD                Profile RMS along major axis (world units)                 [deg]
#   8 B_WORLD                Profile RMS along minor axis (world units)                 [deg]
#   9 THETA_WORLD            Position angle (CCW/world-x)                               [deg]
#  10 FWHM_WORLD             FWHM assuming a gaussian core                              [deg]
#  11 ELONGATION             A_IMAGE/B_IMAGE                                           
#  12 ELLIPTICITY            1 - B_IMAGE/A_IMAGE                                       
         1 -13.0691    179.1841     32.3674   6.8108808698e+01   3.6325155646e+01     1.216015    0.8374983   9.94  0.004584492    1.713    0.416
         2 -11.9980    247.0072     23.8301   5.6982780389e+01   2.0356577654e+01    0.9218298    0.5986885 -13.62  0.004837566    1.604    0.377
         3 -11.2514    199.1535      2.1532   5.5794092774e+01   3.4170803023e+01    0.6440381    0.2585111  72.84  0.002498261    2.447    0.591
         4 -11.3349     89.0998    176.7992   1.2484491113e+02   2.7975093449e+01    0.3265564    0.2437505 -38.44  0.001398192    1.791    0.442
         5 -12.7549    248.2932    245.6154   1.0408253415e+02  -5.1850222548e+00     1.162423    0.7049245  -9.93  0.008487615    1.661    0.398
         6 -10.9121    250.6353    236.8133   1.0243128963e+02  -4.7585896594e+00    0.3602198    0.1586987 -32.51  0.002097887    2.913    0.657
         7 -10.8329    139.3761    249.6769   1.2287079070e+02   9.5321431797e+00    0.2301889    0.1392807  55.30  0.001543664    1.703    0.413
         8 -19.5620     42.1069    148.1552   1.3255385430e+02   3.9309112176e+01     17.92031     3.835376 -73.28   0.06079559    4.881    0.795
         9 -12.0393     91.8536    171.9664   1.2365390894e+02   2.8520568571e+01    0.4226142     0.273897 -67.56  0.001245931    1.674    0.403
        10  -9.7145    114.3095    218.3241   1.2425694736e+02   1.7342913286e+01    0.1050012   0.08367099  11.04  0.000703768    1.652    0.395
        11 -10.8642    197.8714    175.0957   1.0148974024e+02   1.0292882999e+01    0.3930463     0.282016 -40.14  0.002245066    1.713    0.416
        12 -10.4234     97.6168    162.7046   1.2112617905e+02   2.9507217194e+01    0.2240882    0.2086539  54.54 0.0006196366    1.060    0.057
        13 -10.5801    101.8645    156.0903   1.1917304759e+02   3.0193300914e+01    0.4227802    0.2551903 -36.59  0.001298045    2.282    0.562
        14  -9.1803    171.7027    217.3042   1.1328200662e+02   8.9140310701e+00    0.1106773   0.08279379  54.66  0.000205812    1.584    0.369
        15 -11.2567    115.2535    211.0182   1.2330297724e+02   1.8344715465e+01    0.2450125    0.1528421  57.06 0.0003955156    1.576    0.366
        16 -11.3583    109.9581    210.9689   1.2432704862e+02   1.9101358622e+01    0.2496184    0.1532675  61.15  0.001500132    1.724    0.420
        17 -10.6213    100.6643    140.4936   1.1698222364e+02   3.3579258352e+01    0.2397803    0.2279754   6.48 0.0004413476    1.172    0.147
        18  -9.3096     14.8712    136.5021   1.3810104544e+02   4.4069246368e+01    0.1363448     0.106437  34.70 0.0004074227    1.448    0.309
        19  -9.2704    106.2455    130.9931   1.1384870783e+02   3.4693844003e+01    0.2599335     0.193701 -69.79  0.001369544    1.507    0.336
        20  -9.1476    105.5321    127.0049   1.1327267534e+02   3.5659289372e+01    0.2553422    0.1865931 -36.66 0.0008809708    1.545    0.353
        21  -9.0850    117.6317    130.6985   1.1084402737e+02   3.2828438505e+01    0.1437296    0.1101372  -1.39 0.0007033179    1.740    0.425
        22  -9.1974    142.9990    127.9624   1.0390297091e+02   2.8666117438e+01    0.2311942    0.1800157  74.82   0.00112225    1.762    0.432
        23 -11.6043     10.6156    206.3001   1.4253295413e+02   3.1042447490e+01    0.4245922    0.2031694  33.24  0.002901854    2.030    0.507
        24  -9.0897    168.8209    113.8180   9.4446861423e+01   2.5969268978e+01    0.1981275    0.1853175 -88.22 0.0005492343    1.341    0.254
        25  -9.2129    205.6793    110.3244   8.5835882978e+01   1.8475920466e+01    0.1404434    0.1195831 -68.59 0.0007046378    1.679    0.404
        26 -12.0811    107.7571    205.1405   1.2413793822e+02   2.0354781850e+01    0.4417666    0.2829603   9.76   0.00226274    2.883    0.653
        27 -12.0059     93.8388    199.1388   1.2628896002e+02   2.3284355434e+01    0.4566408    0.2245668  65.59  0.002177804    2.827    0.646
        28 -11.3257    193.5278    193.1636   1.0549940323e+02   8.5688557356e+00    0.4916213    0.3531514 -47.51  0.002915614    1.967    0.492
        29 -11.0488    149.6508    229.3695   1.1888193480e+02   1.0667733123e+01    0.2124739    0.1727207   2.15  0.001539178    1.509    0.337
        30 -11.5612    165.5636     47.4160   7.5667891594e+01   3.7890986203e+01    0.4173599    0.3797424  22.58  0.001152611    1.050    0.047
        31  -9.8391    250.5896    219.8422   9.9824356553e+01  -3.2487709257e+00    0.2162006   0.09734196 -28.06   0.00112818    2.443    0.591
        32 -11.6054    183.4237     26.0328   6.5350201727e+01   3.5947672182e+01    0.5054871    0.4265007  36.92  0.001208998    1.167    0.143
        33 -10.8087    208.6722    182.9572   1.0086564928e+02   7.3443796246e+00     0.430357    0.2389407  -7.79  0.001735437    2.483    0.597
        34 -10.2531     99.2977    181.0581   1.2313142950e+02   2.5756861636e+01    0.2081037    0.1572051  30.58  0.000930074    1.358    0.264
