#   1 NUMBER                 Running object number                                     
#   2 MAG_AUTO               Kron-like elliptical aperture magnitude                    [mag]
#   3 X_IMAGE                Object position along x                                    [pixel]
#   4 Y_IMAGE                Object position along y                                    [pixel]
#   5 X_WORLD                Barycenter position along world x axis                     [deg]
#   6 Y_WORLD                Barycenter position along world y axis                     [deg]
#   7 A_WORLD                Profile RMS along major axis (world units)                 [deg]
#   8 B_WORLD                Profile RMS along minor axis (world units)                 [deg]
#   9 THETA_WORLD            Position angle (CCW/world-x)                               [deg]
#  10 FWHM_WORLD             FWHM assuming a gaussian core                              [deg]
#  11 ELONGATION             A_IMAGE/B_IMAGE                                           
#  12 ELLIPTICITY            1 - B_IMAGE/A_IMAGE                                       
         1 -13.2436    248.9895    126.4966   4.8368673661e+01   7.1170367134e+00     4.125397    0.3589931 -39.46  0.008107009    9.975    0.900
         2 -15.4954    247.9409     90.4821   4.0941087054e+01   1.3334715737e+01     13.63851     1.480045 -37.92   0.02949395    8.751    0.886
         3 -10.0029     40.8943     14.0189   6.5957123277e+01   6.7975219019e+01      0.18836    0.1411658  15.28  0.001261899    1.116    0.104
         4 -11.2253    166.0054    248.5628   8.7329442777e+01  -7.0409479302e-01    0.3470377    0.2373157  16.86  0.001396253    1.465    0.317
         5 -10.8869     22.9099    248.7982   1.1588120136e+02   1.8823413553e+01    0.2715268    0.2265246  57.21  0.001206295    1.223    0.182
         6  -8.9039     13.9691    250.7720   1.1757294083e+02   1.9367174637e+01    0.1320515   0.07716222  40.47 0.0004387817    1.592    0.372
         7 -11.5561    167.4683    242.6032   8.6159117133e+01   5.3373484293e-02    0.3915725    0.2080826  39.88  0.001842178    1.691    0.409
         8 -12.0212    160.0331    237.8105   8.6985637687e+01   2.0120323343e+00    0.9995611    0.3766951 -53.97  0.003951704    3.545    0.718
         9 -10.7850    159.1652    231.1852   8.6166083428e+01   3.3170616971e+00    0.5160331    0.3502606 -88.58  0.002291375    3.147    0.682
        10 -10.6965    160.7517    226.9927   8.5176371512e+01   3.8209311587e+00    0.2733715    0.2414877 -54.36 0.0008509289    1.339    0.253
        11 -11.3832    164.3377    225.8423   8.4229185621e+01   3.4536743769e+00    0.4229262    0.3416997  40.64  0.001440461    1.213    0.176
        12  -9.4402    236.5430    239.9253   7.2305030062e+01  -9.3461201954e+00    0.3649636    0.1275915  26.82  0.001555543    3.077    0.675
        13 -10.2680    154.6681    239.2720   8.8322909230e+01   2.5912004540e+00     0.256855    0.1543583 -39.77  0.001343241    1.903    0.475
        14 -10.7410    165.6553    233.7355   8.5191280953e+01   1.8427576283e+00    0.3069688    0.2093032 -16.25  0.001616003    1.833    0.454
        15 -10.3854    169.6670    232.3576   8.4137880750e+01   1.4534090078e+00    0.2536013    0.2286699  58.03  0.001593037    1.364    0.267
        16  -9.4356    144.5212    228.9787   8.8969335832e+01   6.0572309996e+00    0.1837687    0.1086236 -26.15 0.0008100063    2.530    0.605
        17 -11.6193    236.8520    230.5373   7.0657901357e+01  -8.0693906495e+00    0.3649871    0.2622518  -0.42  0.001219956    1.194    0.163
        18  -8.9879    185.3765    227.1113   8.0034469802e+01  -1.0227125317e-01    0.1694593    0.1248895 -53.26  0.000939177    1.731    0.422
        19  -9.3446    116.7664    227.4094   9.4803444227e+01   1.0754277391e+01    0.1813307    0.1198527  27.93 0.0004927565    1.547    0.353
        20 -11.4518     99.1227    225.5301   9.8440726128e+01   1.3827480397e+01    0.4075329    0.2932141  37.66  0.001405419    1.287    0.223
        21  -9.5656    191.8316    225.6769   7.8476480499e+01  -8.6052504151e-01    0.2189137      0.16328 -19.07  0.000666915    1.354    0.261
        22 -10.8426    128.5012    225.5132   9.1961618284e+01   9.2846580941e+00    0.2567228    0.2221465  76.41  0.001482067    1.303    0.233
        23 -10.4563    123.2479    224.8046   9.3020392625e+01   1.0259314805e+01    0.3108803    0.2447442 -76.76 0.0008424464    1.504    0.335
        24 -11.1975    126.0203    220.6939   9.1820548517e+01   1.0644868112e+01    0.3143273     0.256811  58.69 0.0007688068    1.258    0.205
        25 -10.3558     88.6956    224.0688   1.0055684968e+02   1.5663154365e+01     0.403144    0.1552773 -60.83  0.001702888    2.702    0.630
        26 -10.1566    108.1618    223.1945   9.6146040921e+01   1.2941930513e+01    0.2971571    0.2014813 -34.77  0.001460312    1.978    0.494
        27  -8.7857     19.3299    223.3119   1.1502493392e+02   2.4346845107e+01    0.1057734   0.08509371 -50.43 0.0007043026    1.671    0.402
        28 -10.1134    174.2216    220.7729   8.1300873974e+01   2.7753235341e+00    0.3305931    0.1369042 -33.92  0.001247307    3.192    0.687
        29 -10.6599    171.0185    225.6990   8.2790225438e+01   2.4087450777e+00    0.3651144    0.2347078  45.86 0.0003153656    1.634    0.388
        30 -10.0177    192.5903    220.6622   7.7465714999e+01  -1.3081923967e-01    0.2901954    0.1556017 -34.29  0.001397207    1.953    0.488
        31  -9.1784    114.9574    221.0174   9.4338969157e+01   1.2335715313e+01    0.1992829    0.1615923  -3.80 0.0004835194    1.601    0.375
        32  -9.3225    148.9412    220.0804   8.6644778829e+01   7.0355665986e+00    0.2085262    0.1588114 -10.39  0.000739663    1.606    0.377
        33  -9.5508    179.6710    218.0301   7.9687413359e+01   2.3865747087e+00     0.296467    0.1231135 -44.60  0.001234556    2.548    0.608
        34  -8.5683     75.6590    219.6892   1.0292791767e+02   1.8436348593e+01     0.122747    0.1022297 -21.93 0.0004918703    1.695    0.410
        35  -9.7216     99.9549    217.9653   9.7301030742e+01   1.5292290045e+01    0.2274424    0.1493713  65.86   0.00113965    1.726    0.421
        36  -9.5898    143.8779    216.4333   8.7188757295e+01   8.5838283886e+00    0.2699818    0.1716591 -33.61  0.001301963    1.896    0.473
        37 -10.1820    131.0430    215.3028   8.9892660316e+01   1.0927850824e+01     0.285329    0.1927901 -52.59  0.001162555    1.606    0.377
        38  -9.6063    152.5347    215.8802   8.5180404603e+01   7.2556751157e+00    0.2816842    0.2011366   7.20   0.00101786    1.717    0.418
        39 -12.6190    234.0360    210.4848   6.7613124259e+01  -4.6812767756e+00    0.4944633    0.2941039  20.00  0.002312181    1.736    0.424
        40  -9.4408    199.0000    213.9577   7.4987148139e+01   1.0899329601e-02     0.210034   0.07300258 -42.77 0.0008017102    2.937    0.660
        41 -10.6639    186.3540    212.2281   7.7276120861e+01   2.3425008431e+00    0.5205203    0.2394306 -28.30   0.00198841    3.067    0.674
        42  -9.7002     78.3964    211.1280   1.0133881759e+02   1.9936105503e+01    0.3252636    0.1442118  41.32  0.001445829    2.028    0.507
        43 -10.2446    218.2090    209.2141   7.0341929987e+01  -2.1580974761e+00     0.293208    0.2084799  -2.88  0.001646917    1.415    0.293
        44  -8.5282    135.7655    209.0061   8.7836071224e+01   1.1443330429e+01    0.1673447    0.1185706 -52.89 0.0003063503    1.521    0.343
        45 -10.7745    212.3349    207.4518   7.1154938851e+01  -9.6492516098e-01    0.3040179    0.1909695   4.43  0.001487328    1.940    0.484
        46 -10.4075    205.9039    206.2101   7.2194407490e+01   2.5603048689e-01    0.3446642    0.1559572 -28.05  0.001368332    2.765    0.638
        47  -9.6010     11.3147    207.4333   1.1560613482e+02   2.8537533203e+01    0.1937299    0.1166066  24.28  0.001127262    2.095    0.523
        48  -9.9323    123.9959    206.0026   9.0074408365e+01   1.4040900320e+01    0.1979531    0.1836202  47.60            0    1.018    0.018
        49  -8.4829    107.6598    248.6731   9.9346328405e+01   8.0317909564e+00    0.1204574   0.09618308  -2.13 0.0007051479    1.733    0.423
        50 -10.3257    176.5107    245.9917   8.4824587071e+01  -1.8606707101e+00    0.2614621    0.1656237 -13.57  0.001360577    2.056    0.514
        51  -8.5064    209.3260    194.3350   6.9275792693e+01   1.7910380837e+00    0.1448125   0.09822586  -4.77 0.0007051472    1.717    0.418
        52  -9.0323    134.9544    192.8103   8.5313515513e+01   1.5040714503e+01    0.2496481    0.1579489  59.39  0.001081837    2.003    0.501
        53 -11.6890    225.4349    192.4808   6.5821581219e+01  -4.5998324478e-01    0.6849697    0.2059375 -41.52  0.002507425    3.139    0.681
        54  -8.5720    162.0000    191.9406   7.8872506735e+01   1.0428377668e+01    0.2379468   0.08217704 -47.85 0.0008092271    2.990    0.666
        55  -8.9859    179.2915    190.1637   7.4699227856e+01   7.7071386657e+00     0.285862    0.1184078 -38.72  0.001069543    2.555    0.609
        56  -9.6488    204.0069    188.4106   6.9185149219e+01   3.7488493345e+00    0.4151605    0.2886167  74.04  0.001727306    3.208    0.688
        57 -12.0908    230.2795    184.0241   6.3280019904e+01   2.2693013101e-01    0.6504168    0.3362521 -33.95  0.003102258    1.770    0.435
        58  -8.9814    165.0028    184.1326   7.6701394196e+01   1.1504650125e+01    0.2998824    0.1517027 -41.08  0.001225469    2.035    0.509
        59  -9.0483    139.3333    185.3353   8.2926741244e+01   1.5912307217e+01    0.1535028    0.1155439  -9.52 0.0005842196    1.737    0.424
        60  -9.0431    110.0396    185.1783   9.0069025874e+01   2.1039860146e+01    0.2422388    0.1744654  -1.21  0.001087787    2.068    0.516
        61  -9.8625    211.7663    182.4028   6.6455915652e+01   3.5372813163e+00    0.2830314    0.2113464 -12.61 0.0009612836    1.373    0.272
        62  -9.3519    203.6264    182.7504   6.8140699271e+01   4.8638779801e+00    0.2790731    0.1246405 -38.19  0.001137251    2.169    0.539
        63 -10.3123    174.3580    180.8990   7.3964830818e+01   1.0459453394e+01    0.4964826    0.2486232 -33.34  0.001941624    2.333    0.571
        64  -9.8436     93.2862    183.7621   9.4035225065e+01   2.4073065282e+01     0.604215    0.3343792 -88.18  0.002221444    3.070    0.674
        65  -8.8443    197.4518    182.0394   6.9255287483e+01   6.0744802227e+00    0.2107552    0.1327412 -39.25 0.0005932014    1.531    0.347
        66  -8.8733    182.8857    181.3795   7.2194667571e+01   8.8066841748e+00    0.2086825    0.1312702  26.08  0.000939841    1.737    0.424
        67  -8.2673    103.6695    180.6493   9.0910967386e+01   2.3159023550e+01    0.1508547    0.1138918 -21.48 0.0007047823    1.771    0.435
        68  -9.4943     14.0292    178.5153   1.1289560006e+02   3.4898626167e+01     0.231353    0.1873163 -42.84  0.001189353    1.537    0.349
        69 -10.2040    205.1140    176.0185   6.6482255894e+01   5.8693975698e+00    0.3400376    0.2882771 -12.37  0.001514543    1.117    0.105
        70  -9.9079    148.6603    175.2114   7.8755842818e+01   1.6447850019e+01    0.2929071    0.2402893  14.63   0.00139187    1.333    0.250
        71  -8.3004    218.2933    175.3369   6.3775078009e+01   3.7193650467e+00    0.1433993   0.09999258  -8.70 0.0005083688    1.645    0.392
        72  -9.4637    193.0610    173.8571   6.8502500461e+01   8.4463183379e+00    0.3254849     0.185416 -20.53  0.001186532    2.496    0.599
        73  -9.6955    183.2052    173.7770   7.0581505289e+01   1.0276635971e+01     0.411955    0.2148142 -27.66  0.001561168    2.533    0.605
        74  -9.2337     13.1609    185.8384   1.1368093091e+02   3.3259027659e+01     0.162179    0.1323019 -61.75  0.001075057    1.328    0.247
        75 -10.0799    177.0725    168.8923   7.0907877471e+01   1.2430369123e+01    0.5111211    0.2375197 -32.30  0.001819678    2.717    0.632
        76  -9.9379    206.2657    168.7371   6.4751030955e+01   7.0462080316e+00    0.3561737    0.2668841 -32.49  0.001872729    1.244    0.196
        77  -8.8472    121.7884    169.7920   8.4347406855e+01   2.2628794655e+01    0.2522933    0.1702948  74.74  0.001036158    2.196    0.545
        78  -8.6634    212.6391    168.6923   6.3494474683e+01   5.9206347275e+00    0.1480662    0.1044571  -1.91 0.0007040187    1.737    0.424
        79  -8.7023    218.1962    165.9809   6.1871739555e+01   5.4491165506e+00    0.1869696    0.1568545  63.47 0.0007992094    1.597    0.374
        80  -9.1490    185.0077    165.2089   6.8399379408e+01   1.1680034732e+01    0.2826158    0.1789494 -29.66  0.001256434    1.699    0.412
        81  -9.2448    154.5863    166.1738   7.5503240265e+01   1.7326254218e+01    0.2192316    0.1391147 -35.44 0.0009405732    1.698    0.411
        82  -9.2996    192.3869    163.5757   6.6487368832e+01   1.0611782061e+01    0.3569819    0.1305835 -38.02  0.001213888    2.824    0.646
        83  -8.8394    160.6147    165.3121   7.3899960589e+01   1.6352470425e+01    0.1567298     0.121489  77.90 0.0007018884    1.816    0.449
        84  -9.8444    198.4742    202.8382   7.3066232315e+01   2.0476523945e+00    0.3483979    0.2039943 -30.20  0.001675694    1.766    0.434
        85  -9.1774    149.2499    164.5496   7.6445496437e+01   1.8715499269e+01    0.3049923    0.1434809  45.00   0.00114132    2.182    0.542
        86  -9.7990    213.3848    162.7353   6.2105999913e+01   6.9051267073e+00    0.2671798    0.1650392 -31.41  0.001264066    1.566    0.361
        87 -10.6325    152.6604    161.6266   7.5006747515e+01   1.8710168795e+01    0.3851311    0.2606162  60.13  0.001390062    1.878    0.468
        88  -8.8666      9.8494    161.8398   1.1245501352e+02   3.9207911641e+01    0.1773596    0.1247042  72.31 0.0006706913    1.348    0.258
        89  -9.3474    205.5277    160.6589   6.3193891928e+01   8.7304601160e+00    0.2753804    0.1313071 -36.32  0.001112452    2.044    0.511
        90 -10.1190    144.3735    159.2088   7.6512696614e+01   2.0867295964e+01    0.2975422    0.2185097  47.47  0.001039728    1.405    0.288
        91  -9.0352    218.9127    155.6981   5.9575810728e+01   7.2293940583e+00    0.2403912    0.1747061 -28.93 0.0005567166    1.291    0.225
        92  -8.5415    119.5402    155.5356   8.2098462862e+01   2.6434878816e+01    0.1543144    0.1458264  82.37 0.0001085124    1.101    0.092
        93  -8.3050    204.6833    153.6577   6.1852822930e+01   1.0245516041e+01    0.1515127    0.1101271  -6.20 0.0007048642    1.712    0.416
        94  -8.9447    133.5057    153.0146   7.7922888937e+01   2.4403685184e+01    0.2198867    0.1393685 -75.97 0.0008103371    2.537    0.606
        95  -9.8950    189.1639    147.9131   6.3736415892e+01   1.4404935313e+01    0.5032545    0.2043739 -37.49  0.001775217    2.537    0.606
        96  -9.6657     42.9674    149.4868   1.0228203703e+02   3.9266405719e+01    0.2597255    0.1215192  34.97  0.001156924    2.239    0.553
        97  -9.9159     58.1151    147.1837   9.7638049425e+01   3.8108035552e+01     0.603703    0.2179789  49.86  0.001982211    3.813    0.738
        98  -9.5314    222.6847    146.5426   5.6929591191e+01   8.2459846929e+00    0.4027646    0.2047074 -21.45  0.001437463    3.223    0.690
        99  -9.2490    199.7731    146.4595   6.1241979997e+01   1.2602903113e+01    0.3206152    0.1653086 -30.83  0.001258842    2.186    0.543
       100  -9.4891    149.1294    145.4173   7.2298289771e+01   2.3061633348e+01    0.3390595    0.2470149 -88.97  0.001347749    2.113    0.527
       101  -8.7855     13.7542    146.6240   1.0995189114e+02   4.2606349926e+01    0.1664617    0.1082688  42.39 0.0009453485    1.688    0.408
       102  -9.0701    230.4430    141.7524   5.4546853030e+01   7.7156720220e+00    0.2611956    0.1635586 -37.01  0.001027733    1.415    0.293
       103  -8.8684    229.5415    137.9890   5.3891611695e+01   8.5616139793e+00    0.2185192    0.1232503 -38.55  0.001021058    1.569    0.363
       104  -9.1706    196.3830    142.5099   6.1036079434e+01   1.4057389328e+01    0.3335002    0.1465728  42.80 0.0009465825    2.423    0.587
       105  -9.7338     24.7510    139.3538   1.0604915211e+02   4.3529111664e+01    0.3170377    0.1580562  50.21  0.001474271    2.331    0.571
       106  -9.6503    197.4888    135.6815   5.9261437475e+01   1.5194549850e+01    0.4727673    0.1395552 -41.17  0.001473083    3.194    0.687
       107  -9.0350     39.7571    136.6104   1.0130225519e+02   4.2831164168e+01    0.1877954      0.11854  42.32 0.0009506036    1.738    0.425
       108  -9.7198    185.8636    202.8447   7.5682874357e+01   4.1403924303e+00    0.3418776    0.1789329 -33.26   0.00150161    2.079    0.519
       109  -8.3005    192.3211    135.3263   6.0217534139e+01   1.6318569137e+01    0.1535756    0.1170414  -2.69 0.0007047461    1.684    0.406
       110 -10.0705     84.4709    132.7148   8.7172192676e+01   3.8063789834e+01    0.4330298    0.2068636  50.92  0.001582633    2.684    0.627
       111  -9.1512    226.4209    131.5707   5.3025946415e+01   1.0308963174e+01    0.3482368     0.118318 -43.77  0.001251737    2.661    0.624
       112  -9.1399     14.1873    130.7683   1.0799638227e+02   4.6458199110e+01    0.2146629    0.1053985  62.67 0.0009391814    2.737    0.635
       113  -8.9547    101.0093    129.6756   8.1615332479e+01   3.6056747731e+01     0.256296    0.1075354  54.65 0.0007050922    4.328    0.769
       114 -10.5125    211.5238    201.5601   7.0217194409e+01   1.6936263391e-01    0.3632009    0.2126559 -49.39  0.001749577    2.042    0.510
       115 -11.5130     62.9995    126.0957   9.2363070529e+01   4.2794365618e+01    0.7708753    0.3129821  40.31  0.002971411    2.648    0.622
       116  -9.2336    228.4139    124.2144   5.1080135766e+01   1.1267771352e+01    0.2763381    0.1239216 -36.42  0.001131543    2.078    0.519
       117 -10.2640     30.4073    124.4383   1.0223582439e+02   4.6744610203e+01    0.3621755    0.2051506  64.35  0.001643872    2.427    0.588
       118 -10.8718     45.7279    124.5858   9.7483439077e+01   4.5218635010e+01    0.6111234    0.2899735  58.06  0.002218462    3.548    0.718
       119  -8.7877    142.4224    120.2277   6.7921564910e+01   3.0116478013e+01    0.2345381    0.1467433 -57.23 0.0009499845    1.814    0.449
       120  -8.7114      4.3049    118.6545   1.0942228727e+02   5.0019930619e+01    0.1262027   0.08385342  72.98 0.0007041502    1.691    0.409
       121 -11.0048    231.9234    116.4048   4.8802373845e+01   1.1994198509e+01    0.2709675    0.2114882 -52.46  0.001105731    1.220    0.181
       122  -9.4180     93.6185    113.5592   7.9973121495e+01   4.1214279438e+01    0.2955719    0.2172277  79.51 0.0008991404    2.004    0.501
       123  -9.6806     80.2294    113.8399   8.4232399480e+01   4.3345049749e+01    0.3268787    0.2146568  81.73  0.001277799    2.730    0.634
       124  -9.8615     14.6365    110.5368   1.0507604776e+02   5.1346925120e+01    0.2718748    0.1946599  79.71   0.00132778    1.598    0.374
       125  -9.7722     61.7118    108.3818   8.8990731678e+01   4.7304477651e+01    0.4596715    0.1654285 -45.02  0.001642623    2.677    0.627
       126 -10.9699     47.1804    103.6431   9.2857668621e+01   5.0183196174e+01    0.7628337    0.3652132  58.77   0.00243359    4.922    0.797
       127 -10.6180     23.5272    103.2649   1.0091595631e+02   5.2462427933e+01    0.5525688     0.308358  67.70   0.00241737    2.940    0.660
       128  -8.6093    108.3837     98.6985   7.1555707255e+01   4.1877210346e+01    0.1560771    0.1223656  80.00   0.00070204    1.781    0.439
       129  -9.6815    100.7593     97.4814   7.3521967217e+01   4.3601905018e+01    0.4543222    0.2700531  -5.91  0.001442675    3.900    0.744
       130 -10.4811     65.1346     97.3415   8.5162991389e+01   4.9449530023e+01    0.4666459    0.2467226  54.37   0.00178053    3.066    0.674
       131 -10.9013    235.8326     95.6284   4.3663136775e+01   1.4822945308e+01     0.327274    0.2116439  54.77  0.001722651    1.742    0.426
       132  -9.9217     75.7500     93.9921   8.0650383284e+01   4.8662654983e+01    0.2026702    0.1173136 -49.58 0.0008999115    1.626    0.385
       133 -10.1013     57.9683     92.1051   8.6334108719e+01   5.1602017388e+01    0.2134134    0.1846567 -32.46 0.0003696723    1.052    0.050
       134  -9.2249     43.1447     91.8905   9.1616706637e+01   5.3375846665e+01    0.1934633    0.1395393 -34.26 0.0004290556    1.307    0.235
       135  -9.7862     35.8241     90.7549   9.4024116174e+01   5.4364779632e+01    0.2518047    0.1707977  88.90  0.001237763    2.162    0.538
       136  -9.6217     95.7890     88.5870   7.2536523104e+01   4.6443577238e+01    0.3258351     0.167762 -21.16 0.0009630973    4.274    0.766
       137 -10.3267     48.9342     84.7714   8.7718774546e+01   5.4354138893e+01     0.338326    0.2064385  59.59  0.001454521    2.878    0.653
       138  -8.7121     86.3619     86.6885   7.5032926203e+01   4.8528014071e+01    0.1453907    0.1181479  78.52 0.0007040997    1.750    0.428
       139  -9.8348     25.1557     81.4190   9.5903199931e+01   5.7407798513e+01    0.3283811    0.2237901  64.03  0.001531429    2.249    0.555
       140  -9.3342    131.8248    199.4151   8.7180680432e+01   1.4143493925e+01    0.2041952    0.1331601  23.78 0.0009369951    1.724    0.420
       141 -10.2534     56.7981     72.3901   8.1275129311e+01   5.6045562839e+01    0.2359445    0.1987818  37.58  0.001304008    1.369    0.269
       142 -10.0714     52.5474     71.0429   8.2500250939e+01   5.6871660015e+01    0.2921699    0.1978404 -70.73  0.001409622    2.209    0.547
       143  -8.6958     16.7093     70.3805   9.6675178857e+01   6.0452485671e+01    0.1172257   0.09359425  80.56 0.0007017798    1.744    0.427
       144 -10.3528     80.0940     61.1216   6.9103608398e+01   5.4660561992e+01    0.3956287    0.1944654  27.36   0.00159862    2.468    0.595
       145  -9.4627     73.6392     60.7217   7.1251897880e+01   5.5824848924e+01    0.2308108    0.1761061 -46.67  0.001255307    1.424    0.298
       146 -10.1332     56.5617     56.6807   7.6324656460e+01   5.9159679732e+01    0.2741934    0.2018754  66.95  0.001345664    2.566    0.610
       147  -8.5801      7.3821     57.6881   9.7517030422e+01   6.3698750675e+01    0.1102023   0.08938024  62.41 0.0007022899    1.807    0.447
       148 -10.3706     66.4903     56.4858   7.2429002549e+01   5.7735845525e+01    0.2335693    0.1740161  19.18  0.001298189    1.319    0.242
       149  -9.7553     44.8093     56.2167   8.0932782198e+01   6.0760925364e+01    0.1958559    0.1443041  71.74 0.0009515919    2.815    0.645
       150  -9.4408     97.9919     52.1163   6.0147011950e+01   5.2823951281e+01    0.3644381    0.1636547  29.60  0.001260309    3.329    0.700
       151  -9.4510     31.3631     52.0230   8.5306783757e+01   6.3014692015e+01    0.2032027    0.1751716  49.28 0.0009360809    1.653    0.395
       152 -10.2691     45.2971     48.9819   7.8254304860e+01   6.2041642638e+01    0.2308757    0.1835839   1.21  0.000380435    1.156    0.135
       153  -9.5748     76.3847     48.4199   6.5936834778e+01   5.7485896520e+01    0.2774531    0.1082925  29.98  0.000956655    3.482    0.713
       154  -8.9022     16.7664     45.0295   8.9689982342e+01   6.5601260515e+01    0.1574307   0.08529168 -50.67 0.0007524625    1.606    0.378
       155 -10.3804    126.9131    197.2134   8.7973718475e+01   1.5461363063e+01    0.2636523    0.2054728 -43.91 0.0008067494    1.369    0.270
       156  -9.8621     59.9845     44.1671   7.0485069487e+01   6.0851839464e+01    0.1985472    0.1545203  59.83   0.00108872    2.027    0.507
       157 -10.2078     72.7284     43.2652   6.5335795714e+01   5.8937877070e+01    0.5128314    0.1683336  49.31  0.001685427    4.303    0.768
       158  -9.1452      5.5038     42.5284   9.4264704435e+01   6.6815626843e+01    0.2005247    0.1077904 -69.42  0.001029418    2.509    0.601
       159  -9.0833    113.4870     41.1173   5.1966331800e+01   5.1176947725e+01    0.2100156    0.1685323  50.06 0.0005621996    1.170    0.145
       160  -9.4051     37.6673     41.4279   7.8840504022e+01   6.4280593985e+01    0.2163361    0.1111285  31.36 0.0009070223    2.021    0.505
       161  -8.9538     84.1992     39.2457   5.9866438614e+01   5.7466112803e+01    0.1649246    0.1627749  77.07  0.001050146    1.305    0.234
       162 -10.0976    164.6931    199.5091   7.9662275861e+01   8.4172254899e+00    0.4810964    0.2635208 -27.78  0.001948165    2.494    0.599
       163  -9.2379     26.5054     36.9313   8.2314356964e+01   6.6236685827e+01    0.1779909    0.1043414 -44.21 0.0008828867    1.559    0.359
       164 -10.4616    172.6928    195.5323   7.7160256695e+01   7.8093460696e+00    0.2655402    0.2542345  46.48 0.0007864911    1.175    0.149
       165 -10.3207    222.6190     32.9392   3.1468732907e+01   2.6956939296e+01    0.2356287    0.1460998 -74.15 0.0006099606    1.617    0.382
       166 -10.1807     62.2736     33.7211   6.5536205320e+01   6.2111019924e+01    0.3864957    0.1044288  46.83  0.001207753    5.065    0.803
       167  -9.4632     50.4828     33.4922   7.0197139689e+01   6.3930321391e+01    0.1262345    0.1054478  -1.96 9.888775e-06    1.037    0.036
       168  -9.8037     76.1944     32.6280   6.0017221776e+01   5.9876299298e+01     0.194371    0.1063067  34.77 0.0009536786    1.721    0.419
       169 -10.0220    172.8620    189.9193   7.6060084183e+01   8.8993595126e+00    0.4765066    0.2751133 -64.70  0.001832191    2.960    0.662
       170 -10.0930    217.3820     35.1839   3.2515781220e+01   2.7809122412e+01    0.1876966   0.09927232 -47.48 0.0009531012    1.721    0.419
       171 -10.6043     65.6719     22.2951   5.9552409559e+01   6.3079037642e+01    0.3461498    0.2402715  58.44   0.00191208    2.034    0.508
       172  -9.8070     77.4580     20.8126   5.4855091493e+01   6.1123269162e+01    0.3073007    0.1587213  50.69  0.001527654    1.889    0.470
       173  -9.5824     41.0020     21.1120   6.9110879355e+01   6.7029636347e+01    0.1801004     0.143885   1.28 0.0003473889    1.027    0.027
       174  -8.9137     12.9703     21.4571   8.3110618238e+01   7.0019520874e+01     0.158658   0.09845569  13.73 0.0007780477    1.554    0.356
       175  -8.9816    131.4733    195.5235   8.6607748206e+01   1.5050693444e+01    0.1434242    0.1361829  44.60 3.673488e-05    1.020    0.020
       176  -8.8437    188.5005     20.5375   3.2344276083e+01   3.6106214998e+01    0.1286595    0.1102562 -89.24 0.0008094934    1.004    0.004
       177  -9.3415     29.9140     18.1608   7.3009544785e+01   6.8830989117e+01    0.2439307    0.1270663  29.47  0.001388761    1.852    0.460
       178  -9.1403    215.5410    193.7209   6.7942098658e+01   8.9205583568e-01     0.254467    0.1206096 -35.75  0.001123556    2.019    0.505
