#   1 NUMBER                 Running object number                                     
#   2 MAG_AUTO               Kron-like elliptical aperture magnitude                    [mag]
#   3 X_IMAGE                Object position along x                                    [pixel]
#   4 Y_IMAGE                Object position along y                                    [pixel]
#   5 X_WORLD                Barycenter position along world x axis                     [deg]
#   6 Y_WORLD                Barycenter position along world y axis                     [deg]
#   7 A_WORLD                Profile RMS along major axis (world units)                 [deg]
#   8 B_WORLD                Profile RMS along minor axis (world units)                 [deg]
#   9 THETA_WORLD            Position angle (CCW/world-x)                               [deg]
#  10 FWHM_WORLD             FWHM assuming a gaussian core                              [deg]
#  11 ELONGATION             A_IMAGE/B_IMAGE                                           
#  12 ELLIPTICITY            1 - B_IMAGE/A_IMAGE                                       
         1 -15.3058      4.4733    139.3634   1.3426024540e+02   4.4956710272e+01     8.686246     1.227835 -73.68   0.02508394    7.120    0.860
         2 -13.6885    202.7496     29.7529   6.0929871294e+01   3.0715034513e+01     1.624521     1.210804  47.87  0.006833989    1.371    0.271
         3 -14.9879      5.1344    116.4125   1.3166835196e+02   4.9670612455e+01     3.070483    0.5301967 -71.12   0.01050231    4.874    0.795
         4 -13.6663    219.8052     11.6636   5.4108997512e+01   2.8533663556e+01      1.00129    0.8430057  48.26  0.002125592    1.314    0.239
         5 -11.2756     62.8110    245.8618   1.3276776580e+02   1.8268453748e+01    0.2892901    0.1484725  72.54  0.001557371    1.791    0.442
         6 -13.1047    238.5608    247.8625   1.0334398471e+02  -1.0104228911e+01    0.6282572     0.427685  44.48  0.004143135    1.430    0.301
         7 -12.9894      9.6438    206.9379   1.3849534525e+02   3.1197360875e+01    0.6301801    0.4869467  54.32  0.003418366    1.440    0.305
         8 -14.8300     14.5202    241.7678   1.3971515333e+02   2.4586703585e+01     2.499847     1.286073  57.86    0.0186189    1.468    0.319
         9 -13.0369     41.2554    211.8031   1.3364116535e+02   2.6974186832e+01     0.603451    0.3998867  80.20  0.002338461    1.185    0.156
        10 -12.3784     97.4416    246.4648   1.2727085788e+02   1.3323348019e+01    0.4682385    0.2684138  72.27  0.002241338    1.749    0.428
        11 -11.4114    125.5267    250.0000   1.2295592498e+02   8.4153741394e+00    0.3362311    0.1083562  48.76  0.001540427    2.411    0.585
        12 -10.8067     55.3221    240.2203   1.3351793631e+02   2.0179991520e+01     0.231308    0.1068219  53.02  0.001431425    1.696    0.410
        13 -11.9900    139.4721    245.4630   1.2007702993e+02   6.8282392615e+00    0.2629116    0.2263266 -60.78  0.001903125    1.455    0.313
        14 -12.9359    114.2116    231.6970   1.2289873776e+02   1.3172580669e+01    0.8139837    0.1534541  45.41  0.002809366    4.139    0.758
        15 -12.3797     98.8884    229.3616   1.2533236710e+02   1.5975533133e+01     0.565781    0.1218146  47.03  0.002136479    3.625    0.724
        16 -11.6391     58.2450    213.3890   1.3086576668e+02   2.4607063659e+01    0.4059568    0.2185545  70.59  0.002394635    1.740    0.425
        17  -8.8957    152.6032    213.2045   1.1344547673e+02   9.7184586596e+00    0.1480253    0.1259618 -38.19 0.0002862824    1.466    0.318
        18 -14.7966     29.0959    224.7920   1.3655200399e+02   2.5971035318e+01    0.8610815    0.7607228 -70.64  0.007261955    1.653    0.395
        19 -11.1541     87.1303    248.5845   1.2913844185e+02   1.4487421494e+01    0.3500206    0.1185515  60.52  0.001487335    3.469    0.712
        20 -11.9373     54.1094    196.6452   1.3005212193e+02   2.8345338243e+01    0.2364506    0.1944871 -81.19 0.0005073039    1.219    0.180
        21 -12.1678     61.1723    188.2866   1.2787239692e+02   2.9121321616e+01    0.2372351    0.2013115 -88.41 0.0004502455    1.143    0.125
        22 -12.5496    152.8477    249.5388   1.1826426000e+02   3.9932279885e+00    0.8026001    0.1198752  44.53  0.002438254    5.215    0.808
        23 -10.9479     72.6526    175.5908   1.2410142508e+02   3.0203578688e+01    0.2184244    0.1877244 -87.82 0.0003711054    1.082    0.076
        24 -10.4705     90.0434    167.6927   1.1934625731e+02   2.9338944455e+01    0.4059387    0.2307094  67.30 0.0008608362    2.113    0.527
        25 -12.1078     80.2277    167.0594   1.2136554234e+02   3.0935416306e+01    0.6245004     0.468477 -52.36  0.003732239    1.474    0.322
        26 -10.7130     94.3568    151.5400   1.1581256088e+02   3.2141542980e+01    0.3201701    0.2714356 -54.28  0.000812613    1.235    0.190
        27  -9.5252     97.8257    147.3411   1.1427910758e+02   3.2499508868e+01    0.2152261    0.1709903 -73.31 0.0003412815    1.208    0.172
        28 -12.2520     82.6469    150.2980   1.1829193098e+02   3.4200457401e+01    0.2830444     0.221772 -54.77  0.001024094    1.295    0.228
        29 -11.8605     68.4791    143.4732   1.2047844028e+02   3.7667533914e+01    0.5001239    0.3277391 -88.89  0.001889483    1.679    0.405
        30 -11.2281     64.9874    141.9896   1.2106132605e+02   3.8445928124e+01    0.3646265    0.2503399 -66.08  0.001189157    1.280    0.219
        31 -10.0251    107.2759    136.8883   1.1006873425e+02   3.3195107517e+01    0.3867674     0.270384 -10.06  0.001010281    2.704    0.630
        32 -10.6474     94.1700    133.9643   1.1267304603e+02   3.6022535435e+01    0.2265981    0.2017964 -60.31 0.0003512564    1.089    0.082
        33 -10.4013     71.0274    125.4167   1.1680185526e+02   4.1303582953e+01    0.3195504    0.1964432  64.83  0.001173864    2.096    0.523
        34  -9.2816    105.2891    123.5512   1.0779083293e+02   3.6453066457e+01     0.165598    0.1388118  29.78 0.0002967599    1.354    0.261
        35 -10.2191    244.3279     98.6686   7.2175561873e+01   1.0324929866e+01     0.149437    0.1086242 -66.89 0.0007051504    1.713    0.416
        36 -10.0219    160.2181     78.1910   8.2566786896e+01   3.4141989126e+01    0.2135683    0.1829252 -75.00 0.0004922848    1.362    0.266
        37  -9.9260     54.9556     75.0319   1.1042424168e+02   5.4010072705e+01    0.3417636    0.1947495  61.20  0.001469228    3.627    0.724
        38 -11.5150      5.7548    185.1960   1.3773320178e+02   3.5658306680e+01    0.4597271    0.1764712  69.01  0.001931749    2.773    0.639
        39  -9.5829     39.9084     65.7610   1.1282405353e+02   5.7413517420e+01    0.1974681    0.1555973  54.32  0.001286756    1.736    0.424
        40 -13.2564     58.6189    173.5670   1.2672175666e+02   3.2470267551e+01    0.4651645     0.250226 -49.35   0.00226482    2.294    0.564
        41 -11.9011    199.9068    248.0057   1.0994596678e+02  -3.7857852355e+00    0.4083306    0.2723441  74.32  0.002123469    2.904    0.656
        42 -12.3539    176.4195    248.9088   1.1412563866e+02   8.8088221202e-02    0.5604202    0.1703298  49.25  0.002297432    2.889    0.654
