#   1 NUMBER                 Running object number                                     
#   2 MAG_AUTO               Kron-like elliptical aperture magnitude                    [mag]
#   3 X_IMAGE                Object position along x                                    [pixel]
#   4 Y_IMAGE                Object position along y                                    [pixel]
#   5 X_WORLD                Barycenter position along world x axis                     [deg]
#   6 Y_WORLD                Barycenter position along world y axis                     [deg]
#   7 A_WORLD                Profile RMS along major axis (world units)                 [deg]
#   8 B_WORLD                Profile RMS along minor axis (world units)                 [deg]
#   9 THETA_WORLD            Position angle (CCW/world-x)                               [deg]
#  10 FWHM_WORLD             FWHM assuming a gaussian core                              [deg]
#  11 ELONGATION             A_IMAGE/B_IMAGE                                           
#  12 ELLIPTICITY            1 - B_IMAGE/A_IMAGE                                       
         1 -14.1674     69.0993    146.5164   8.1204646254e+01   3.6503238818e+01      2.04127     1.314033  87.00  0.002815938    1.799    0.444
         2 -13.0734    210.2760     42.5468   2.1733001274e+01   2.6171393564e+01    0.8633119    0.7796292  24.79  0.001504739    1.325    0.245
         3 -12.9461    236.4599     18.4398   1.2769589019e+01   2.2832211406e+01    0.9252183     0.789933 -68.96  0.004189321    1.032    0.031
         4  -9.0526    158.1953      9.1511   1.9764090153e+01   4.3640374181e+01    0.1917476    0.1557601 -79.45 0.0007037355    1.324    0.245
         5 -11.0707     13.3013      3.0983   6.2425531938e+01   7.1927518915e+01    0.2967805    0.1913769 -40.54  0.002038356    1.527    0.345
         6 -11.0319    142.7153    243.3173   7.8836361110e+01   5.1044839723e+00    0.2145553    0.1576238  57.55 0.0006282131    1.254    0.203
         7 -10.5394    150.7490    248.7635   7.8027431336e+01   2.9533644226e+00    0.2857781    0.1960342 -45.51   0.00157909    1.901    0.474
         8  -8.9921     80.5459    250.2057   9.0741612456e+01   1.3691941702e+01    0.1397073    0.1011993 -82.55 0.0005494709    1.454    0.312
         9 -10.3706     75.5282    247.3272   9.1369051693e+01   1.4883326088e+01    0.4352577     0.162411 -57.23  0.002184844    3.333    0.700
        10 -15.8707     40.6973    184.6933   9.2452984612e+01   3.1526943169e+01     10.52357     3.210636  51.67   0.04426591    3.139    0.681
        11 -12.8482     14.0060    184.1983   9.7758149094e+01   3.4418906670e+01    0.3258328    0.2201986  63.76  0.000848111    1.266    0.210
        12 -15.5791      3.5253    175.7749   9.9218354606e+01   3.7102718442e+01     8.130545          nan -70.96   0.02296062    7.658    0.869
        13  -9.4529     71.1031    226.0843   9.0336743372e+01   1.9282497056e+01    0.2635303    0.1343578  48.59  0.001489735    1.597    0.374
        14  -9.8270    167.3160    224.0162   7.1499910948e+01   3.8572697302e+00    0.1760214    0.1589276  43.08  0.001150014    1.109    0.098
        15 -10.4503    142.1901    215.4124   7.5208481518e+01   9.7849929321e+00    0.2805358    0.2143154 -65.36  0.001262053    1.569    0.363
        16 -17.5907      8.7446    234.8064   1.0161758605e+02   2.5158263670e+01     4.872135     1.838734 -79.80   0.01193539    2.289    0.563
        17  -8.8848    168.4350    207.7140   6.8706715111e+01   6.3096466726e+00    0.2344194    0.1346365 -53.04  0.001126054    2.186    0.543
        18 -10.6937    141.2025    204.3306   7.3757779350e+01   1.1959395782e+01    0.2194223    0.2010945 -81.20  0.000909913    1.213    0.176
        19 -15.6826      9.4917    207.5117   1.0007827837e+02   3.0160979448e+01    0.9286073    0.7718334   9.98  0.006910243    2.158    0.537
        20 -10.4608    192.0390    193.2019   6.1383651797e+01   4.2640495069e+00    0.7971165    0.4022469 -62.08  0.002302293    6.412    0.844
        21  -8.9569     71.8987    242.1004   9.1571724615e+01   1.6286828036e+01    0.1818679    0.1154657  67.93 0.0007046941    1.309    0.236
        22 -11.0497    146.3296    197.3817   7.1581512753e+01   1.2300425555e+01    0.5033942    0.1229511  39.78  0.001495224    4.040    0.752
        23 -10.5037    164.0000    193.9890   6.7284967849e+01   9.5518601584e+00    0.2724719    0.1901687 -50.51 0.0009102068    1.649    0.394
        24 -10.2129    162.4494    189.4632   6.6809660980e+01   1.0681118211e+01     0.328622    0.1973923 -57.29  0.001507978    2.097    0.523
        25  -9.0528     62.7785    246.5887   9.3490054728e+01   1.6750112969e+01    0.1990879   0.08990461  41.50  0.001120814    1.963    0.490
        26 -10.4279    108.4489    243.3496   8.5156116487e+01   1.0662651192e+01    0.2126431    0.1891582  47.42 0.0008791349    1.276    0.216
        27 -10.7307    111.4470    238.3767   8.4077151627e+01   1.1020235217e+01    0.2232651    0.1694732  63.23 0.0005734732    1.134    0.118
        28 -11.0837    108.6191    189.6878   7.8506788623e+01   2.0653043355e+01    0.4321455    0.2981074 -11.62  0.001809371    3.375    0.704
        29  -9.1947     72.6748    186.7132   8.5921685502e+01   2.6958180550e+01    0.1718637    0.1221422  74.62 0.0003948009    1.306    0.235
        30  -8.8746     90.4487    237.2485   8.7827456778e+01   1.4460204893e+01    0.1462451   0.09999201  85.46  0.000244505    1.497    0.332
        31 -10.0196     76.7568    183.1227   8.4592754770e+01   2.7138913037e+01    0.4861758    0.2659386  69.62  0.002028466    2.150    0.535
        32 -11.2355     98.8083    181.3985   7.9463432002e+01   2.4058698987e+01        0.398    0.3152259 -51.22  0.001232973    1.444    0.308
        33 -10.7869    115.9000    182.4849   7.5800741484e+01   2.0879813633e+01    0.2126361    0.2044166  -6.09  0.001004937    1.296    0.228
        34 -10.3617    180.6108    177.1539   6.0647829972e+01   9.3186320236e+00     0.335557    0.2207274 -64.35  0.001475218    2.294    0.564
        35  -9.3996    199.5398    173.5534   5.6024372273e+01   6.1222874211e+00    0.2419702    0.1341965 -50.20 0.0007816871    2.262    0.558
        36  -9.6900    127.3782    177.2395   7.2349422026e+01   1.9874384022e+01    0.1983867    0.1722326  46.80 0.0008752206    1.097    0.088
        37 -11.0849     70.0664    173.0908   8.4796032770e+01   3.0303518913e+01    0.6174991    0.1866888  41.72 0.0008483538    3.003    0.667
        38 -11.9265     46.4523    127.2573   8.4065012234e+01   4.3852276234e+01    0.7370839    0.6355003 -49.70  0.004602985    1.234    0.190
        39 -11.1426     67.6613    121.0839   7.7121386720e+01   4.2667527505e+01    0.6479561    0.2542609 -60.09  0.001296811    2.340    0.573
        40 -11.1471     76.2946    168.3401   8.2723643594e+01   3.0468188763e+01    0.5716738     0.339824  55.06 0.0006259709    1.647    0.393
        41 -12.4567     70.8025    162.6106   8.3202485975e+01   3.2556209489e+01    0.7904663    0.5403723 -29.02  0.003073523    2.463    0.594
        42 -11.4674    124.8884    246.1954   8.2461687942e+01   7.5854091612e+00    0.4821393    0.2264014 -54.57  0.001999066    2.657    0.624
        43 -11.0288    245.4668    159.1235   4.4352873018e+01  -4.7014313802e-01    0.3959642    0.2268597 -47.80  0.001636201    2.188    0.543
        44 -10.0169     54.2613    162.2420   8.7035488599e+01   3.4843158888e+01    0.4852194    0.2033744  44.57  0.002122387    2.305    0.566
        45  -9.3357    155.0128    232.9948   7.5170444749e+01   4.6117464136e+00    0.1531738    0.1262119  44.29 0.0003383643    1.025    0.025
        46 -10.4978     58.4040    163.0628   8.6175993453e+01   3.4131395085e+01    0.4318883    0.2726879 -74.45  0.001765856    1.444    0.308
        47 -10.7411    133.8048    145.6636   6.4759375105e+01   2.5418561223e+01     1.188303     0.303754 -54.64  0.002823724    5.896    0.830
        48 -11.7553     87.8679    148.1397   7.6729287931e+01   3.3310237791e+01    0.6061925    0.4384829 -32.03  0.002075333    1.883    0.469
        49 -10.8395    111.1828    168.3503   7.4556047150e+01   2.4758992534e+01    0.6785549    0.3713876 -78.57  0.001425402    2.944    0.660
        50  -9.0670     40.8384    146.1575   8.8198346042e+01   4.0084042282e+01    0.1958833    0.1519961  82.26  0.001222264    1.176    0.150
        51  -9.5172     25.1438    137.2479   9.0965270352e+01   4.3682511656e+01    0.2567512    0.1422222  42.27  0.001447785    1.940    0.485
        52 -10.9449    104.3960    132.3964   6.9393903379e+01   3.4137132566e+01    0.7819135    0.4533249 -28.96   0.00292164    2.909    0.656
        53 -11.3911    103.7706    171.2902   7.6774458545e+01   2.5416011480e+01    0.5709515    0.3409377  57.38  0.002687342    1.716    0.417
        54  -9.7339    136.1301    129.4230   6.0533219262e+01   2.8510364651e+01    0.3845038    0.1732138 -43.07  0.001388021    2.318    0.569
        55 -11.4941     89.7087    134.0315   7.3624484748e+01   3.6298068608e+01    0.2696367    0.2389228 -58.61  0.000366214    1.105    0.095
        56  -9.7597    111.4171    127.2005   6.6396500060e+01   3.4024220335e+01    0.2731836    0.2317194   2.68 0.0007985297    1.490    0.329
        57 -11.2211     93.8176    165.8834   7.8241775537e+01   2.8292070629e+01    0.9263204     0.430427  44.56  0.002996934    2.046    0.511
        58  -9.3484     27.9993    128.4839   8.9141586656e+01   4.5429822398e+01    0.1597962    0.1233337  31.94 0.0004248854    1.562    0.360
        59 -10.8451     81.2047    153.3239   7.9272168746e+01   3.3154433094e+01    0.2973735    0.2226206 -55.13 0.0005218503    1.353    0.261
        60 -10.1931     98.5446    122.6333   6.8842427275e+01   3.7445126198e+01    0.2724841    0.2394551  -5.02 0.0009230631    1.386    0.279
        61  -9.9688    117.7171    122.2816   6.3586740655e+01   3.3914252657e+01    0.3089586    0.1886833  21.37  0.001168517    2.560    0.609
        62  -9.3289    135.0000    120.9435   5.8769484339e+01   3.0616229378e+01    0.2619561   0.08882678 -46.04 0.0008069981    2.974    0.664
        63  -9.8947     72.9891    119.4519   7.5294290919e+01   4.2299478191e+01     0.255376    0.1895387 -61.03 0.0003469239    1.234    0.190
        64  -8.1876    162.3009    119.6755   5.1800764436e+01   2.4720658316e+01    0.1599643    0.1267336 -83.60 0.0007028661    1.634    0.388
        65 -10.6085     42.5777    103.9540   8.1135121674e+01   4.9681252058e+01     0.418966    0.1983034  50.91  0.001745666    2.821    0.646
        66 -12.0523     54.5915    112.5862   7.9222991310e+01   4.6338473724e+01    0.6645721    0.4055062 -62.66 0.0008097159    1.447    0.309
        67 -10.9402     50.9816    106.0069   7.9007059899e+01   4.8289267261e+01    0.3601624    0.2703033 -61.39  0.001262174    1.157    0.136
        68  -9.1689    107.8072    116.9099   6.4978457748e+01   3.7061623425e+01    0.2099162     0.196884 -20.83 0.0003283221    1.157    0.136
        69  -8.4610    183.3304    116.3219   4.6266376791e+01   2.0422305381e+01    0.1633011    0.1240288  11.91 0.0007049319    1.696    0.410
        70 -10.3943     63.0942    117.2096   7.7663330496e+01   4.4189459459e+01     0.268265    0.2048844  66.23 0.0005017626    1.481    0.325
        71  -8.6359     79.8338    114.5721   7.2313098075e+01   4.2417893812e+01    0.1838221    0.1304527  52.80 0.0003098363    1.554    0.356
        72 -10.1493     39.8610    113.4231   8.3633147682e+01   4.7773325906e+01    0.2302186    0.1748897  84.77 0.0005951261    1.395    0.283
        73  -9.8392    205.4729    110.3612   4.0293677225e+01   1.6281103730e+01    0.3115656    0.2521769  37.51 0.0008492389    1.283    0.221
        74 -11.3343     33.9000    108.2709   8.4484648844e+01   4.9542563359e+01    0.4133711    0.3198251 -83.58   0.00248641    1.251    0.201
        75 -10.5980    114.9866    108.4986   6.0918027583e+01   3.7553295873e+01    0.2767077    0.2149594 -60.23 0.0006882505    1.354    0.262
        76  -8.8080     72.1199    109.1414   7.3367737403e+01   4.4827994075e+01    0.1831249    0.1575125  83.63 0.0002782283    1.274    0.215
        77 -12.6731     57.0246    132.4066   8.2059578297e+01   4.1399976183e+01    0.9210774    0.6545995 -35.65  0.003889153    1.767    0.434
        78  -9.3868     65.8717    104.3458   7.4173938550e+01   4.6808913291e+01     0.264351    0.1147927  42.17  0.001093866    2.538    0.606
        79  -9.9044     36.4212    101.1698   8.2476300499e+01   5.0932489528e+01    0.2330837    0.1531205  53.18  0.001240213    1.843    0.457
        80  -9.1275     59.0414     93.8380   7.3896425774e+01   5.0100671786e+01    0.2146238    0.1445298  62.65  0.001051721    2.043    0.511
        81  -9.2425     52.3454     92.3109   7.5675179551e+01   5.1259837469e+01    0.1379938   0.09226605 -30.19  0.000704561    1.706    0.414
        82 -10.5363     14.9747     89.3190   8.7001759798e+01   5.5344680702e+01    0.2827342    0.1712321  36.17  0.001192024    1.999    0.500
        83 -10.3457    229.6717    166.1099   4.8654589166e+01   1.4125674166e+00    0.2776351    0.1169705 -42.03  0.001100337    2.552    0.608
        84  -8.4179    159.7068     85.6749   4.3168942715e+01   3.2118291885e+01    0.1604107    0.1251603  12.11 0.0005162448    1.619    0.382
        85  -8.4922    114.4911     83.5767   5.4136841451e+01   4.2988503949e+01    0.1489873    0.1457439  -0.80 9.347702e-05    1.015    0.014
        86 -10.3947     83.3279     70.9204   5.9753848723e+01   5.1460249183e+01    0.4737034    0.3306949 -56.81  0.001818739    1.619    0.382
        87 -10.5078     32.2453     68.6607   7.6858653669e+01   5.8499425736e+01    0.3235285    0.2358731 -25.66  0.001371457    1.399    0.285
        88  -9.1171     66.1393     63.9508   6.3373412979e+01   5.5539643608e+01     0.197106    0.1838798 -67.13 0.0007018883    1.292    0.226
        89  -8.8104    143.3282     63.6585   4.0341506420e+01   4.0143688984e+01    0.1592371    0.1218448 -75.01  0.000136145    1.740    0.425
        90  -9.3957    137.9618     62.9648   4.1424135127e+01   4.1567663359e+01    0.2471575    0.1917932 -76.66  0.001133599    1.730    0.422
        91 -12.4166    188.7849     58.7905   2.9519189384e+01   2.9315673932e+01    0.9721175    0.6231483  31.43 0.0008465699    2.057    0.514
        92 -13.0779    202.6981     49.1266   2.4578573676e+01   2.7173810043e+01     1.079539    0.9753162  56.10  0.004136301    1.138    0.121
        93  -9.3993     45.0229    247.5326   9.6506147484e+01   1.8861123982e+01     0.183534   0.07334343 -66.57 0.0007357261    2.636    0.621
        94  -8.9822     83.2386     61.5856   5.6781399592e+01   5.3300157998e+01    0.1832936    0.1303491  24.97 0.0005055004    1.505    0.335
        95  -9.2353     74.8497     57.8444   5.8358765712e+01   5.5399573314e+01    0.1725296    0.1666974 -82.28 0.0005462488    1.311    0.237
        96 -14.5531     40.4747    224.0351   9.5702831491e+01   2.3642803888e+01     1.009374    0.4771706  88.05  0.005632736    2.110    0.526
        97  -9.0157     37.0124     36.0207   6.5055924172e+01   6.4408068345e+01    0.1883411    0.1202369  48.60  0.001010553    2.529    0.605
        98 -11.0060      8.4168     25.4399   7.3979410370e+01   6.8704259029e+01    0.2634775    0.1748182 -84.98  0.001357986    3.618    0.724
        99 -10.8909    101.7182    244.1412   8.6456574746e+01   1.1574308717e+01    0.4805905    0.2006276 -56.50   0.00178045    2.892    0.654
       100  -9.7039     60.4154     20.9722   4.9487139398e+01   6.3724026237e+01    0.2277095    0.1606799  21.57 0.0005243827    1.326    0.246
       101  -8.6297     25.6544     17.7544   6.2904786899e+01   6.8599081892e+01     0.116052   0.07146639 -11.74 0.0003292377    1.573    0.364
       102  -8.9272    189.5984     15.2085   1.7105909288e+01   3.4876001559e+01    0.1765192    0.1383173  -6.10 0.0007066191    1.614    0.381
       103  -9.1658     76.9915    230.8888   8.9690157976e+01   1.7565083279e+01    0.1550688    0.1393988  76.70 0.0004424701    1.275    0.216
