#   1 NUMBER                 Running object number                                     
#   2 MAG_AUTO               Kron-like elliptical aperture magnitude                    [mag]
#   3 X_IMAGE                Object position along x                                    [pixel]
#   4 Y_IMAGE                Object position along y                                    [pixel]
#   5 X_WORLD                Barycenter position along world x axis                     [deg]
#   6 Y_WORLD                Barycenter position along world y axis                     [deg]
#   7 A_WORLD                Profile RMS along major axis (world units)                 [deg]
#   8 B_WORLD                Profile RMS along minor axis (world units)                 [deg]
#   9 THETA_WORLD            Position angle (CCW/world-x)                               [deg]
#  10 FWHM_WORLD             FWHM assuming a gaussian core                              [deg]
#  11 ELONGATION             A_IMAGE/B_IMAGE                                           
#  12 ELLIPTICITY            1 - B_IMAGE/A_IMAGE                                       
         1 -13.0766    224.3690     42.5533   1.8261039016e+01   2.3391293199e+01     1.550291    0.8141786 -11.01  0.005490287    3.959    0.747
         2 -11.8299    218.2702     30.4877   1.6000122297e+01   2.6450812804e+01    0.8816608    0.3414695 -26.74  0.003367562    3.020    0.669
         3 -13.6821    233.5844     56.0561   2.0413356112e+01   1.9312118455e+01     2.748312    0.6572717 -41.23  0.008983151    3.446    0.710
         4 -13.8070    244.0165     50.9398   1.7969624065e+01   1.7673254775e+01     2.752322     1.001418 -37.61   0.01117836    2.385    0.581
         5  -9.5085    188.5240     14.4213   1.5363575274e+01   3.5747204899e+01      0.23244    0.1378424  -5.69  0.001032531    2.553    0.608
         6  -9.7769    228.7858    206.2018   5.4842322346e+01  -4.0307868346e+00    0.1887157     0.148961  88.13 0.0009549596    2.813    0.644
         7 -11.8114    241.2673    201.2967   5.1676604202e+01  -5.3834894033e+00    0.3690603    0.2571526 -51.21  0.002007326    2.198    0.545
         8 -10.4630    229.8324    197.4413   5.3007601898e+01  -2.9397814808e+00    0.2832183     0.237913  77.80  0.001608996    2.053    0.513
         9 -10.6361    247.9719    195.9651   4.9485062905e+01  -5.7190760406e+00    0.1764063    0.1653179 -78.02  0.001138886    1.738    0.425
        10 -11.1799    249.9141    184.5571   4.6924598927e+01  -4.4205639948e+00     0.440511    0.1490092 -27.13  0.001559664    3.700    0.730
        11 -10.8336    226.3012    185.0055   5.1238026308e+01  -4.4140125859e-01     0.297201    0.1796652  47.58  0.001473726    1.812    0.448
        12 -11.2133    249.5876    171.0506   4.4254466319e+01  -2.3765292210e+00    0.2736106    0.2173806 -33.10 0.0009995452    1.274    0.215
        13 -11.0917    224.5937    176.5283   4.9845545850e+01   1.2131067060e+00    0.4364879    0.2792603  62.45  0.001952138    2.569    0.611
        14 -10.8239    195.6438    171.6374   5.4496118352e+01   7.6197365734e+00    0.2974827    0.2315809  59.72  0.001517845    1.534    0.348
        15 -10.6734    225.4668    170.3582   4.8407382742e+01   2.0544514727e+00     0.295353    0.2527776 -48.80  0.001423231    1.406    0.289
        16 -10.0190    215.4960    170.4781   5.0317230850e+01   3.9259962148e+00    0.2536806    0.1269389 -48.00  0.001035976    2.436    0.590
        17 -11.6049    236.3539    163.3425   4.4950332437e+01   1.1724023264e+00    0.4030671    0.2955752  61.41  0.002083827    1.911    0.477
        18 -11.1372    227.4909    162.2616   4.6322415522e+01   3.0086583556e+00    0.3244082    0.2473033 -42.22  0.001251544    1.397    0.284
        19  -9.5939    167.5048    161.9964   5.8482094800e+01   1.5227428906e+01    0.2111736    0.1332893 -69.46 0.0008105978    2.595    0.615
        20 -10.7313    239.8780    243.8002   5.9360100275e+01  -1.0546287938e+01    0.2801577     0.212816  67.26  0.001551558    3.226    0.690
        21  -9.9101    235.1722    234.7343   5.8696254899e+01  -8.7933044220e+00    0.1815064    0.1385452  40.43  0.001191742    1.483    0.326
        22 -11.8677    236.1788     32.3047   1.4493958729e+01   2.1974933066e+01    0.5039725    0.3474954  -0.23  0.001630476    2.429    0.588
        23 -13.7094    244.6644    146.4336   3.9868181824e+01   2.3594277335e+00     1.379332     1.084773  78.73   0.00726338    1.979    0.495
        24 -14.4527    244.6196    137.1320   3.7824447184e+01   3.8836729208e+00     2.067266     1.595784 -30.54   0.01149452    1.174    0.149
        25  -9.9577    249.4029    222.1726   5.4058054740e+01  -9.3685672161e+00    0.1574091    0.1054613 -36.67 0.0009561194    1.778    0.438
        26 -13.8496    246.4689    116.0004   3.2758013716e+01   6.9954991684e+00     2.259403      1.21427 -52.44  0.009697317    2.225    0.551
        27 -11.6266    244.4924     71.0677   2.2596823510e+01   1.4608038211e+01    0.6945449    0.3322981 -40.82  0.001846326    1.840    0.456
        28 -10.7624    211.4030    159.1788   4.8699420130e+01   6.6871942467e+00    0.4255685    0.1896156  49.95  0.001646668    2.450    0.592
        29 -10.7867    235.4105    156.8730   4.3735044421e+01   2.3977845856e+00     0.247956    0.2262185 -75.90  0.001018557    1.479    0.324
        30  -9.9917    191.0072    150.0151   5.0780981315e+01   1.2613243334e+01    0.2394782    0.1929194 -83.93  0.001140786    1.732    0.423
        31 -12.9489    234.6961     88.0297   2.7974823533e+01   1.4096330247e+01     1.183399    0.3278374 -40.05   0.00389143    3.128    0.680
        32 -11.3355    211.1625    145.6874   4.5747519333e+01   9.1496016260e+00    0.4672544    0.3032233 -53.10  0.001961446    1.857    0.461
        33 -10.1999    195.2928    133.2762   4.6009019041e+01   1.4891282760e+01    0.3152566    0.1778741 -57.57  0.001177836    2.490    0.598
        34 -11.4813    227.0262    130.1198   3.9231715529e+01   8.5963767193e+00    0.3629533    0.2434294 -56.12  0.001546663    1.838    0.456
        35 -10.7536    214.2330    123.1076   3.9885272109e+01   1.2584919613e+01    0.3948306    0.2931045  82.63  0.001809617    1.939    0.484
        36 -10.6610    224.0134    119.8487   3.7348502378e+01   1.1032246450e+01    0.3365358    0.2521961  71.45  0.001641746    1.701    0.412
        37  -9.5293    206.8798    115.7404   3.9463360098e+01   1.5575771605e+01    0.3016068    0.1918153 -61.20  0.001235377    2.122    0.529
        38  -9.9858    223.9778    114.3612   3.6043466904e+01   1.2001767451e+01    0.3710104     0.242727  68.74  0.001654959    2.013    0.503
        39 -10.0629    219.5618    109.4012   3.5607061575e+01   1.3850231765e+01    0.3160431    0.2374619 -60.74  0.001034845    1.533    0.348
        40 -10.2025    224.5740    106.5501   3.4056455594e+01   1.3230438337e+01    0.5477524    0.2150622 -49.25  0.001413857    3.077    0.675
        41  -9.2044    202.3678    104.8171   3.7572947909e+01   1.8624725719e+01    0.2253796    0.1430584 -26.46 0.0009533489    1.748    0.428
        42 -10.1896    168.8391    104.7252   4.4432599703e+01   2.6649280006e+01    0.3206442    0.1841138 -49.57  0.001263823    1.865    0.464
        43 -10.1032    192.4584    100.9943   3.8489761566e+01   2.1685009866e+01    0.4133883    0.2647786 -63.66  0.001661199    2.117    0.528
        44 -10.0048    221.8711     98.1330   3.2447648065e+01   1.5290871700e+01    0.4837187    0.1686162 -42.82  0.001656171    2.724    0.633
        45  -9.2997    211.6720    214.3136   5.9492799613e+01  -2.3239892315e+00    0.1183764    0.1023021  65.84 0.0006502851    1.670    0.401
        46 -11.2674    152.3781     93.8413   4.5233550776e+01   3.2752250218e+01     0.747839    0.2289082 -41.39  0.002223407    3.241    0.691
        47 -12.4464    248.5182     81.3305   2.4462165212e+01   1.2153560142e+01     1.307749    0.5330381 -34.74  0.005309536    2.237    0.553
        48 -11.8401    228.6695     88.3339   2.8955313538e+01   1.5398985699e+01    0.6012021    0.1609209 -41.88   0.00188101    3.367    0.703
        49 -12.5765    225.0152     86.2879   2.9015627216e+01   1.6571873334e+01      1.10076     0.311991 -47.03  0.003159405    4.138    0.758
        50 -10.4928    217.2623     90.9732   3.1427229586e+01   1.7579873053e+01    0.4443047    0.3061036 -81.11  0.001957253    2.034    0.508
        51 -10.4318    170.9055     88.3786   3.9491497272e+01   2.9302581508e+01    0.4542643    0.2549194 -61.19  0.001597519    2.686    0.628
        52 -10.7047    187.0868     86.2929   3.5612420003e+01   2.5682283283e+01    0.5677543    0.3578713 -68.41  0.002206424    2.330    0.571
        53  -9.4710    209.5680     85.4438   3.1307114172e+01   2.0343867429e+01     0.314218    0.1419248 -35.81  0.001058943    2.142    0.533
        54 -12.3740    228.6933     78.5083   2.6543607449e+01   1.6995700928e+01    0.5063178    0.4018646  17.71   0.00258413    1.665    0.399
        55 -14.1918    234.7331    122.0248   3.6030073499e+01   8.3864222022e+00      2.65935    0.7025359 -45.87  0.007301634    4.761    0.790
        56  -8.7307    205.6544     81.6750   3.0993510119e+01   2.1929220449e+01    0.1549516    0.1177394  19.67 0.0007050241    1.742    0.426
        57 -10.4197    172.3900     80.2277   3.6872788613e+01   3.0426860903e+01    0.3496207    0.2722432 -51.77  0.001411817    1.338    0.253
        58 -10.5288    172.5211     75.9578   3.5623733118e+01   3.1151342250e+01    0.3879052    0.2178079 -33.04  0.001407663    1.858    0.462
        59 -12.2458    215.4439     76.2002   2.7973437562e+01   2.0478875344e+01     0.682158    0.3545701 -52.34  0.002753247    2.120    0.528
        60 -10.1297    161.3803     77.2451   3.8363123325e+01   3.3706610685e+01    0.2841599     0.196788 -46.96  0.001044025    1.497    0.332
        61 -12.0157    199.6323     63.6604   2.7211006160e+01   2.6366449510e+01      1.05143    0.2762606 -31.28  0.002948583    4.300    0.767
        62  -9.1933    182.0000     68.9636   3.1766629533e+01   2.9953467538e+01     0.247247     0.086715 -34.38 0.0006961886    2.889    0.654
        63 -12.6722    220.0000     63.9995   2.4188653725e+01   2.1321037128e+01    0.9269639    0.2506907 -42.31  0.002969177    3.336    0.700
        64 -10.4372    159.4362     66.2823   3.5516746801e+01   3.6106044093e+01    0.2956442    0.1552497 -29.02      0.00114    2.129    0.530
        65 -12.0318    213.8939     64.7876   2.5282152772e+01   2.2671852550e+01    0.4286575    0.3400724  86.86   0.00223361    1.333    0.250
        66  -9.7888    194.0082     64.2244   2.8299802206e+01   2.7688738991e+01     0.286628    0.1781153 -48.66  0.001136063    1.645    0.392
        67  -9.9768    172.2943     62.2543   3.1684501623e+01   3.3517459972e+01    0.3820547    0.2099501 -17.59  0.001402338    2.665    0.625
        68 -12.2470    225.9548     53.9927   2.0879675318e+01   2.1398867825e+01    0.7027063    0.3436847 -22.44  0.002741475    2.767    0.639
        69  -9.6060    179.4764     59.0129   2.9389092161e+01   3.2200409655e+01    0.3505882    0.1281329 -39.75   0.00120685    2.668    0.625
        70 -11.3117    209.4284     58.1356   2.4220698452e+01   2.4784369096e+01    0.3615029    0.2230777 -43.41  0.001334288    1.556    0.357
        71  -9.9850    193.6456     54.9625   2.5811727194e+01   2.9212272171e+01    0.3638518    0.2327196  -0.69  0.001446206    2.660    0.624
        72  -9.8514    160.8265     55.8055   3.2033075486e+01   3.7457321973e+01    0.2134062    0.1778552 -70.96 0.0008731094    1.349    0.259
        73 -11.1678    142.9626     55.6145   3.5854414133e+01   4.1951060046e+01    0.5851166    0.1720492 -42.93  0.001739463    3.774    0.735
        74 -10.6512    209.3905     51.7991   2.2571304252e+01   2.5733076774e+01    0.2463621    0.1861039 -24.85 0.0008955923    1.476    0.322
        75 -10.1024    187.5184     52.4540   2.6117856957e+01   3.1145431105e+01    0.4283387    0.2899012  -1.02  0.001840284    2.243    0.554
        76 -10.5762    199.6147     49.8974   2.3497896503e+01   2.8450168461e+01    0.5276216    0.1455292 -35.72  0.001706906    3.307    0.698
        77 -10.5174    149.5231     47.4879   3.1779204954e+01   4.1569804233e+01    0.2601743    0.1461025 -31.38  0.001107305    1.872    0.466
        78  -9.6669    210.4988     46.9996   2.1167854893e+01   2.6147091295e+01    0.2211984    0.1340306 -37.09  0.001035681    1.614    0.381
        79 -10.9176    202.7871     42.5740   2.1073810303e+01   2.8685001551e+01    0.3694171    0.2506406 -40.91  0.001843769    1.451    0.311
        80 -11.3972    213.2172     41.4970   1.9388853058e+01   2.6240069541e+01    0.4892577    0.2637413 -86.31  0.001956617    2.567    0.610
        81 -10.1523    178.4847     35.5218   2.2743323807e+01   3.5822452708e+01    0.4243916    0.1448974 -28.90  0.001467206    3.157    0.683
        82 -10.5870    147.3209     33.9014   2.7822243257e+01   4.3994405676e+01    0.4085592    0.1781796 -27.82  0.001595563    2.491    0.599
        83 -10.5552    167.7003     31.7700   2.3396834356e+01   3.9074909840e+01    0.5061118     0.197774 -30.39  0.001917799    2.665    0.625
        84  -9.9422    186.8500     30.4526   2.0027925930e+01   3.4319741393e+01    0.4694034    0.2302247 -63.97  0.001718621    3.013    0.668
        85 -10.9595    244.9466     26.3138   1.2278053246e+01   2.0738898443e+01    0.3166472    0.2085059 -21.35  0.001416518    1.910    0.476
        86 -11.7556    238.6289     76.3388   2.4615326674e+01   1.5090389583e+01    0.7329937    0.2787951 -35.63 0.0008808953    2.396    0.583
        87  -9.4964    193.8633     25.6996   1.7751737052e+01   3.3113173248e+01    0.2940964    0.1506042 -55.78   0.00124297    2.216    0.549
        88 -10.0520    245.9767     18.4352   1.0448018812e+01   2.1467476955e+01    0.2788198    0.1763709 -35.47  0.001053018    1.565    0.361
        89 -12.9057    246.2696     98.3757   2.8726548470e+01   9.9165042676e+00      1.71316    0.5573009 -45.45  0.002474895    3.091    0.677
