#   1 NUMBER                 Running object number                                     
#   2 MAG_AUTO               Kron-like elliptical aperture magnitude                    [mag]
#   3 X_IMAGE                Object position along x                                    [pixel]
#   4 Y_IMAGE                Object position along y                                    [pixel]
#   5 X_WORLD                Barycenter position along world x axis                     [deg]
#   6 Y_WORLD                Barycenter position along world y axis                     [deg]
#   7 A_WORLD                Profile RMS along major axis (world units)                 [deg]
#   8 B_WORLD                Profile RMS along minor axis (world units)                 [deg]
#   9 THETA_WORLD            Position angle (CCW/world-x)                               [deg]
#  10 FWHM_WORLD             FWHM assuming a gaussian core                              [deg]
#  11 ELONGATION             A_IMAGE/B_IMAGE                                           
#  12 ELLIPTICITY            1 - B_IMAGE/A_IMAGE                                       
         1 -14.1482    150.1220      8.9961   5.8290715286e+01   4.6486460389e+01    0.6626702    0.3814494 -48.77  0.002844637    2.033    0.508
         2 -14.3172    178.4052      7.7889   5.3819108755e+01   3.9307461500e+01    0.7096097    0.3653388 -86.66  0.002860679    2.522    0.604
         3 -13.7313    156.0654      2.5449   5.5162216935e+01   4.5550404970e+01    0.6895971    0.1306947  62.93  0.002131658    3.705    0.730
         4 -12.0592     90.2179      7.3836   7.0746137936e+01   6.0789353642e+01    0.1776767    0.1239966  62.02 0.0009515953    1.659    0.397
         5 -12.3098    115.6818      1.6019   6.1907995178e+01   5.5655357264e+01    0.2518414    0.1559549  61.84 0.0006108912    1.532    0.347
         6 -12.5359     23.5201      2.1179   9.4843808176e+01   7.2151914624e+01    0.2708201    0.1476156  21.05  0.001031015    1.929    0.482
         7 -11.0575    165.1526    239.0934   1.1117375122e+02   4.4547111953e+00    0.2344998    0.1523274 -53.73  0.001460572    2.076    0.518
         8 -16.4977    243.4696    225.9176   9.5583779440e+01  -6.0546533390e+00     3.553514     1.172545 -29.95   0.01651754    3.323    0.699
         9 -20.6955     96.3012    195.3397   1.1892147490e+02   2.2630127072e+01     8.507526     5.999579  51.36    0.0483855    1.234    0.190
        10 -10.8090    179.0250    235.2963   1.0818273121e+02   2.7699966346e+00    0.1582852    0.1124587  35.85 0.0002269954    1.111    0.100
        11 -11.2532    190.9148    188.4767   9.8535374328e+01   7.5366269448e+00    0.1826709    0.1627161  28.60 0.0004168509    1.054    0.051
        12 -10.9995      8.8931    186.5528   1.3566394764e+02   3.4782564600e+01    0.3370992    0.1318056  62.22    0.0018323    2.274    0.560
        13 -11.4334    217.4591    185.9862   9.3086896849e+01   3.1407554420e+00    0.2238034    0.1752149  49.58 0.0005638128    1.476    0.322
        14  -8.1810     17.6168    221.1839   1.3594712520e+02   2.7437687891e+01    0.1844729   0.08366968  59.38   0.00117431    1.693    0.409
        15 -11.2575     12.6141    221.0721   1.3677775392e+02   2.7941127894e+01    0.1513475    0.1348026  23.87   0.00127416    1.801    0.445
        16 -12.3002    192.7201    217.7266   1.0311779702e+02   2.9171504246e+00    0.2678278     0.161531  36.68 0.0008335891    1.372    0.271
        17 -11.3814      4.6718    177.5705   1.3596067459e+02   3.6935031679e+01    0.1871192    0.1350534  77.72 0.0005202803    1.039    0.038
        18 -11.1136    193.8438    175.8430   9.5603732587e+01   9.0105141380e+00    0.2072845    0.1698404  16.93 0.0004420347    1.180    0.152
        19 -12.6758    177.2335    215.6411   1.0566866985e+02   5.8058013328e+00    0.3157766     0.249772  31.47  0.002028242    1.075    0.070
        20 -12.6809    187.3687    168.0138   9.5349665721e+01   1.1553901360e+01    0.3195049     0.294499  -3.26    0.0011801    1.086    0.080
        21  -9.0502     13.1261    216.8404   1.3649161418e+02   2.8651977432e+01    0.1368974   0.09846344  70.14 0.0004609116    1.039    0.038
        22 -12.9961      2.5175    156.9394   1.3512945573e+02   4.1366689197e+01    0.3449351    0.1513432 -69.68  0.001236111    1.866    0.464
        23 -10.6523     10.4023    215.2095   1.3687465046e+02   2.9203464526e+01    0.1027818   0.07303528  68.58 0.0003613752    1.052    0.049
        24 -11.2216    221.8273    136.7881   8.2035111250e+01   9.8504132662e+00    0.2088522    0.1768581   7.81 0.0003929127    1.151    0.131
        25 -11.5038    177.5115    135.0453   9.0295814568e+01   1.9503760813e+01    0.2189137    0.1465366 -38.33 0.0004298727    1.522    0.343
        26 -13.2608    248.5739    127.4059   7.5421093958e+01   6.0048496590e+00    0.3760363      0.31379 -85.84  0.002102307    1.796    0.443
        27 -12.4394    141.9059    128.7339   9.6880352195e+01   2.8320060367e+01    0.3292973    0.2246785  24.46 0.0008233107    1.851    0.460
        28 -11.9239    147.7940    122.9566   9.4108203189e+01   2.8283205810e+01     0.252915    0.2146879  47.65 0.0002908644    1.170    0.145
        29 -11.3560    183.5919    214.7431   1.0434036899e+02   4.8642504761e+00    0.2024272    0.1548711  15.71 0.0005218399    1.338    0.253
        30 -12.7345    125.5118    117.8119   9.8368734056e+01   3.3976300376e+01    0.2788103    0.2395537  54.98 0.0002353864    1.191    0.160
        31 -12.0811    205.8647    212.8568   9.9942708023e+01   1.3966569201e+00    0.2152408    0.1693619  23.30 0.0007068517    1.057    0.054
        32 -13.4435    117.4779    122.0341   1.0143214209e+02   3.4616876897e+01    0.3430372    0.2832002  55.49  0.001071675    1.246    0.197
        33 -13.5550    114.2996    117.7107   1.0126309008e+02   3.6171798032e+01    0.4702314    0.3043284 -69.20  0.001204215    1.961    0.490
        34 -13.4736     36.7880    119.9254   1.2308055052e+02   4.6725755326e+01    0.4824321      0.25289 -73.71  0.002135721    1.695    0.410
        35 -12.1151    190.5287    205.0381   1.0147980160e+02   5.0906323334e+00    0.3242231    0.1915984  41.49 0.0004477266    1.469    0.319
        36 -11.4873    187.9787    210.9528   1.0292296281e+02   4.6675161254e+00    0.2491848    0.1931197  54.20  0.001043936    1.460    0.315
        37 -15.4207    247.7782     86.7119   6.6006295427e+01   1.2188059361e+01     1.311701    0.6774953 -32.94  0.005999047    1.724    0.420
        38 -11.8212    144.3931    115.4871   9.3084712126e+01   3.0551820561e+01    0.5147482    0.3083158  69.03  0.001890485    2.735    0.634
        39 -12.6922     20.1300    115.8906   1.2711161217e+02   4.9100342470e+01    0.2110585    0.1688181 -78.80  0.000674182    1.009    0.009
        40 -11.4723     43.9248    113.9717   1.2017330499e+02   4.7389139532e+01    0.1917966    0.1624031 -73.35 0.0003397614    1.004    0.004
        41 -11.2061    190.7387    208.9902   1.0209030213e+02   4.4799771203e+00    0.2019742    0.1410558  26.59 0.0002365489    1.308    0.235
        42 -10.9153    159.0901    112.3451   8.8817495106e+01   2.7956228295e+01    0.2104672     0.190924  49.83 0.0003560541    1.110    0.099
        43 -11.0353     21.5704    210.1003   1.3467963515e+02   2.9069488752e+01    0.1935809   0.09790464  69.01   0.00122333    1.634    0.388
        44 -11.1124      4.0093    209.0587   1.3767838604e+02   3.0907670553e+01    0.1228198     0.073899  89.02 0.0005550763    1.316    0.240
        45 -11.2755    165.9989    233.6148   1.1030493175e+02   5.0763653988e+00    0.1533579    0.1503606 -85.41    0.0007863    1.299    0.230
        46 -11.4852      1.8229    105.0372   1.3091535088e+02   5.2778583784e+01    0.2602482    0.1117992 -66.07  0.001412998    1.730    0.422
        47 -14.6405    248.2961    114.4724   7.2504147222e+01   7.9749859529e+00    0.7612792    0.4023105 -41.94  0.003496729    1.875    0.467
        48 -10.8523    164.1195    229.5893   1.1010873601e+02   5.9481399936e+00    0.1539429    0.1141361  40.11 0.0009923161    1.083    0.077
        49 -11.0868     94.8903    103.3347   1.0316602695e+02   4.2874485475e+01    0.1919247    0.1835659  39.17 0.0004269502    1.111    0.100
        50 -11.1573     53.7729    250.5902   1.3161274326e+02   1.8507205000e+01    0.1480308   0.06701235  50.77 0.0009372691    1.603    0.376
        51 -11.1207    221.2361    231.4496   1.0020550960e+02  -3.3565567018e+00     0.176729    0.1423126 -13.90 0.0002470424    1.339    0.253
        52 -11.1026    156.1203     97.3718   8.5505758924e+01   3.1573655914e+01    0.2060159    0.1868764  51.19  0.000291525    1.117    0.105
        53 -11.8410     12.8348    197.1934   1.3552813445e+02   3.2350640543e+01    0.1772306    0.1734408  29.87 0.0007438781    1.592    0.372
        54 -10.7024    142.7882     95.8175   8.8261646674e+01   3.4918392749e+01    0.2063346      0.18212 -82.77  0.000527592    1.313    0.239
        55 -12.4785      8.8072    196.7919   1.3623920482e+02   3.2791240703e+01    0.3361953    0.1523837  82.66  0.002003064    1.897    0.473
        56 -11.3960     19.0817     95.0622   1.2455114032e+02   5.3930461545e+01    0.1883933    0.1273319  74.36  0.001007767    1.672    0.402
        57 -11.0110    118.8452     89.2514   9.2631203292e+01   4.1417755695e+01    0.2143909    0.1988476 -83.65  0.001145252    1.194    0.163
        58 -10.8955    111.1082     89.2936   9.4799129355e+01   4.2963048890e+01    0.2002385    0.1862771  40.61 0.0004928145    1.114    0.102
        59 -12.4540    176.2489    223.5523   1.0702789043e+02   4.8291079839e+00     0.373381    0.2241759  55.62  0.002011494    1.956    0.489
        60 -11.6207     73.0279     87.9452   1.0591373964e+02   4.9785843734e+01    0.3017729    0.2064152  21.64  0.001072702    1.789    0.441
        61 -12.1012     42.8542     82.0997   1.1441513824e+02   5.4825838839e+01    0.3360642    0.2454635  47.24  0.001974982    1.629    0.386
        62 -10.6255     94.0081     74.0405   9.5352363161e+01   4.9369342955e+01    0.1716462    0.1578103 -32.82 0.0003529662    1.016    0.016
        63 -14.4632    249.8148     58.3199   5.8877813011e+01   1.5754208053e+01     1.089677    0.3152685 -35.49  0.003982489    2.801    0.643
        64 -10.9729     59.4753     58.0211   1.0197135795e+02   5.8081058322e+01    0.1974876    0.1742567  14.12 0.0009271938    1.224    0.183
        65 -10.8684     64.2478     41.9675   9.4555664250e+01   6.0495413686e+01    0.1831378    0.1512644 -28.24 0.0002970564    1.065    0.061
        66 -12.5269    170.8312    230.0125   1.0893716625e+02   4.8031054730e+00    0.2123885    0.1628832  52.47 0.0007264382    1.323    0.244
        67 -11.5385     60.6873     27.8973   9.0233278116e+01   6.3434139884e+01    0.3498632    0.2060521 -21.32  0.001776062    1.769    0.435
        68 -11.6454    195.0092    193.3685   9.8626328874e+01   6.0441664030e+00    0.2816484    0.2214556  72.21  0.001557445    1.926    0.481
        69 -11.1377    181.0271    245.6883   1.0922283598e+02   1.1202141909e+00    0.1487183    0.1111234  34.58 0.0005054018    1.025    0.024
        70 -10.8019    152.1374    245.4356   1.1427260737e+02   5.6118552727e+00   0.09348135   0.07544515 -23.21 0.0006378592    1.686    0.407
        71  99.0000     30.1447    241.5814   1.3491322867e+02   2.2634204277e+01    0.4205357    0.1996769 -61.07  0.002673478    2.686    0.628
        72 -11.3979    179.8818    190.3669   1.0102627319e+02   9.2440713112e+00    0.1819757    0.1767777  39.45 0.0003423599    1.163    0.140
        73 -11.2689    171.7753    226.6122   1.0829020432e+02   5.1287289697e+00     0.177888    0.1484956   0.18  0.001196192    1.380    0.275
