#   1 NUMBER                 Running object number                                     
#   2 MAG_AUTO               Kron-like elliptical aperture magnitude                    [mag]
#   3 X_IMAGE                Object position along x                                    [pixel]
#   4 Y_IMAGE                Object position along y                                    [pixel]
#   5 X_WORLD                Barycenter position along world x axis                     [deg]
#   6 Y_WORLD                Barycenter position along world y axis                     [deg]
#   7 A_WORLD                Profile RMS along major axis (world units)                 [deg]
#   8 B_WORLD                Profile RMS along minor axis (world units)                 [deg]
#   9 THETA_WORLD            Position angle (CCW/world-x)                               [deg]
#  10 FWHM_WORLD             FWHM assuming a gaussian core                              [deg]
#  11 ELONGATION             A_IMAGE/B_IMAGE                                           
#  12 ELLIPTICITY            1 - B_IMAGE/A_IMAGE                                       
         1 -10.6783     32.7946     63.7823   1.0925654732e+02   5.9930891246e+01     1.539615    0.4613894 -42.53   0.00546225    3.949    0.747
         2 -10.4517      9.8705     19.0857   1.0626641609e+02   7.1024815653e+01     1.263987    0.3780167 -31.33   0.00400753    6.383    0.843
         3 -10.9958     23.8336     32.2790   1.0399919796e+02   6.7378416188e+01     1.405835     0.412615 -43.63  0.003691028    2.860    0.650
         4 -10.1778      4.8769     41.9168   1.1538899662e+02   6.6670723619e+01    0.7553754    0.2799307 -68.68  0.002887284    2.290    0.563
         5  -9.8628     63.8227      2.9861   7.2628979691e+01   6.6932042423e+01    0.4960343    0.2629065 -36.61  0.002506408    1.946    0.486
         6  -9.2146     78.1802      4.4737   6.8350223190e+01   6.4037129242e+01    0.6031333    0.2820954  -9.00  0.002401786    2.940    0.660
         7  -9.9519     60.8265     31.5206   8.7548071296e+01   6.3128794486e+01     0.969027    0.4637111 -29.09  0.002791648    2.402    0.584
         8 -10.3365     73.4422     17.7744   7.6558290469e+01   6.3226868406e+01     1.430323    0.3328488 -31.95  0.004390806    4.441    0.775
         9 -10.0921     50.5360     15.4762   8.4580530421e+01   6.7348558399e+01     1.287993    0.6956338   3.49   0.00509788    3.695    0.729
        10 -10.0539     69.5917     40.6717   8.7870225208e+01   6.0096726660e+01     1.102748    0.3862704 -39.68  0.003772932    2.692    0.629
        11 -10.0514     76.2355     32.0929   8.1967787653e+01   6.0484750636e+01    0.6059466    0.4207614  69.36  0.001115947    2.435    0.589
        12 -10.0888     46.2415     29.5025   9.2781630228e+01   6.5532682637e+01    0.4780566    0.2489697 -54.08  0.001028291    2.114    0.527
        13  -9.5766     62.9572     20.9162   8.2009191625e+01   6.4570784078e+01    0.5045629    0.2879536 -51.65   0.00155426    2.361    0.576
        14  -9.9094     64.5572     13.3599   7.7737007598e+01   6.5436366164e+01    0.3919494    0.3201344 -28.78 0.0002092927    1.200    0.167
        15  -8.9162    112.5306     15.9487   6.3938599862e+01   5.5191150684e+01    0.3789003     0.228643 -25.58  0.001364098    1.663    0.399
        16  -9.0481    114.1824     10.0853   6.1026254987e+01   5.5459838269e+01    0.3706625    0.2221097  28.51 0.0003249161    1.837    0.456
        17  -8.3566    104.0367     15.4831   6.5925545754e+01   5.7216840775e+01     0.383625    0.2027323  10.32  0.001409803    3.141    0.682
        18  -7.4836    158.5710     20.5309   5.6288492584e+01   4.2966950741e+01    0.1446304    0.1407325  66.97 4.790125e-05    1.020    0.020
        19  -9.2062     96.2794     14.9953   6.7863311882e+01   5.9003966301e+01    0.6237798    0.2525581 -17.99  0.002169856    3.177    0.685
        20 -10.5662     37.3335      9.5978   8.7747398370e+01   7.0072056777e+01     0.814424    0.2879384 -44.06  0.002173285    2.660    0.624
        21 -10.1758     28.8132     10.9765   9.2741083655e+01   7.0847111095e+01    0.6867201    0.3690127  31.18  0.003910612    2.097    0.523
        22  -9.5782      2.2439     14.2535   1.0865631482e+02   7.2415212097e+01    0.6587589      0.21524 -66.13  0.002680098    3.775    0.735
        23  -9.0401     19.5373      8.9213   9.6708954060e+01   7.2127628601e+01    0.4205876    0.2485964 -21.37  0.002004026    1.711    0.415
        24  -9.7400     18.1077      3.8722   9.4999185562e+01   7.3116065209e+01    0.4715083      0.30977  34.24  0.002724017    1.909    0.476
        25 -10.0623      6.3416      5.3982   1.0266802353e+02   7.3805129385e+01    0.3926501    0.2690008 -27.85  0.001610175    1.236    0.191
        26  -9.3475      2.6098      3.2439   1.0396378356e+02   7.4433921871e+01    0.3274364    0.1425288 -41.55  0.001884492    1.716    0.417
        27  -9.4549     85.2383     13.0141   7.0283738042e+01   6.1584323010e+01    0.4228024     0.256859 -52.99  0.001626714    2.476    0.596
        28  -9.2077    133.3166     11.7374   5.7609534134e+01   5.0533765407e+01    0.4374517    0.1979626 -47.74   0.00153512    2.862    0.651
        29  -7.8285     80.4731     12.6095   7.1639071667e+01   6.2593388943e+01    0.2553909    0.1618778 -50.49  0.001138751    2.174    0.540
        30  -7.9879    141.8159     12.1811   5.6174655254e+01   4.8294585040e+01     0.216598    0.1915586 -56.25 0.0005544213    1.237    0.192
        31  -7.0663    147.2799      9.2858   5.4130388625e+01   4.7158501059e+01    0.1469336    0.1012844  34.64 0.0003167663    1.517    0.341
        32  -8.1644    137.5886      8.6848   5.5603395375e+01   4.9747753011e+01    0.2616522    0.1428784 -14.01  0.001058642    2.043    0.511
        33  -8.9576    126.9176      8.9436   5.7768488281e+01   5.2444867266e+01    0.2259056    0.1730629  33.09 0.0004394523    1.281    0.219
        34  -8.8558    102.1704      8.2545   6.3174800271e+01   5.8473204481e+01    0.3559304    0.2191421 -53.23  0.001618459    2.285    0.562
        35  -8.1514     97.8218      6.0899   6.3322563839e+01   5.9689562592e+01    0.2651623     0.178463   0.38 0.0006188522    1.585    0.369
        36  -8.1786     96.0071      2.9775   6.2337947907e+01   6.0417842114e+01    0.2032426    0.1834771  17.11 0.0003535015    1.029    0.028
        37  -8.2410    143.1488      5.7301   5.3491483957e+01   4.8586653758e+01    0.4185157    0.1665688 -32.01  0.001625121    2.479    0.597
        38  -9.2737    110.2138      5.4188   5.9914581763e+01   5.6892327577e+01    0.5529162    0.2590565 -23.62  0.002387975    2.145    0.534
        39  -8.7653    126.0790      4.7496   5.6218397302e+01   5.3067681800e+01    0.2406804     0.198575  -3.63 0.0007985642    1.255    0.203
        40  -8.7852    115.1267      4.2377   5.8282945403e+01   5.5826782366e+01    0.2749966    0.1886862 -26.12 0.0005058404    1.501    0.334
        41  -9.1479    135.2980      2.8465   5.3730553844e+01   5.0892739413e+01    0.4382849    0.2375018  27.31  0.001847901    2.210    0.548
        42  -7.7682    139.4774      3.5039   5.3262114647e+01   4.9750528481e+01    0.2617864    0.1431381 -12.48  0.001141533    2.049    0.512
        43  -8.8054     89.0605      2.7018   6.4124956936e+01   6.1970613557e+01     0.256009    0.1812182  -5.47 0.0007775658    1.402    0.287
        44  -7.3737    180.7476      1.3723   4.6745298322e+01   3.8975235790e+01    0.1962825    0.1186816  61.56 0.0004050354    1.526    0.345
        45  -8.1909    172.8451      1.3920   4.7683412655e+01   4.1084222929e+01    0.2047889    0.1286109  70.96 0.0003284268    1.483    0.326
        46  -8.0704    104.0905      2.3258   5.9977288076e+01   5.8636789932e+01    0.2542843    0.1683034  18.66 0.0009283345    1.600    0.375
        47 -10.5817    131.6119    119.6497   9.2736734658e+01   3.2269286518e+01    0.9772448    0.6098128 -85.88  0.003304834    3.270    0.694
        48 -10.1134    202.8432    250.0893   1.0084892390e+02  -1.0255778535e+00    0.4265999    0.1361232  40.30  0.002145982    2.291    0.563
        49 -10.5716    198.4389    246.9033   1.0115587213e+02  -4.8690351176e-02    0.4628386    0.1366399  45.64  0.002090652    2.936    0.659
        50 -10.0447    171.0747    249.0795   1.0592631007e+02   3.7960549915e+00    0.3275623    0.1624943  49.64   0.00193816    1.793    0.442
        51 -11.0258    121.3190    108.5328   9.2679433147e+01   3.6675310449e+01     1.652251    0.6623332 -46.63   0.00589637    2.493    0.599
        52 -10.2032    128.0349    101.1158   8.9082648912e+01   3.6852025782e+01    0.8886012    0.5246038 -25.13  0.002304122    2.563    0.610
        53 -10.5741    123.3804     91.2251   8.7631942311e+01   3.9874375052e+01    0.9734448    0.5697762 -30.02  0.002281774    2.139    0.532
        54  -7.3109     86.9383    134.0000   1.0688784913e+02   3.7213822210e+01    0.2995558   0.07450309  37.99 0.0009513955    4.070    0.754
        55  -8.2387     82.5272    130.5521   1.0741996837e+02   3.8652856440e+01    0.4831016    0.2423305 -85.00  0.001676185    3.878    0.742
        56  -8.6394    240.4869    132.0504   7.3775008149e+01   7.0431853473e+00    0.2021437     0.122797 -29.54 0.0004542998    1.560    0.359
        57  -9.7751     98.4967    128.5301   1.0294342380e+02   3.6547742470e+01    0.5806345    0.3389433  75.82  0.002310866    2.833    0.647
        58  -7.9381    160.5060    129.0281   8.8202840332e+01   2.4352291493e+01    0.2247449    0.1460635 -42.86  0.001037847    1.607    0.378
        59  -8.9300    237.4948    127.8976   7.3324134971e+01   8.2056937567e+00    0.2047275    0.1945336 -49.54  0.001066772    1.297    0.229
        60  -7.2848    176.0163    127.7510   8.4596155876e+01   2.1235846287e+01    0.1771789    0.1212119  47.26 0.0001985171    1.408    0.290
        61  -9.7526     27.6028    123.2559   1.2077969797e+02   4.6913837597e+01    0.5308325    0.2450187  67.71  0.002441732    2.616    0.618
        62  -9.7395    138.9712     92.0496   8.3885679288e+01   3.6310993954e+01    0.6910151    0.4218964 -47.30  0.001673781    1.673    0.402
        63 -10.5131    140.6922    117.0876   8.9944922515e+01   3.0909859246e+01     1.008641    0.3686157 -46.48  0.002076491    2.818    0.645
        64 -10.1879    139.5212    103.0557   8.6722846282e+01   3.3992784266e+01    0.9482067    0.4238913 -49.51  0.001842371    2.413    0.586
        65  -9.4658     41.5143    122.0659   1.1694069718e+02   4.5825465302e+01    0.4915036    0.2213019 -86.84  0.001961591    2.800    0.643
        66 -10.8861    133.3801    109.8760   8.9965175136e+01   3.3920731402e+01    0.9739743    0.4582866 -48.00  0.003090756    2.171    0.539
        67  -8.6357    158.8431    122.3263   8.7014147875e+01   2.5981850079e+01    0.2398607    0.1838735  66.91 0.0008584478    1.504    0.335
        68  -8.7009    151.9079    120.8314   8.8221301751e+01   2.7771643899e+01    0.2882665    0.1960288 -70.22  0.001234566    2.108    0.526
        69 -10.2218     91.8219    113.0536   1.0158000946e+02   4.1096176344e+01    0.6125985    0.4270054 -76.97  0.001741372    1.630    0.386
        70  -9.0780     93.3898    103.2708   9.8966566909e+01   4.3016681906e+01     0.536756    0.3333191  20.80  0.002299743    2.459    0.593
        71  -8.1904      1.3979    116.2286   1.2693732241e+02   5.0474867086e+01    0.2621647   0.08852114 -81.69  0.001056193    2.463    0.594
        72  -9.2644    152.9623    115.2439   8.6633857773e+01   2.8631200070e+01    0.3259594    0.2688896 -30.97  0.001534557    1.290    0.225
        73  -8.4989     14.4988    104.9975   1.2227230385e+02   5.2087167521e+01    0.1680934     0.124984 -78.25 0.0003835347    1.067    0.063
        74  -9.0818     20.5532    115.3719   1.2177001025e+02   4.9287897231e+01     0.373504    0.1430082  49.98  0.001763656    2.787    0.641
        75  -9.7475     14.1049    111.2251   1.2307386309e+02   5.0717482767e+01    0.4374719    0.1991671  78.33  0.001914246    2.538    0.606
        76 -10.1900     78.2011    112.9219   1.0531737024e+02   4.3270677150e+01    0.5225395      0.30808 -84.88  0.001672956    2.396    0.583
        77 -10.0031     59.2046    108.8370   1.0993538433e+02   4.6814861462e+01    0.8789707    0.4351277 -44.99  0.002865284    2.306    0.566
        78  -9.9627     65.7072    111.1423   1.0849584717e+02   4.5443358988e+01    0.5095499    0.3978397  59.91  0.001340187    1.326    0.246
        79  -9.4482     67.4793    104.1229   1.0662893877e+02   4.6810035136e+01     0.604081    0.4011823   4.48  0.002808959    2.622    0.619
        80 -10.4602     62.8406     95.5386   1.0624657874e+02   4.9396200809e+01    0.7273867     0.384789 -78.32  0.001565907    2.623    0.619
        81  -9.1210     63.9327     86.7631   1.0394630216e+02   5.1247083373e+01    0.7072412    0.4179062  -5.96  0.002585067    4.249    0.765
        82  -8.3083    245.4785    114.5210   6.9017170038e+01   8.4743135210e+00    0.1357792    0.1216037 -10.72  0.000809692    1.034    0.033
        83  -7.1213    167.3351    113.7314   8.3063487856e+01   2.5718174183e+01    0.1479065    0.1197003  87.70 0.0002938627    1.591    0.372
        84  -9.0810    158.7662    111.7176   8.4444949667e+01   2.8023911325e+01    0.2835151    0.1987283 -51.40 0.0005792864    1.544    0.352
        85  -9.5796     33.9943    109.9610   1.1735347755e+02   4.9331724185e+01    0.5054306    0.2862794  57.76   0.00272596    1.936    0.483
        86  -9.2214    149.7975    110.0754   8.6078123104e+01   3.0338096392e+01    0.2698824    0.2252464  27.88  0.001022707    1.293    0.226
        87 -10.8154     44.8104    102.4146   1.1302964524e+02   4.9968527804e+01    0.7903138    0.3837902  71.56  0.002920997    3.717    0.731
        88  -9.4387     40.0818    106.8406   1.1514225108e+02   4.9446809939e+01    0.3576468    0.1753666 -71.74  0.001278201    1.823    0.452
        89  -9.1017     43.8263     53.7178   1.0231607643e+02   6.0997600747e+01    0.2418423    0.1886666 -72.60 0.0006950416    1.425    0.298
        90 -10.8543     20.9933    101.2748   1.1993207693e+02   5.2438685532e+01     1.059848    0.4449711  79.62  0.003202241    3.929    0.746
        91 -10.9008     24.6068     79.2885   1.1540459822e+02   5.7151551806e+01     1.122808    0.5583801 -55.70   0.00383201    1.649    0.394
        92  -9.4737    241.3064    248.1795   9.4538164776e+01  -6.3028105160e+00    0.1960169    0.1705973   9.55 0.0002981445    1.414    0.293
        93 -10.2116     34.5339     90.6766   1.1416523082e+02   5.3696037257e+01    0.5494271    0.2587846 -84.57  0.001862445    2.810    0.644
        94 -10.1390     36.6656     81.2680   1.1170671928e+02   5.5641502975e+01    0.7254546    0.3972786 -17.27  0.003105411    3.570    0.720
        95  -9.3824    164.7487    103.9067   8.1114738075e+01   2.8135279224e+01    0.4956353    0.3756002  27.41  0.001507299    1.488    0.328
        96  -9.5799    149.5586    103.1887   8.4361608043e+01   3.1739778939e+01    0.4165653    0.2983439 -57.99 0.0009729622    1.595    0.373
        97  -9.5998     81.4376    100.2184   1.0169984135e+02   4.5654733121e+01    0.6023524    0.3462093 -44.80 0.0008218995    1.788    0.441
        98  -8.0040     81.8361     94.7453   1.0030787727e+02   4.6823840137e+01    0.3566284    0.2391058 -15.01  0.001550151    2.589    0.614
        99  -7.8433      1.7211    105.5958   1.2592088569e+02   5.2796809450e+01    0.1414064   0.09442129  47.68 0.0009436265    1.616    0.381
       100  -8.1908     73.8347    102.6916   1.0446958712e+02   4.6240013862e+01    0.2770999    0.1773163 -71.00 0.0009609027    1.624    0.384
       101  -8.9671    158.9393    101.2810   8.1708183862e+01   2.9968822713e+01     0.287427    0.2298905 -60.39 0.0004287652    1.416    0.294
       102  -9.5417    219.1886     98.7247   6.9343653881e+01   1.6371587744e+01    0.2482492    0.2371776  10.35 0.0003053591    1.039    0.038
       103  -9.3682     94.3743     97.3015   9.7255632098e+01   4.4171479901e+01    0.3404091    0.2408774 -66.19 0.0007961119    1.502    0.334
       104  -8.7274     95.8310     91.2678   9.5303914288e+01   4.5241398694e+01    0.4670486     0.305335 -16.12  0.001900709    2.703    0.630
       105  -8.9800    150.1250     96.6914   8.2490953143e+01   3.2872960751e+01    0.3411835    0.2351304  -8.31  0.001403797    2.178    0.541
       106  -9.1881    150.5111     89.4914   8.0399237101e+01   3.4162327465e+01    0.5224515    0.1899761 -36.34  0.001690068    2.922    0.658
       107 -10.7125    240.7250     94.4510   6.4940070683e+01   1.2256269727e+01    0.5395286    0.2799833 -31.78  0.002439338    1.756    0.431
       108  -8.3155    224.2669     95.0458   6.7590920572e+01   1.5781937399e+01    0.2601949    0.1851836  26.65 0.0007172268    1.588    0.370
       109 -10.7904    186.3179    248.0517   1.0328470131e+02   1.6321073331e+00    0.5424496    0.1927162  38.65    0.0027984    2.116    0.527
       110 -10.1674      4.2758     89.2724   1.2346577743e+02   5.6282565347e+01     0.638747    0.2661475  85.24  0.002371146    2.830    0.647
       111  -9.5322      5.7621     79.0671   1.2169260565e+02   5.8481184355e+01    0.7380183    0.2812448 -33.79  0.003068922    4.248    0.765
       112  -9.4755    158.3219    247.3121   1.0785361827e+02   5.9176904302e+00    0.1854146    0.1127839  38.00  0.001233077    1.264    0.209
       113  -9.6768     16.0166     70.4281   1.1680060422e+02   5.9780741560e+01    0.3933305    0.1892451 -65.16  0.001417556    1.614    0.380
       114  -9.7127     17.0183     61.1312   1.1463671185e+02   6.1779774249e+01    0.7332414    0.2211378 -62.07  0.003233544    2.403    0.584
       115 -10.8071     21.9464     53.6231   1.1101212890e+02   6.3066924025e+01    0.7880844    0.3990633 -89.72  0.003053681    3.993    0.750
       116 -10.1393     12.1856     45.6340   1.1311029228e+02   6.5462888457e+01    0.6921767    0.3568619 -10.58  0.003147712    2.835    0.647
       117  -8.6291    217.1238    248.0146   9.8292461234e+01  -2.8923974002e+00    0.2500444    0.1046114  24.85  0.001217741    2.888    0.654
       118  -9.4188      6.5434     32.5132   1.1223962365e+02   6.8546547977e+01    0.2259659    0.1809716 -41.79  0.000759487    1.119    0.107
       119 -10.0870      7.2145     28.3149   1.1069976479e+02   6.9365015449e+01    0.3066454    0.2618089  56.01  0.001023615    1.579    0.367
       120  -9.1046    157.7621     90.7218   7.9086581106e+01   3.2226370530e+01     0.441325    0.2010214 -36.80  0.001232065    2.238    0.553
       121  -8.4714    107.6594     91.6704   9.2030236733e+01   4.2958487350e+01    0.3348077    0.2451634  36.47  0.001248029    1.468    0.319
       122  -9.5264    112.6789     89.1612   8.9949117609e+01   4.2503710912e+01     0.636143    0.4336483  16.39  0.002721128    2.223    0.550
       123 -10.2898     47.9706     84.6304   1.0864347616e+02   5.3699537598e+01    0.6015489    0.3530364 -77.83  0.001587542    1.916    0.478
       124  -9.1121     48.5153     77.6308   1.0690306777e+02   5.5224462302e+01    0.4884687    0.2713252   4.28  0.002036633    3.522    0.716
       125 -10.1427     85.2799     86.5538   9.7217066578e+01   4.8089474763e+01    0.4663223    0.3288612 -89.98 0.0008713116    2.019    0.505
       126  -9.6247     87.7785     78.5177   9.4253526717e+01   4.9418355406e+01    0.5897028    0.3757464  17.49  0.001823659    2.397    0.583
       127  -9.0211    164.4786     94.0624   7.8528805505e+01   3.0018672686e+01    0.4492345     0.267421 -36.28    0.0016803    1.701    0.412
       128  -7.4020    174.6846     88.6868   7.4876830621e+01   2.8535323583e+01    0.1583862    0.1193643  16.29 0.0003935554    1.641    0.391
       129  -8.1611    163.4787     87.0313   7.6778130495e+01   3.1539206605e+01    0.2334535    0.1508099 -38.23 0.0004772322    1.548    0.354
       130  -9.5278      6.4352    103.7926   1.2442785404e+02   5.2906252041e+01     0.389831    0.1893237  71.74  0.001260876    2.250    0.555
       131 -10.4051    103.9660     82.5732   9.0556910263e+01   4.5601314491e+01    0.5435036    0.3223563 -58.01 0.0008799261    1.888    0.470
       132  -9.6582    105.0313     71.4881   8.6923604135e+01   4.7681154802e+01    0.7317436    0.3515251 -32.77  0.002585173    2.547    0.607
       133  -7.3936     80.4524     85.5062   9.8428966436e+01   4.9103827999e+01     0.139603    0.1281117 -51.02 -3.902167e-06    1.038    0.036
       134  -8.4048    170.0866     83.5943   7.4387141710e+01   3.0547581823e+01    0.3344885    0.1763729 -52.02  0.001004831    2.349    0.574
       135  -9.2695    157.8506     83.0847   7.6881282008e+01   3.3611747851e+01    0.5346653    0.2559862 -35.32  0.001496902    2.129    0.530
       136  -8.7968    157.0659     76.8278   7.5204900195e+01   3.4930151745e+01     0.306318    0.2300751 -69.22 0.0008859287    1.701    0.412
       137  -9.3532    140.5558     82.2641   8.0682950379e+01   3.7854934420e+01    0.6929626    0.3890729 -41.39  0.001603664    1.772    0.436
       138  -9.0556    139.9810     74.8502   7.8584670075e+01   3.9389244265e+01    0.5407233    0.2828898 -31.32  0.001419721    2.101    0.524
       139  -8.3504    246.0299     81.7583   6.1079332453e+01   1.2872515717e+01    0.1862627    0.1738875  -0.99 0.0003523568    1.071    0.066
       140  -9.1434    150.1898     80.0448   7.7728555032e+01   3.6007245863e+01    0.5026475    0.2432899 -35.01  0.001211165    2.127    0.530
       141  -7.7539     63.4735     81.9844   1.0294796478e+02   5.2386019137e+01    0.2035074    0.1218799 -60.33 0.0006441226    1.543    0.352
       142  -8.7983    118.9982     80.4745   8.5718787296e+01   4.2993246025e+01    0.3193973    0.2161919 -51.74 0.0006314256    1.527    0.345
       143  -8.2574    119.9717     76.0163   8.4107186717e+01   4.3676743624e+01    0.2820252     0.224033 -20.81 0.0009070687    1.414    0.293
       144  -9.2761     74.2647     79.2105   9.8727509484e+01   5.1456199319e+01    0.6810083    0.2643776 -49.79  0.001861575    2.318    0.569
       145  -9.8316     81.4300     72.2576   9.4452303798e+01   5.1829284590e+01    0.4194621      0.29703 -70.55 0.0009194093    1.736    0.424
       146  -9.2337     84.0187     64.0772   9.1091195263e+01   5.3104550235e+01    0.5956067    0.3711305 -13.36  0.002393663    2.819    0.645
       147  -7.3315    174.2345     78.9306   7.2188942473e+01   3.0332781364e+01    0.1981245    0.1271972 -35.88  0.000539283    1.546    0.353
       148  -8.7044    165.8068     78.5750   7.3828110871e+01   3.2477099001e+01    0.3469562    0.2479086  69.86  0.001450394    1.637    0.389
       149  -8.1091    184.1918     78.0816   6.9993798709e+01   2.8003018630e+01    0.2357487    0.2032073  15.86 0.0006359559    1.264    0.209
       150  -9.1867    130.1089     56.8501   7.5194099513e+01   4.4961790859e+01    0.6903941    0.2540344 -37.90  0.001288993    2.645    0.622
       151  -9.3853    127.3321     75.1980   8.1891867636e+01   4.2222971121e+01    0.4133126    0.2534995 -49.45 0.0007124864    1.713    0.416
       152  -8.8907    129.3700     69.0192   7.9417098674e+01   4.2937626624e+01    0.5782146    0.3377365  22.66  0.002060148    2.923    0.658
       153  -8.4743    130.4709     64.0742   7.7527737920e+01   4.3594606536e+01    0.3787323    0.1962979 -39.09 0.0009588067    1.900    0.474
       154  -8.0973    162.8759     73.2190   7.2852444069e+01   3.4132727900e+01     0.278171     0.203406 -58.33 0.0007748915    1.596    0.374
       155  -9.2255    115.1584     72.2359   8.4259123366e+01   4.5450934606e+01     0.555329    0.3082261 -39.74  0.001772311    1.774    0.436
       156 -10.6361     55.3209     71.0170   1.0291451560e+02   5.5890118479e+01    0.6973485    0.4002846  58.41  0.001384705    2.582    0.613
       157  -9.0611     88.1412     56.4912   8.7214925841e+01   5.3891560591e+01    0.8440728      0.37883 -31.26  0.002940685    2.924    0.658
       158 -10.2073     89.5025     38.4843   8.0058995183e+01   5.6931926103e+01    0.8211578    0.3646495  31.98  0.002943817    3.231    0.690
       159  -9.0725     55.7471     62.9976   1.0055119575e+02   5.7586757596e+01    0.5476126    0.3141197  22.13  0.002659514    2.252    0.556
       160 -10.1179     62.7849     60.8200   9.7359997239e+01   5.7107955093e+01     1.135774    0.2894816  35.53  0.002303324    4.422    0.774
       161 -10.1350     85.1645     48.0853   8.5192689955e+01   5.6038965808e+01    0.4090035    0.3153019 -75.31 0.0009410019    1.889    0.471
       162 -10.0633     73.5477     56.9263   9.2294057767e+01   5.6302626594e+01     1.139379    0.3708337 -40.42  0.002865897    3.215    0.689
       163  -9.0906     80.1274     46.3390   8.6257141976e+01   5.7266803151e+01    0.3823368    0.2080693 -36.92 0.0004941262    1.749    0.428
       164  -7.7261    175.4825     72.5002   7.0052808717e+01   3.1101906566e+01    0.1519694    0.1505506 -53.19 -3.064788e-06    1.028    0.027
       165  -7.8853    169.4371     71.0152   7.0819673144e+01   3.2868397065e+01    0.2340223    0.1506087 -33.22 0.0004027274    1.555    0.357
       166  -9.2395    147.0347     69.2911   7.5168907929e+01   3.8716695850e+01    0.3982722    0.2699459 -59.39 0.0009986052    1.835    0.455
       167  -8.3808    156.6565     69.9908   7.3210947070e+01   3.6233700594e+01     0.265919    0.2162958 -80.57 0.0006310214    1.508    0.337
       168  -9.8587     94.8747     68.3515   8.8997059174e+01   5.0278553909e+01    0.4873583    0.2599512 -49.25 0.0008243064    1.840    0.456
       169  -8.2286     95.4726     61.0128   8.6418329494e+01   5.1635454946e+01    0.3172566     0.220929 -15.62  0.001121236    1.866    0.464
       170  -8.9668     97.9903     57.1875   8.4330187299e+01   5.1887517770e+01    0.5248635    0.4817095  85.96  0.002953797    1.285    0.222
       171  -8.0180     23.1596     69.1214   1.1398315453e+02   5.9555211528e+01    0.1824915     0.133853 -52.15 0.0002966203    1.189    0.159
       172  -8.9789    138.0158     66.4419   7.6413184904e+01   4.1393510989e+01    0.3478201    0.2558174 -54.85  0.000591006    1.523    0.343
       173  -8.5442    138.8055     62.3718   7.4894839270e+01   4.1927506679e+01    0.2672029    0.2202637  -7.14 0.0007234471    1.365    0.267
       174  -9.1014    121.1116     65.9141   8.0593221517e+01   4.5380203136e+01    0.3577111    0.2542909 -54.44 0.0007183205    1.563    0.360
       175  -8.7944    120.9984     61.9836   7.9320394994e+01   4.6137162191e+01    0.5160639     0.284009  32.01  0.001733707    2.383    0.580
       176  -8.2208    170.8927     64.9166   6.8671972299e+01   3.3505514850e+01     0.281783    0.2054024 -38.15 0.0007413251    1.365    0.268
       177  -9.4659    109.7585     63.9168   8.3104219560e+01   4.8207912832e+01    0.4326558    0.2828303 -55.72  0.000812104    1.767    0.434
       178  -8.3806    110.8799     58.2055   8.0847734451e+01   4.9048376489e+01    0.3461137    0.2551714 -19.30 0.0008944201    1.528    0.346
       179  -8.3412    157.6308     63.3931   7.0931514658e+01   3.7113472919e+01    0.2922787    0.1814581 -38.00 0.0006769277    1.601    0.375
       180  -8.2702    147.4571     63.6596   7.3276043055e+01   3.9599189998e+01    0.3460655    0.2075036  25.43  0.001296043    2.459    0.593
       181  -8.2138    164.5286     60.1266   6.8455831078e+01   3.5900628395e+01     0.231865    0.1515601 -31.69  0.001013505    1.537    0.350
       182  -7.7962    152.7820     60.4091   7.1028406729e+01   3.8827549259e+01    0.2060237    0.1909748 -51.48 0.0004971821    1.116    0.104
       183  -8.2590      9.8101     59.9960   1.1716367706e+02   6.2488973796e+01    0.1818375    0.1716333 -45.76  0.001173223    1.221    0.181
       184  -9.3675    147.0402     56.9019   7.1157501889e+01   4.0843231172e+01    0.7846684    0.3017389 -25.49  0.002378607    3.517    0.716
       185  -8.6668    149.9550     48.0141   6.7520859444e+01   4.1527175744e+01    0.3248479    0.2187658 -33.68 0.0004862663    1.485    0.327
       186  -9.6517    152.4903     41.6993   6.4822398429e+01   4.1818998040e+01    0.6141805    0.3680666  25.96  0.002057981    2.283    0.562
       187  -8.7526    138.9890     56.8112   7.2997485667e+01   4.2840724264e+01    0.2885768    0.2331725 -51.93 0.0004514995    1.331    0.249
       188  -8.1446    122.1583     41.3915   7.1689767744e+01   4.9394102127e+01    0.5004786    0.2845342  17.73  0.001758442    3.138    0.681
       189  -9.3281    118.3008     55.0065   7.7658833687e+01   4.8002804173e+01    0.5249284    0.3097534 -34.99  0.001413207    1.678    0.404
       190  -9.0714    121.0745     46.9805   7.4040134696e+01   4.8746638615e+01    0.3709834    0.2411642 -32.80 0.0004750397    1.525    0.344
       191  -7.9822    230.7960     55.8106   5.6441641607e+01   1.9836941138e+01    0.2522019    0.1413817  24.84 0.0009620114    2.904    0.656
       192 -10.1553     49.9003     53.6873   9.9946536530e+01   6.0296569126e+01    0.6451692    0.3518701 -67.88  0.001817313    2.434    0.589
       193  -9.6238     56.5937     43.0537   9.3742007856e+01   6.1588927042e+01    0.7659339    0.4196792 -10.29  0.002704838    4.383    0.772
       194  -7.3328    169.3007     55.7179   6.6115124395e+01   3.5369185854e+01    0.1531896    0.1183769 -69.15 0.0002007797    1.548    0.354
       195  -8.8690    162.8704     53.9375   6.6810407380e+01   3.7302959865e+01    0.3903881     0.226967 -26.31  0.001328251    1.818    0.450
       196  -9.0108    105.6405     51.7788   8.0101828714e+01   5.1332517955e+01     0.593896    0.3063799 -33.31  0.001975904    1.973    0.493
       197  -7.6494    152.6451     53.2889   6.8720011041e+01   4.0019674398e+01    0.2127075    0.1463159 -21.86 0.0007789793    1.575    0.365
       198  -9.1677    216.8764     50.4873   5.6827976119e+01   2.3925475615e+01    0.3818931    0.2533187 -21.60 0.0009022388    1.555    0.357
       199  -7.9901    139.0057     52.0000   7.1352105805e+01   4.3636320249e+01    0.2433701    0.2093858  24.20 0.0008296178    1.223    0.182
       200  -9.2583    141.9822     48.7407   6.9534767339e+01   4.3423155045e+01    0.6444834    0.2535203 -27.53  0.001930307    2.878    0.653
       201  -8.7318    157.4297     48.6282   6.6165325131e+01   3.9518455562e+01    0.5818626    0.1748886 -43.97  0.001451497    3.877    0.742
       202  -9.5424    130.6587     45.9169   7.1214858975e+01   4.6651568439e+01     1.084462    0.3791037 -24.81  0.002439684    4.246    0.765
       203  -8.7746    132.7657     36.0088   6.7078290944e+01   4.7640003431e+01    0.3052758    0.2401371 -30.16 0.0006211547    1.279    0.218
       204 -10.7713    134.0249     31.0537   6.4933114642e+01   4.8020728927e+01    0.3715442     0.281466   0.78            0    1.498    0.332
       205  -8.4014    111.9525     47.0058   7.6535591305e+01   5.0806632869e+01    0.2184831    0.2085859 -32.83 0.0004397543    1.071    0.066
       206  -7.7872    162.4087     46.2016   6.4368509639e+01   3.8590146567e+01    0.2183745    0.1352766 -42.27 0.0004922267    1.654    0.395
       207  -7.3504     99.4751    240.4935   1.1718256922e+02   1.5425255159e+01    0.1099518   0.08084671  54.02 0.0008101031    1.012    0.011
       208  -9.9887    187.8664    233.5711   1.0117413016e+02   3.0393972352e+00    0.2481831     0.218423 -29.04  0.001726276    1.463    0.317
       209 -10.1587    134.9286    234.0427   1.1040912553e+02   1.1200718335e+01    0.1888538    0.1635024  52.75 0.0003117095    1.148    0.129
       210  -8.0788      7.1427    221.1952   1.3152795157e+02   2.9352670071e+01    0.1354417     0.104076  70.16 0.0005014769    1.197    0.164
       211  -7.7794    136.9661    219.6625   1.0840456887e+02   1.2973503220e+01    0.1677094    0.1220268  46.45 0.0003629421    1.082    0.076
       212  -7.1743     62.6590    217.3369   1.2178683403e+02   2.4008996021e+01    0.1208045   0.06104075  64.00 0.0007050508    1.762    0.433
       213  -7.7666      2.4733    217.4588   1.3215292731e+02   3.0408648474e+01   0.09955389   0.06639174  68.34 7.213026e-05    1.004    0.004
       214 -10.2255     11.1642    207.2690   1.3029655334e+02   3.1386859467e+01    0.5085708    0.2503162  27.96  0.003139295    2.737    0.635
       215  -8.5016     42.1219     28.1214   9.4029938944e+01   6.6298095346e+01    0.2361471    0.1529001 -35.94 0.0002724613    1.328    0.247
       216  -8.6911    244.6078    206.0445   8.7548358522e+01  -2.7466902681e+00    0.2058606    0.1312487  28.62 0.0003809905    1.261    0.207
       217  -8.9698    192.1487    194.5961   9.4607680578e+01   7.3189546147e+00    0.7531983     0.390104 -61.93  0.002237723    8.151    0.877
       218  -8.7894     84.9468     21.9316   7.4515930870e+01   6.0433284550e+01    0.2682183     0.227133 -23.15 0.0007351482    1.129    0.115
       219  -8.6218     40.0569     35.0000   9.7633742815e+01   6.5234334482e+01    0.2531099    0.1983725  19.03   0.00106558    1.431    0.301
       220  -9.9239     37.7439     42.1265   1.0113805245e+02   6.4066436989e+01    0.3824083    0.2750739  81.36   0.00152003    2.337    0.572
       221 -10.1523     35.9134     37.9869   1.0051735127e+02   6.5093839385e+01    0.3553884     0.219603 -43.12 0.0003404127    1.350    0.259
       222  -9.1526    105.0539     41.2421   7.6335384498e+01   5.3277966354e+01     0.429671    0.2416979 -49.42 0.0008883112    2.101    0.524
       223  -8.6720    106.0369     36.2649   7.4098917587e+01   5.3866678558e+01    0.2553645    0.2089463  39.15 0.0007737362    1.214    0.176
       224  -7.6623    190.9198     42.3158   5.8194924115e+01   3.1656428306e+01    0.2055279    0.1842059  62.58 0.0003743186    1.111    0.100
       225  -7.8759    112.8476     42.4179   7.4565988260e+01   5.1371372442e+01    0.2168125     0.130096  39.40 0.0009499389    1.740    0.425
       226 -10.0812     29.0030     41.9826   1.0483876588e+02   6.4951591115e+01    0.1755268    0.1431562 -45.80  0.001167275    1.003    0.003
       227  -8.9671    139.6141     40.1162   6.7020822983e+01   4.5332965724e+01    0.4221635    0.2547813 -32.75  0.001528452    1.654    0.396
       228  -9.1233    144.1639     36.4019   6.4691386909e+01   4.4714205740e+01    0.3322399    0.2577921 -61.67 0.0006091858    1.518    0.341
       229  -7.8206    160.4506     38.4566   6.2147656060e+01   4.0204526050e+01    0.3106475    0.1506557 -26.69  0.001194881    2.138    0.532
       230  -9.2473     53.5085     38.9877   9.3466181496e+01   6.2797498965e+01     0.322383    0.1606802 -48.42  0.001067942    1.813    0.449
       231  -8.5422     54.5140     35.4962   9.1710045968e+01   6.3322107901e+01    0.2058105    0.1757764 -41.75 -3.930613e-05    1.135    0.119
       232  -8.5258    118.9092     34.8941   7.0048497944e+01   5.1149959162e+01    0.3181075    0.1916297 -38.58  0.000733831    1.681    0.405
       233  -8.0619     97.0997     32.6678   7.5291618611e+01   5.6344521150e+01    0.2367233    0.1565681 -25.64 0.0001501866    1.503    0.335
       234  -9.3499    101.1569     31.8525   7.3736730225e+01   5.5609173489e+01    0.4741196    0.2223992 -40.46  0.001091135    2.172    0.540
       235  -8.5285    153.4334     34.7694   6.2224514383e+01   4.2544116505e+01    0.1992969    0.1470205  -8.41 0.0004595314    1.538    0.350
       236  -7.3760    190.2761     37.3405   5.6772280779e+01   3.2480195589e+01       0.1516    0.1122507  24.45   0.00052568    1.617    0.382
       237  -9.0830    110.3371     33.0863   7.1620601421e+01   5.3396304107e+01    0.3598941    0.2363549 -48.16 0.0009455719    1.750    0.429
       238  -8.9686    152.6493     29.0764   6.0368103207e+01   4.3497195595e+01     0.411274    0.2224326  -8.02  0.001306085    2.558    0.609
       239  -7.6509    156.4998     27.4932   5.9095635947e+01   4.2684004960e+01    0.2232455    0.1454544  78.47 0.0009771679    1.753    0.430
       240  -7.2607    203.0474     29.0245   5.2511983704e+01   3.0171058783e+01    0.1652316    0.1561807  87.66            0    1.038    0.037
       241  -8.9379    143.7204     26.3807   6.1132010708e+01   4.6163607016e+01    0.4123139    0.2716108   8.24  0.001510529    1.953    0.488
       242  -8.9322     91.4136     26.4129   7.4413606220e+01   5.8474213914e+01    0.4047465    0.2137385 -46.70  0.001196329    2.277    0.561
       243  -8.5882     92.0253     21.0304   7.1854669828e+01   5.9119525842e+01    0.3190731    0.2264523  12.52 0.0007341448    1.568    0.362
       244  -8.7601    132.6876     17.2960   5.9923937425e+01   5.0083568171e+01    0.3345731    0.2488022   3.23 0.0009118741    1.495    0.331
       245  -8.7847    128.4770     25.7034   6.4132859372e+01   5.0114296106e+01    0.2978868    0.2570869 -41.08 0.0007856151    1.231    0.187
       246  -8.3680    129.4818     21.5214   6.2268262955e+01   5.0390949362e+01    0.2439081     0.169575  26.94   0.00103374    1.575    0.365
       247  -8.1205    149.6365     25.1857   5.9544094004e+01   4.4773202903e+01    0.1996236    0.1417008  -9.10 0.0007172147    1.586    0.369
       248  -8.9490    139.5595     22.6267   6.0569031069e+01   4.7699999002e+01    0.3856037    0.2474742  77.95  0.001348014    1.863    0.463
       249  -9.2004    119.0035     21.4422   6.4650887410e+01   5.2974443533e+01    0.3117959    0.2481621 -42.25 0.0005620584    1.363    0.266
       250  -8.1652    119.5299     16.9903   6.2693252230e+01   5.3389872088e+01    0.2988475    0.1684506   8.01 0.0006859952    2.561    0.610
       251  -8.1076    111.5161     21.9784   6.6747406604e+01   5.4679568949e+01    0.2089347    0.1367083 -27.81 0.0003675697    1.522    0.343
       252  -9.4529    242.6854    187.8826   8.4686050895e+01  -4.4704532494e-01    0.2621437    0.2451215 -52.25  0.001245068    1.681    0.405
       253  -6.8252    155.6714    185.6983   1.0010626197e+02   1.5172618499e+01    0.1283029   0.09651715  15.77 0.0007032395    1.645    0.392
       254  -9.1176    103.1300     21.2424   6.8689884781e+01   5.6689406060e+01    0.3140442    0.2353848 -39.25  0.000690054    1.420    0.296
       255  -9.1647    230.7750    182.9788   8.5760509177e+01   2.1201658402e+00     0.277331    0.1679063  42.63 0.0008917206    1.547    0.354
       256  -8.7589     40.8831     20.9542   9.1513895680e+01   6.7736934060e+01    0.2679111    0.1501101 -39.52 0.0004693778    1.518    0.341
       257  -7.6673     12.5328    179.5882   1.2869213806e+02   3.6406470673e+01    0.1068958   0.07874724  74.61 0.0001158365    1.019    0.018
       258  -8.2554    140.0263     18.4137   5.8880520285e+01   4.8076513998e+01    0.2307698    0.1912698 -23.05 0.0004433262    1.245    0.197
       259  -8.7705    231.5323    178.0455   8.4715662392e+01   2.6031570119e+00     0.223917    0.1625833  35.18 0.0003864133    1.239    0.193
       260 -10.1337    101.0038    175.9942   1.0999230593e+02   2.6244813521e+01     0.180539    0.1542039  64.20            0    1.002    0.002
       261  -7.0700    241.2962    173.3003   8.2192416134e+01   1.5123420188e+00    0.1284146   0.08297084  12.46 0.0003902232    1.574    0.365
       262  -9.1675    232.0084    173.0233   8.3681617729e+01   3.1544750717e+00    0.1894317     0.158621  15.73 0.0003181827    1.022    0.022
       263  -8.3603    152.6025    172.9075   9.8612645072e+01   1.7898117069e+01    0.2120879    0.1622364  36.04 0.0004062638    1.229    0.186
       264  -9.1150     85.9602    172.7517   1.1281909067e+02   2.9169966718e+01    0.1907758    0.1641058 -78.57 0.0003145746    1.193    0.162
       265 -10.3627    199.7588    170.4159   8.8896374180e+01   9.3982930366e+00    0.2521334    0.2166011  42.30 0.0004459914    1.168    0.144
       266  -7.8311     13.8598    170.6736   1.2791554325e+02   3.8043855283e+01    0.1835759    0.1032289  21.62  0.001098516    2.608    0.617
       267  -8.5478     27.3444     16.6864   9.6167008337e+01   7.0010830375e+01    0.1977572    0.1696393 -24.91  0.001387162    1.100    0.091
       268  -7.2856    189.3016     15.3195   5.0105240641e+01   3.5332537882e+01    0.1486567    0.1046842  34.74 0.0007025268    1.625    0.385
       269  -8.6064     85.3198    157.3193   1.1091713913e+02   3.2430050734e+01    0.1840025    0.1770149 -87.95 0.0005225405    1.204    0.169
       270  -8.6841    219.6096    153.3820   8.1894728844e+01   8.0896776499e+00    0.2144532    0.1907165   9.58 0.0002483878    1.032    0.031
       271  -8.6276    125.0931     13.0107   5.9810152226e+01   5.2472580775e+01    0.2117373    0.2101329  70.37 0.0007503498    1.099    0.090
       272  -7.0837    129.7450    154.2834   1.0025369272e+02   2.5600686695e+01    0.1312925    0.1021293  78.18 0.0001895649    1.473    0.321
       273  -7.7090    205.7612    151.9830   8.4103028494e+01   1.1003001241e+01    0.2026998    0.1589318 -63.75 0.0009088556    1.857    0.462
       274  -7.8686    147.7802    150.0527   9.5454232535e+01   2.2978508270e+01    0.1843197    0.1768622  49.78 0.0002031834    1.038    0.037
       275  -8.6609    133.5765    146.0907   9.7859445467e+01   2.6501258989e+01    0.5266885    0.1399194 -51.21  0.001623135    4.195    0.762
       276  -8.4765     68.5009    145.4828   1.1325111160e+02   3.7353401596e+01    0.2642285    0.2175006 -66.21  0.001302769    1.227    0.185
       277  -8.7681     65.5004    143.4774   1.1370709490e+02   3.8191038811e+01    0.2454849     0.227042  52.10  0.001075967    1.224    0.183
       278  -9.5297    238.0291    145.6838   7.7139333192e+01   5.6543410830e+00    0.4031124   0.09845743  44.58  0.001353996    3.819    0.738
       279  -6.8476    152.2982    145.3522   9.3526470662e+01   2.2969711291e+01    0.1428795    0.1120904   2.89   0.00070358    1.692    0.409
       280  -9.7556     79.5348     23.9497   7.7254400969e+01   6.1181485778e+01    0.6217453    0.3261428  22.69  0.002309292    2.928    0.658
       281  -8.2135    246.5343    141.4562   7.4868855635e+01   4.6330621367e+00    0.1329873    0.1120029   4.25 9.845098e-06    1.030    0.029
       282  -8.5047    112.2128    133.6788   1.0050310292e+02   3.3039165511e+01    0.2967082    0.2075877  76.82  0.001006255    1.792    0.442
       283 -10.2403     58.4553    124.6589   1.1277944552e+02   4.3295866457e+01     0.967261     0.454625  77.56  0.002827454    4.522    0.779
       284  -9.4893     67.4811    128.7994   1.1104110760e+02   4.1192712291e+01     0.391387    0.3094326  88.85  0.002044318    1.192    0.161
       285  -9.9749     71.1609    125.6796   1.0956227963e+02   4.1393222814e+01    0.5455425    0.3195655 -85.71  0.001377281    2.098    0.523
       286  -9.8481    117.3534    124.9848   9.7448211857e+01   3.3944333377e+01    0.8120079    0.5016388 -68.11  0.001817938    2.012    0.503
       287  -9.8455    133.7755    131.7388   9.4899965311e+01   2.9352144399e+01    0.5637411     0.414405  43.00  0.002489099    1.322    0.244
       288 -10.1197    108.7631    114.5590   9.7365117405e+01   3.7794427784e+01    0.6756222    0.4072447 -80.18  0.001600883    2.811    0.644
       289 -10.7273    108.8043    100.9688   9.4127049894e+01   4.0739149159e+01     1.032534    0.7515919 -76.70  0.004916289    1.713    0.416
