#   1 NUMBER                 Running object number                                     
#   2 MAG_AUTO               Kron-like elliptical aperture magnitude                    [mag]
#   3 X_IMAGE                Object position along x                                    [pixel]
#   4 Y_IMAGE                Object position along y                                    [pixel]
#   5 X_WORLD                Barycenter position along world x axis                     [deg]
#   6 Y_WORLD                Barycenter position along world y axis                     [deg]
#   7 A_WORLD                Profile RMS along major axis (world units)                 [deg]
#   8 B_WORLD                Profile RMS along minor axis (world units)                 [deg]
#   9 THETA_WORLD            Position angle (CCW/world-x)                               [deg]
#  10 FWHM_WORLD             FWHM assuming a gaussian core                              [deg]
#  11 ELONGATION             A_IMAGE/B_IMAGE                                           
#  12 ELLIPTICITY            1 - B_IMAGE/A_IMAGE                                       
         1 -12.5652     74.8364     50.5868   8.5711141855e+01   5.7239644074e+01      1.29503    0.7530093 -50.52  0.006097309    1.901    0.474
         2 -12.0627    124.7003     27.8097   6.2076893800e+01   5.0624435867e+01    0.7871844    0.6261644  12.45  0.002668594    1.302    0.232
         3 -11.8356    119.6467     57.9667   7.4472597678e+01   4.7234902961e+01     2.187821      1.48623 -61.06   0.00952497    2.059    0.514
         4 -12.1604     60.8042     44.4745   8.8529003195e+01   6.0497260184e+01     1.076875     0.496318 -41.83  0.004951657    1.909    0.476
         5 -11.6335    176.7334     35.1569   5.4402120685e+01   3.6546899707e+01    0.9496067    0.6966299  78.39  0.003702758    1.440    0.305
         6 -11.2775    178.4513     21.2143   4.9810930028e+01   3.7790253181e+01    0.6316156    0.3610751  34.25  0.002167872    2.202    0.546
         7 -11.5378    182.9032     25.3363   5.0430156514e+01   3.6157182436e+01     0.636899    0.3534911  49.41   0.00282261    1.807    0.447
         8 -11.4136      5.4381      9.5037   9.9118974188e+01   7.2360570981e+01    0.8730382    0.6274412 -60.14  0.005946299    1.868    0.465
         9 -10.5432     21.9236      4.4181   8.7872247329e+01   7.1748857647e+01    0.3926022     0.176815 -48.06  0.001608021    2.933    0.659
        10 -11.6980     26.2792     27.8727   9.6458406125e+01   6.7537804324e+01    0.4756474    0.4201448  -8.08  0.002546166    1.242    0.195
        11 -11.5516     12.1790     24.2537   1.0170878857e+02   6.9334244643e+01    0.8356042    0.3358799 -41.51  0.003063567    1.843    0.457
        12 -11.7305     19.9417     22.2809   9.7178021704e+01   6.9083859241e+01    0.7323067    0.2888339 -43.88  0.001965215    1.934    0.483
        13 -12.6712     17.5658     13.7571   9.4669203847e+01   7.0725217182e+01     0.454569    0.3934484   1.08 0.0008581941    1.335    0.251
        14 -11.9232    105.9893     20.1228   6.3685739418e+01   5.5847053450e+01    0.5681805    0.4223267 -42.77  0.001894883    1.576    0.365
        15 -12.3800    105.8769     32.8259   6.8888419276e+01   5.4232424818e+01     1.047564    0.5492876   5.98  0.003417768    4.064    0.754
        16 -11.1154    154.9187     23.7294   5.4397988266e+01   4.3604763256e+01     1.025529    0.6823889  48.78  0.004940617    1.423    0.297
        17 -11.2979    138.1664     21.8348   5.6906240858e+01   4.8060730371e+01     1.086581      0.28748  49.27    0.0035054    3.268    0.694
        18 -10.9170    145.9136     16.2540   5.3421854778e+01   4.6723246349e+01    0.5615582    0.2884129  53.44            0    1.737    0.424
        19 -12.2370    132.3796     15.0332   5.5559188541e+01   5.0227575621e+01     1.190584    0.5650107  73.58  0.001901508    2.746    0.636
        20  -9.8439    141.4612     12.2832   5.2811985710e+01   4.8248580760e+01    0.2570034    0.2176702  13.86 0.0007058728    1.234    0.190
        21 -11.2522    165.0307     17.6749   5.0698774920e+01   4.1666525859e+01    0.4755202    0.2915695  35.65  0.001475769    1.844    0.458
        22 -12.4683    163.9937     27.8703   5.4198893198e+01   4.0773632596e+01    0.5300223    0.3771527  30.69 0.0004257798    1.584    0.369
        23 -10.8305    214.6414     23.3457   4.5830287853e+01   2.8278787262e+01    0.5017214    0.3683313   0.17  0.002567151    1.812    0.448
        24 -10.3626     87.0449      7.4646   6.3417253347e+01   6.1243600675e+01    0.5587206    0.3201681  53.15   0.00262145    1.741    0.426
        25 -10.7237     91.1303     21.5187   6.8486038592e+01   5.8817835568e+01    0.6455154    0.5463064 -20.47   0.00386856    1.184    0.156
        26 -11.2681     85.9866     13.5378   6.6510843705e+01   6.0804275989e+01    0.4375434     0.327868   0.74  0.001406604    1.255    0.203
        27 -11.4725     40.6858      5.9543   7.9641188022e+01   6.9315490232e+01    0.4757033    0.2097337 -20.14  0.001365564    2.503    0.601
        28  -9.3632     50.4404      6.6061   7.5788174239e+01   6.7844622163e+01    0.3278876    0.1397525  38.74  0.001137347    2.332    0.571
        29 -10.4498     47.0988     19.1584   8.3380568598e+01   6.6608758830e+01    0.3375923    0.2567704 -26.84  0.001492941    1.173    0.147
        30 -11.5761     36.5393     19.2668   8.8073306334e+01   6.7917708466e+01    0.6218009    0.3611529 -36.76  0.002581938    1.459    0.315
        31 -12.1947     48.2974     12.9281   7.9879619663e+01   6.7336285599e+01     0.680128    0.3261582  36.24  0.003532117    2.152    0.535
        32 -11.2478     32.6044     12.5624   8.6721812649e+01   6.9400143026e+01     0.216344    0.1998377  14.29 0.0004178117    1.482    0.325
        33 -10.5035    120.8343     19.3581   5.9709840021e+01   5.2543700020e+01    0.4981242    0.4094361 -60.12  0.001806922    1.528    0.346
        34 -10.1399     62.9225      6.6731   7.0958654221e+01   6.5837191908e+01       0.3033    0.1989621  12.61  0.001203991    1.462    0.316
        35 -11.9027     68.3473     18.1356   7.4523371705e+01   6.3502931887e+01    0.5045887    0.4440272  35.18  0.002529641    1.324    0.245
        36 -11.9852    234.2782      7.1704   3.9830894134e+01   2.5330728942e+01    0.9756323    0.4682164  89.25  0.004397321    2.282    0.562
        37 -12.1067    238.2136     15.7961   4.1572822453e+01   2.3459678712e+01    0.9933258    0.4442431  67.42  0.004245607    2.175    0.540
        38 -11.8656    246.8872      6.9412   3.8784189336e+01   2.2449278875e+01    0.6038966    0.4739132   3.20  0.003194374    1.801    0.445
        39 -11.0737    242.4954      3.9859   3.8433714556e+01   2.3762676068e+01    0.4029836    0.2472975  65.72   0.00222404    1.651    0.394
        40 -10.9906    218.7726      3.2973   4.0193895076e+01   2.9445057724e+01    0.3355639    0.2945239 -36.49  0.001161996    1.215    0.177
        41 -11.1365    223.6407      1.8988   3.9426122900e+01   2.8405763001e+01    0.5333027    0.2278296  77.93  0.002336441    2.277    0.561
        42 -11.9097     22.5162     10.7956   9.0777445743e+01   7.0739399699e+01    0.4371934     0.276371  18.43  0.002120158    1.659    0.397
        43  -9.9790    192.3874     17.1793   4.6738196554e+01   3.4628015741e+01    0.5197893    0.3171921 -64.32  0.002404197    1.859    0.462
        44 -10.9253    186.4411     14.9527   4.6835121628e+01   3.6401750508e+01    0.3231338    0.2590703  62.91 0.0004215224    1.181    0.153
        45 -11.5261    192.4037      7.7042   4.4011297901e+01   3.5610120638e+01    0.7335745    0.4717262  18.52  0.003280167    2.199    0.545
        46 -10.5131     64.4513     10.5640   7.2328872900e+01   6.5123002951e+01    0.5618732    0.2762709  32.63   0.00276821    2.031    0.508
        47 -10.1945    226.0187     15.5420   4.2627095005e+01   2.6384533819e+01    0.3751711       0.1739 -34.41  0.001142433    1.989    0.497
        48 -12.3671    104.6359     12.8636   6.0996143772e+01   5.6953158497e+01    0.5142292     0.447931 -18.71  0.001873338    1.203    0.169
        49 -11.4761    211.9171      9.8443   4.2530423019e+01   3.0462518373e+01    0.4584184    0.3167529   6.98 0.0008970668    2.065    0.516
        50  -9.2737     94.8742     11.9164   6.3191474117e+01   5.9162627367e+01    0.3367585     0.156297  32.43  0.001422307    2.350    0.574
        51  -9.8770    169.0898      9.6926   4.7535918790e+01   4.1429041366e+01    0.3721029    0.1730641  45.39  0.001535735    2.223    0.550
        52 -10.3218    163.2943      5.7602   4.7086743966e+01   4.3294992919e+01     0.648151    0.2365357 -19.23  0.002416228    3.136    0.681
        53  -9.1857    157.5630      2.7650   4.6918187354e+01   4.5032135666e+01    0.2456891    0.2089094  45.57  0.001100407    1.138    0.121
        54  -8.8016    161.0199      1.0000   4.5857123461e+01   4.4296826353e+01    0.3332385   0.07152109  69.27 0.0009683678    4.211    0.763
        55 -10.0177    184.5998      5.8613   4.4376943299e+01   3.7791107668e+01    0.5310804      0.18371 -34.00  0.001813374    2.717    0.632
        56  -8.9254    157.3278      7.8043   4.8628105880e+01   4.4641504239e+01    0.2082793    0.1777316  65.33 0.0006026697    1.077    0.071
        57  -9.6728    151.7793      7.6827   4.9445461089e+01   4.6072922768e+01    0.4350184    0.1712068  55.33 0.0007702567    2.150    0.535
        58 -11.1679      3.2782      1.7848   9.6702003963e+01   7.3751788149e+01    0.3704121    0.1691359   9.36   0.00211529    2.575    0.612
        59  -9.0729     78.4789      7.4917   6.6038957640e+01   6.2931727348e+01    0.2130897    0.1620403  43.39 0.0007621982    1.314    0.239
        60 -10.5023     76.8726      3.6264   6.4689448188e+01   6.3634082214e+01    0.3915964    0.2538773  11.60  0.001961592    1.508    0.337
        61 -10.5047     72.9710      2.7600   6.5517102878e+01   6.4458215539e+01    0.4689964    0.2140685  29.04  0.002116055    2.369    0.578
        62 -10.4434    175.5526      5.0350   4.5229480053e+01   4.0199622363e+01    0.4585117    0.2730358  86.17  0.002154879    1.780    0.438
        63  -9.6701    116.8910      2.8631   5.4007028410e+01   5.5093986796e+01    0.4152749    0.2504891  15.64  0.002026277    1.871    0.465
        64  -8.4598    113.3091      3.3183   5.4956860017e+01   5.5891821614e+01    0.1884828    0.1495905  42.08  0.001090906    1.105    0.095
        65 -10.8034    105.2869      1.8565   5.6150162783e+01   5.7849621619e+01    0.4341637     0.317546 -84.47 0.0007980437    2.017    0.504
        66 -10.1652    110.0070      1.7654   5.5039234674e+01   5.6785012602e+01    0.3913432     0.164905  57.53  0.001707561    2.079    0.519
        67  -9.0144    202.7885      5.6152   4.2315705534e+01   3.3179166151e+01    0.2244246    0.1660427 -79.35  0.001229836    1.311    0.237
        68 -10.9102    205.7461      2.4251   4.1163710584e+01   3.2748383766e+01     0.499226    0.2436344  86.16  0.002186428    2.162    0.537
        69 -10.5233    142.2236      3.3083   4.9462720639e+01   4.8879625117e+01    0.4033015    0.2800846  60.01  0.001459159    1.284    0.221
        70 -11.6972    133.4520      2.7677   5.0770504070e+01   5.1108409546e+01     0.450594    0.2796746  59.61  0.001498777    1.431    0.301
        71  -9.7448     13.3365      1.8726   9.1100743779e+01   7.2939359325e+01    0.2560617    0.1567577   5.39  0.001689309    1.630    0.387
        72  -9.4585    122.8251      1.1149   5.2115735436e+01   5.3829622345e+01    0.4128229   0.09091938  66.63  0.001140104    5.121    0.805
        73 -10.5950     82.2041      1.3312   6.1960133022e+01   6.2808523714e+01    0.1987779    0.1062366  49.98  0.000322041    1.730    0.422
        74  -8.5125    151.9277      1.0000   4.7144759653e+01   4.6619453611e+01    0.2221502   0.07146139  68.17 0.0004569089    2.811    0.644
        75 -12.2939     29.8955    133.0039   1.1917827888e+02   4.4193339751e+01    0.4123191    0.2680461 -85.45 0.0003113067    1.351    0.260
        76 -10.0514    142.8041    249.4496   1.0959193763e+02   5.0837767113e+00     0.221895    0.1576569  62.49  0.001108283    1.454    0.312
        77 -10.3090     80.2627    136.6427   1.0674246514e+02   3.7290656161e+01    0.4406748     0.351541 -15.11  0.002337865    1.796    0.443
        78  -9.5897     39.9748    137.8997   1.1727133843e+02   4.2064053314e+01    0.3018788    0.1569597  36.23    0.0012731    2.128    0.530
        79  -8.5805    192.3091    136.6487   7.9971622377e+01   1.5246453376e+01    0.1523839     0.121822 -75.37 0.0007043967    1.716    0.417
        80 -10.4537     47.1330    135.7757   1.1516639831e+02   4.1792163087e+01     0.422668    0.1618457 -56.45  0.001403888    2.260    0.557
        81  -9.0553    216.5360    135.4537   7.4959588576e+01   1.0231925269e+01    0.1487998    0.1345593  -2.60 9.141304e-05    1.045    0.043
        82 -10.9672     92.8708    129.2660   1.0200403872e+02   3.7056878977e+01    0.4129595    0.2797835 -72.02  0.001970387    1.584    0.369
        83  -9.3508    244.6456    134.3307   6.9777859747e+01   4.6888880629e+00    0.1383968    0.1090329 -63.66 0.0007045539    1.782    0.439
        84 -10.0448     74.2039    132.5711   1.0759209757e+02   3.9131958624e+01     0.281945    0.2592372  -4.92  0.001689317    1.377    0.274
        85  -9.9468     62.7547    131.4747   1.1042736595e+02   4.0938840375e+01    0.3756073    0.2087055 -52.46  0.001833043    1.696    0.410
        86  -9.3279    103.8873    130.8365   9.9432987982e+01   3.4815562696e+01    0.2112625    0.1990276 -14.35 0.0004016146    1.227    0.185
        87 -10.3695     82.5874    125.1147   1.0391989939e+02   3.9664008447e+01    0.4289168     0.275081 -24.34  0.001412865    2.576    0.612
        88  -8.9948     87.4999    123.5134   1.0225377292e+02   3.9277548980e+01    0.2037695    0.1329165  51.67 -3.442365e-05    1.674    0.403
        89  -8.8876    223.8715    126.8033   7.1559612923e+01   1.0159484496e+01    0.1974636    0.1686287 -53.82 0.0004257139    1.338    0.253
        90  -9.4479     22.9424    126.9393   1.2019899844e+02   4.6214013975e+01     0.180092    0.1409773 -85.35            0    1.071    0.066
        91 -10.7418     55.8646    123.6018   1.1093754673e+02   4.3663486370e+01     0.451016    0.3563577 -16.71  0.001754706    1.754    0.430
        92 -10.7107     45.5937    120.3545   1.1321252648e+02   4.5601279820e+01    0.4563344    0.2451931 -84.95  0.001966389    2.212    0.548
        93 -10.2127     18.6435    124.2735   1.2098393667e+02   4.7180710437e+01    0.3525229    0.1376161 -65.14  0.001723536    1.934    0.483
        94 -10.8628     51.0291     94.9733   1.0679343286e+02   5.0984340046e+01     1.336047    0.3718383 -62.12  0.004445971    3.508    0.715
        95 -10.2514     42.0574     93.7076   1.0935113596e+02   5.2238445948e+01    0.5085219    0.3468293  87.23   0.00271435    1.834    0.455
        96 -11.1814     17.4751    100.7617   1.1814125119e+02   5.2708560842e+01    0.5630764    0.3519518  19.60  0.003374995    2.097    0.523
        97 -12.5115     41.8983     85.2006   1.0756062684e+02   5.4213670151e+01     1.709113     0.520983  21.98   0.00576867    5.257    0.810
        98 -11.6388      9.4500     97.4127   1.2001947216e+02   5.4014261283e+01      1.10648     0.525908 -87.10  0.005416527    2.292    0.564
        99 -11.9693      6.9438     88.7766   1.1951055654e+02   5.6127609751e+01    0.5743879    0.5318068  -4.06  0.002991135    1.406    0.289
       100 -11.5157     35.6501     93.1410   1.1126048262e+02   5.2989192749e+01     1.432485     0.611868 -69.80  0.006238319    2.306    0.566
       101 -12.0202     23.6239     94.7197   1.1531001336e+02   5.3645039159e+01    0.7144214     0.352896  12.30  0.003165616    2.994    0.666
       102 -12.3402     18.3169     90.2656   1.1619778280e+02   5.5061752253e+01    0.4103529    0.2496022 -55.48 0.0003969873    1.315    0.240
       103 -11.8261      2.4772    112.0830   1.2381844031e+02   5.1093588537e+01     1.257993    0.4104036 -79.25  0.004644275    2.712    0.631
       104 -11.5304      3.8394    105.7597   1.2271891979e+02   5.2450016883e+01    0.5663003    0.3445909  88.34  0.002272394    1.533    0.347
       105 -12.1856     18.7440    106.2050   1.1857649040e+02   5.1357491249e+01    0.2595953     0.218964 -63.49 0.0002690855    1.129    0.114
       106 -11.9226     22.4149    113.9864   1.1864749874e+02   4.9267264463e+01     1.106936    0.3634987  17.59  0.004185156    5.214    0.808
       107 -12.6138     25.2061    107.6939   1.1694519901e+02   5.0507449696e+01    0.8756254    0.5663812 -34.97  0.004503787    1.876    0.467
       108 -11.8816    104.2462    122.0635   9.7405816770e+01   3.6787285196e+01    0.4590833     0.440204 -56.56  0.001086612    1.050    0.047
       109  -9.3638     66.9021    124.3944   1.0805954899e+02   4.2077352046e+01    0.2514102    0.1860202  11.13  0.001315971    1.913    0.477
       110 -10.0093     67.9012    134.7514   1.0962987828e+02   3.9486437522e+01    0.1980867    0.1768083 -54.12 0.0007168633    1.190    0.160
       111 -10.4690     33.1279    119.1979   1.1645397054e+02   4.7122038487e+01    0.3384546    0.2589704 -87.22  0.001467268    1.194    0.162
       112  -9.1163    221.4623    120.4734   7.0449346288e+01   1.1759272990e+01    0.1481473     0.137652 -23.47 0.0001618466    1.038    0.036
       113  -9.3631    148.0951    119.9576   8.5675709319e+01   2.8432708815e+01    0.2503833    0.1943529  -2.27 0.0006643423    1.708    0.415
       114  -9.5084    185.4114    118.8765   7.7004064697e+01   2.0179148072e+01    0.2657273    0.1934382  41.01   0.00122306    1.402    0.287
       115 -10.3286    113.2500    115.9994   9.3558218948e+01   3.6515737009e+01    0.2720531    0.2376975  29.32 0.0002998755    1.255    0.203
       116 -10.7130    107.7732    112.2216   9.4110626663e+01   3.8411333710e+01    0.7369928    0.4422456 -68.04  0.002972847    2.196    0.545
       117 -10.9091    101.2692    109.6864   9.5282284971e+01   4.0180565741e+01    0.5641583    0.3694619  28.82  0.002558936    1.841    0.457
       118  -9.7437    103.4479    106.4405   9.3855956421e+01   4.0529651659e+01    0.2676282    0.2253122  43.05 0.0005462426    1.262    0.207
       119  -9.6169     67.7932    114.2097   1.0583178783e+02   4.4377427633e+01    0.3386631    0.2395798  78.63  0.001712159    1.758    0.431
       120  -9.7899     67.2077    110.6112   1.0525647362e+02   4.5308527742e+01    0.2941639    0.2161642  38.91   0.00160014    1.524    0.344
       121  -9.0380    126.7718    113.4565   8.9350383414e+01   3.4400945748e+01    0.2108447    0.1493296  30.56 0.0008179291    1.624    0.384
       122  -9.7559     48.9733    112.1921   1.1085186300e+02   4.7166265340e+01    0.2304299    0.2098064  55.33  0.001174796    1.246    0.197
       123 -11.1032    170.3841    110.4396   7.8026171676e+01   2.5325028190e+01    0.4720002    0.4234601 -14.71  0.001412149    1.160    0.138
       124 -10.6999     91.0342    103.5678   9.6676625294e+01   4.3363805284e+01    0.4199643    0.3976303  18.15  0.001310599    1.168    0.144
       125 -11.4617     79.8908    108.2342   1.0104163010e+02   4.4056160404e+01    0.6683133    0.4496896  37.01  0.002594803    1.646    0.392
       126  -9.8118     85.8219    104.1485   9.8341409792e+01   4.4084135570e+01    0.2900198    0.1924566 -51.87  0.000802966    1.369    0.270
       127 -10.0781    120.6214    108.8288   8.9770749972e+01   3.6684210942e+01    0.3894745    0.2656572 -18.71  0.001569224    2.113    0.527
       128  -9.5453     58.3807    108.2210   1.0734707263e+02   4.7008525284e+01    0.2315236    0.1484382 -68.90 0.0002767228    1.466    0.318
       129 -10.7347    157.5635    106.4045   7.9851905024e+01   2.9127685021e+01    0.4253235    0.2942424 -18.62  0.001397149    1.834    0.455
       130 -11.8143    145.4904    100.4433   8.1093706502e+01   3.3131860127e+01    0.5837935    0.4504549 -28.35  0.001628105    1.368    0.269
       131 -10.7452    143.6504    106.1211   8.3118918948e+01   3.2358824208e+01    0.3824684    0.2940446  52.87  0.001140164    1.357    0.263
       132  -9.3116     82.0697    102.6855   9.9089672421e+01   4.5016125241e+01    0.1893775    0.1823186 -42.55 0.0004337317    1.082    0.076
       133  -9.9550     57.5243    102.4927   1.0641348213e+02   4.8463487452e+01     0.330936    0.1935349 -57.08   0.00125148    1.452    0.311
       134 -10.2677     57.5853     97.8563   1.0538588858e+02   4.9541718431e+01    0.3728787    0.2459609  25.98  0.001961492    1.834    0.455
       135 -10.6628     64.6712     99.3808   1.0354992325e+02   4.8286422813e+01    0.3198736    0.2397132  10.86 0.0009964819    1.740    0.425
       136 -10.4522     68.7011     95.2429   1.0132952339e+02   4.8703482650e+01    0.3705295     0.300503  31.80  0.001799893    1.405    0.288
       137  -9.1787    120.8263    101.1866   8.7667008535e+01   3.8330950652e+01     0.216069    0.1850412  -8.29  0.001072415    1.347    0.258
       138 -10.9232     90.0249     89.1816   9.3163452877e+01   4.6793296139e+01    0.8195488    0.4169839 -33.19  0.003054425    2.473    0.596
       139 -12.2380     78.0374     97.1608   9.8935163685e+01   4.6911450542e+01    0.3985015        0.308 -60.39 0.0003778129    1.223    0.182
       140 -10.9237     82.2363     92.7566   9.6517585561e+01   4.7269155527e+01    0.5395426    0.3917585  70.23  0.002458841    1.916    0.478
       141  -9.8629     77.1674     92.6312   9.8046254305e+01   4.8080315155e+01    0.2621503     0.232743  -0.12 0.0006981393    1.284    0.221
       142  -9.8244    210.3277     97.9326   6.6696851128e+01   1.8191445335e+01    0.2894822    0.2624008 -78.23 0.0009383077    1.245    0.197
       143  -8.9988     45.6569    105.8811   1.1065343376e+02   4.9016952585e+01    0.1799954    0.1407552 -66.25 0.0004153684    1.076    0.071
       144 -10.5989    152.4044     91.6382   7.6898266404e+01   3.3313431274e+01    0.4847855    0.3463267 -60.28  0.002106869    1.676    0.403
       145  -9.7347    160.2424     93.4323   7.5592433554e+01   3.1094313775e+01    0.3823736    0.2400314  68.27  0.001487541    2.148    0.535
       146  -9.1281    137.5858     93.5373   8.1096401748e+01   3.6351391733e+01    0.3236426     0.219987  13.88  0.000932796    2.232    0.552
       147 -10.2321    117.4643     93.0586   8.6298217497e+01   4.0784296756e+01    0.4460687    0.3108257  31.99  0.001139167    1.613    0.380
       148  -9.8283    120.5442     89.5231   8.4419522342e+01   4.0899093293e+01     0.271917    0.2330501 -47.33 0.0005811369    1.141    0.124
       149 -11.1097    120.6826     85.3839   8.3143883119e+01   4.1735488380e+01    0.6245565    0.4452069 -76.43  0.002634717    2.138    0.532
       150 -10.2245    126.0623     93.4854   8.4086026576e+01   3.8892673138e+01    0.3606849    0.3068193  35.71  0.001034886    1.228    0.186
       151 -10.1861    122.4896     93.5345   8.5061026100e+01   3.9639919254e+01    0.3033262    0.2578931 -18.51 0.0007652593    1.273    0.215
       152 -12.5264    101.9226     89.9801   8.9836238733e+01   4.4494841802e+01    0.5544456    0.4188908 -34.99  0.000419891    1.311    0.237
       153 -10.1129    105.0917     76.5475   8.4850282714e+01   4.6738196284e+01    0.4436995    0.4162323 -60.60  0.002455308    1.158    0.137
       154 -11.0542    113.3699     84.5047   8.4917258905e+01   4.3436095753e+01    0.6894423    0.3815474 -36.28  0.002121604    1.836    0.455
       155 -10.7484    109.1396     80.5916   8.4931139261e+01   4.5104087523e+01    0.4168683    0.3143887 -15.49  0.001257052    1.567    0.362
       156  -9.8462     66.6370     88.6538   1.0033339434e+02   5.0497274315e+01    0.3197269    0.2206401 -17.22  0.001328151    1.949    0.487
       157  -9.0444    200.2920     88.0065   6.5835838495e+01   2.2322165294e+01    0.2237334    0.1993848 -35.81  0.000707574    1.078    0.072
       158 -10.3409    183.6232     85.7081   6.8367908526e+01   2.6828519036e+01    0.7484881    0.3191636 -46.09  0.002556833    2.519    0.603
       159  -9.4350    175.2936    246.5651   1.0348641497e+02   3.4636558322e-01    0.2391283   0.09121305  44.32   0.00114541    2.117    0.528
       160 -10.3745     94.0540     76.5675   8.8194232433e+01   4.8811688138e+01    0.4208888    0.3211784  34.46 0.0008655693    1.408    0.290
       161 -11.9631     83.7757     71.2959   8.9789039416e+01   5.1697232257e+01     1.536489      1.29678   2.31  0.008536995    1.288    0.224
       162 -11.7633     76.7325     80.3821   9.4828690894e+01   5.0885758063e+01     1.301108    0.8508182  67.49  0.005660657    2.602    0.616
       163 -10.9101     67.3142     81.7862   9.8293640582e+01   5.1950408258e+01     0.789645    0.4003398  20.13  0.003189852    3.006    0.667
       164 -13.0477     52.5794     73.6461   1.0103868318e+02   5.5640227471e+01    0.5170547    0.2874991 -57.26  0.000918009    1.630    0.387
       165 -10.9392     57.9869     77.8510   1.0033083111e+02   5.4055477715e+01    0.6514527    0.3124122 -65.70  0.002118274    2.706    0.630
       166 -10.6732     46.8640     74.4828   1.0325506255e+02   5.6104556914e+01    0.3382017    0.1655508 -55.25 0.0002685788    1.710    0.415
       167 -11.2177     91.1992     62.8438   8.4603820929e+01   5.2101383700e+01    0.8033196    0.4801295 -32.60  0.003681822    1.649    0.393
       168 -11.1183     87.8349     57.2177   8.3724146441e+01   5.3784404067e+01    0.5979398     0.433005 -37.79  0.002283297    1.280    0.219
       169 -10.4354    165.6215     83.4725   7.1474330153e+01   3.1689502464e+01    0.4370912    0.3560668 -68.20  0.001476424    1.444    0.307
       170 -11.2569    142.8229     84.0794   7.6967669280e+01   3.7057934969e+01    0.5411325    0.3786038  41.79  0.001136666    1.473    0.321
       171 -10.4246    127.4047     82.7579   8.0523257289e+01   4.0821711348e+01    0.4276528    0.2928946 -47.14  0.001399328    1.465    0.317
       172 -10.3076    232.5938     77.1896   5.7691708932e+01   1.6413388741e+01    0.5433108    0.2800545 -45.24  0.002299096    1.870    0.465
       173  -9.3386      8.9763     76.2547   1.1677792631e+02   5.8824137997e+01    0.1700904    0.1295878 -69.09 0.0002384285    1.103    0.094
       174 -11.8452     14.2099     74.5648   1.1467267153e+02   5.8883655115e+01    0.5498233    0.3572849 -49.68    0.0023912    1.261    0.207
       175 -10.1049     14.4937     67.3008   1.1307840937e+02   6.0469356299e+01     0.305476    0.2297766   2.84  0.002046924    1.659    0.397
       176  -9.1597    170.5111     77.9701   6.8787204948e+01   3.1481349812e+01    0.2365534    0.1534919 -34.82 0.0004862663    1.520    0.342
       177  -9.4160      1.1994     78.0392   1.1967210102e+02   5.8840250435e+01    0.1800722   0.08960307 -67.72 0.0004668999    1.484    0.326
       178 -11.6694      2.0184     71.4850   1.1830081044e+02   6.0248813138e+01    0.6202123    0.1454714 -63.84  0.002631516    2.687    0.628
       179 -12.3144      5.2256     62.2869   1.1540997624e+02   6.2093328021e+01    0.7702835    0.4076625 -32.22  0.003318135    1.982    0.495
       180 -10.2660     10.3491     62.7200   1.1360491674e+02   6.1718442905e+01    0.2025843    0.1873415  -1.98 0.0008492283    1.349    0.259
       181  -9.2170    139.3014     77.3118   7.5752986725e+01   3.9192359735e+01     0.158499    0.1224931   7.92 0.0002105561    1.608    0.378
       182  -9.7314    127.3059     77.0647   7.8771477765e+01   4.1976770613e+01    0.3170186    0.2695042  79.23  0.001012273    1.443    0.307
       183 -10.0086    123.7434     72.7811   7.8353882838e+01   4.3598473396e+01    0.4307009    0.2853401  70.91  0.001755721    2.267    0.559
       184 -11.4596    123.9732     68.2862   7.6816950792e+01   4.4401821988e+01    0.4396394    0.3727726 -48.36  0.001303092    1.231    0.188
       185 -10.6514    119.8297     68.6281   7.8059028677e+01   4.5249516871e+01    0.3135348    0.2946703  72.08  0.000817667    1.209    0.173
       186 -12.0395    186.5091     70.4706   6.3400958854e+01   2.8747108345e+01     1.002548    0.6580426 -38.18  0.003218271    1.478    0.324
       187  -9.9371    184.3760     61.7619   6.1217026989e+01   3.0708705882e+01    0.2931181    0.2393635 -15.09 0.0006990604    1.336    0.252
       188  -9.7952    241.9883     75.0881   5.5847517143e+01   1.4604505676e+01    0.2139796    0.1941295 -39.67 0.0003288133    1.010    0.010
       189 -11.3994     32.4199     72.1699   1.0775916604e+02   5.8039399533e+01    0.5044306    0.3080017  28.81  0.002473553    1.969    0.492
       190 -11.6835     40.7971     70.6427   1.0438718554e+02   5.7585837538e+01    0.4983388    0.2684234 -50.67  0.002584304    1.492    0.330
       191  -9.0270    151.1677     73.6144   7.1727491464e+01   3.7050287970e+01    0.2270783    0.1412663  41.21 0.0008616301    1.688    0.407
       192  -9.7923    162.2731     70.8750   6.8382365071e+01   3.4797986490e+01    0.2970956    0.2644154 -89.26  0.001018417    1.263    0.208
       193 -10.0202    172.3303     68.3366   6.5503964876e+01   3.2701923784e+01    0.3546811    0.2881173   2.25  0.001195707    1.448    0.309
       194 -10.1632    171.6931     65.6276   6.4803167213e+01   3.3318567738e+01    0.4272993    0.4101195  54.66  0.002280663    1.048    0.046
       195 -11.4353    220.0225     66.3216   5.6680597760e+01   2.1066995474e+01     0.716745    0.4122183  53.19  0.002491498    1.813    0.449
       196  -9.3210    208.1187     68.4806   5.9099346558e+01   2.3645372757e+01    0.2274942    0.1474168  57.40  0.001025919    1.586    0.370
       197 -10.3721     53.2757     49.3758   9.3195752131e+01   6.0587876850e+01    0.4296982    0.3307918  86.82  0.002248524    2.413    0.586
       198 -10.6101     22.7287     36.9731   1.0142658056e+02   6.6161870851e+01    0.3785576      0.26947  45.40  0.001454381    2.080    0.519
       199 -10.9084     58.7248     63.5701   9.5900111664e+01   5.7034627247e+01     0.654799    0.4527988 -54.41  0.003564404    1.398    0.285
       200 -10.6806     32.8162     43.5769   9.9371579334e+01   6.3991300466e+01     1.029911    0.4767955 -23.79  0.004392212    3.097    0.677
       201 -12.6541     43.1224     46.4178   9.6139786467e+01   6.2371882004e+01    0.7485558    0.6572987 -82.39  0.001707118    1.631    0.387
       202 -11.5681     32.9447     58.7620   1.0404685014e+02   6.0892393286e+01    0.6607062    0.3387773   6.12 0.0003552302    2.945    0.660
       203 -11.8808     21.2354     46.9364   1.0526656987e+02   6.4313153158e+01    0.4759467    0.3157232 -42.07  0.001055627    1.178    0.151
       204 -11.3646     40.4993     56.6578   1.0052364652e+02   6.0598428569e+01    0.5608863    0.4095868 -83.57  0.002645372    2.106    0.525
       205 -11.7220     27.5636     54.0717   1.0479961715e+02   6.2343897194e+01    0.9139087    0.4935723 -14.35  0.004517922    2.593    0.614
       206 -10.9710     20.4833     54.8346   1.0780887563e+02   6.2738901879e+01    0.3481956    0.2337136   7.79  0.001203449    1.813    0.448
       207 -11.5353     51.0123     61.2584   9.7984665500e+01   5.8476572213e+01     0.414715    0.3193625 -65.84 0.0007597592    1.499    0.333
       208 -11.4732     46.1013     58.1832   9.8861502270e+01   5.9680515545e+01    0.5494586    0.2695426 -47.14  0.001317335    1.669    0.401
       209 -10.5927     25.9393     65.3839   1.0844543866e+02   6.0070046304e+01    0.2306601    0.1634608 -45.44  0.000335977    1.155    0.134
       210 -10.6977     21.2540     65.4351   1.1018695341e+02   6.0415594020e+01    0.2533184    0.1927413 -87.41 0.0008786593    1.588    0.370
       211  -9.8279    192.6577     65.6773   6.0895684380e+01   2.7972100054e+01    0.2919527    0.2488658 -70.59 0.0007617597    1.269    0.212
       212 -10.1300    106.4289     63.6355   8.0196806610e+01   4.9015483390e+01     0.344619    0.2567516 -33.41  0.001610945    1.279    0.218
       213  -9.6082    197.7398     62.8305   5.9207103727e+01   2.7135417596e+01     0.293008    0.1972115 -79.10  0.001144927    2.017    0.504
       214 -10.6522    159.4507     61.8134   6.6137742991e+01   3.7054375790e+01    0.5741681    0.4266602   7.82  0.002576769    1.715    0.417
       215 -10.2746    162.2459     45.1141   6.0167676988e+01   3.8937619803e+01    0.5494333    0.4285074  -3.68  0.002679316    1.481    0.325
       216 -11.0791    157.3642     55.1885   6.4443562595e+01   3.8657031946e+01    0.5605391    0.4962128 -32.04  0.002918477    1.134    0.118
       217 -10.8261    155.3248     49.7161   6.3073545104e+01   4.0023158696e+01    0.5276876    0.3173697 -13.42 0.0008055076    2.140    0.533
       218  -9.8072    146.4780     61.7834   6.9015658161e+01   4.0285464533e+01    0.4541191    0.3120655  19.33  0.001929991    1.907    0.476
       219  -9.4647    199.0292    244.5257   9.9020674935e+01  -3.1468171039e+00    0.1872296   0.09313927  40.32   0.00103338    1.603    0.376
       220 -11.3434    127.4570    242.3405   1.1151467095e+02   8.5381633259e+00    0.3799262    0.2169037 -69.86  0.002148831    2.408    0.585
       221 -11.3413    113.1460     49.7127   7.3310772915e+01   5.0070406836e+01    0.7149014    0.4177622  28.94  0.002513079    2.080    0.519
       222 -12.6889    119.7429     38.1467   6.7225749392e+01   5.0387092142e+01    0.8712826    0.6448337 -69.28  0.003374576    1.995    0.499
       223 -12.4170    117.3293     43.0644   6.9705651574e+01   5.0203896380e+01    0.9205691    0.6013643  75.59  0.003610687    2.437    0.590
       224 -11.3974    114.1519     38.7363   6.8921786408e+01   5.1566533536e+01     0.558165    0.2262509 -26.62  0.001129595    2.693    0.629
       225  -9.1824    132.0009     45.5025   6.6866565871e+01   4.6423801441e+01    0.2147771    0.1906964  37.58 0.0004904432    1.093    0.085
       226 -11.0171    140.2640     43.2051   6.4120366111e+01   4.4761379404e+01    0.8811417    0.4323173  30.97  0.002903195    3.015    0.668
       227 -11.1308    135.9916     55.0122   6.9230887506e+01   4.3961228233e+01    0.9295015    0.8949504  12.14  0.005119816    1.007    0.006
       228 -11.5775    146.0770     47.1822   6.4202656937e+01   4.2731082165e+01    0.8124005    0.3826881 -24.50  0.003023619    2.405    0.584
       229 -10.4843    146.3638     43.1916   6.2770074272e+01   4.3249195364e+01    0.3153168    0.2703696  42.55 0.0003789502    1.133    0.118
       230 -10.0794    104.3113     57.8117   7.8793137149e+01   5.0523210144e+01    0.3693425    0.2237144  27.68  0.001592552    1.996    0.499
       231 -10.1759     68.4813     32.8910   8.1017328325e+01   6.1320007291e+01     0.450002    0.3018711  34.74  0.002483276    1.549    0.354
       232  -9.6015     59.6922     24.0711   8.0505963403e+01   6.4064152799e+01    0.2942245    0.1669225 -29.93 0.0005281041    1.574    0.365
       233  -9.5276     60.9295     20.5320   7.8411793064e+01   6.4389043746e+01    0.2787935    0.2256874 -82.29  0.001215463    2.619    0.618
       234 -11.5796     57.0233     30.9501   8.4563812388e+01   6.3381655056e+01    0.4231146    0.2958394  -0.72  0.001673802    1.495    0.331
       235 -11.4164     48.2583     30.5409   8.7938179186e+01   6.4643771551e+01    0.5805798     0.267558  28.73  0.002585559    2.438    0.590
       236  -9.0647    163.5152    243.5309   1.0518621850e+02   2.6401878060e+00    0.1202074   0.09448933  42.76 0.0001711538    1.042    0.040
       237 -11.7055     60.5255     36.0653   8.5328131360e+01   6.2021234199e+01    0.3857711     0.241357 -33.65  0.001142216    1.401    0.286
       238 -10.1253    188.1188     55.7191   5.8758150542e+01   3.0688324584e+01    0.2652878    0.2368941  -3.21 0.0004424541    1.230    0.187
       239  -9.2072      2.0051     56.4413   1.1539572311e+02   6.3504737787e+01    0.1362167    0.1118206  -1.72 0.0003464805    1.511    0.338
       240  -9.7620    248.8371     52.8690   4.9509625713e+01   1.6306786595e+01    0.2892255    0.1821164 -58.80 0.0009771576    1.647    0.393
       241  -9.7823    234.1285     44.9006   4.9217312936e+01   2.0786585916e+01    0.3006682     0.219742 -57.11 0.0008559006    1.319    0.242
       242 -10.7723    231.7982     39.5343   4.8119388085e+01   2.2058621849e+01    0.6528675    0.3295473 -69.56  0.001907557    2.849    0.649
       243  -9.3903    238.5865     54.8049   5.1191798723e+01   1.8367129111e+01      0.26393    0.1885048 -51.67   0.00137225    1.322    0.244
       244  -9.8438    244.8251     51.1695   4.9549165879e+01   1.7446636480e+01     0.242324    0.2037501  71.76 0.0008500135    1.271    0.213
       245 -10.9477    240.3418     50.3003   4.9851781710e+01   1.8593661378e+01    0.3997366    0.3279127 -52.23 0.0009950992    1.109    0.098
       246  -9.2092     65.9178     28.4092   8.0049814080e+01   6.2433804245e+01    0.3069471     0.177075  26.06  0.001542935    1.882    0.469
       247 -10.0088     66.9738     54.3464   8.9858648303e+01   5.7745085708e+01    0.3222027    0.1780157 -53.16   0.00106695    1.986    0.496
       248  -9.7920    211.3201     53.0633   5.4349074809e+01   2.5191220402e+01    0.3007191    0.2178616  77.07   0.00146855    1.489    0.328
       249 -11.2014    202.0056     47.2661   5.4084675736e+01   2.8371136889e+01    0.6775844    0.4662057 -51.55   0.00324041    1.478    0.323
       250 -10.8497    174.0524     48.0938   5.8909278198e+01   3.5457478806e+01    0.5574594    0.4373751  87.98  0.002718772    1.452    0.311
       251  -9.4633    176.4585     43.5090   5.7052151048e+01   3.5490066984e+01     0.301146    0.2349064 -86.93  0.001470049    1.460    0.315
       252 -10.2490     90.8718     47.4182   7.9135498464e+01   5.4991119748e+01    0.2824721     0.219943 -31.72 0.0004077107    1.205    0.170
       253  -9.4595      2.2648     48.7936   1.1356934441e+02   6.5099020590e+01    0.2448809    0.1902563  -9.81  0.001781459    1.499    0.333
       254  -9.3016      2.9541     44.8227   1.1230894094e+02   6.5883990928e+01    0.2430535    0.1241793 -18.37  0.001040833    2.338    0.572
       255  -9.4799      5.8146     41.8706   1.1031840454e+02   6.6336545136e+01     0.399099    0.2411623 -81.16  0.002234967    2.308    0.567
       256 -10.1630     13.5893     46.6107   1.0834862942e+02   6.4914866740e+01    0.4190014    0.1373625 -40.73  0.001891553    2.590    0.614
       257 -10.0904     17.6510     41.6217   1.0515918895e+02   6.5643956495e+01    0.3401007    0.1774039 -31.19  0.001886593    1.829    0.453
       258  -9.7596    208.6688     46.8359   5.3002330321e+01   2.6744833658e+01     0.358186    0.1941145 -72.16  0.001307959    2.888    0.654
       259 -10.1728    194.7132     46.6327   5.5005624748e+01   3.0326270094e+01    0.5748043    0.2707787  86.82  0.001627649    4.717    0.788
       260 -11.4065    155.9979     41.9335   6.0344726759e+01   4.0992505429e+01     0.398004    0.3791138  -8.18 0.0009595599    1.070    0.066
       261 -11.2409    153.1189     36.1090   5.8950290744e+01   4.2526725401e+01    0.3291467     0.288488 -48.04 0.0004221726    1.212    0.175
       262 -10.8660     97.7888     41.5959   7.4725396369e+01   5.4606378203e+01     0.570894    0.4000454  78.37  0.002086339    2.637    0.621
       263 -10.8268     92.8339     41.2776   7.6137324568e+01   5.5637444359e+01    0.4774581    0.3167556  35.55  0.001683423    1.523    0.344
       264 -10.6620    189.2097     40.9740   5.4190214830e+01   3.2531558549e+01    0.6292472    0.2604378 -22.97  0.001203496    2.878    0.653
       265  -9.0858    193.2372     39.2489   5.3068422091e+01   3.1723448953e+01    0.2781311     0.193676  60.61 0.0005574773    1.403    0.287
       266  -9.6081     86.4714     30.9385   7.3971243827e+01   5.8448780268e+01    0.5232847     0.216623 -22.04  0.001891821    3.163    0.684
       267 -10.5632     80.4821     39.9441   7.9661016668e+01   5.8146777638e+01    0.5602113    0.4047344  39.82  0.003055772    1.465    0.317
       268 -10.7776     77.4341     34.2240   7.8377049840e+01   5.9602937772e+01    0.4135512    0.2616425  41.92  0.000975764    1.668    0.400
       269 -10.3094     81.8167     31.5098   7.5745353565e+01   5.9233910660e+01    0.4202122    0.2720822 -51.44  0.002033186    2.144    0.534
       270  -9.5856     68.0289    240.4868   1.2176154790e+02   1.7413873277e+01    0.1648653   0.08904459  44.57 0.0009566644    1.572    0.364
       271 -10.8948    147.3333    238.3226   1.0744701092e+02   6.0015887069e+00    0.2244899    0.1652194  24.54  0.001412267    1.528    0.345
       272 -10.4149    176.7095     29.8201   5.2741559791e+01   3.7228809771e+01    0.4413063    0.2265657  50.29  0.001574343    1.904    0.475
       273 -10.8729    198.7144    232.7504   9.7329283811e+01  -1.6094528857e+00    0.3930037    0.2771854  33.59  0.002504291    1.141    0.124
       274  -9.6891    206.8306     37.0274   5.0521665557e+01   2.8539455439e+01    0.2420803     0.206591  73.81 0.0007454343    1.156    0.135
       275  -9.6363    133.0510     36.6824   6.3435211666e+01   4.7451199632e+01    0.3836133    0.2660638 -80.67  0.001660134    2.262    0.558
       276 -11.0831    138.6407     32.9534   6.0835387008e+01   4.6583970021e+01    0.5081754    0.4729194  84.34  0.001476044    1.187    0.158
       277  -9.4492     94.6305     36.2432   7.3573077196e+01   5.6069791216e+01    0.2345581    0.1739212  58.73 0.0009990564    1.669    0.401
       278  -9.8637     15.0697    233.6204   1.3002530266e+02   2.4755649214e+01    0.1955076    0.1189762  88.67 0.0009837261    1.325    0.245
       279  99.0000      6.0220     36.0285   1.0855369907e+02   6.7489284286e+01     0.620559    0.4470239 -47.93  0.004370144    1.052    0.049
       280  -9.6447     23.6678    231.8639   1.2856606476e+02   2.4178443266e+01    0.1494291    0.0977899  75.04   0.00112378    1.110    0.099
       281 -10.1859    247.1796    231.1691   8.8655475025e+01  -8.9235272052e+00    0.1807125    0.1251982  10.85 0.0006433518    1.195    0.163
       282  -9.2611    108.2244    230.0135   1.1365889820e+02   1.3517593148e+01    0.1396079   0.09601376 -66.36 0.0007331399    1.652    0.395
       283  -9.9603    167.7827    237.4058   1.0360274796e+02   2.8104838347e+00    0.1776565   0.09525319  34.65 0.0009510624    1.648    0.393
       284 -10.0138    234.3575    222.8974   8.9437410901e+01  -6.0531336365e+00    0.1682677    0.1316264   5.21  0.000641878    1.111    0.100
       285 -10.7291    240.4214     32.8509   4.5516162630e+01   2.0893603770e+01     0.510293    0.4039203 -56.34  0.002959719    1.138    0.121
       286  -9.7174      9.8797    217.8690   1.3009503635e+02   2.8115169694e+01    0.1505094    0.1145085  89.03 0.0006189525    1.240    0.193
       287  -8.9067    144.6678    214.6809   1.0479478777e+02   1.0231825909e+01    0.1246512   0.09707732  11.84 0.0007048514    1.694    0.410
       288 -11.9929    114.9738     24.8469   6.3288280919e+01   5.3260012364e+01     0.607015    0.3199607  57.80  0.001366357    1.935    0.483
       289  -9.7630    248.8656     33.2864   4.4784141687e+01   1.8905194618e+01    0.2516983    0.1568242 -44.37    0.0013205    1.401    0.286
       290 -10.3721    165.2777    212.4765   1.0044859844e+02   7.0206492997e+00    0.2969729    0.1768264  53.95   0.00095427    1.756    0.431
       291 -10.3616    144.6512     25.4224   5.6904963605e+01   4.6020930949e+01     0.546702     0.324804  68.80  0.002441106    1.791    0.442
       292  -9.6352    153.0265    207.8363   1.0213765285e+02   9.9498107745e+00    0.2055375    0.1624325  59.45  0.001035993    1.284    0.221
       293  -9.5916     61.0013    206.9712   1.2022946022e+02   2.4499806643e+01     0.182744    0.1388717  71.55 0.0004787309    1.046    0.044
       294  -9.5803    238.5290    204.4403   8.5442280709e+01  -4.4178198131e+00     0.246859    0.1148547 -31.59  0.001217378    2.194    0.544
       295 -10.2017     16.5961    204.3670   1.2821324048e+02   3.0034942297e+01    0.2119019   0.08395957 -84.29  0.001146648    2.194    0.544
       296 -11.0906      4.8809    202.6009   1.3016390834e+02   3.1477633615e+01    0.6015887   0.08215288 -68.04  0.002356994    4.897    0.796
       297 -12.1845      4.7049    184.4865   1.2918990519e+02   3.5100375436e+01     0.570252    0.3710328  73.88  0.003208619    1.183    0.155
       298 -10.0092    161.3149     23.3424   5.3161116788e+01   4.2000594973e+01    0.2596703    0.2379103  36.06  0.001469738    1.100    0.091
       299  -9.4395    216.3639     32.2812   4.8022694362e+01   2.6757670046e+01    0.2522589    0.1805818  -2.05  0.001109133    1.869    0.465
       300 -10.9173    198.2359     29.1208   4.9427085172e+01   3.1736240318e+01     0.462901    0.4287296 -46.77  0.001914756    1.086    0.079
       301  -9.9255    199.7732     25.0006   4.8053443615e+01   3.1839750422e+01    0.3165759    0.2292253 -10.89  0.001049143    1.660    0.398
       302 -10.5155    189.3424     28.4526   5.0447470742e+01   3.4112039654e+01    0.5419458    0.3297918 -13.58  0.002408703    2.027    0.507
       303  -9.3453    148.5368     31.9802   5.8437801996e+01   4.4230953219e+01    0.2191313    0.1897717  51.44 0.0003877224    1.100    0.091
       304 -10.1445    230.6824     27.4608   4.5173578862e+01   2.3862948645e+01    0.4431582    0.2041932 -35.97  0.001673942    1.951    0.487
       305  -9.5899    221.7164     29.4983   4.6665198240e+01   2.5784673199e+01    0.2466755     0.178924 -31.79 0.0005734118    1.372    0.271
       306 -10.1817     98.4203     27.8263   6.8991098244e+01   5.6500645042e+01    0.4858347    0.2609555 -43.18  0.001220053    2.195    0.544
       307  -9.1441    234.5598     29.1115   4.5188706795e+01   2.2736706883e+01    0.1950466     0.123758 -34.14 0.0004756961    1.488    0.328
       308  -9.3137     35.8755     31.3384   9.3542896233e+01   6.5965640083e+01    0.1659948    0.1509364  32.37  0.001053467    1.482    0.325
       309  -9.4189     41.2940     28.0442   8.9832567153e+01   6.5925979261e+01    0.3395047    0.1358031 -30.11  0.001184838    2.737    0.635
       310  -9.8540    250.5692     26.7052   4.3067856489e+01   1.9341330653e+01     0.257806    0.1154668 -31.88 0.0006015815    2.044    0.511
       311 -10.7565    245.6616    200.7308   8.3521604817e+01  -5.0876050007e+00    0.2242606    0.1611321   7.68 0.0006424545    1.236    0.191
       312 -10.3519    211.3295     18.7548   4.4966656411e+01   2.9637013266e+01    0.2405794    0.2198334  88.82  0.000259689    1.047    0.045
       313  -8.5189    206.2421     25.6386   4.7431281608e+01   3.0116465237e+01    0.1477926   0.09466032 -55.70  0.000377774    1.599    0.375
       314  -8.9848    207.4564    201.4568   9.0507887711e+01   1.2555187544e+00    0.1327376    0.1104999  18.58 0.0008071028    1.042    0.040
       315  -9.9709     86.1165     23.8442   7.1053523479e+01   5.9507404160e+01    0.1985402    0.1685334   7.39  0.001186313    1.034    0.032
       316  -8.5687      1.3097    200.3092   1.3066469256e+02   3.2238664228e+01   0.09317014   0.07034416 -65.96 0.0004679988    1.620    0.383
       317 -10.4149     81.2214     19.2749   7.0611532570e+01   6.1038580984e+01    0.6210147    0.1864251  44.68  0.002325556    3.123    0.680
       318  -8.8011     27.6740    199.3348   1.2588411868e+02   2.9909998846e+01    0.1228985   0.06257226  68.51 0.0007051456    1.717    0.418
       319  -9.3613    169.0591     23.6769   5.2005097606e+01   3.9953370954e+01    0.2120067    0.1773013  56.70 0.0008464441    1.134    0.118
       320  -9.4714    223.0493     22.3331   4.4657186775e+01   2.6324819111e+01    0.2280784    0.1865187 -44.95 0.0005276648    1.160    0.138
       321  -8.9693    220.7567     19.3241   4.4116153029e+01   2.7235828925e+01    0.1894429     0.160592  89.52 0.0001499285    1.113    0.101
       322 -10.2437    234.4983    196.6939   8.4701576298e+01  -2.7304138938e+00     0.421337    0.2371042  22.05  0.001986856    1.871    0.465
       323  -8.7072     83.6180    196.1639   1.1463725333e+02   2.3568775345e+01    0.1587343    0.1096917 -59.29 0.0004951418    1.566    0.361
       324  -9.9693    169.7895    191.5011   9.6070734363e+01   9.7385800766e+00    0.3436726    0.1983151  31.34  0.001111079    1.818    0.450
       325  -9.6301    239.8575    184.6487   8.1422103950e+01  -1.9793613040e+00    0.2190747    0.1596584  -9.81 0.0006377634    1.287    0.223
       326  -9.4583    250.1375    179.3095   7.8584682679e+01  -2.9802737464e+00    0.2638749    0.1335914 -19.42  0.001222902    2.140    0.533
       327  -9.7832    213.5195    180.5279   8.5383363247e+01   3.3378503359e+00    0.1388357    0.1191163  11.99 0.0002607558    1.040    0.038
       328  -9.9620    242.6860     22.0812   4.2683937699e+01   2.1691687169e+01    0.3484316    0.1574563  61.99  0.001586038    2.230    0.551
       329  -9.4560     27.8811    176.4918   1.2409331066e+02   3.4625307341e+01     0.269839    0.1421139 -68.58  0.001571941    1.661    0.398
       330 -10.0205     51.9536    173.6092   1.1875355853e+02   3.2595226667e+01    0.3691102    0.1635309 -85.02  0.001609348    2.654    0.623
       331  -8.8389    230.4422    175.5041   8.1245991161e+01   9.9940192130e-01    0.1359137    0.1165773   4.31 9.409138e-05    1.007    0.007
       332  -9.8790     74.4985     19.5426   7.2993136359e+01   6.2241844583e+01    0.2534773     0.174622  11.56 0.0008190506    1.464    0.317
       333  -9.1895     57.5091    174.9441   1.1769910748e+02   3.1619905463e+01    0.1859595    0.1492888  58.45 0.0005271898    1.197    0.165
       334  -9.7525    247.7381    173.9369   7.7896668120e+01  -1.8255820034e+00     0.441198    0.1496354  31.92  0.001475094    4.143    0.759
       335  -8.9771     92.5195    174.4974   1.0991239897e+02   2.6792068291e+01    0.1337287    0.1184794  78.90 8.777819e-05    1.014    0.014
       336  -9.6738     39.4323    173.7182   1.2144252552e+02   3.4011043754e+01    0.2314702     0.147879 -80.88 0.0008277284    1.320    0.243
       337 -10.7282     35.3173    170.1095   1.2197017642e+02   3.5242040146e+01    0.3534893    0.2046071 -83.89  0.001777937    1.483    0.326
       338 -10.0074      8.9994    156.0385   1.2637425181e+02   4.0773999367e+01    0.2783545    0.1546529 -66.27  0.001711845    1.558    0.358
       339 -11.8176      9.7602    166.6355   1.2702334164e+02   3.8412824863e+01    0.5244995    0.3141703 -76.60  0.002447003    1.336    0.252
       340 -10.8973     14.0833    159.1002   1.2553167763e+02   3.9682918444e+01    0.3497244    0.1993082 -81.00  0.001259171    1.376    0.273
       341  -8.9819    197.8556    167.8862   8.5831277570e+01   8.4326076994e+00    0.1836749    0.1726166 -66.35 0.0008325083    1.308    0.236
       342 -10.0050    188.5342    164.9835   8.7100164666e+01   1.0811654098e+01    0.4934345    0.2262944 -27.95  0.001753209    3.093    0.677
       343 -10.1787     18.7014    165.1078   1.2504752862e+02   3.7963769270e+01    0.2322696    0.2218538  -5.95  0.001788518    1.574    0.365
       344 -10.0059    205.0944    162.9994   8.3372490495e+01   7.8320622272e+00    0.2691873    0.1958652  31.57  0.000608146    1.335    0.251
       345  -8.8890     40.3247    161.3093   1.1998198255e+02   3.6658897352e+01    0.1163086   0.08719625 -48.13 0.0007037899    1.653    0.395
       346  -9.5316    220.3249     12.5591   4.2413865070e+01   2.8098274406e+01    0.2603919    0.1259737  80.36  0.001138092    2.139    0.533
       347 -10.3507     28.0077    162.3377   1.2280839411e+02   3.7697393789e+01      0.41817    0.1703076 -67.36  0.002113803    2.017    0.504
       348  -9.5937     79.1559    160.2513   1.1089049731e+02   3.1978050775e+01    0.2637466    0.1588587  85.92  0.001227701    2.053    0.513
       349  -9.6962    215.5765    158.1163   8.0302614354e+01   6.5702058792e+00    0.2849266    0.1733659 -20.04  0.001005039    1.868    0.465
       350 -10.5535    104.8227    154.3635   1.0379993630e+02   2.9253233461e+01    0.4422618    0.3242612 -66.17   0.00230393    1.352    0.260
       351 -11.1438     10.9557    127.0083   1.2324948651e+02   4.7133808684e+01    0.5389668    0.2176037 -61.40   0.00180582    1.950    0.487
       352 -10.8473     15.1244    147.8027   1.2431610662e+02   4.2101168582e+01    0.4393575     0.238406  59.92  0.001930014    1.840    0.456
       353 -12.1610     12.7872    139.6663   1.2408810112e+02   4.4120074603e+01     2.054473    0.7085713  85.51  0.006972189    4.874    0.795
       354 -10.9868     21.2967    150.6973   1.2318866712e+02   4.0922389715e+01    0.2212715    0.1511007  85.57 0.0003618831    1.225    0.183
       355 -11.6904     24.0455    148.5138   1.2234271498e+02   4.1168206101e+01    0.2980858    0.2183801 -70.20 0.0006545521    1.204    0.170
       356 -10.9111     31.4045    152.9345   1.2110871912e+02   3.9470958726e+01    0.4622456    0.2735667 -84.54  0.002657768    1.454    0.312
       357  -9.2982     74.9755    153.4917   1.1087026738e+02   3.4125383716e+01    0.2531162    0.1795472 -68.60 0.0009120511    1.290    0.225
       358  -9.6978     70.9206    151.4903   1.1154949422e+02   3.5153970466e+01    0.3094329    0.1530811  43.61  0.001111607    2.037    0.509
       359 -11.9070      3.6248    147.3362   1.2685168345e+02   4.3098449042e+01    0.6678288    0.3774688 -82.21  0.003397017    1.344    0.256
       360 -10.7168      5.6026    141.7689   1.2594545687e+02   4.4189118067e+01    0.2614489     0.174035 -84.66 0.0007100271    1.137    0.121
       361 -12.7445      3.9348    137.1331   1.2592616019e+02   4.5343068525e+01    0.3515991    0.1914592 -66.45  0.000469763    1.485    0.327
       362 -11.2032     46.8831    146.7970   1.1673324100e+02   3.9247686520e+01     0.716798    0.2661308 -67.90  0.003104457    2.316    0.568
       363  -9.8493    214.6893    151.1485   7.8925939404e+01   7.9206075058e+00    0.2634786    0.2507022  55.69 0.0008836709    1.241    0.194
       364 -11.2949     63.0194    150.1381   1.1327125003e+02   3.6522047528e+01    0.4024449    0.3978569 -88.51  0.001766333    1.257    0.205
       365  -9.6613    239.8396    146.8163   7.3420109813e+01   3.6559443835e+00    0.2112628    0.1740807   3.39 0.0006026307    1.156    0.135
       366 -10.5758    249.5750    142.4298   7.0808124715e+01   2.4911514374e+00    0.5654013    0.2369367 -29.88  0.002315554    2.251    0.556
       367  -9.5119    107.8182    146.0702   1.0152493183e+02   3.0615490588e+01    0.2182422    0.1864315  85.71 0.0004463025    1.194    0.163
       368  -8.9134     53.3188    145.6140   1.1500336056e+02   3.8778202340e+01     0.141697   0.08635002  76.08 0.0007015684    1.839    0.456
       369 -10.6973     33.1000    144.2256   1.1974304276e+02   4.1292348472e+01    0.2733368     0.209907  83.49 0.0007511004    1.145    0.127
       370  -9.9461    133.1100    140.0554   9.4074530159e+01   2.7206506401e+01    0.3365969       0.2632  41.37  0.001042765    1.293    0.226
       371 -12.0312     23.5118    135.9259   1.2111691549e+02   4.4089723353e+01    0.7666873    0.3902178  48.48  0.001998436    2.088    0.521
