#   1 NUMBER                 Running object number                                     
#   2 MAG_AUTO               Kron-like elliptical aperture magnitude                    [mag]
#   3 X_IMAGE                Object position along x                                    [pixel]
#   4 Y_IMAGE                Object position along y                                    [pixel]
#   5 X_WORLD                Barycenter position along world x axis                     [deg]
#   6 Y_WORLD                Barycenter position along world y axis                     [deg]
#   7 A_WORLD                Profile RMS along major axis (world units)                 [deg]
#   8 B_WORLD                Profile RMS along minor axis (world units)                 [deg]
#   9 THETA_WORLD            Position angle (CCW/world-x)                               [deg]
#  10 FWHM_WORLD             FWHM assuming a gaussian core                              [deg]
#  11 ELONGATION             A_IMAGE/B_IMAGE                                           
#  12 ELLIPTICITY            1 - B_IMAGE/A_IMAGE                                       
         1 -12.5978     84.9654     24.4676   1.4084767683e+01   6.0977940221e+01    0.2789544    0.2033772 -61.30 0.0008889721    1.627    0.385
         2 -11.8802     89.0489     10.9710   6.5297334621e+00   6.1591391232e+01    0.2400279    0.1839571  58.84 0.0003054284    1.199    0.166
         3 -11.7938     92.2381      8.2005   4.4746979845e+00   6.1076982759e+01    0.2265148    0.1941254  40.67  0.000655404    1.197    0.164
         4 -10.7056     55.5349      8.7601   1.5869893847e+01   6.9693308110e+01    0.1614132    0.1237786 -39.82 0.0002759049    1.438    0.304
         5 -11.9702     72.1556      6.8420   8.9039885876e+00   6.6112158258e+01    0.1927068    0.1754302 -84.23 0.0003610959    1.193    0.162
         6 -11.2077     68.6712      5.8069   9.3838304417e+00   6.7037950263e+01    0.2877886    0.1766782   6.12  0.001005408    2.168    0.539
         7 -10.6262    114.0166      6.0270   3.5951941052e+02   5.5769438185e+01    0.1586702    0.1448188  88.84            0    1.014    0.014
         8 -10.6167    140.4639      4.4626   3.5554662071e+02   4.9204692440e+01    0.1324807    0.1176413 -83.61 0.0002969888    1.034    0.033
         9 -11.2746     24.9168      1.9930   2.7836823358e+01   7.6509703885e+01    0.2318325    0.1602452  37.17 0.0007601361    1.363    0.266
        10 -12.0562      1.3794      2.0869   4.9628607288e+01   7.9575996380e+01    0.1657397    0.1036934 -48.39 0.0003321065    1.503    0.335
        11 -10.7555      4.4235      1.4418   4.5807533252e+01   7.9404300081e+01    0.1876237    0.1094957  20.94 0.0001087011    1.681    0.405
        12 -12.1285    126.8187    242.3573   5.5129418698e+01   8.2097618027e+00    0.2795942    0.1567088  46.41  0.000953704    1.953    0.488
        13 -11.0611    171.3818    249.8673   4.7320766783e+01   1.9713822876e+00    0.2223257    0.1172167   5.21  0.001212211    2.228    0.551
        14 -12.3505    139.5732    247.8929   5.3177985360e+01   5.8555701256e+00    0.3198795    0.2167908 -49.14  0.001589206    1.813    0.449
        15 -11.0578    124.9624    249.5266   5.6286512940e+01   7.3074704394e+00    0.1596901    0.1462697  -1.27 0.0006508386    1.203    0.169
        16 -11.6726    114.7511    249.1786   5.8333252403e+01   8.5501866339e+00    0.2927311    0.2159761  62.53  0.001493169    1.778    0.438
        17 -11.2334    119.9303    248.7820   5.7231798571e+01   8.0092358701e+00    0.2635933    0.1349399  15.77  0.001031701    2.122    0.529
        18 -10.2709    105.6548    250.7430   6.0359941575e+01   9.3538816403e+00    0.1128725   0.07896025   4.57 0.0004061874    1.591    0.372
        19 -12.0000     57.4635    249.1671   7.0354116137e+01   1.4988557298e+01    0.2527448    0.2120434  18.33  0.001079947    1.287    0.223
        20 -12.7202     50.2519    246.3709   7.1713551303e+01   1.6243460780e+01    0.4531138    0.2963556 -78.00  0.002953516    1.790    0.441
        21 -15.2919     25.9082    183.8992   7.3642733736e+01   3.1908052947e+01     1.460087    0.9018788 -36.23  0.007220693    2.307    0.567
        22 -14.1628     22.5856    195.7890   7.5228019263e+01   2.9425319902e+01    0.7884317    0.5700147   5.42  0.004544232    1.758    0.431
        23 -14.4318     30.2406    217.0886   7.4527155078e+01   2.4006844365e+01      1.47477    0.5787526 -55.56  0.006624836    3.182    0.686
        24 -14.1500     22.9236    215.5962   7.6163656773e+01   2.5019201663e+01      1.15434    0.3932016 -65.21  0.005159528    3.102    0.678
        25 -14.8246     34.0668    247.0767   7.5172170806e+01   1.7739288029e+01     2.110344    0.5714124  37.61  0.009995123    2.338    0.572
        26 -14.2987     16.9069    206.6782   7.7177545651e+01   2.7492282093e+01    0.8488381    0.6025367 -34.61  0.004970289    2.025    0.506
        27 -12.7641      5.9109    191.2399   7.9241637118e+01   3.1904623260e+01    0.3850088    0.2558691   3.77 0.0006549465    1.981    0.495
        28 -13.7159     13.0290    188.7068   7.7311000682e+01   3.1914831304e+01    0.6308726    0.3451934 -67.11  0.001939753    1.898    0.473
        29 -14.4598      4.7002    201.2520   7.9906574401e+01   2.9724579991e+01    0.7649197     0.657734   6.19  0.005191858    1.472    0.321
        30 -14.7117      2.5665    220.2104   8.0987194153e+01   2.5822834599e+01     1.120348    0.3717459 -83.76  0.005179712    3.000    0.667
        31 -13.6313      5.4692    212.5085   8.0098943322e+01   2.7204599149e+01    0.6772485    0.3064506  64.26  0.002059469    1.897    0.473
        32 -13.3865     17.5766    237.5416   7.8270080146e+01   2.1074711830e+01    0.3306242    0.2024216  51.74 0.0006578075    1.256    0.204
        33 -14.5396     15.8773    230.2592   7.8372220978e+01   2.2650505574e+01    0.7861059    0.4504349  32.52  0.004757227    1.462    0.316
        34 -13.8146     13.8221    224.8459   7.8628130474e+01   2.3920926528e+01    0.3287395    0.3165338  66.45  0.001524651    1.284    0.221
        35 -14.4468      6.7518    234.0655   8.0464431168e+01   2.2693296033e+01    0.4788032    0.3156625  70.47  0.003231031    1.331    0.249
        36 -15.7825      4.8821    244.5314   8.1131696042e+01   2.0856958925e+01    0.9717484    0.7902045  48.66  0.007489181    1.129    0.114
        37 -13.7661     11.6387    237.4651   7.9529195591e+01   2.1615528002e+01    0.3193171    0.2000613  68.95  0.001326568    1.408    0.290
        38 -11.5065    117.3301    241.5660   5.7010270879e+01   9.4719179998e+00    0.1904662    0.1688289   6.47 0.0005679464    1.146    0.128
        39 -10.8433     64.4708    246.9785   6.8723419678e+01   1.4627714995e+01    0.1509505    0.1141084 -77.87 0.0008655386    1.585    0.369
        40 -10.4176     76.2608    242.3269   6.5846876222e+01   1.4151534729e+01    0.1065752     0.086635 -13.60 0.0006501258    1.561    0.360
        41 -11.0492    171.3542    240.1416   4.6080041416e+01   3.3014680500e+00    0.1680536    0.1232956   6.49 0.0004743941    1.132    0.116
        42 -10.3442    158.6996    241.3172   4.8639838850e+01   4.5946494771e+00     0.104636   0.08302305  45.56 0.0007021302    1.617    0.382
        43 -10.5631    180.6095    240.4391   4.4406618921e+01   2.2145909780e+00    0.1114811    0.0856698   4.17 3.372851e-05    1.027    0.026
        44 -13.2758     69.3273    235.4415   6.6821355739e+01   1.6191744101e+01    0.4637795    0.3853401 -34.89 0.0004003556    1.538    0.350
        45 -11.8450     73.7750    231.0145   6.5469182687e+01   1.6516473482e+01     0.293483    0.1690306 -72.39 0.0007008832    2.081    0.520
        46 -13.7548     35.8532    231.1280   7.3996342333e+01   2.0592435361e+01    0.7229966     0.317549 -81.70  0.003015686    2.556    0.609
        47 -10.7575    175.8069    238.8103   4.5073348601e+01   2.9788297955e+00    0.1376342    0.1214017  21.37 0.0004001138    1.341    0.254
        48 -11.4632    210.2015    235.8670   3.8586855769e+01  -3.9555680343e-01    0.1829105    0.1366529 -36.11 0.0009990806    1.627    0.385
        49 -11.2843    137.9009    236.2212   5.2143106686e+01   7.8469116965e+00    0.1732822    0.1374557  34.87 0.0004479124    1.228    0.186
        50 -10.7239    103.3795    236.3005   5.9426192883e+01   1.2039465526e+01    0.1224175   0.08575246  -3.21            0    1.767    0.434
        51 -11.0226     47.7021    235.9218   7.1642219494e+01   1.8452929029e+01    0.1631975    0.1317279  56.29 0.0004894198    1.107    0.097
        52 -12.0878    165.6596    234.3636   4.6395889544e+01   4.7891838171e+00    0.2085779    0.1746063  19.03  0.000239622    1.166    0.142
        53 -11.1924    121.6282    235.1784   5.5403651194e+01   1.0006929487e+01    0.1440945    0.1070166 -34.52            0    1.545    0.353
        54 -13.2771    243.2293    233.3075   3.2982541915e+01  -3.3572961247e+00    0.2097134    0.1537724  -5.92 0.0006682465    1.107    0.097
        55 -12.3568     61.6765    231.3399   6.8217247294e+01   1.7826575342e+01    0.3628211    0.2070267 -78.95   0.00203375    2.079    0.519
        56 -11.8199     57.8194    233.9267   6.9267783108e+01   1.7754922597e+01    0.2610406    0.1029163  47.56  0.001244151    2.164    0.538
        57 -10.8768    158.5221    233.0766   4.7610815685e+01   5.8324522784e+00    0.1574472    0.1105172 -37.92  0.001018681    1.553    0.356
        58 -11.5015    222.6486    232.1411   3.6005896986e+01  -1.2186453513e+00    0.1531061   0.07714144 -24.65 0.0009409967    1.781    0.438
        59 -10.9910    216.9277    231.3340   3.6818810245e+01  -5.3230753645e-01    0.1507488    0.1078415   6.10 0.0004032487    1.109    0.099
        60 -12.0367    194.5722    229.0326   4.0304554959e+01   2.1901188197e+00    0.2870904    0.1768372 -27.88  0.001741787    1.531    0.347
        61 -12.9957    149.6761    229.1641   4.8857152854e+01   7.5166790887e+00    0.3711037     0.257987  44.84  0.002282731    1.657    0.397
        62 -11.8513    155.4285    227.2343   4.7443785584e+01   7.1067334954e+00    0.2176009    0.1370326  32.63  0.001306491    1.427    0.299
        63 -12.1400    181.7549    231.0692   4.2913616853e+01   3.3752303676e+00    0.4100673    0.2712551  55.33  0.002184371    3.157    0.683
        64 -11.1709    174.1751    228.1675   4.3922976604e+01   4.6821974629e+00    0.1416815    0.1279743  17.94 0.0003268294    1.304    0.233
        65 -12.7507    127.6138    227.2194   5.3193942579e+01   1.0604234355e+01    0.2229288    0.1809859  29.02  0.000308753    1.082    0.076
        66 -13.8376    124.8345    221.0884   5.3031903966e+01   1.2025062716e+01    0.7652171    0.4551816  61.06  0.003639553    2.794    0.642
        67 -13.0349    116.2009    214.5468   5.4121190142e+01   1.4345556341e+01    0.3882245    0.2323387 -35.29  0.001251846    2.034    0.508
        68 -10.1348    198.6793    227.7610   3.9395930395e+01   1.8997883430e+00    0.1115692   0.06955675   1.31 0.0001518918    1.517    0.341
        69 -11.1088    138.1908    227.1425   5.0953355198e+01   9.2800522888e+00    0.1573393     0.133208  43.72 0.0005030361    1.327    0.246
        70 -12.8205    117.2390    226.0624   5.5292491965e+01   1.2119618354e+01    0.3779232    0.2159171  51.11 0.0009322828    2.064    0.516
        71 -12.0169    106.4794    226.1695   5.7671132348e+01   1.3458417505e+01    0.2916156    0.1958186 -15.23  0.001593441    2.020    0.505
        72 -12.4196     81.0605    225.1619   6.3298276637e+01   1.6776581841e+01    0.4357345    0.2970285 -29.71  0.002449839    2.008    0.502
        73 -13.2510     49.5335    221.2476   7.0272210892e+01   2.1160871852e+01    0.6140205    0.3624008 -53.69  0.003398885    2.065    0.516
        74 -12.5519     49.7781    215.3950   6.9798322644e+01   2.2347193868e+01    0.3499267    0.3126218  27.50  0.001636202    1.194    0.162
        75 -10.6447    222.3545    225.7100   3.5106654712e+01  -3.9765662176e-01   0.09074286   0.08242331  21.84  0.000384966    1.678    0.404
        76 -11.4823    100.3902    224.7114   5.8870400875e+01   1.4489217857e+01    0.2233644    0.1446839  30.56 0.0003737671    1.305    0.234
        77 -12.7028    160.9893    222.8925   4.5738772211e+01   7.0925888863e+00    0.3554515    0.1948908  34.64  0.001989293    1.677    0.404
        78 -12.0519     92.4455    223.7149   6.0560507386e+01   1.5665170547e+01    0.2845758    0.1753051  -9.19  0.001356369    2.644    0.622
        79 -11.8409     57.4209    220.3610   6.8363962513e+01   2.0476370855e+01    0.3334995    0.2115804 -60.17  0.001248651    1.812    0.448
        80 -12.2799     40.3674    221.1651   7.2400038316e+01   2.2143043202e+01      0.39979    0.2663491  -0.52  0.002197881    2.147    0.534
        81 -12.2165    190.1227    220.1682   3.9802933116e+01   3.9383076062e+00    0.2006513    0.1546528   0.28 0.0003081098    1.054    0.051
        82 -12.1381    193.5444    217.4659   3.8777564726e+01   3.9175374505e+00    0.2037454    0.1260893 -25.10 0.0006125775    1.515    0.340
        83 -12.8475    173.7213    219.7363   4.2801711150e+01   5.9922695566e+00     0.302799    0.2103676 -38.82   0.00151656    1.531    0.347
        84 -11.5038    238.7503    220.2663   3.1717752704e+01  -1.4063883405e+00    0.1696404    0.1119079  18.69 0.0009128678    1.421    0.296
        85 -10.5998    197.3162    220.2714   3.8528014358e+01   3.0790364724e+00    0.1160154   0.07299295  -2.11 0.0002132071    1.559    0.359
        86 -12.2683     77.2999    219.7553   6.3659778062e+01   1.8286726503e+01    0.4702651    0.1984629  27.38  0.001417399    2.138    0.532
        87 -10.6738     73.2055    216.5980   6.4326602447e+01   1.9413406299e+01    0.1807211    0.1127415  19.38 0.0006869473    1.670    0.401
        88 -11.7630    165.7623    219.0541   4.4248976607e+01   7.0928090350e+00     0.212295    0.1473949  16.66 0.0002141092    1.273    0.214
        89 -12.8489    144.8959    216.4498   4.8122543382e+01   1.0208487788e+01    0.4071125    0.2818315  54.16  0.002288836    1.963    0.490
        90 -12.5587    140.4182    209.1928   4.8050338251e+01   1.2066911864e+01    0.3147391    0.2373583 -77.03   0.00177498    2.052    0.513
        91 -12.5800    129.4102    217.2025   5.1536271282e+01   1.2116056144e+01    0.3077168    0.1781433  24.26 0.0009587992    1.588    0.370
        92 -12.0144     93.4384    217.2204   5.9646412589e+01   1.6789923005e+01    0.4093597    0.1596829  34.07  0.001790925    2.096    0.523
        93 -12.0232     61.9249    216.2397   6.6971009721e+01   2.0811752757e+01    0.3670088    0.1739595  61.17  0.001246197    2.480    0.597
        94 -11.8474    225.9230    216.2389   3.3095497745e+01   4.2008141815e-01    0.1765398    0.1334892  -8.73 0.0003669575    1.045    0.043
        95 -10.9981    205.0142    216.9982   3.6684407363e+01   2.6414760103e+00    0.1377885    0.1067158  -2.72 0.0003130564    1.004    0.004
        96 -11.2981    138.3099    216.9464   4.9584238827e+01   1.0989067131e+01    0.1681506    0.1511359  -2.60 0.0005574598    1.101    0.092
        97 -12.4892    107.8770    214.8051   5.6043052856e+01   1.5393548949e+01    0.3348507    0.2434642 -71.92  0.001721626    1.730    0.422
        98 -11.6124    233.2490    214.1544   3.1620333405e+01  -9.2535378385e-02    0.2072704    0.1242518 -10.01 0.0008604774    1.484    0.326
        99 -11.9077     83.8952    214.1848   6.1560301021e+01   1.8593277833e+01    0.3801069    0.2282318  52.33  0.001806855    1.672    0.402
       100 -11.4945    156.5227    213.9464   4.5359130873e+01   9.1021094023e+00    0.1684293    0.1183762 -42.54 0.0005030761    1.540    0.351
       101 -11.8425    134.0587    214.0704   5.0107277434e+01   1.2056268923e+01     0.197866    0.1457709  56.31  0.001134779    1.740    0.425
       102 -12.7543     35.7920    196.1335   7.1879129039e+01   2.8062501028e+01    0.7031508    0.2182196  32.24  0.002872044    2.539    0.606
       103 -14.3318     35.6930    204.5917   7.2473902730e+01   2.6164983445e+01    0.5887321    0.4020037 -85.32  0.002041044    1.495    0.331
       104 -11.2225    250.6078    211.2170   2.8566997707e+01  -1.5010960666e+00    0.1471178   0.07461868 -23.80 0.0003080976    1.592    0.372
       105 -12.3464    170.9743    210.1100   4.1894864112e+01   7.8376724869e+00    0.2943619    0.2057278  49.71  0.001089876    1.985    0.496
       106 -10.6344     59.5617    210.9282   6.7092876891e+01   2.2195684616e+01     0.161615   0.09620829 -42.09 0.0006106332    2.257    0.557
       107 -12.7228    161.6906    208.3243   4.3472335845e+01   9.3497201695e+00     0.334827    0.2828076 -81.10  0.002072098    1.907    0.476
       108 -10.8700     90.5354    210.0069   5.9534398456e+01   1.8595737884e+01    0.1761709     0.130002 -68.52 0.0005044488    1.555    0.357
       109 -12.4378     52.4840    209.5000   6.8698824711e+01   2.3301997718e+01    0.4136545    0.2530868  32.15  0.002272181    1.433    0.302
       110 -12.5464     48.1346    207.0892   6.9578332654e+01   2.4303758281e+01    0.4312047    0.1661731  44.67   0.00165684    2.143    0.533
       111 -11.4657    230.8280    208.3782   3.1087796413e+01   9.0031443760e-01    0.1530307   0.08674826  15.69  0.000951505    1.741    0.426
       112 -12.2642    180.2490    207.3986   3.9683563042e+01   7.0648222711e+00    0.2574628    0.1949633  19.95 0.0003481872    1.195    0.163
       113 -11.6974    104.1078    205.6233   5.5790430469e+01   1.7689775587e+01     0.252861    0.2010572  35.36  0.001379359    1.116    0.104
       114 -12.8471    145.2402    201.0794   4.5810757146e+01   1.2855746326e+01    0.4178019    0.3489108 -79.78  0.001073646    1.722    0.419
       115 -10.9792     89.1747    204.4187   5.9227279921e+01   1.9921128962e+01    0.2334103    0.1957308  74.53  0.001082325    1.310    0.237
       116 -12.3150     91.1731    199.4134   5.8146402662e+01   2.0708769121e+01    0.5311848    0.3450935 -14.63  0.002461947    2.364    0.577
       117 -11.9542     92.1150    193.3620   5.7159648905e+01   2.1878278403e+01    0.6157493    0.2948439  31.97  0.002042467    1.882    0.469
       118 -10.5755     91.2696    189.6609   5.6895918845e+01   2.2803056611e+01     0.205762    0.1256194  34.22  0.000486813    1.481    0.325
       119 -12.3229     83.2845    201.1842   6.0302538843e+01   2.1370909034e+01     0.753577     0.461232 -56.85  0.003935189    1.786    0.440
       120 -11.7316    225.8122    204.0986   3.1192341130e+01   2.0163720112e+00    0.1597168    0.1370163 -14.10 0.0008668136    1.297    0.229
       121 -11.1008     96.9207    209.6087   5.7973557519e+01   1.7846245946e+01    0.2872499    0.1762631 -70.95  0.001488417    2.018    0.505
       122 -13.0555     27.2177    206.6027   7.4676214694e+01   2.6556801926e+01    0.3290348     0.276874 -54.73 0.0005010451    1.462    0.316
       123 -10.6917    110.4323    202.4986   5.3893462029e+01   1.7453113542e+01     0.130567    0.1179672  26.31 0.0001038673    1.014    0.014
       124 -11.0925    219.8414    201.1658   3.1677476380e+01   3.0987517629e+00    0.1585034    0.1076748  -8.38 0.0003462395    1.288    0.223
       125 -11.4519    213.7793    200.6221   3.2590233753e+01   3.8914379611e+00    0.2870755    0.1606228  31.56   0.00171456    1.817    0.450
       126 -12.2165    135.9118    199.1618   4.7567600690e+01   1.4525536454e+01    0.4189409    0.2839329 -87.23  0.001935544    2.906    0.656
       127 -11.4041    138.3090    196.7017   4.6660525755e+01   1.4645877110e+01     0.181591    0.1484786   7.92 0.0004011765    1.187    0.158
       128 -13.2105    121.7915    197.6091   5.0555215671e+01   1.6833299425e+01    0.4915467    0.3123379 -42.33   0.00257614    1.709    0.415
       129 -11.3171     45.4820    199.7343   6.9674762742e+01   2.6222674394e+01    0.3241761    0.1397344  25.64  0.001433461    2.224    0.550
       130 -12.9445    177.3480    197.9136   3.8720089848e+01   8.9593810932e+00    0.3590006    0.3451372  76.20   0.00246377    1.517    0.341
       131 -12.5345    172.6211    195.8800   3.9311950125e+01   9.9407298225e+00    0.2344012    0.2251024  -4.28 0.0003692101    1.255    0.203
       132 -12.7540    149.3529    196.6094   4.4231711181e+01   1.3083437357e+01    0.3112851    0.2163352 -58.06  0.001706411    1.803    0.445
       133 -12.4505     41.8167    211.6854   7.1447698405e+01   2.3985365965e+01    0.5186052    0.2538278  22.16  0.002513149    2.090    0.522
       134 -12.5167    192.7318    194.5181   3.5257460389e+01   7.4443334652e+00     0.314453    0.2195998   8.07  0.001105694    1.391    0.281
       135 -11.4758    160.6976    192.9818   4.1250688911e+01   1.2112932418e+01    0.1796512    0.1583516 -10.66 0.0005206226    1.061    0.057
       136 -12.9300    132.7517    191.8074   4.7157334479e+01   1.6389033621e+01    0.4092214    0.2667007 -25.70  0.002060272    1.854    0.461
       137 -11.7023    125.8428    211.6474   5.1584664581e+01   1.3595435014e+01     0.222913    0.1605025 -68.88   0.00126019    1.852    0.460
       138 -10.8663    212.3261    193.6882   3.1678949371e+01   5.0598656965e+00    0.0993738   0.09566876 -59.43 0.0005041088    1.662    0.398
       139 -12.7917    110.6795    188.7878   5.1926132039e+01   2.0233018204e+01    0.3566512    0.2668589 -77.41  0.001364142    1.672    0.402
       140 -11.9078     51.1904    190.4556   6.7419168870e+01   2.7712808826e+01    0.3171386    0.1868973  40.80  0.001618981    1.474    0.321
       141 -11.5933    174.6872    188.8951   3.7731982185e+01   1.0828550470e+01    0.2158734    0.1574805  16.08 0.0005681228    1.320    0.242
       142 -12.3086    197.3298    188.0348   3.3318118767e+01   7.8445200601e+00    0.2777278    0.1692576  34.87 0.0007670597    1.709    0.415
       143 -11.7915    186.0560    187.2780   3.5260548227e+01   9.5026898383e+00    0.2009032    0.1578703 -24.55 0.0003569817    1.154    0.134
       144 -12.0530    121.2219    187.8258   4.9234014899e+01   1.8885221641e+01    0.2107383    0.1775581 -12.08 0.0004684778    1.283    0.220
       145 -13.6546    126.6342    185.3396   4.7561166797e+01   1.8585832693e+01    0.6303335    0.2824479  38.64  0.002704098    2.087    0.521
       146 -11.8513    122.6435    182.3104   4.8029229338e+01   1.9811964536e+01    0.2759029    0.1689126  54.09  0.001271106    2.014    0.503
       147 -10.9285    103.7174    188.3536   5.3582885708e+01   2.1331917490e+01     0.247209     0.168943  19.65  0.001255372    1.542    0.351
       148 -11.4369    227.6763    185.9961   2.7872651766e+01   4.2743559944e+00    0.2458122    0.1380065 -19.46  0.001418366    1.696    0.410
       149 -11.6241    210.2194    185.3365   3.0600517251e+01   6.5583151028e+00    0.2982651     0.150355  -5.22  0.001156762    4.016    0.751
       150 -12.8427    155.2924    186.3138   4.1275731084e+01   1.4100887081e+01    0.4177771    0.2559069   4.08  0.001937527    2.261    0.558
       151 -11.7067    163.4381    184.7785   3.9299967910e+01   1.3174760227e+01    0.2249556    0.2000675  58.51 0.0006985305    1.472    0.321
       152 -13.0882    134.2737    181.9972   4.5230172336e+01   1.8103246124e+01    0.2958475    0.2836543 -21.82 0.0004444254    1.087    0.080
       153 -12.9618    138.0729    177.6014   4.3608251052e+01   1.8399636794e+01    0.3835489    0.2971631  71.45 0.0006512867    1.836    0.455
       154 -12.5770    105.1251    182.9408   5.2446289810e+01   2.2299908227e+01    0.2889826    0.1967131 -56.05 0.0006751984    1.562    0.360
       155 -12.1572     94.6621    181.7609   5.4951802453e+01   2.4083570029e+01    0.5069332    0.2219846 -61.99   0.00206518    2.497    0.600
       156 -10.3001     54.2876    184.6877   6.6049058971e+01   2.8710020548e+01    0.1433812   0.08965772  59.73 0.0004586599    1.581    0.368
       157 -10.5420    249.0338    181.0314   2.3847555461e+01   2.4503802965e+00    0.1344056   0.09776958 -18.78 0.0003042665    1.021    0.020
       158 -13.2826    154.9752    177.1501   3.9754088060e+01   1.5860169047e+01     0.387227     0.311037 -63.47  0.001254625    1.583    0.368
       159 -12.6509    116.0186    178.3331   4.9009807765e+01   2.1663396940e+01    0.3367834    0.2306492  13.66  0.001332572    1.707    0.414
       160 -12.2937     49.0654    178.6089   6.6881106492e+01   3.0775202840e+01    0.2355033    0.2052332 -77.42 0.0005402862    1.180    0.153
       161 -11.5512    171.6435    178.1223   3.6450711619e+01   1.3142638147e+01     0.195127    0.1710935  28.22 0.0003723296    1.199    0.166
       162 -13.6141     19.9921    176.0016   7.4748767845e+01   3.4368692608e+01    0.4234481    0.3637796  -0.92  0.002132829    1.456    0.313
       163 -11.5885    214.0499    176.7279   2.8432675272e+01   7.3513247271e+00    0.1969413    0.1466805 -26.63 0.0004356976    1.142    0.124
       164 -11.6949    191.3512    177.1600   3.2478505781e+01   1.0417740356e+01    0.1764782    0.1094142 -46.54 0.0008011149    1.742    0.426
       165 -11.5585    122.9606    174.2711   4.6630625103e+01   2.1457255226e+01    0.1969164    0.1719387  28.25 0.0003438461    1.092    0.085
       166 -13.7495    128.9579    175.7959   4.5438830569e+01   2.0194703273e+01    0.4983262     0.407226  59.94 0.0009645973    1.438    0.305
       167 -12.9818    132.7791    168.8836   4.3316957323e+01   2.1030618486e+01    0.3825085    0.3613285 -31.58  0.001478575    1.074    0.069
       168 -12.1350     64.1914    176.4247   6.2449749472e+01   2.9480414345e+01    0.4907917    0.2781826   9.20   0.00204083    2.560    0.609
       169 -11.4571    241.6459    175.7248   2.3980120644e+01   4.0170666305e+00    0.1905314    0.1219849  15.11 0.0007172882    1.688    0.408
       170 -12.0836    106.8359    175.1338   5.0816480712e+01   2.3766671350e+01    0.3015441    0.1932406  29.75 0.0007993266    1.519    0.342
       171 -12.7948    144.9354    173.2814   4.1282192500e+01   1.8183468197e+01    0.3890466    0.1939542  48.53  0.001621101    2.447    0.591
       172 -13.5004     80.9249    172.5851   5.7332607307e+01   2.8164728996e+01    0.6602688     0.314247  35.65  0.001646006    1.915    0.478
       173 -12.3123     91.0586    170.5101   5.4264832882e+01   2.7196297787e+01    0.3534765    0.2919042 -84.58  0.001646353    1.323    0.244
       174 -12.2656     87.7874    168.4254   5.4843883149e+01   2.8170885746e+01    0.3031031    0.2292347  15.69  0.001031049    1.489    0.328
       175 -13.8908     16.5726    167.2935   7.5165350819e+01   3.6832152690e+01    0.6527702    0.5617046   9.20  0.003437541    1.393    0.282
       176 -13.1769     13.2830    161.7642   7.5776581648e+01   3.8504020776e+01    0.5473048    0.2171079  37.80  0.001824853    2.163    0.538
       177 -12.3261      3.1253    160.1301   7.8664249059e+01   3.9676771627e+01    0.3746803    0.2704952  16.46 0.0006520456    1.582    0.368
       178 -13.7212      3.9570    166.6669   7.8729967808e+01   3.7972591197e+01     0.595172     0.335504  65.09  0.002081214    1.557    0.358
       179 -12.2270      7.0228    163.7489   7.7712708264e+01   3.8481733260e+01    0.2667075     0.206291  43.75 0.0005177528    1.217    0.178
       180 -12.2658    197.8805    170.2835   3.0030024492e+01   1.0607310293e+01    0.2793289    0.2548283  55.75  0.001835035    1.526    0.345
       181 -11.2283    163.4807    171.5255   3.6923609122e+01   1.5593156907e+01     0.133143    0.1222455  -6.27 0.0002076326    1.032    0.031
       182 -12.3481    153.2739    170.1859   3.8862842322e+01   1.7463732441e+01    0.2481372    0.2335225 -52.18  0.000651874    1.205    0.170
       183 -13.1906    152.6853    164.8912   3.8001524745e+01   1.8595203435e+01    0.3651897    0.2986005  48.57 0.0006577027    1.373    0.272
       184 -11.7221    145.0716    169.2608   4.0522608379e+01   1.8964297419e+01     0.191285    0.1727978  20.81 0.0003216135    1.071    0.066
       185 -12.2053     40.7939    168.6343   6.8262092406e+01   3.4166046812e+01    0.3444086    0.1695813  22.22   0.00143365    2.172    0.540
       186 -12.1032    127.4227    166.2490   4.4137400110e+01   2.2460529458e+01    0.3034224    0.2224619 -15.15  0.001326415    1.699    0.412
       187 -12.3821    199.2032    164.3328   2.8673928751e+01   1.1390418811e+01    0.2486244    0.1879068 -44.12 0.0007234908    1.393    0.282
       188 -12.4108    111.1542    163.5863   4.7778434812e+01   2.5692282473e+01    0.4210642    0.2860884 -43.74  0.002044367    1.547    0.354
       189 -10.9336     78.2912    165.3148   5.7037083571e+01   3.0292431237e+01    0.1419736    0.1104034 -27.25 0.0001964074    1.594    0.372
       190 -11.5320     63.0172    170.3806   6.2057196787e+01   3.1105437216e+01    0.2072178    0.1627569  41.85 0.0008810705    1.186    0.157
       191 -12.8372     91.7676    162.5790   5.2833568643e+01   2.8973132786e+01    0.4519125    0.3277964  15.70 0.0008944962    1.599    0.375
       192 -12.5636     47.3584    162.1523   6.5662221012e+01   3.5080904628e+01    0.6113794    0.3006173 -27.65  0.001959986    4.547    0.780
       193 -12.4705     47.8370    156.4923   6.4871890460e+01   3.6484215925e+01    0.2513904    0.2232121 -87.56 0.0003889698    1.080    0.074
       194 -13.1845    119.3749    167.8409   4.6416075327e+01   2.3418357110e+01    0.6392617    0.3258053  37.51  0.002763552    1.872    0.466
       195 -13.2016    169.3604    159.6728   3.3443923744e+01   1.6865476487e+01    0.4286568    0.3061139 -59.73  0.002208071    1.792    0.442
       196 -14.5396      4.4300    182.3647   7.9273277960e+01   3.4105111211e+01    0.9808849    0.6350682  84.30  0.004252341    1.382    0.276
       197 -11.9179    192.4776    159.5437   2.8954829908e+01   1.3209189432e+01    0.2125384    0.1939176 -33.35  0.000512068    1.186    0.157
       198 -12.2529    190.5123    156.4950   2.8714474523e+01   1.4039064490e+01    0.4104663    0.1642689 -50.04  0.001564626    3.146    0.682
       199 -12.1101     25.7894    159.3099   7.1871375010e+01   3.8056906324e+01    0.3721964    0.1984604 -84.85  0.001466679    1.810    0.447
       200 -10.8705    196.5412    159.5042   2.8215655901e+01   1.2593061421e+01    0.1306452     0.110455 -17.71 6.033879e-05    1.021    0.021
       201 -12.4116     53.4386    170.5474   6.4812218739e+01   3.2248202587e+01    0.3091753    0.2258421 -57.19 0.0001032593    1.454    0.312
       202 -12.0417    104.7947    158.6275   4.8595193625e+01   2.7863575283e+01    0.4180328    0.2368204  52.85  0.001748845    2.046    0.511
       203 -11.3928     69.0209    158.9800   5.8811851534e+01   3.3158868453e+01    0.2145265     0.207704  63.40 0.0004280568    1.056    0.053
       204 -10.9525    250.1465    158.1374   1.9646639989e+01   5.3945966041e+00    0.1729765    0.1204485 -18.00 0.0005154102    1.201    0.167
       205 -12.8088    133.1685    156.8074   4.0968821455e+01   2.3532086756e+01    0.4992656    0.3332201  58.89   0.00228448    1.949    0.487
       206 -11.7538    213.0371    156.9691   2.4913113434e+01   1.0550749097e+01    0.1930548    0.1617957 -22.43 0.0005372951    1.042    0.040
       207 -11.6460    113.1368    156.8925   4.6056486453e+01   2.6897362434e+01    0.2312987    0.1962911  67.24  0.001217669    1.318    0.241
       208 -12.2465     32.1357    157.1582   6.9753659734e+01   3.8005825759e+01    0.2013457    0.1832746 -60.85 0.0004446521    1.205    0.170
       209 -12.0299    141.2330    155.5474   3.8796950678e+01   2.2418064757e+01    0.2446775    0.1925842 -45.85 0.0003677131    1.264    0.209
       210 -12.1333     67.1398    153.7583   5.8620471801e+01   3.4743969319e+01    0.3700069    0.2232783 -24.75  0.001201491    2.699    0.629
       211 -13.5900     82.1737    152.4175   5.3915824310e+01   3.2919757813e+01    0.6623842    0.3640717 -38.12  0.002634184    2.380    0.580
       212 -11.3249     20.1203    154.4778   7.3213572986e+01   3.9818348168e+01    0.2661391    0.1712981  61.15  0.001043865    1.438    0.305
       213 -13.1639     20.2194    138.0360   7.1795325626e+01   4.4172692230e+01    0.4052915    0.2649732  76.67  0.001962031    1.464    0.317
       214 -12.8896      4.9220    150.0991   7.7609766636e+01   4.2131260140e+01    0.3493115    0.2652294  25.35  0.001148121    1.422    0.297
       215 -12.3151    118.5721    156.8115   4.4624868108e+01   2.6006984740e+01    0.2888984    0.2281778  -5.93  0.001114841    1.543    0.352
       216 -11.3259    172.6304    153.6823   3.1585618323e+01   1.7444127375e+01    0.1447085    0.1014441  -4.15 8.072604e-05    1.788    0.441
       217 -10.9178     99.2660    153.6617   4.9227771401e+01   2.9936150177e+01    0.1486832    0.1130293  75.44  0.000264128    1.593    0.372
       218 -10.9745    141.7196    162.9696   4.0119783132e+01   2.0793049728e+01    0.1914888    0.1713383 -33.43 0.0003296628    1.103    0.093
       219 -10.2986     14.5389    153.5480   7.4862501681e+01   4.0522645702e+01    0.1388123    0.1159519  69.93 6.869285e-05    1.043    0.041
       220 -11.5978    154.1091    150.9002   3.4925224843e+01   2.1144050065e+01    0.2045296    0.1970438 -19.73 0.0004012686    1.053    0.050
       221 -12.2964     27.5894    150.3196   7.0529451623e+01   4.0238582478e+01    0.3203875    0.2617866  -8.99 0.0008866599    1.538    0.350
       222 -12.0240    109.7494    149.1750   4.5505735054e+01   2.9260246287e+01    0.4511243    0.2499692  39.12  0.001242545    1.766    0.434
       223 -11.4446    146.8595    149.1447   3.6197239902e+01   2.2772991150e+01    0.2103526    0.1953196 -59.73 0.0006538855    1.168    0.144
       224 -11.9810     96.1994    149.0077   4.9248348859e+01   3.1560899382e+01    0.2403137    0.2113522  40.70 0.0003826805    1.117    0.105
       225 -10.4225    210.3024    148.3061   2.3657477457e+01   1.2343159892e+01    0.1280922   0.08922561  -8.51 0.0002288255    1.598    0.374
       226 -11.5575     20.2915    148.5497   7.2687104021e+01   4.1360558785e+01    0.2389479    0.1229828  29.59 0.0007224957    1.895    0.472
       227 -12.5611      4.6564    154.0644   7.7905719325e+01   4.1122577784e+01    0.4276166    0.2590448  13.16  0.002194333    1.931    0.482
       228 -11.9668    157.2970    145.4458   3.3090764254e+01   2.1678128314e+01    0.2855588    0.2309699  10.81 0.0006100935    1.370    0.270
       229 -11.9182    149.7341    145.5706   3.4796567692e+01   2.3000833187e+01    0.2631705    0.2247794  84.92 0.0003727693    1.517    0.341
       230 -11.6953    150.8771    141.3588   3.3640574746e+01   2.3661763826e+01    0.2385292    0.1931029 -41.76 0.0003085124    1.186    0.157
       231 -10.9266    232.7817    145.1695   1.9608828527e+01   9.5371189673e+00    0.1636062     0.120534 -11.93 0.0003975217    1.319    0.242
       232 -11.7832    171.3130    145.5891   3.0182502219e+01   1.9189399639e+01     0.265919    0.1330689  46.24  0.001151754    2.233    0.552
       233 -12.3483    103.3307    143.6191   4.6198448413e+01   3.1678403399e+01    0.5771403    0.3392466  69.06  0.002089667    2.916    0.657
       234 -11.1864    186.9890    143.9760   2.6817202106e+01   1.6810835954e+01     0.199644    0.1759146 -25.84            0    1.015    0.015
       235 -12.2156    143.0434    143.3568   3.5870631397e+01   2.4667520426e+01    0.3862161    0.2397359 -32.19 0.0009091991    1.801    0.445
       236 -13.1272     75.2824    150.7466   5.5696713661e+01   3.4363138953e+01    0.5649142    0.3398379  42.22  0.002052199    1.599    0.375
       237 -11.2476     53.6338    143.8060   6.1407305422e+01   3.9114844436e+01    0.2028239     0.133055 -85.14 0.0002768865    1.599    0.375
       238 -11.5367      1.6979    140.3469   7.8085355028e+01   4.4896264311e+01    0.2417089   0.09234012  83.40 0.0003522398    2.549    0.608
       239 -11.3462    178.8011    142.3325   2.8016902522e+01   1.8502456594e+01    0.1968116    0.1686559 -40.54  0.001144486    1.130    0.115
       240 -12.9504     59.0181    134.6724   5.8245702582e+01   4.0846605233e+01     0.506305     0.282574  50.45  0.001161615    1.874    0.466
       241 -12.8435     52.4375    136.4358   6.0723075824e+01   4.1230681318e+01    0.4262156    0.2964531 -65.91   0.00117104    1.377    0.274
       242 -11.8278    162.6912    140.9946   3.0984140685e+01   2.1597833987e+01    0.1920636    0.1775408 -24.70  0.001112114    1.004    0.004
       243 -12.1860     94.3714    139.8798   4.8047630905e+01   3.4109558209e+01    0.3657449    0.3040126 -21.36  0.001830735    1.429    0.300
       244 -10.5389     78.6551    141.6702   5.3132819609e+01   3.6179626325e+01    0.1566056    0.1158541 -24.79 0.0007050463    1.753    0.430
       245 -12.1573     59.9761    140.4654   5.8855839067e+01   3.9178509633e+01     0.307323    0.1851053 -50.83  0.001360928    1.719    0.418
       246 -11.2244    206.3300    139.1550   2.2446575784e+01   1.4462836685e+01    0.1746815     0.151431   1.26 0.0005350364    1.185    0.156
       247 -12.1873     72.5153    139.0513   5.4593517068e+01   3.7781483745e+01    0.2256587    0.2038422  44.12 0.0005244656    1.103    0.094
       248 -12.5713     40.5534    137.8706   6.4918333824e+01   4.2246382972e+01    0.4380826    0.2693658  38.75 0.0009900096    1.578    0.366
       249 -12.0635     45.4022    135.5341   6.2963808140e+01   4.2326638521e+01    0.4238618    0.2446522  76.21  0.001357316    2.068    0.517
       250 -12.5123     49.9885    140.9917   6.2198204596e+01   4.0313989587e+01    0.5336387    0.2839603  17.45  0.002177062    2.298    0.565
       251 -11.3889    183.8409    137.1497   2.5953284326e+01   1.8576280004e+01    0.1937565    0.1733493 -45.51 0.0003008741    1.157    0.136
       252 -13.3667    123.3862    134.8365   3.8897643910e+01   3.0158140863e+01    0.4296765      0.35621  20.83 0.0009479663    1.329    0.247
       253 -12.1752     68.3042    137.0748   5.5599003590e+01   3.8914586394e+01    0.2103113    0.1899005 -82.44 0.0005369869    1.073    0.068
       254 -11.0849     31.8623    136.9095   6.7741590944e+01   4.3414642562e+01    0.2231352    0.1801111 -47.93  0.001074926    1.351    0.260
       255 -11.2381    192.7094    134.9596   2.3875697825e+01   1.7435753252e+01    0.1871053    0.1555378 -32.40  0.000291678    1.057    0.054
       256 -11.9134     86.4792    134.9738   4.9462314781e+01   3.6649718947e+01    0.2701177     0.221661   9.04 0.0007375911    1.454    0.312
       257 -14.1375     11.8685    142.8669   7.4950692896e+01   4.3538985610e+01    0.8107682    0.3962215 -54.27  0.002228154    2.141    0.533
       258 -11.3486    210.2652    133.9774   2.0736304680e+01   1.4682368077e+01    0.1865506     0.149355 -30.92 0.0004964979    1.052    0.049
       259 -12.1451    174.8461    134.2969   2.7049624962e+01   2.0697547890e+01    0.2682087     0.187739 -33.71 0.0007773991    1.342    0.255
       260 -12.4671     77.8869    132.8688   5.1749772643e+01   3.8568777017e+01     0.289507    0.2529284 -44.21 0.0004785194    1.208    0.172
       261 -12.1497     81.8214    130.5868   5.0049216653e+01   3.8530701808e+01     0.284698    0.2131372  79.64  0.001315222    1.577    0.366
       262 -12.3428     83.5385    127.4677   4.8867752040e+01   3.9050727934e+01    0.3099872    0.2506357 -36.02 0.0008573951    1.376    0.273
       263 -12.4657     19.6922    131.6877   7.1373976966e+01   4.5933273602e+01     0.312841    0.2178143 -75.13  0.000730582    1.306    0.234
       264 -13.2689     16.7009    130.6793   7.2321792607e+01   4.6446412073e+01    0.6136354    0.2672873 -38.51  0.002052844    3.188    0.686
       265 -12.8069     49.3410    130.1846   6.0820869448e+01   4.3300353517e+01    0.5398096    0.2311641  41.55   0.00207272    2.263    0.558
       266 -10.1123     31.2989    131.6608   6.7318296347e+01   4.4894946702e+01     0.155899   0.09691887  63.69 0.0007034523    1.663    0.399
       267 -11.9727    104.8706    129.8251   4.2886866171e+01   3.4746481810e+01    0.2188394    0.2065434 -15.84 0.0002558371    1.143    0.125
       268 -10.5729     34.4623    130.4725   6.6062020120e+01   4.4901431054e+01    0.1454876     0.131925  86.11 7.899184e-05    1.001    0.001
       269 -11.2966    246.9975    130.0000   1.4744673010e+01   9.7569852827e+00    0.1591849   0.06881601  47.35 0.0008051639    2.961    0.662
       270 -11.0732    187.9774    129.5004   2.3529569459e+01   1.9226559297e+01    0.1814814    0.1365406  42.22 -0.0008524059    1.480    0.324
       271 -10.9766    130.3732    128.7659   3.5731009120e+01   3.0207446299e+01    0.2174173    0.1795602 -64.89 0.0005101745    1.303    0.233
       272 -11.6671    122.3556    128.2540   3.7689979185e+01   3.1857569819e+01    0.3287428    0.2612736 -47.43 0.0008350237    1.233    0.189
       273 -10.8607    121.6774    124.2880   3.6948539421e+01   3.2897050457e+01    0.2285917    0.1974216 -47.24 0.0004086595    1.133    0.117
       274 -11.4705    124.9706    122.9843   3.5769233295e+01   3.2553878702e+01    0.3659256    0.2783564  73.19  0.001693732    1.681    0.405
       275 -11.7563    110.1683    128.4423   4.1066429373e+01   3.4107251822e+01    0.3573667    0.2277063  86.98  0.001287892    2.904    0.656
       276 -12.6060     56.7609    127.8494   5.7868710551e+01   4.2977572234e+01    0.3409659    0.2588489  35.84   0.00169314    1.334    0.251
       277 -11.2734      1.3459    127.4824   7.7437046469e+01   4.8342794029e+01    0.2379019    0.1130093 -82.46  0.001058024    1.840    0.456
       278 -12.0563      4.9905    127.4932   7.6163469369e+01   4.8124636845e+01    0.2571935    0.2075121   6.48  0.001475827    1.474    0.322
       279 -10.8368    183.1325    126.8506   2.3820220798e+01   2.0575023885e+01    0.1834926    0.1509078 -15.58 0.0002619445    1.261    0.207
       280 -11.7301    177.7054    126.7306   2.4808205538e+01   2.1591648841e+01    0.3299934    0.2159757  28.17  0.001589682    1.883    0.469
       281 -11.2286     41.5433    125.9752   6.2927940471e+01   4.5365868742e+01    0.4347546    0.1416487 -71.19  0.001420637    3.017    0.669
       282 -12.2411     26.7541    125.6198   6.8208431431e+01   4.6975956761e+01     0.314307    0.2181997 -60.75 0.0006918669    1.377    0.274
       283 -12.9679     10.2144    125.8611   7.4187442137e+01   4.8228065975e+01    0.3468971    0.2321821  66.29  0.001788694    1.424    0.298
       284 -12.8812     75.8798    123.6888   5.0580639717e+01   4.1274182208e+01     0.358422    0.2780625 -59.32 0.0003722748    1.255    0.203
       285 -13.8264     81.4076    116.2855   4.7137923323e+01   4.2281076449e+01    0.8324418    0.5976678 -18.02  0.001831447    1.978    0.495
       286 -12.5721     73.8493    114.0338   4.9199690378e+01   4.4121147255e+01    0.3093475    0.2945783  18.02  0.001655707    1.140    0.123
       287 -12.0356     77.6815    113.0820   4.7664398285e+01   4.3735797719e+01    0.2653925    0.2445363  54.47 0.0002870508    1.095    0.087
       288 -14.0368     13.3656    119.4042   7.2450169026e+01   4.9768430453e+01    0.5956471    0.4033035  38.45  0.002813432    1.500    0.333
       289 -13.0339      8.7253    118.0128   7.4053354576e+01   5.0462070308e+01    0.3351191    0.2734377   0.50 0.0005909224    1.461    0.315
       290 -12.5809    193.3049    121.7274   2.0868660085e+01   1.9648634430e+01    0.2607337    0.2199893 -42.16 0.0007940432    1.099    0.090
       291 -10.9465    179.1066    122.0438   2.3474779369e+01   2.2199767489e+01    0.2098137    0.1786572 -16.31 0.0004937286    1.211    0.174
       292 -10.9133      3.2913    122.3301   7.6397620463e+01   4.9619730701e+01     0.141416   0.09037562 -51.11 0.0005113469    1.626    0.385
       293 -11.6818    189.0091    121.2748   2.1508388335e+01   2.0506755075e+01     0.181384    0.1723775 -17.44  0.000325119    1.090    0.083
       294 -11.4742    105.0303    121.0872   4.0854291761e+01   3.6832518638e+01    0.3009981    0.2119182  60.79 0.0009736411    1.662    0.398
       295 -11.6002    100.3092    119.4458   4.1872396173e+01   3.8113679613e+01    0.3134193    0.1546768  37.92 0.0009006056    2.076    0.518
       296 -10.1725     46.2640    119.5597   6.0199025710e+01   4.6564150675e+01    0.1629564    0.1038857  72.14  0.000691201    1.831    0.454
       297 -11.8083     29.5771    117.5779   6.6130683965e+01   4.8919418117e+01     0.384021    0.1899284 -57.69 0.0006711425    1.867    0.464
       298 -11.0712    116.9694    117.9945   3.6715009845e+01   3.5267382897e+01    0.2318966    0.1848228  87.90 0.0004267387    1.556    0.357
       299 -11.8348     22.6774    118.0178   6.8799316741e+01   4.9422023618e+01    0.2066759    0.1690208 -81.31  0.000452102    1.105    0.095
       300 -11.6275     93.5012    116.4766   4.3266974186e+01   4.0099798142e+01    0.2440842    0.1894765  72.32  0.000631661    1.515    0.340
       301 -11.8172     96.6656    115.7207   4.2099640536e+01   3.9705245337e+01    0.2665112    0.2248852  20.21 0.0005274926    1.344    0.256
       302 -12.0254     99.9473    113.3028   4.0501253270e+01   3.9681679843e+01    0.2804298    0.2646724   8.22 0.0004524567    1.164    0.141
       303 -10.5642    125.5985    115.5093   3.3782648943e+01   3.4115835724e+01    0.1526328    0.1445642 -59.39 0.0008020246    1.034    0.033
       304 -12.5523     67.8279    114.2637   5.1361826137e+01   4.5014598029e+01    0.3092721    0.2740015 -66.06 0.0002806859    1.086    0.079
       305 -13.6105     62.4041    111.1302   5.2644858199e+01   4.6666343006e+01    0.8732405    0.4480008 -62.19   0.00349696    1.876    0.467
       306 -10.8524    201.5385    114.4428   1.7878371375e+01   1.9419147943e+01    0.1346627    0.1158829 -34.96 0.0001139612    1.004    0.004
       307 -13.2365     11.3461    111.3362   7.2409367509e+01   5.2116090864e+01    0.5057837     0.386582 -11.02  0.002021603    1.582    0.368
       308 -11.7867    115.3912    112.6819   3.5830980485e+01   3.6811713540e+01     0.267147    0.2048805  55.43 0.0009792248    1.391    0.281
       309 -11.5126    108.4781    112.1138   3.7658619720e+01   3.8316834170e+01    0.2942674    0.2355346  79.27 0.0007480109    1.501    0.334
       310 -12.3302      4.1440    112.1494   7.5286743009e+01   5.2333992986e+01    0.2905665    0.1568938 -75.87 0.0009835856    1.602    0.376
       311 -11.2649    205.9962    111.9690   1.6631006720e+01   1.9035246341e+01    0.2113961    0.1485881 -60.41 0.0007039892    1.699    0.412
       312 -10.9395     36.4371    109.9645   6.2323837733e+01   5.0315405142e+01    0.1937166    0.1137965  74.15 0.0004965159    2.074    0.518
       313 -12.3722     20.2042    109.9536   6.8752451706e+01   5.1844678847e+01    0.2796122    0.2217408  27.19 0.0004309257    1.365    0.267
       314 -10.6947      1.2933    109.3095   7.6161838911e+01   5.3257455131e+01     0.140873   0.08966026 -50.29 0.0005782298    1.587    0.370
       315 -11.5392     76.5290    107.5578   4.6764360719e+01   4.5354712139e+01    0.2767102     0.203635  76.21 0.0005061628    1.676    0.403
       316 -10.9409    139.9552    107.4901   2.8153908667e+01   3.2904159034e+01    0.2245845    0.1512138  47.94 0.0008926529    1.558    0.358
       317 -12.0608     12.0971    104.6891   7.1384246514e+01   5.3887278330e+01    0.3413539    0.2308479 -37.76  0.001217471    1.633    0.388
       318 -10.8715     20.7627    105.3225   6.7913366302e+01   5.3072820314e+01    0.1624158    0.1349703   4.40            0    1.393    0.282
       319 -11.3047    104.1332    103.4483   3.6692739868e+01   4.1228688809e+01    0.3206232    0.2479657 -21.62  0.001462355    1.631    0.387
       320 -11.6839     78.6760    101.9587   4.4620280848e+01   4.6413536597e+01    0.3109876    0.2242584  48.83  0.001430282    1.440    0.305
       321 -11.9557     55.9560    101.3395   5.2930399096e+01   5.0211116800e+01    0.2947136     0.209778 -62.63  0.000507876    1.335    0.251
       322 -12.2507     57.7544     97.4814   5.1323396881e+01   5.0970514333e+01    0.3193729    0.2645305  44.71 0.0008594383    1.245    0.197
       323 -10.5190     28.7315    100.9769   6.3950240424e+01   5.3562130772e+01    0.3276563    0.3005462  73.19  0.001867136    1.092    0.084
       324 -11.0942     31.6900     97.4017   6.2074032990e+01   5.4247601340e+01    0.3863158    0.1723414  43.85  0.001507122    2.387    0.581
       325 -13.1432      5.9894     99.9437   7.3399393858e+01   5.5557254221e+01    0.4389612    0.3154545  35.06  0.001629867    1.484    0.326
       326 -10.6716    184.6456    101.6896   1.7658340502e+01   2.4809219635e+01    0.1399716    0.1083785   3.38 0.0007043909    1.727    0.421
       327 -10.7223    129.9049    100.4981   2.8754038910e+01   3.6519821741e+01    0.2218203    0.1529734  48.64  0.001004042    1.507    0.336
       328 -10.7554     85.5866    100.2214   4.1775206723e+01   4.5599691901e+01     0.218814    0.1421967 -44.20 0.0006038154    1.572    0.364
       329 -11.6322    115.7852     98.9255   3.2071864222e+01   3.9870181212e+01      0.28624    0.2272574  83.67 0.0003599287    1.540    0.351
       330 -12.2711     93.9668     98.5072   3.8529244811e+01   4.4420769613e+01    0.3765015     0.287435  56.76 0.0009023224    1.404    0.288
       331 -10.8721    209.2993    100.6925   1.3589889970e+01   2.0279254166e+01    0.1320798   0.09248181 -59.47 0.0001870262    1.595    0.373
       332 -10.6997     68.5061     98.4847   4.7429520704e+01   4.9031792005e+01    0.1536931    0.1470856 -75.89 8.069384e-06    1.009    0.009
       333 -10.5593    166.2950     97.3044   1.9865865875e+01   2.9360377343e+01    0.1408147    0.1142307  -1.15  0.000260895    1.580    0.367
       334 -11.5322      1.3786     93.8984   7.4760198338e+01   5.7433875509e+01    0.2021573    0.1167753 -80.75 0.0004582769    1.516    0.340
       335 -13.3456     75.7090     91.2734   4.2824370191e+01   4.9621048563e+01     0.677866    0.3499143  61.42  0.002197736    3.334    0.700
       336 -12.1950     63.0716     92.6495   4.8014049072e+01   5.1412800409e+01    0.2644715    0.2107378 -75.36 0.0007265728    1.314    0.239
       337 -11.3839     26.9449     91.2578   6.3016807373e+01   5.6379116202e+01    0.3832914    0.2214604  -9.01  0.001602533    2.428    0.588
       338 -11.5302    121.5575     90.7285   2.8167483412e+01   4.0423052240e+01    0.2579699    0.2351412  81.07 0.0002312957    1.145    0.127
       339 -12.3202      3.3084     88.2703   7.3301445984e+01   5.8863038700e+01    0.3985655    0.2250906 -86.13  0.001899843    1.640    0.390
       340 -12.2797     54.8032     85.5465   4.9495397702e+01   5.4513291085e+01    0.5194363    0.4385032  -2.90  0.002665406    1.382    0.276
       341 -12.1976     95.1260     83.5452   3.3780372845e+01   4.7688191022e+01    0.3203845    0.2580243 -60.18 0.0008772512    1.263    0.208
       342 -11.6827     79.2241     82.8433   3.9056974130e+01   5.1021986004e+01    0.2306505    0.2065978 -83.76 0.0005122431    1.186    0.157
       343 -10.1729     20.7334     83.2498   6.4395045257e+01   5.9084687484e+01    0.1337316    0.1014378  63.34 0.0002292253    1.439    0.305
       344 -11.6710    215.9095     81.6919   8.3337750991e+00   2.2018851593e+01    0.2540034     0.152885 -43.51 0.0005051038    1.371    0.271
       345 -10.3126    144.5031     82.5458   2.0261624407e+01   3.6929547088e+01    0.1503768     0.141109 -60.26  0.000235108    1.005    0.005
       346 -12.0372     88.4838     79.3987   3.4692080850e+01   4.9997429116e+01    0.4317898    0.2589364 -40.64  0.001491869    1.736    0.424
       347 -10.8296    134.5990     84.2395   2.2994464203e+01   3.8848034481e+01    0.2028527    0.1433623 -33.04 0.0002794522    1.498    0.332
       348 -12.0788      9.4124     78.9548   6.9151664190e+01   6.1037327376e+01    0.5419765    0.2156426 -84.32  0.002020853    2.724    0.633
       349 -11.8342    111.6378     77.9222   2.6990693222e+01   4.5332238804e+01     0.428656    0.2914742 -74.72  0.001162849    2.052    0.513
       350 -10.6636      4.7684     79.4068   7.1503962895e+01   6.1170719319e+01    0.1760349    0.1272055 -15.52 0.0006612646    1.572    0.364
       351 -11.7001    163.7128     78.0136   1.5172032758e+01   3.3415496157e+01    0.2083579    0.1795984 -47.72 0.0004789221    1.061    0.058
       352 -10.9419     56.1381     78.1409   4.6832472820e+01   5.6183820946e+01    0.2310217    0.1932475 -27.62  0.000676158    1.302    0.232
       353 -11.5314    102.1201     77.0041   2.9495267253e+01   4.7637196728e+01     0.220473    0.2143641 -66.59 0.0003351499    1.011    0.011
       354 -10.9462     74.7947     77.4376   3.9019229286e+01   5.3136972501e+01    0.2022416    0.1499746  26.29 0.0003953742    1.536    0.349
       355 -11.8613     86.8700     74.0101   3.3488208482e+01   5.1538185347e+01    0.3958744    0.2993591  67.33  0.001841973    1.560    0.359
       356 -11.4129    106.0756     73.3328   2.7105784684e+01   4.7532982635e+01    0.2932259    0.2242207 -55.61 0.0008073911    1.328    0.247
       357 -11.8568      1.8345     73.1373   7.2116862672e+01   6.2972550860e+01    0.3038639     0.159909 -45.23 0.0009691575    1.795    0.443
       358 -10.9229     45.1582     73.2087   5.0319115802e+01   5.9031532804e+01    0.2032952    0.1718174  82.88 0.0009983554    1.344    0.256
       359 -12.0998     77.8742     70.5833   3.5580348670e+01   5.4119020235e+01    0.4597298    0.3148444  49.93  0.002107537    1.524    0.344
       360 -12.6851     60.3787     67.5966   4.1634193500e+01   5.8039140320e+01    0.6033636    0.3891118 -83.31  0.002371215    2.591    0.614
       361 -11.1788     52.0000     71.9417   4.6778932286e+01   5.8354320818e+01    0.2766525     0.202266 -53.44 0.0006820089    1.301    0.232
       362 -12.1874     55.0118     68.9900   4.4473697574e+01   5.8599416920e+01    0.2867049    0.2175059  22.34 0.0003212043    1.454    0.312
       363 -10.8249    194.3291     71.6674   8.6806341318e+00   2.7821366434e+01    0.1459199   0.09222616 -61.80 0.0007051877    1.719    0.418
       364 -11.0072    154.4535     68.4939   1.4147392324e+01   3.7181550710e+01    0.2257198    0.1409068 -26.60 2.892092e-06    1.841    0.457
       365 -11.4011     71.0802     69.2328   3.7743525152e+01   5.5734706636e+01     0.310744    0.1882458  17.57 0.0009060042    2.653    0.623
       366 -10.7525    121.1313     68.2050   2.1299332695e+01   4.5084437812e+01    0.2093564    0.1717162 -67.91 0.0006842509    1.287    0.223
       367 -11.7000      7.6677     67.3665   6.8111768161e+01   6.4197304718e+01    0.2873461    0.1524529 -70.18  0.001348393    1.651    0.394
       368 -12.0858     48.7060     66.9262   4.6705915309e+01   6.0071652853e+01    0.3767507    0.2429746  33.78  0.001763196    1.605    0.377
       369 -10.7430    228.4537     66.5253   3.4636772098e+00   2.1886493287e+01    0.1268381     0.100291 -44.74 8.103011e-05    1.007    0.007
       370 -11.2752     10.7373     63.4396   6.5653212681e+01   6.5031068444e+01    0.3828407    0.1664359  25.00   0.00165311    2.392    0.582
       371 -11.9369     14.5169     59.8341   6.2693734494e+01   6.5692423013e+01    0.4023281    0.2750387  -1.70  0.002098752    1.650    0.394
       372 -11.2628     46.5025     62.6445   4.6340624417e+01   6.1424897958e+01    0.2794122    0.1742948  35.18 0.0008756794    1.653    0.395
       373 -10.4541    123.5919     61.5221   1.8469983711e+01   4.5736191509e+01    0.1498817    0.1411584 -66.05 0.0001495379    1.017    0.017
       374 -10.8684     21.2575     61.0300   5.9164558087e+01   6.4837294298e+01    0.1941631    0.1607173 -57.51 0.0004276329    1.100    0.091
       375 -10.6502    183.5338     60.4588   7.2238338675e+00   3.1856090056e+01    0.1391247    0.1210481 -54.30 0.0001915653    1.003    0.003
       376 -11.5880     41.8743     58.4643   4.7219083119e+01   6.3081665646e+01    0.4164943     0.229064 -45.25  0.001840959    1.753    0.429
       377 -12.7844     37.4849     53.4013   4.7732421066e+01   6.4869890187e+01     0.753267    0.2927124 -50.81  0.002914313    2.338    0.572
       378 -11.5254     43.4889     53.9781   4.4761863299e+01   6.3888878630e+01    0.3055853    0.2043907  22.42  0.001471862    1.647    0.393
       379 -10.1472     27.5140     60.5162   5.5543005118e+01   6.4354230883e+01    0.1383881    0.1310067 -60.30 -0.0001012969    1.060    0.056
       380 -10.8362    197.3083     58.2969   4.8959325097e+00   2.9200098425e+01    0.1223524    0.1043133  12.37 0.0002314172    1.592    0.372
       381 -13.1677    153.3226     57.1037   1.0935400663e+01   3.9335365745e+01    0.3207267    0.2731563 -50.04 0.0006352622    1.091    0.084
       382 -11.4406    179.7614     56.0472   6.5406316431e+00   3.3357735399e+01    0.2127207     0.186924 -84.10 0.0003347743    1.140    0.123
       383 -11.9478    109.8660     55.8100   1.9958477439e+01   5.0044406757e+01     0.229576    0.2037249  35.32 0.0009708981    1.235    0.190
       384 -10.2033     54.3035     56.7035   4.0457719538e+01   6.1560564913e+01    0.1420969    0.1155016  78.58 0.0003475263    1.581    0.368
       385 -11.1868    150.9815     51.0104   9.4594170955e+00   4.0851619514e+01    0.2183778    0.1987415 -60.58 0.0003570506    1.023    0.023
       386 -12.4066    113.3713     50.9555   1.7278674112e+01   5.0048939303e+01    0.3923295    0.2280699  44.94  0.001413948    1.854    0.461
       387 -12.3114    106.2635     51.0135   1.9164943680e+01   5.1750922196e+01    0.3944672    0.2062864  55.47 0.0006338996    1.894    0.472
       388 -13.4601     29.8031     49.8020   5.0752502569e+01   6.6680199827e+01    0.3849027    0.3221774 -69.35   0.00177378    1.280    0.218
       389 -11.3148    173.3686     50.0225   5.7322723187e+00   3.5699341540e+01    0.2618676    0.1743306 -70.00  0.000924819    1.611    0.379
       390 -11.7829     99.8040     49.6088   2.0448563121e+01   5.3530601251e+01    0.2880645    0.2210551 -82.08  0.001171415    1.600    0.375
       391 -10.9804     16.2569     49.9969   5.9011795654e+01   6.8000727128e+01    0.1868043    0.1571437 -55.26 0.0003275429    1.086    0.079
       392 -10.5629    129.6897     47.3547   1.2261267779e+01   4.6633195692e+01    0.1587202    0.1061477 -66.56  0.000704373    1.728    0.421
       393 -11.8143     39.9962     46.7248   4.3785476850e+01   6.6025802696e+01    0.1946699    0.1753515  20.01 0.0003808721    1.128    0.114
       394 -12.1795    194.3026     44.1651   1.5849810772e+00   3.1816347144e+01    0.2314046    0.1953711 -60.20 0.0002676281    1.034    0.033
       395 -11.0540     49.5429     44.0101   3.7597447939e+01   6.5088546347e+01    0.2098411    0.1799176  31.11 0.0004640663    1.174    0.148
       396 -10.5247     87.9868     43.7609   2.1726615583e+01   5.7300731080e+01    0.1924214    0.1209328  52.83  0.000519256    1.562    0.360
       397 -11.4357    167.0823     41.9431   4.2481190028e+00   3.8313852069e+01     0.206248    0.1812519 -60.80 0.0003146194    1.011    0.011
       398 -13.0239    155.0301     41.1682   5.7316057850e+00   4.1313929954e+01    0.3137479    0.2746889 -81.56 0.0005662921    1.078    0.072
       399 -12.7265    120.3580     39.6740   1.1484881853e+01   5.0121137296e+01    0.3792385    0.3092113  23.52  0.001958362    1.530    0.346
       400 -11.2450      2.2523     41.9039   6.5993146670e+01   7.0888534663e+01    0.2648773    0.1426847  78.39  0.001162736    2.654    0.623
       401 -10.4921     13.2934     40.3527   5.7878743343e+01   7.0542061282e+01    0.1453539   0.08427662 -35.89 0.0007030898    1.682    0.405
       402 -11.9060     80.0217     36.5785   2.1279755897e+01   6.0324121863e+01     0.390563     0.203826 -41.28  0.001091389    1.954    0.488
       403 -11.8360      9.5566     36.7962   5.9293336696e+01   7.1657026397e+01    0.2215412     0.178473  10.46 0.0006544472    1.302    0.232
       404 -11.6863     42.0956     33.7590   3.6778192711e+01   6.8379961265e+01    0.2531625    0.1901993 -32.10 0.0005017834    1.325    0.245
       405 -11.5598     34.5097     33.9713   4.1304923213e+01   6.9518892567e+01     0.201962     0.128047 -47.15 0.0003853859    1.532    0.347
       406 -12.7240     30.3582     31.4628   4.2678288459e+01   7.0616475889e+01    0.3868503    0.2635389  44.25  0.002034895    1.664    0.399
       407 -12.0896     85.6894     33.9722   1.8231154005e+01   5.9432720901e+01    0.2016493    0.1894099 -41.31  0.000738562    1.096    0.088
       408 -13.2278     34.2183     40.1303   4.4303266419e+01   6.8278748563e+01    0.4483282    0.3184248  36.93  0.002036587    1.472    0.321
       409 -11.4761    136.3796     31.3096   5.4343004506e+00   4.7265913624e+01     0.253263    0.1607955  56.49 0.0006616336    1.583    0.368
       410 -11.9349      3.8932     30.4273   6.1366401937e+01   7.3498150098e+01    0.2837282    0.1902414 -16.47  0.001123528    1.510    0.338
       411 -11.5632     96.9839     29.0085   1.2778748303e+01   5.7447115617e+01    0.2468853    0.1564545   1.93  0.001018143    2.558    0.609
       412 -11.4274      1.7282     26.0240   6.1556660277e+01   7.4620322337e+01    0.1787953    0.1624615 -71.46 0.0006811917    1.214    0.176
       413 -11.4050    124.6273     24.7971   5.0976513276e+00   5.1057814701e+01    0.2056874    0.1196288 -41.20 0.0009539854    1.680    0.405
       414 -10.8171    237.2662    249.3578   3.6147250981e+01  -4.5803671689e+00    0.1042336   0.05597882  -8.28 0.0003863384    1.635    0.388
       415 -11.6406     70.2378     21.4389   1.7406602361e+01   6.4818674892e+01    0.2415158     0.188475 -27.54 0.0005854554    1.344    0.256
       416 -11.6734     45.3616     24.7702   3.0259722530e+01   6.9442478750e+01    0.2491711    0.1735188 -26.83     0.001304    1.509    0.337
       417 -11.8725     66.3110     23.3131   1.9857301601e+01   6.5430013724e+01    0.2587894    0.2141612 -77.45 0.0002430598    1.527    0.345
       418 -10.4824     19.0288     23.4990   4.6525366097e+01   7.3661734156e+01    0.1737713    0.1225511  22.55 0.0003414802    1.427    0.299
       419 -10.3899     53.7320     21.6933   2.4337980325e+01   6.8325948064e+01    0.1341477    0.1013792  10.18 0.0001906996    1.535    0.349
       420 -11.3430    138.5187     19.5134   1.0010893188e+00   4.8162092641e+01    0.2421694    0.1765977  63.75  0.001299434    1.344    0.256
       421 -12.2527     73.9017     24.8778   1.7858711236e+01   6.3506419185e+01    0.2872448    0.1900509  57.26 0.0009017701    1.475    0.322
       422 -10.5039     93.0000     19.0317   9.3541223356e+00   5.9714093749e+01    0.2216131   0.08001255 -27.65 0.0008028323    2.945    0.660
       423 -11.4173     75.8832     16.8223   1.3097997799e+01   6.4115208384e+01    0.1814764    0.1584722 -81.99 0.0002986635    1.285    0.222
       424 -11.6703    102.0108     15.4792   5.6893780585e+00   5.7871423047e+01    0.2217913    0.1913156  11.29   0.00126237    1.349    0.258
       425 -11.2421     65.9009     15.9621   1.6049304212e+01   6.6520593322e+01     0.206356    0.1939626  55.55   0.00069308    1.070    0.065
       426 -11.7049    190.1164    249.0120   4.3835372501e+01   6.5208903304e-02    0.1561228    0.1179017   3.60            0    1.029    0.028
       427 -13.4257     12.4641    216.0728   7.8610800010e+01   2.5858040500e+01    0.5636808    0.3907344 -51.54  0.003321606    1.896    0.473
       428 -11.6800     68.9053    247.4153   6.7809731139e+01   1.4067797108e+01    0.3271127    0.1562107  55.90  0.001711661    2.223    0.550
       429 -11.4567    178.0869    247.2400   4.5758618765e+01   1.5849399193e+00    0.1635592    0.1157793   5.85 0.0003324903    1.155    0.134
       430 -11.5359     99.3380    246.8630   6.1313825039e+01   1.0719430175e+01    0.2177682    0.1439408  23.58 0.0004890711    1.302    0.232
       431 -11.0100    246.3341    245.2205   3.4216309777e+01  -4.9422615197e+00    0.1188853   0.07462011 -29.28  0.000218661    1.557    0.358
       432 -11.4764    205.9696    244.2525   4.0466669291e+01  -9.9185075428e-01    0.1709935    0.1259168 -12.83 0.0004297304    1.172    0.147
       433 -10.7389    147.1515    245.2146   5.1369121882e+01   5.3706646606e+00    0.1449219     0.115862  33.09 0.0004393533    1.265    0.209
       434 -12.2668    143.0663    242.0771   5.1804113828e+01   6.3193543914e+00    0.2224363    0.1962353 -16.88 0.0006823858    1.237    0.192
