#   1 NUMBER                 Running object number                                     
#   2 MAG_AUTO               Kron-like elliptical aperture magnitude                    [mag]
#   3 X_IMAGE                Object position along x                                    [pixel]
#   4 Y_IMAGE                Object position along y                                    [pixel]
#   5 X_WORLD                Barycenter position along world x axis                     [deg]
#   6 Y_WORLD                Barycenter position along world y axis                     [deg]
#   7 A_WORLD                Profile RMS along major axis (world units)                 [deg]
#   8 B_WORLD                Profile RMS along minor axis (world units)                 [deg]
#   9 THETA_WORLD            Position angle (CCW/world-x)                               [deg]
#  10 FWHM_WORLD             FWHM assuming a gaussian core                              [deg]
#  11 ELONGATION             A_IMAGE/B_IMAGE                                           
#  12 ELLIPTICITY            1 - B_IMAGE/A_IMAGE                                       
         1 -14.1558    226.7513      4.9456   3.4989407984e+01   2.8146713354e+01     1.956439     1.109725  51.73  0.004732105    2.079    0.519
         2 -14.1226    183.2682     49.0380   5.1585537695e+01   3.3296647470e+01     1.987492     1.331592  24.08  0.000861729    2.085    0.520
         3 -14.1472    194.6336     39.7919   4.7248331242e+01   3.1737836294e+01     1.366949     1.085613 -36.12  0.003366175    1.268    0.212
         4 -14.6079    203.1147     30.7307   4.3690415266e+01   3.0811853103e+01     1.463764     1.260918  25.74  0.001338906    1.428    0.300
         5 -13.0887     32.5000     13.8096   8.1840790271e+01   6.9578557446e+01    0.4236335    0.2763894 -22.25  0.002658984    1.266    0.210
         6 -12.2145     42.3862      6.5518   7.3398124735e+01   6.9238687470e+01    0.2857136     0.193691  -2.06  0.001789566    1.276    0.217
         7 -12.3774     59.0502      3.3335   6.4752023468e+01   6.6943953426e+01    0.5286593    0.2045273  44.35  0.002479935    2.308    0.567
         8  -9.1660     93.4567    205.4678   1.0907191531e+02   1.9609631351e+01    0.1282511    0.1162754  62.53 0.0002649921    1.060    0.056
         9 -11.2945    139.9137    249.7198   1.0505709553e+02   4.4012378309e+00    0.3080105    0.2301443  56.85  0.001989965    1.370    0.270
        10 -11.5147    140.4952    244.9652   1.0436032959e+02   5.0610740872e+00     0.247656    0.1942085  58.39  0.001122941    1.330    0.248
        11 -16.2546     72.3549    149.1516   1.0607816746e+02   3.5548151827e+01     14.03271     6.801009  76.80   0.01467052    6.772    0.852
        12 -10.1082    151.2660    195.4047   9.4792467613e+01   1.2054190096e+01    0.2868964    0.1274106  35.52      0.00115    2.190    0.543
        13  -9.5808    120.3094    186.3041   1.0026098490e+02   1.9365515199e+01    0.1362244    0.1113864  -8.33 0.0001687475    1.609    0.378
        14 -18.9819     18.6328    213.1851   1.2502902213e+02   2.7242260183e+01       12.261     4.791434 -83.21   0.06346229    2.328    0.570
        15 -11.1260     99.3848    180.8813   1.0431960132e+02   2.4021467433e+01    0.2882872    0.2361608  33.59 0.0005810911    1.287    0.223
        16 -11.2074    150.7166    179.4307   9.2019451566e+01   1.5344341236e+01    0.4251851    0.2928661 -75.15  0.001885134    2.213    0.548
        17 -11.7861    144.6865    179.7759   9.3466995422e+01   1.6394524990e+01    0.4597594    0.3442986 -72.10  0.001856063    1.709    0.415
        18 -11.5922     42.6983    179.2746   1.1738778251e+02   3.2054479515e+01    0.4762957    0.2462036 -76.25  0.001866878    1.756    0.430
        19 -13.0364     47.7371    172.3085   1.1547863681e+02   3.3095161146e+01     1.061581    0.5676543 -40.32   0.00480153    2.829    0.647
        20 -11.7715     52.3559    172.0985   1.1436083312e+02   3.2607910252e+01    0.5357192    0.2604558 -62.40  0.001962344    1.862    0.463
        21 -10.8589    187.9343    173.4057   8.2610748098e+01   9.4456544388e+00     0.461663    0.2827112 -60.83  0.001884203    2.641    0.621
        22  -9.7490    195.4856    172.9770   8.0945629002e+01   8.0902533210e+00    0.1956907    0.1268103 -62.21 0.0008103386    2.563    0.610
        23 -11.2505    139.3127    171.5481   9.3165026236e+01   1.9136281904e+01    0.4220734    0.2756915  48.63  0.001247427    1.544    0.352
        24 -11.1825    131.4537    171.8197   9.5087914730e+01   2.0533284149e+01    0.5478499    0.1948967  38.39  0.001890647    2.767    0.639
        25 -10.1114    188.9948    178.0099   8.3334115029e+01   8.3924280490e+00    0.3623826    0.2672574  76.62  0.001629739    2.427    0.588
        26 -12.4641     92.4088    152.9755   1.0141649853e+02   3.1639521056e+01    0.7100598    0.5347627 -20.85  0.003457952    1.825    0.452
        27 -15.3612     50.9145    201.8553   1.1778137965e+02   2.6111018517e+01     2.413675    0.8968721  54.75  0.008874335    2.730    0.634
        28 -10.4716    187.7998    152.5040   7.8102372817e+01   1.3466409370e+01    0.2776836    0.2040455 -75.42  0.001198198    2.242    0.554
        29 -11.7688    133.8448    145.4451   8.9108363560e+01   2.5983511508e+01     1.286807    0.3393917 -54.30  0.003089953    5.463    0.817
        30  -9.9631    112.8692    150.8685   9.5652918659e+01   2.8679282260e+01      0.23896    0.1790456  77.34 0.0007167563    1.682    0.405
        31 -10.6942    174.4690    148.7785   8.0161696896e+01   1.6952877940e+01    0.3201378    0.2839337  65.94  0.001056003    1.323    0.244
        32 -10.9572    143.8109    146.0869   8.6760808091e+01   2.3848389432e+01    0.4062622    0.2130891 -57.68  0.001509412    2.341    0.573
        33 -11.2798    104.7961    138.9915   9.5345932239e+01   3.2930087918e+01    0.5444645    0.3705382 -24.40  0.002351098    2.037    0.509
        34 -12.3639     92.5549    138.6832   9.8644353538e+01   3.5070983154e+01    0.2845924    0.2584022 -33.24 0.0009757535    1.185    0.156
        35 -11.9642    135.8073    128.5640   8.4659940120e+01   2.9418573085e+01     1.194194    0.2233765 -49.31  0.002581665    6.193    0.839
        36 -11.0239    105.9374    130.7803   9.3233395754e+01   3.4692844845e+01    0.3643246    0.3352304 -68.16  0.001267653    1.085    0.078
        37 -11.2324    113.4685    129.6198   9.0883582131e+01   3.3588205371e+01    0.4529192    0.3131264  32.97 0.0009038972    1.554    0.356
        38 -12.2492    119.2596    123.8141   8.7903305450e+01   3.3840465080e+01    0.7950386    0.4108804 -33.52  0.002780146    2.496    0.599
        39 -10.4516    160.8848    127.9890   7.8299718448e+01   2.4190231920e+01    0.3803865    0.3098595 -68.70  0.001792108    1.491    0.329
        40  -9.1526     96.8599    128.8046   9.5345471939e+01   3.6750842414e+01    0.1927308    0.1679487  77.56  0.000230342    1.271    0.213
        41 -11.1353    100.4533    125.6269   9.3604341814e+01   3.6897098791e+01    0.2865689    0.2399512 -18.47 0.0003183166    1.381    0.276
        42 -10.2947    108.9687    118.7976   8.9542523600e+01   3.6980526931e+01    0.2439299    0.2118991 -47.34 0.0003367554    1.104    0.094
        43  -9.8150     86.3129    204.9659   1.1055951048e+02   2.0765316671e+01    0.3748606    0.1902779 -43.61  0.001656889    2.842    0.648
        44 -11.0606    134.8667    112.0251   8.0654882138e+01   3.3314536520e+01    0.5207639    0.1397867 -44.51  0.001434523    3.642    0.725
        45 -10.1903    134.6223    102.7887   7.8179337700e+01   3.5377745542e+01     0.392355    0.1511624 -45.52  0.001286126    2.580    0.612
        46  -9.8891    167.8860    112.8008   7.2745469806e+01   2.5788014848e+01    0.3493845    0.2492985 -88.58  0.001386781    2.309    0.567
        47 -12.2205    118.2173    109.6759   8.4566452595e+01   3.7297890254e+01     0.722508    0.5490707  66.45  0.002444977    1.667    0.400
        48 -10.3330    205.3569    110.1255   6.4301654677e+01   1.7793909214e+01    0.3138294    0.2270511  43.59   0.00102401    1.465    0.317
        49 -10.1021     66.0157    104.3666   9.9131620770e+01   4.7368659553e+01    0.2979744    0.1379597  31.38  0.001231037    2.407    0.584
        50 -10.1334     96.3160    201.7140   1.0796798960e+02   1.9963460732e+01    0.2329871    0.1549288 -78.97  0.001225205    1.685    0.406
        51 -11.8585     53.8451     92.3581   1.0033449626e+02   5.1751060700e+01    0.5999271    0.2886681 -67.20  0.002416686    2.464    0.594
        52 -10.6765     39.3844     88.6098   1.0449767902e+02   5.4174771088e+01    0.2367586    0.1772309 -41.02 0.0004641133    1.205    0.170
        53 -10.1784    156.8493     81.6347   6.6475574040e+01   3.4496127597e+01    0.2658771    0.2152499 -22.51 0.0006405933    1.297    0.229
        54  -9.6145    184.5078     77.0094   5.9366688984e+01   2.8591277173e+01    0.2318326    0.1480706 -33.20 0.0006665621    1.552    0.356
        55 -10.4553    128.1260    194.7042   9.9834286620e+01   1.6260033447e+01    0.3762922    0.2010222 -65.96  0.001586239    2.509    0.601
        56 -10.2428    158.4254    237.2470   9.9828966664e+01   3.4749876495e+00    0.2621194     0.126412 -50.96   0.00128604    2.589    0.614
        57 -10.1526    169.0023    235.7994   9.7540056074e+01   2.0171224876e+00    0.1839951    0.1699256  -2.22 0.0004129003    1.187    0.157
        58  -9.1618    103.2836    213.3271   1.0794459586e+02   1.6522414162e+01    0.1187749    0.1019151 -15.11 0.0004666748    1.604    0.376
        59 -11.1521    151.1393     54.5562   5.9330430979e+01   4.0515439468e+01    0.3692769    0.2812229 -78.38 0.0005440369    1.710    0.415
        60 -10.2629    189.7336     15.0328   4.1084525403e+01   3.5875572301e+01    0.2354388    0.1830298  75.74 0.0006776864    1.179    0.152
        61 -11.6752    113.4233    206.6431   1.0488006516e+02   1.6271262607e+01    0.4508088    0.2842868  75.53  0.002025509    2.216    0.549
        62 -12.6597    110.2665    200.3146   1.0468632580e+02   1.8072849683e+01    0.7702842    0.5385798 -17.08  0.000757888    2.456    0.593
