#   1 NUMBER                 Running object number                                     
#   2 MAG_AUTO               Kron-like elliptical aperture magnitude                    [mag]
#   3 X_IMAGE                Object position along x                                    [pixel]
#   4 Y_IMAGE                Object position along y                                    [pixel]
#   5 X_WORLD                Barycenter position along world x axis                     [deg]
#   6 Y_WORLD                Barycenter position along world y axis                     [deg]
#   7 A_WORLD                Profile RMS along major axis (world units)                 [deg]
#   8 B_WORLD                Profile RMS along minor axis (world units)                 [deg]
#   9 THETA_WORLD            Position angle (CCW/world-x)                               [deg]
#  10 FWHM_WORLD             FWHM assuming a gaussian core                              [deg]
#  11 ELONGATION             A_IMAGE/B_IMAGE                                           
#  12 ELLIPTICITY            1 - B_IMAGE/A_IMAGE                                       
         1 -14.9496    165.1326     43.7338   7.6579085224e+01   3.8724042718e+01     1.280414     1.106875  -8.32  0.004072999    1.378    0.274
         2 -14.9007    180.1174     10.8602   6.5218960995e+01   3.8938700862e+01     1.372919     1.031464  81.61  0.005359534    1.179    0.152
         3 -10.1778    160.3373    247.6286   1.2342419644e+02   3.7742172056e-01    0.4688837    0.2095276  28.81  0.001798914    3.401    0.706
         4 -20.1320     64.0206    179.3515   1.3402927125e+02   3.0270380335e+01     17.65911     6.563122 -66.04   0.07237773    2.474    0.596
         5 -10.8947    141.5510    198.7337   1.1969704875e+02   1.2878722955e+01    0.2818143    0.2215193  81.30 0.0006994919    1.435    0.303
         6 -10.2821    121.8980    198.5387   1.2394703574e+02   1.6578862266e+01    0.1955349    0.1727518 -80.62 0.0004106532    1.127    0.113
         7 -11.2024    112.0012    196.7764   1.2583891726e+02   1.8730281370e+01    0.5306126    0.3368047  17.41  0.002163253    3.007    0.667
         8 -11.6202    105.6476    192.9697   1.2665618042e+02   2.0678038490e+01    0.7029841    0.4767194  -4.01  0.002656517    3.911    0.744
         9 -11.7056    152.9250    192.9545   1.1620813316e+02   1.1881684114e+01    0.3318169    0.2658169  76.90  0.001084781    1.417    0.295
        10 -12.1772    153.1871    186.0218   1.1487141068e+02   1.3280747314e+01    0.3258631    0.2617975 -75.88 0.0009220435    1.418    0.295
        11 -11.2082    138.7991    250.3679   1.2788145836e+02   3.6032118577e+00     0.227368    0.1687758  36.91  0.001384827    1.306    0.234
        12 -11.1977    150.5184    180.0506   1.1432960578e+02   1.5089754661e+01      0.22022    0.1474557 -52.13 0.0004964109    1.552    0.355
        13 -11.2106    136.7867    179.4002   1.1731192495e+02   1.7960468452e+01     0.311178    0.2431053  -0.65  0.001315129    1.940    0.485
        14 -13.6752    142.0006    165.4450   1.1338742500e+02   2.0036637764e+01    0.8518647    0.4714113  65.81  0.002811861    2.778    0.640
        15 -12.5886    126.6713    172.8400   1.1842113801e+02   2.1397837648e+01    0.5860031    0.4150148  56.89  0.001933744    1.418    0.295
        16 -13.4908    143.3227    174.3563   1.1485642532e+02   1.7780836045e+01    0.9253014    0.6598063  22.34  0.004188912    1.864    0.464
        17 -13.9753    134.7871    169.5264   1.1588753755e+02   2.0565975082e+01     1.009735    0.5358965  53.84  0.002720603    2.015    0.504
        18 -11.8277    189.9798    156.0603   1.0067184671e+02   1.1854511978e+01    0.5426027    0.5120486 -51.03  0.002870854    1.068    0.063
        19 -13.0537    204.5067    176.4147   1.0207506822e+02   4.8100740208e+00    0.5267162    0.5188546 -75.69  0.001561237    1.118    0.106
        20 -13.0315    203.4321    166.0494   1.0009793125e+02   7.0173795981e+00     0.658117    0.5245139 -22.40  0.001888289    1.352    0.261
        21 -10.7090     11.3638    174.1223   1.4487561636e+02   3.7363933840e+01    0.1799916    0.1067123 -68.60 0.0006088089    1.401    0.286
        22 -10.6809    134.0251    244.9248   1.2809308324e+02   5.3488272710e+00    0.1382116    0.1338097 -71.42 0.0003345977    1.261    0.207
        23 -12.1437    176.9322    169.5763   1.0638158586e+02   1.1853869698e+01    0.3069907    0.2236312 -53.07  0.001263284    1.449    0.310
        24 -12.9684    125.1104    241.7923   1.2940514911e+02   7.4182957683e+00    0.4912931    0.1710794 -55.44  0.002054292    3.283    0.695
        25 -11.8861    230.1827    166.6818   9.5092746421e+01   1.5495138623e+00    0.3585875     0.179208 -51.83  0.001429393    2.496    0.599
        26 -11.0682    139.0052    243.1255   1.2690219328e+02   4.8116457188e+00      0.29535    0.1792797 -53.98  0.001609584    1.932    0.482
        27 -10.1330    151.1535    242.0273   1.2440582225e+02   2.8986845223e+00    0.1756222    0.1566285  22.62 0.0005334278    1.268    0.211
        28 -10.1802    170.2857    158.6407   1.0549082943e+02   1.5574667942e+01    0.1576013    0.1215411 -84.64  0.000702163    1.680    0.405
        29 -11.9107     21.7680    238.3276   1.4778543129e+02   2.2875503526e+01    0.1770635    0.1381073 -88.74 0.0008876771    1.263    0.209
        30 -15.8062    100.5346    243.5561   1.3427963705e+02   1.1126492809e+01    0.9163287    0.8068919 -54.39  0.006201148    1.505    0.335
        31 -10.4608    131.2374    235.6689   1.2742143446e+02   7.4879831904e+00    0.1846405    0.1097802 -56.68 0.0006150065    1.917    0.478
        32 -13.4644    193.5835    166.3975   1.0218074452e+02   8.9992890410e+00     1.288799    0.5401791 -54.77  0.001578553    3.458    0.711
        33 -11.4736    174.3150    148.4945   1.0233244868e+02   1.6863575513e+01    0.4211508    0.3035182 -67.35  0.001649104    1.692    0.409
        34 -11.0362     13.6518    232.8172   1.4877887218e+02   2.4826189091e+01     0.185071   0.09568942 -73.87 0.0008624165    1.696    0.410
        35 -10.4123      7.6625    236.3776   1.4995844659e+02   2.4762358083e+01    0.1048395   0.07229934  80.67 0.0001734207    1.038    0.037
        36 -11.7465    152.9287    139.2887   1.0508012455e+02   2.3599152207e+01    0.2965193    0.2250014 -75.29  0.001154661    1.593    0.372
        37 -10.8316     23.7258    137.9568   1.3808409759e+02   4.4497517831e+01    0.2534845    0.1914814 -18.21  0.001265073    1.887    0.470
        38 -10.6893      5.1105    138.1986   1.4268719536e+02   4.5914317741e+01    0.2339674    0.1347101 -77.15  0.001164489    1.362    0.266
        39 -12.3987    160.4687    127.9668   1.0059786685e+02   2.4402387498e+01    0.4943986    0.3335197 -54.72   0.00181652    1.549    0.355
        40 -10.1620    160.4315    243.5215   1.2282475019e+02   1.0333611744e+00     0.162021    0.1261555 -73.41 7.292334e-05    1.651    0.394
        41 -10.9889     16.8251    225.9808   1.4781600129e+02   2.5837026483e+01    0.1515578    0.1150233 -80.16 0.0004968581    1.318    0.241
        42 -10.9345    110.6924    211.6702   1.2830620034e+02   1.5764936402e+01      0.28304    0.1948676  59.77 0.0003711214    1.343    0.255
        43 -10.8433    167.8387    112.8313   9.5110390126e+01   2.5906694924e+01    0.4169981    0.2699488 -83.51  0.001509973    2.686    0.628
        44 -13.6084    114.0089    110.4735   1.0783623331e+02   3.8253542848e+01    0.6716769    0.4097833  64.78  0.002662497    2.376    0.579
        45 -13.7621    117.7847    109.5931   1.0658794508e+02   3.7697047941e+01    0.9115605     0.513394  67.97  0.003080167    3.346    0.701
        46  -9.5056    105.2044    211.9819   1.2949576186e+02   1.6631307200e+01    0.2578756    0.2226226  25.00  0.001519333    1.507    0.336
        47 -10.8000    205.4869    110.1890   8.6765523173e+01   1.7542091751e+01     0.324196    0.2195395  45.65 0.0009641247    1.577    0.366
        48 -10.9382      9.1503    102.0582   1.3676884754e+02   5.3692188040e+01    0.2419925     0.202399  84.98  0.001040638    1.323    0.244
        49 -13.2412    106.0271    204.8746   1.2833284630e+02   1.8004118692e+01    0.5492452    0.4155934 -75.96  0.001140121    1.322    0.244
        50 -12.0415    101.1159     98.1498   1.0816939322e+02   4.3392228766e+01     0.408757    0.2996715  66.31  0.001945609    1.782    0.439
        51 -13.9515     11.8222    205.8837   1.4732072571e+02   3.0459897392e+01    0.4577951    0.3825467  21.46  0.003254629    1.904    0.475
        52 -10.5496     19.9632    212.5100   1.4632845226e+02   2.8246815100e+01    0.1676988    0.1209636 -76.97 0.0003375293    1.289    0.224
        53 -10.6655     98.8938     80.9296   1.0392262502e+02   4.7335224657e+01    0.2078482    0.2011409 -11.14 0.0004183744    1.039    0.037
        54 -11.6029    169.0764    201.3736   1.1427781412e+02   7.0366396849e+00     0.265643    0.2135707 -58.81 0.0008841498    1.390    0.281
        55 -14.5027    153.5070     58.0956   8.3048005657e+01   3.9463241932e+01     1.268053      1.09978  51.83 0.0009629223    1.101    0.092
        56 -10.8188    153.2068    200.5703   1.1750151880e+02   1.0267899411e+01    0.2490315     0.199476 -55.36 0.0007363596    1.343    0.255
        57 -13.0370    169.5398     35.5255   7.3479524599e+01   3.8723468631e+01    0.4034392    0.3642474  43.03 0.0008374528    1.183    0.155
        58 -11.0381     13.6016     59.9186   1.2671901544e+02   6.2115012404e+01    0.1733622    0.1609972  -1.41 0.0004139605    1.303    0.232
        59 -10.8164    138.6929     31.8359   7.8115262839e+01   4.6629837707e+01    0.2672716    0.1837599  69.67 0.0009740986    1.513    0.339
        60 -10.8634    138.7311    200.3580   1.2058200876e+02   1.3074512526e+01    0.2795491    0.2073086  74.06 0.0006851981    1.528    0.345
