#   1 NUMBER                 Running object number                                     
#   2 MAG_AUTO               Kron-like elliptical aperture magnitude                    [mag]
#   3 X_IMAGE                Object position along x                                    [pixel]
#   4 Y_IMAGE                Object position along y                                    [pixel]
#   5 X_WORLD                Barycenter position along world x axis                     [deg]
#   6 Y_WORLD                Barycenter position along world y axis                     [deg]
#   7 A_WORLD                Profile RMS along major axis (world units)                 [deg]
#   8 B_WORLD                Profile RMS along minor axis (world units)                 [deg]
#   9 THETA_WORLD            Position angle (CCW/world-x)                               [deg]
#  10 FWHM_WORLD             FWHM assuming a gaussian core                              [deg]
#  11 ELONGATION             A_IMAGE/B_IMAGE                                           
#  12 ELLIPTICITY            1 - B_IMAGE/A_IMAGE                                       
         1 -11.9018    201.0439     14.2804   6.4588231755e+01   3.2793680079e+01     5.119561     1.214039 -51.36   0.01132506    8.746    0.886
         2 -11.1435    232.8908     16.5670   6.2497212569e+01   2.5355767866e+01    0.4897522    0.3542902  25.37  0.001395995    1.754    0.430
         3 -11.4147    219.9297     11.4320   6.2169847758e+01   2.8685243536e+01      1.61502    0.2757408 -46.85  0.004267313    6.411    0.844
         4 -11.6943    219.1662     32.3613   6.7823907735e+01   2.6732127891e+01     1.616428    0.3906169 -41.98  0.005359111    3.695    0.729
         5 -12.3262    223.4118     24.8435   6.5417458172e+01   2.6588660077e+01     1.969517    0.9805424 -31.73  0.009589924    1.721    0.419
         6 -11.5944    234.0766      6.1649   5.9811061164e+01   2.6071645983e+01    0.8626475    0.2536127 -50.18  0.003291724    3.377    0.704
         7 -10.2058    120.3097      8.8868   7.3891150497e+01   5.3937987157e+01    0.4265217    0.3641241 -14.50  0.001290614    1.203    0.168
         8  -8.5809    177.3214     10.6881   6.5953151987e+01   3.8979671080e+01    0.2816411    0.1916957 -55.10 0.0009140272    1.529    0.346
         9  -9.9384    172.2924      3.0564   6.4033649511e+01   4.0936340321e+01     0.758065    0.2605307 -45.01  0.002751355    3.026    0.669
        10  -9.6656    225.0074      7.7430   6.0826648687e+01   2.7894892848e+01    0.3204903    0.2016676 -51.68  0.001011024    1.476    0.323
        11  -8.9498    249.1765      2.2981   5.7984784927e+01   2.3294472070e+01    0.2690702    0.1393352 -60.14  0.001453835    1.912    0.477
        12  -7.4141    207.2789      1.3495   6.0412744950e+01   3.2488819722e+01     0.127984   0.09421325  29.48 0.0004618173    1.642    0.391
        13  -9.1010      5.9920    154.4898   1.4818406785e+02   4.0734892478e+01    0.1553434    0.1070912  29.34  0.000466385    1.537    0.349
        14  -9.2058     54.7903    250.4150   1.4294749726e+02   1.8572453271e+01    0.1716581    0.1049661  30.75 0.0006934375    1.443    0.307
        15  -8.5506      8.4967    148.5120   1.4724384718e+02   4.1881737254e+01    0.1169946   0.09650119  77.04 7.058159e-05    1.004    0.004
        16  -8.9215    123.0852    146.2949   1.1645981553e+02   2.8470320391e+01    0.2064735    0.1919174 -32.80 0.0003299684    1.121    0.108
        17  -9.4346     67.6706    144.4900   1.3090180741e+02   3.7143284549e+01    0.5466846    0.2523853  47.52  0.002215063    2.201    0.546
        18  -8.3868    188.1132    137.5627   9.9883627149e+01   1.8253993137e+01    0.1992771    0.1701352 -10.37 0.0003554944    1.074    0.068
        19 -10.2141    234.5684    130.1517   9.0001312016e+01   1.1058451180e+01    0.2550983    0.2073822  26.79 0.0003391872    1.268    0.211
        20  -8.0420    120.9803    131.2462   1.1397198716e+02   3.1949344950e+01    0.1895279    0.1740624  25.08 0.0001924449    1.050    0.047
        21  -7.9213    201.7261    125.3931   9.4511772835e+01   1.7625079987e+01    0.1340713    0.1066945 -55.19 0.0006990902    1.733    0.423
        22 -10.2665    242.9641    122.7205   8.7095902561e+01   1.0620841844e+01    0.3443618    0.1838438  -3.05  0.001536532    2.496    0.599
        23  -7.4893    131.5682    121.2827   1.0898726882e+02   3.2068929182e+01    0.1521484    0.1158319  72.10 0.0001637527    1.864    0.464
        24  -8.0524    181.0875    115.2886   9.6089084454e+01   2.3296261186e+01    0.1958273    0.1751465  19.71 0.0003040725    1.083    0.077
        25  -8.7814    167.8229    113.3499   9.8398184347e+01   2.6341605369e+01    0.2539921    0.2252938 -61.54 0.0005145036    1.407    0.289
        26 -10.5758    239.5168    111.3016   8.5041632915e+01   1.2701358644e+01    0.4713336      0.30918  65.19  0.002426835    2.434    0.589
        27  -8.6335    203.7557    110.4200   9.0578076012e+01   1.9527544414e+01    0.1978156    0.1241022  33.86 0.0009520005    1.659    0.397
        28 -10.0614    185.5261    109.5592   9.3773549890e+01   2.3344673670e+01     0.339769    0.2597473 -13.93  0.001120025    1.290    0.225
        29 -10.4126    245.4733     98.4825   8.1267668416e+01   1.3307519012e+01    0.4270665    0.1400993 -37.63  0.001698871    2.750    0.636
        30 -10.0150    186.0909     93.8057   8.9573371895e+01   2.5792491663e+01     0.360252    0.2374342 -38.00  0.001595622    1.482    0.325
        31  -8.3023    150.4317     92.7067   9.6852536809e+01   3.3811178607e+01    0.2572125     0.178684  23.05 0.0006153799    1.680    0.405
        32  -7.7880    136.0675     91.1424   9.9962637156e+01   3.7238255550e+01    0.2041844     0.183806  78.19 0.0006806018    1.347    0.258
        33 -10.8332    243.2555     84.7441   7.8333845632e+01   1.5457813199e+01     0.482459    0.2094832 -22.81  0.002111167    2.162    0.537
        34  -9.0474    159.9740     83.9775   9.2160441926e+01   3.3248493371e+01    0.3179506    0.2128982 -17.45 0.0009562962    1.681    0.405
        35  -9.9567    163.5343     80.5275   9.0379549334e+01   3.3027927297e+01    0.3596819    0.2815301  46.29  0.001792144    1.303    0.232
        36  -9.2717    144.4245     81.0490   9.4882931052e+01   3.7305148897e+01     0.349896    0.2520874 -43.99 0.0009001048    1.428    0.300
        37  -9.5542    232.2765     79.8585   7.8571844091e+01   1.8186621909e+01    0.2377512    0.1949183  52.33  0.001422378    1.405    0.288
        38 -10.4992    182.6934     76.6242   8.5456098379e+01   2.9263961595e+01    0.4912702    0.3587815 -89.26  0.002241169    2.083    0.520
        39 -11.3191    177.9471     67.5408   8.3678447408e+01   3.1755447371e+01     0.758559    0.6193149 -46.97  0.002598093    1.290    0.225
        40  -8.9939    240.6352     72.1623   7.5627653834e+01   1.7531966307e+01    0.1938602    0.1101417 -16.68  0.000843785    1.742    0.426
        41 -10.5770    159.9504     69.8333   8.7911472140e+01   3.5649092414e+01     0.391356    0.2703077 -18.02 0.0007330545    1.555    0.357
        42  -8.2768    151.8660     71.0650   9.0058370086e+01   3.7352525931e+01    0.2225474    0.2043858 -57.28  0.001168529    1.212    0.175
        43  -8.6057    189.3740     67.6797   8.1719001390e+01   2.9072694171e+01    0.2332859    0.2001323   7.33 0.0002333693    1.202    0.168
        44  -9.7382    188.0920     42.2407   7.4408072156e+01   3.2830548262e+01    0.8523379    0.4064485 -66.85  0.002531208    4.870    0.795
        45  -8.8884    206.8034     65.3824   7.8348588239e+01   2.5448810601e+01    0.4417642    0.2349473 -62.36  0.001567586    3.480    0.713
        46  -9.0825    201.8221     60.5058   7.7727318646e+01   2.7224984052e+01    0.4924226    0.2626663 -63.75  0.001768346    3.458    0.711
        47  -9.9925    207.8368     61.0488   7.7013887586e+01   2.5799140585e+01    0.8314137    0.3865097 -58.70  0.002667387    4.344    0.770
        48  -8.7789    202.2189     55.0570   7.6138793326e+01   2.7857019566e+01    0.3944554    0.1928783 -55.11   0.00147927    2.926    0.658
        49 -10.3154    196.9155     49.5329   7.5308817400e+01   2.9802244361e+01    0.3769204    0.3228706 -56.48 0.0004907838    1.234    0.190
        50  -9.4525    230.4374     62.4800   7.4446078476e+01   2.0769489513e+01    0.5058107    0.2303406 -53.63  0.001941501    3.239    0.691
        51  -9.2523    245.3095    249.0324   1.0933558704e+02  -3.7174242930e+00    0.3085804   0.09695306  21.77   0.00137126    3.800    0.737
        52  -9.9899    239.3250    248.6923   1.1021534574e+02  -3.0281790673e+00    0.2600323    0.1148311  14.52  0.001518674    2.195    0.544
        53  -9.9976     79.8568    247.1497   1.3819354901e+02   1.6389713053e+01    0.1983783    0.1366212  53.36  0.001157277    1.267    0.211
        54  -9.8394    226.1373    247.6610   1.1216400697e+02  -1.4398870201e+00    0.2045359   0.07334411  37.78  0.001101887    2.582    0.613
        55  -8.9255    122.2208    239.7384   1.2962393068e+02   1.2425900451e+01    0.1449165    0.1107602  16.02 0.0006209046    1.320    0.242
        56  -9.2623    186.2276     59.4505   7.9843302861e+01   3.0984941794e+01    0.2563971     0.238872 -21.56 0.0003608313    1.015    0.015
        57  -8.8637    143.9755     59.0093   8.7935126538e+01   4.1252010036e+01    0.3808358     0.224172 -48.93  0.001388381    1.963    0.491
        58  -9.7309    244.6984     55.0637   7.1004552259e+01   1.8793247788e+01    0.2226451    0.2019111  38.99 0.0004276871    1.263    0.208
        59  -8.7364    130.4473     55.4451   8.9969998305e+01   4.5094139622e+01    0.2659041    0.2499237  -1.45 0.0005563239    1.025    0.024
        60 -11.4208    179.4169     47.2004   7.7239935628e+01   3.4301656237e+01    0.6045342    0.3524178  -4.85  0.001469046    2.313    0.568
        61  -8.4237    174.1172     44.4259   7.7227769255e+01   3.5972989924e+01    0.3304331    0.1848966 -62.17  0.001257529    2.680    0.627
        62  -9.9583    203.3331     43.8024   7.2800648363e+01   2.9021115337e+01    0.3766657    0.2511831  26.10  0.001502899    1.861    0.463
        63 -10.2092    145.0312     41.2266   8.1519208049e+01   4.3705476337e+01    0.4387465    0.2459351  87.55  0.001453088    3.570    0.720
        64  -7.9374    193.6526     39.3419   7.2772261664e+01   3.1847296189e+01    0.1539248   0.09902412 -57.81 0.0007045412    1.794    0.443
        65  -8.1121    248.9646     50.9750   6.9587705371e+01   1.8429338977e+01    0.1890916    0.1392779  12.05 0.0004009713    1.619    0.382
        66 -10.5053    170.3687     58.3717   8.2278929367e+01   3.4937697910e+01    0.7535523    0.3771097 -56.86  0.002540321    3.335    0.700
        67  -8.0385    246.1003     36.4905   6.6351991807e+01   2.0587296308e+01    0.1646763    0.1249952  71.74 0.0005694589    1.528    0.346
        68 -10.3183    140.3939     32.0559   7.9120131450e+01   4.6123954802e+01    0.2677468    0.2477974  20.58 0.0003017694    1.067    0.062
        69  -7.6841    151.2728     27.6770   7.5453769620e+01   4.3876857928e+01    0.1493087    0.1080991 -56.45 0.0002685438    1.575    0.365
        70  -9.1046    192.7817     23.7218   6.8226327899e+01   3.3832091863e+01    0.5370936    0.2119409 -52.26  0.001905841    3.200    0.687
        71  -8.7362    178.3470     24.4737   7.0235862836e+01   3.7324967640e+01     0.339569     0.209883  26.02  0.001512007    2.063    0.515
        72  -8.4467     36.4854     21.0038   1.1127456103e+02   6.9685474662e+01    0.2057199    0.1180295 -45.45  0.001029992    1.587    0.370
        73 -10.9773      2.7328    232.9002   1.5154093100e+02   2.6035394971e+01    0.5475783    0.2214772 -87.11  0.003503762    2.454    0.593
        74  -8.5966     32.7242    228.5781   1.4593017134e+02   2.4177057470e+01    0.1516919    0.1356231  45.56 0.0004698877    1.258    0.205
        75 -12.2810     22.8198    212.1993   1.4711885760e+02   2.7906203234e+01    0.6536491    0.4218192  56.84  0.002623983    1.211    0.175
        76  -9.9042    177.2222    200.9394   1.1398454301e+02   1.0373053242e+01    0.2041989    0.1649986  12.21 0.0002954641    1.047    0.045
        77 -12.4812     40.9366    195.4099   1.4246462960e+02   2.9340972853e+01    0.8469036    0.7441928 -32.72  0.006259046    1.542    0.352
        78  -7.4137    177.7412    186.3029   1.1149477524e+02   1.2403557018e+01    0.1077125   0.09937046  54.41 0.0001878722    1.513    0.339
        79 -10.6162    162.1359     50.8836   8.1428000262e+01   3.8048746588e+01     0.519595     0.332289 -84.91  0.002055859    2.568    0.611
