#   1 NUMBER                 Running object number                                     
#   2 MAG_AUTO               Kron-like elliptical aperture magnitude                    [mag]
#   3 X_IMAGE                Object position along x                                    [pixel]
#   4 Y_IMAGE                Object position along y                                    [pixel]
#   5 X_WORLD                Barycenter position along world x axis                     [deg]
#   6 Y_WORLD                Barycenter position along world y axis                     [deg]
#   7 A_WORLD                Profile RMS along major axis (world units)                 [deg]
#   8 B_WORLD                Profile RMS along minor axis (world units)                 [deg]
#   9 THETA_WORLD            Position angle (CCW/world-x)                               [deg]
#  10 FWHM_WORLD             FWHM assuming a gaussian core                              [deg]
#  11 ELONGATION             A_IMAGE/B_IMAGE                                           
#  12 ELLIPTICITY            1 - B_IMAGE/A_IMAGE                                       
         1 -15.5666      4.1621    125.2598   1.3854673447e+02   4.9413616217e+01     5.088068    0.8262945 -75.61   0.01414957    5.814    0.828
         2 -14.2998    247.8074    101.7098   7.1293621474e+01   1.0148346046e+01     3.018559    0.8798704 -31.10  0.008854107    4.784    0.791
         3 -14.4649    232.1020     28.4443   5.6851812847e+01   2.4177956779e+01     1.780655     1.220075  46.59  0.009981257    1.975    0.494
         4 -12.5438    237.3615      4.3198   5.1311081958e+01   2.5800670569e+01    0.4035864    0.3149011 -71.25 0.0008054607    1.021    0.021
         5 -13.7839    248.6156     15.7162   5.2865965152e+01   2.2148599372e+01     1.226543    0.4437736 -45.62  0.005957663    2.173    0.540
         6 -14.9888    245.4648     39.1912   5.7979183189e+01   1.9911739429e+01     2.890033    0.9361909  57.98  0.006696719    3.318    0.699
         7 -14.2158    241.0116     66.9858   6.4480485894e+01   1.6952740752e+01     1.586702     1.472953 -28.11  0.005985095    1.275    0.216
         8 -13.6672      3.5559      9.3659   1.1179714115e+02   7.3985520154e+01     1.175635    0.3338325 -51.91  0.004950877    3.976    0.749
         9 -11.4293    213.1126     23.5747   5.7516025517e+01   2.9107836561e+01    0.2986537    0.2008861 -37.36 0.0005522356    1.519    0.342
        10  -9.7911    227.0451      6.6541   5.2519276119e+01   2.7814009016e+01    0.1718739    0.1302758 -89.95  0.000439246    1.142    0.124
        11 -10.4233    209.9728      3.6618   5.3163386517e+01   3.2021434326e+01    0.2117441    0.1717801 -47.79 0.0004237739    1.278    0.217
        12 -12.2268     67.5005    143.6250   1.2238337873e+02   3.8464394004e+01    0.6891397    0.4074946  60.37  0.002820817    2.021    0.505
        13 -13.1832    248.1229    248.0794   9.9793022791e+01  -1.1770690090e+01    0.9475405    0.4963565 -30.52  0.005799633    1.897    0.473
        14 -13.1872    238.4102    245.1088   1.0099477280e+02  -1.0178083337e+01    0.5584239    0.3678715   4.11   0.00364456    1.333    0.250
        15 -12.4026     98.0123    249.4759   1.2898165895e+02   1.0354148276e+01    0.4765611    0.1539187  38.16  0.002016687    2.512    0.602
        16 -13.7946      8.8833    245.7009   1.4564281783e+02   2.2343675344e+01     1.311954    0.5652473  48.44  0.007993899    1.718    0.418
        17 -11.8446     81.0051    249.3237   1.3235142382e+02   1.2851220696e+01    0.2932505    0.1659799  41.55  0.001675306    1.446    0.308
        18 -13.8448    241.8477     80.6122   6.7410317589e+01   1.4698769411e+01     1.023296    0.5876346 -52.09  0.004981214    1.621    0.383
        19  -8.9457    152.7532     88.2940   8.4724693195e+01   3.4209770114e+01    0.1510438    0.1199626 -73.42 0.0001973168    1.480    0.324
        20 -10.3734    184.2772     80.8307   7.6151255174e+01   2.7810712401e+01     0.287713    0.1852957  34.37  0.001048967    2.051    0.512
        21 -11.6823     74.1565    249.1035   1.3367946846e+02   1.3850187510e+01    0.2746027    0.2080055 -47.32  0.001756548    1.890    0.471
        22 -12.5157      3.5535    228.2977   1.4583052207e+02   2.6235683337e+01    0.4063356     0.253769 -71.75  0.002750864    1.656    0.396
        23 -12.9825    124.4883    249.6170   1.2366070239e+02   6.2882936129e+00    0.9238911    0.1525844  39.62  0.002866565    4.411    0.773
        24 -10.8871    106.2010    230.4195   1.2519540395e+02   1.2644707379e+01    0.2003706   0.09943189  47.34 0.0009534999    1.719    0.418
        25 -12.5860    249.5020     28.1682   5.5335646094e+01   2.0472252415e+01    0.4144153    0.3929881 -85.72  0.001419871    1.319    0.242
        26  -9.0328    150.7784    221.9347   1.1443246694e+02   6.8532341813e+00    0.1555894    0.1127829 -46.36 0.0006063696    1.591    0.371
        27 -10.4948    167.4510     76.0381   7.8050316106e+01   3.2813723860e+01    0.3517122    0.2638926   6.15  0.001351401    1.944    0.486
        28  -9.8821    222.4910     60.5084   6.5205382251e+01   2.1979893721e+01    0.2240028    0.1483718 -66.40  0.000694277    1.543    0.352
        29 -11.1287    224.5219     67.0322   6.6486622954e+01   2.0538636524e+01    0.3817244     0.207532 -39.01  0.001314275    1.693    0.409
        30 -11.8896    226.2088     63.7994   6.5517018065e+01   2.0649675183e+01    0.4479267    0.2166744 -57.46  0.001815466    2.285    0.562
        31 -10.8523    215.3792     63.8222   6.6914598975e+01   2.3115876893e+01    0.3734256    0.2510151  46.71  0.001309403    1.763    0.433
        32  -8.8546    128.7305     50.7466   7.8773222449e+01   4.6597232448e+01    0.1409467    0.1079284  28.56 0.0006812928    1.448    0.310
        33 -11.3854     47.6735    158.9259   1.3028648267e+02   3.7227506441e+01    0.2419523    0.2275351 -38.83 0.0008964141    1.284    0.221
        34 -13.5528      9.4429    206.1116   1.4356058404e+02   3.0268467451e+01    0.7931767    0.5781121  49.84  0.003383111    1.301    0.231
        35 -10.1411    204.2430     40.0829   6.2491858878e+01   2.9151307868e+01    0.1902038    0.1591442 -57.22 0.0004991351    1.125    0.111
        36 -10.3351    191.2602     38.9900   6.3864193153e+01   3.2475730466e+01    0.1951074    0.1714224 -63.92 0.0004399632    1.093    0.085
        37 -13.1563     19.6479    172.3835   1.3891604454e+02   3.6923335780e+01    0.6490856    0.4109688  68.80    0.0037447    1.447    0.309
        38 -10.9128    202.8886     19.3585   5.7523016901e+01   3.2026366976e+01    0.2304978    0.1584385 -51.40 0.0008174968    1.369    0.269
        39 -10.7242    218.4574     21.8807   5.6614608086e+01   2.8062245365e+01    0.2355538    0.2044454 -25.88 0.0008998896    1.445    0.308
        40 -12.9642    241.2577     46.1197   5.9863095927e+01   1.9879498238e+01    0.8756913    0.4507284 -62.63  0.004216025    2.003    0.501
        41 -12.6904    140.3206    248.3027   1.2029560440e+02   4.0192306746e+00    0.4907751     0.316401  55.98  0.002747109    1.662    0.398
