#   1 NUMBER                 Running object number                                     
#   2 MAG_AUTO               Kron-like elliptical aperture magnitude                    [mag]
#   3 X_IMAGE                Object position along x                                    [pixel]
#   4 Y_IMAGE                Object position along y                                    [pixel]
#   5 X_WORLD                Barycenter position along world x axis                     [deg]
#   6 Y_WORLD                Barycenter position along world y axis                     [deg]
#   7 A_WORLD                Profile RMS along major axis (world units)                 [deg]
#   8 B_WORLD                Profile RMS along minor axis (world units)                 [deg]
#   9 THETA_WORLD            Position angle (CCW/world-x)                               [deg]
#  10 FWHM_WORLD             FWHM assuming a gaussian core                              [deg]
#  11 ELONGATION             A_IMAGE/B_IMAGE                                           
#  12 ELLIPTICITY            1 - B_IMAGE/A_IMAGE                                       
         1 -14.2588    165.1648     54.3653   7.0677621757e+01   3.6935104083e+01     2.142046     1.461661  22.49  0.006642848    1.889    0.471
         2 -14.2062    179.2749     38.9174   6.3290277949e+01   3.5524295699e+01      1.06767    0.9160632  51.53  0.002943114    1.150    0.131
         3 -13.7049    183.7218     32.1566   6.0522031234e+01   3.5243828140e+01    0.6816968    0.6077424  23.99  0.001613675    1.230    0.187
         4 -13.5534    189.4442     13.9912   5.4300215813e+01   3.5840530375e+01    0.7209469    0.4435064 -58.89  0.002465399    1.791    0.442
         5 -14.6595    199.3796      6.7615   5.1091437119e+01   3.4034646359e+01     1.238436     1.078281 -26.24  0.004259448    1.245    0.197
         6 -11.9638    231.2387      2.0966   4.6959778750e+01   2.6694121033e+01    0.4852753    0.1138729  71.30  0.001677855    3.811    0.738
         7 -12.0434     59.0885    201.8403   1.2710006897e+02   2.6468753274e+01    0.2087979    0.1384066  57.23 0.0007454445    1.259    0.206
         8 -13.7275    246.9572    245.2937   9.8063234584e+01  -8.5366651490e+00    0.9087321    0.5804301 -13.87  0.006375882    1.582    0.368
         9 -17.3245     59.6906    237.1109   1.2975500513e+02   2.0003800811e+01     8.113208     6.350861  82.76   0.06385613    1.206    0.171
        10 -11.1263    204.5083    176.5683   9.3689803908e+01   6.8952647172e+00    0.3892816    0.2688451 -45.78  0.001610236    1.718    0.418
        11 -11.1450      1.0951    177.4323   1.3664597470e+02   3.7250226152e+01    0.1020589   0.04616432 -73.93 0.0005917096    1.832    0.454
        12 -12.9027    140.8983    189.0722   1.0873403552e+02   1.6498052349e+01    0.4556316    0.3782503 -16.72  0.002623325    1.555    0.357
        13 -10.4297    165.1130    171.8843   1.0067196561e+02   1.5178983709e+01    0.2128249    0.1964747 -54.95 0.0004890276    1.213    0.176
        14 -10.1114    200.9265    168.4916   9.2777042902e+01   8.8541697018e+00    0.2407847    0.2198741  80.79 0.0007537378    1.452    0.311
        15 -10.0821    204.8092    167.0086   9.1731326932e+01   8.3487693961e+00    0.2904742    0.1746897  30.37  0.001347417    1.689    0.408
        16 -11.9699    192.7372    164.6264   9.3596899572e+01   1.1080220768e+01    0.5329831     0.352783 -58.67   0.00190106    2.190    0.543
        17  -9.9519     17.4101    167.5740   1.3273139028e+02   3.7913950167e+01    0.1122588   0.08660306  85.78 9.049023e-05    1.027    0.027
        18 -11.9480    193.2050    195.0916   9.9274133584e+01   6.1046155957e+00    0.9100586    0.5004525 -63.81  0.003009056    5.890    0.830
        19 -10.2986    113.3101    160.1557   1.1005022366e+02   2.7066670826e+01    0.2223159    0.1843783  35.90 0.0006216525    1.263    0.208
        20 -11.6078    189.0827    155.0763   9.2342847231e+01   1.3448624444e+01    0.4648356    0.4094132  44.89  0.002393023    1.152    0.132
        21 -19.0666     37.0010     99.0683   1.1969464979e+02   5.1524652348e+01     15.35203    0.9521732 -64.53   0.02739173   13.405    0.925
        22  -9.9061    127.6483    155.2938   1.0583250268e+02   2.5532713706e+01    0.2268043    0.1637353  79.65  0.001086025    1.802    0.445
        23 -12.1298    133.7340    145.2157   1.0242519079e+02   2.6495022969e+01     1.252345     0.337796 -55.17  0.003192305    5.692    0.824
        24 -10.5356    129.3341    140.0320   1.0240392218e+02   2.8439330405e+01      0.31343    0.2023426  47.86 0.0008342914    1.527    0.345
        25 -11.7256    143.5113    145.5112   1.0019796190e+02   2.4518585023e+01    0.6067616    0.3385349 -74.05  0.001890143    4.412    0.773
        26 -10.9469    151.9923    150.4912   9.9300348072e+01   2.1822750617e+01    0.2665351    0.2446982  59.30 0.0006732825    1.102    0.092
        27 -11.3543    148.6817    149.3373   9.9809422028e+01   2.2713816487e+01    0.3253136    0.2230999  60.05 0.0008822638    1.657    0.396
        28 -10.7356    174.6604    148.9713   9.4020702227e+01   1.7499107091e+01    0.2709913    0.2446393  40.72  0.000689801    1.073    0.068
        29 -12.6029    111.1819    138.4777   1.0655529146e+02   3.2139811263e+01    0.6727446    0.4417244 -29.50  0.003007353    2.157    0.536
        30 -12.7417    100.5288    137.5433   1.0906327708e+02   3.4187392476e+01    0.4188103    0.2839524  38.97 0.0006707076    1.523    0.343
        31 -12.0694    105.9255    130.8478   1.0634603575e+02   3.4764565996e+01    0.4469168    0.3302731 -64.25   0.00122471    1.375    0.273
        32 -11.3849    105.7302    124.8968   1.0514118719e+02   3.6133629318e+01    0.2586391    0.2422367 -24.97   0.00056474    1.187    0.157
        33 -11.6697    135.5287    127.0341   9.8032855734e+01   2.9983384543e+01    0.7423103    0.1983249 -50.37  0.002074144    4.212    0.763
        34 -11.3115    117.4272    128.9619   1.0299297881e+02   3.3100890110e+01    0.3311464    0.2532771 -35.36 0.0007510227    1.461    0.315
        35 -10.8316    160.5295    127.5792   9.2264208916e+01   2.4613371773e+01    0.3425473    0.2751828 -68.69  0.001288649    1.512    0.339
        36 -10.4078    121.3588    123.3464   1.0073294604e+02   3.3586256529e+01    0.2233804    0.1783086 -11.05  0.000871103    1.647    0.393
        37 -10.4840    112.3509    118.4721   1.0195544628e+02   3.6367817781e+01    0.2429171    0.2374222  73.86 0.0001298111    1.032    0.031
        38 -10.9688    167.7678    112.7379   8.6963451676e+01   2.5921356933e+01    0.3816838    0.2993049 -82.78   0.00119385    1.738    0.425
        39 -10.5577    134.6409    106.5774   9.3215419014e+01   3.4491627065e+01    0.4791928    0.1421587 -47.13   0.00141906    3.473    0.712
        40  -9.8981    121.6654    111.6793   9.7867632748e+01   3.6069683184e+01     0.152722    0.1198441  -4.87 0.0007049735    1.703    0.413
        41 -10.6727    205.5315    110.1630   7.8633333994e+01   1.7777699438e+01    0.3257352    0.2092541  40.68 0.0009550675    1.613    0.380
        42 -11.1459     80.3402    105.7739   1.0796870618e+02   4.4663516233e+01    0.2417597    0.2328536 -28.20 0.0006206366    1.124    0.110
        43 -10.5738     66.6460     99.0087   1.1055123265e+02   4.8166934731e+01    0.2398518    0.2137504  11.10 0.0009088176    1.314    0.239
        44 -10.4045     82.7842     76.2908   9.9580642991e+01   5.0826218280e+01    0.2239131    0.1758774  39.96 0.0003553343    1.380    0.275
        45 -12.1094    174.1405     72.8486   7.4528729795e+01   3.1697784567e+01    0.9951143    0.5748325 -82.23  0.002889794    4.613    0.783
        46 -11.7730    158.0272    233.6230   1.1175669252e+02   6.3481150236e+00    0.3212102    0.1797467  23.82   0.00163484    2.323    0.570
        47 -11.4237    167.6656    232.2783   1.0982308130e+02   4.9961166980e+00    0.2835033    0.1883285  35.70 0.0006681252    1.236    0.191
        48 -10.1086    169.2150    178.0831   1.0097089420e+02   1.3293588965e+01     0.227535    0.1896185 -71.29  0.000488334    1.539    0.350
        49 -10.3670     13.4360     59.8775   1.2005868843e+02   6.2135097672e+01    0.1648306    0.1515905 -73.98 0.0004277702    1.216    0.178
        50 -10.8517     20.8274    214.4436   1.3504962134e+02   2.8340729935e+01    0.1246556   0.09259528  41.93 0.0009485776    1.502    0.334
        51  99.0000     12.6233    205.9991   1.3603715008e+02   3.0695776600e+01     0.404511    0.1520044  38.51   0.00235054    2.398    0.583
