#   1 NUMBER                 Running object number                                     
#   2 MAG_AUTO               Kron-like elliptical aperture magnitude                    [mag]
#   3 X_IMAGE                Object position along x                                    [pixel]
#   4 Y_IMAGE                Object position along y                                    [pixel]
#   5 X_WORLD                Barycenter position along world x axis                     [deg]
#   6 Y_WORLD                Barycenter position along world y axis                     [deg]
#   7 A_WORLD                Profile RMS along major axis (world units)                 [deg]
#   8 B_WORLD                Profile RMS along minor axis (world units)                 [deg]
#   9 THETA_WORLD            Position angle (CCW/world-x)                               [deg]
#  10 FWHM_WORLD             FWHM assuming a gaussian core                              [deg]
#  11 ELONGATION             A_IMAGE/B_IMAGE                                           
#  12 ELLIPTICITY            1 - B_IMAGE/A_IMAGE                                       
         1 -11.6995    245.5781     32.4365   6.9774839509e+01   2.1020163637e+01    0.9078437    0.6837686 -30.50  0.005021244    1.125    0.111
         2 -10.6365    213.2250     16.9017   6.8513807563e+01   2.9734053041e+01     1.402361     0.281523 -45.92  0.003461902    6.654    0.850
         3 -11.1134    187.1152     10.6585   6.9263113631e+01   3.6691926094e+01     1.151846     0.530824 -40.76  0.003589288    2.100    0.524
         4 -14.0238    240.8628     85.2941   8.3786872843e+01   1.5884362518e+01     5.545832     0.965354 -34.77   0.01676099    4.311    0.768
         5 -11.9065    173.0421      3.7399   6.8521408469e+01   4.0894440566e+01      1.15233    0.8547174  86.89  0.004459226    1.439    0.305
         6 -11.5677    232.4502     32.0313   7.0885583083e+01   2.3849446539e+01    0.6902714    0.5705298   5.17  0.004126769    1.272    0.214
         7 -12.8112    134.7638     40.1194   8.8544420909e+01   4.6585434403e+01     2.148602    0.8941258  64.36  0.007012706    3.259    0.693
         8 -13.0937    172.6710     54.1083   8.5629248295e+01   3.5184210788e+01     1.953941     1.133661  72.07  0.007859197    2.352    0.575
         9 -12.2745    205.2535     18.0419   6.9635326943e+01   3.1518851374e+01      2.06446     0.824158 -60.20  0.006598584    4.280    0.766
        10 -13.8525    216.6960     37.3368   7.4021607411e+01   2.6795648677e+01     1.660644     1.501846 -77.53  0.009328899    1.246    0.197
        11 -12.8669    181.9145     79.1012   9.1568544869e+01   2.9233217688e+01     6.203966    0.5004891 -37.01   0.01256791    7.705    0.870
        12 -12.8822    206.9519     60.0432   8.1811414056e+01   2.6260080794e+01     2.570132      1.16273 -56.01  0.007864629    4.565    0.781
        13 -11.7378    102.3375     34.8874   9.5119893802e+01   5.5043644178e+01    0.6355725    0.4714255 -25.35   0.00314547    1.282    0.220
        14 -10.9460    178.8561     25.9874   7.5331874221e+01   3.7230158758e+01    0.7291173    0.5352737 -21.87    0.0036881    1.307    0.235
        15 -11.5065    228.1703     13.3923   6.6224357774e+01   2.6635559693e+01    0.9979848     0.389157 -38.50  0.004017405    2.175    0.540
        16 -13.4588    237.5369     10.7552   6.4808097545e+01   2.4816103513e+01     1.270309    0.4838643 -55.07  0.003154148    3.144    0.682
        17 -11.4778    236.7857      2.0684   6.2600945796e+01   2.5735099345e+01    0.5085258    0.2907862 -70.13  0.001679483    1.967    0.492
        18 -11.5665    223.0133     15.4957   6.7230940306e+01   2.7603182713e+01     0.398489    0.2095143 -38.04  0.001031281    1.679    0.404
        19 -12.5638    217.4393      8.2992   6.5684758388e+01   2.9544073755e+01     1.028252    0.3454661 -43.51  0.002342199    2.764    0.638
        20 -11.9200    248.1922      2.6362   6.2044528139e+01   2.3268596213e+01     1.007917    0.6281424 -25.25  0.005296807    1.381    0.276
        21  -9.1411    158.7207     13.9762   7.4035560026e+01   4.3682031533e+01    0.4500725    0.2875501  30.10  0.002053427    1.727    0.421
        22 -10.3361    115.9578     12.5125   8.1379874428e+01   5.4869265800e+01    0.3252972    0.3028062  64.29  0.001111822    1.177    0.150
        23 -11.5761    120.2646      8.9386   7.8804869642e+01   5.4162650477e+01    0.5939587    0.4740609 -32.33  0.001882382    1.299    0.230
        24 -12.2537    129.7021      8.3868   7.6674716645e+01   5.1797268984e+01     1.341885    0.3617467  44.61  0.004007629    3.788    0.736
        25 -11.1249    146.2501      7.2898   7.3385798472e+01   4.7584144939e+01    0.8994901    0.5291887 -82.42  0.003724135    2.349    0.574
        26 -11.3177    149.2360      1.9713   7.0865306403e+01   4.7262020356e+01     1.030563    0.2031596  66.68  0.002977469    4.169    0.760
        27 -10.8633    154.8341      1.9214   7.0086406640e+01   4.5794642714e+01    0.4687915    0.4304493 -46.14  0.001772199    1.133    0.118
        28 -10.6228    135.9550     10.0000   7.6203144156e+01   5.0018063818e+01    0.3359379    0.1655999  64.43  0.001374901    2.002    0.500
        29 -10.2374      2.5694      2.4341   1.2969721750e+02   7.6032335420e+01     0.238586    0.1999317 -80.50  0.001611762    1.528    0.345
        30  -8.6634    159.9720    127.9582   1.0902785189e+02   2.5487343926e+01    0.2173941    0.1851829 -88.72  0.001136332    1.726    0.420
        31 -11.3406    245.7727    249.8844   1.1466798234e+02  -2.9734710844e+00    0.7806625    0.1419207  34.46  0.003390938    4.105    0.756
        32 -10.7641    200.3523    125.1942   1.0011034799e+02   1.8185967411e+01    0.3827875    0.2452524  49.01  0.001902395    1.768    0.434
        33 -10.0812    205.3376    122.1598   9.8479230073e+01   1.7692075899e+01    0.3169414    0.2182579  27.76  0.001658082    1.425    0.298
        34 -11.9357    244.6926    205.6931   1.0824635327e+02   1.0970662822e+00    0.9569536    0.3652952  31.01  0.005119158    2.203    0.546
        35 -13.4627     51.3276    181.7626   1.4292855588e+02   3.1107402170e+01     1.119086    0.9427925  17.24  0.005419011    1.449    0.310
        36  -8.6862    131.9310    120.9859   1.1406692724e+02   3.2119400169e+01    0.2117513    0.2027851   6.95 0.0003556626    1.014    0.014
        37 -10.4090    217.8398    118.1191   9.5326894051e+01   1.5910861619e+01    0.4017321    0.3082004 -85.81  0.001930118    2.713    0.631
        38 -10.5069    200.2366    116.0191   9.7942732074e+01   1.9598861387e+01    0.2860713    0.2166126  56.51  0.000885341    1.682    0.405
        39 -10.6595    167.7847    113.5226   1.0384292243e+02   2.6515227322e+01    0.3589282    0.2927799 -42.13 0.0005793851    1.319    0.242
        40 -10.3736    134.6679    110.8426   1.1095345352e+02   3.3636592413e+01    0.7630676    0.1347324 -44.19  0.001854466    5.641    0.823
        41  -9.7011    231.0927    111.1924   9.1524559241e+01   1.4386578617e+01    0.2517268    0.1566305 -45.87  0.001228812    2.068    0.516
        42 -11.4869    204.7866    110.4961   9.5756766709e+01   1.9532047151e+01    0.5317292    0.3121862  39.35  0.001965062    1.720    0.419
        43  -8.2981    179.4919    105.5009   9.9326360661e+01   2.5477601651e+01    0.1465198    0.1352393  -8.89 0.0008096503    1.070    0.066
        44  -8.4550    142.4861    101.0252   1.0645947302e+02   3.4009003872e+01    0.2120126    0.1279602 -15.90  0.000742214    2.405    0.584
        45 -10.0432    190.5424    188.9215   1.1471631994e+02   1.0660819315e+01    0.2200015    0.1788031   3.09 0.0004168103    1.103    0.093
        46  -9.4715    194.8772     97.4375   9.4217426131e+01   2.3540017662e+01     0.315694    0.2059182   9.23  0.001416878    1.880    0.468
        47  -9.6898    169.9792     96.6471   9.8946911651e+01   2.8992403882e+01    0.3871693    0.2888423 -77.54  0.001700592    2.295    0.564
        48  -9.6475    148.2635     95.2617   1.0347594811e+02   3.3901082964e+01     0.331638    0.2513188  20.56 0.0007758426    1.440    0.305
        49  -9.2396    134.5777     93.0413   1.0625998697e+02   3.7203842235e+01    0.2606725    0.2156564  65.43 0.0009783295    1.489    0.329
        50  -8.7949    220.4890     92.0189   8.8442874319e+01   1.9025799126e+01    0.2084109    0.1226778 -28.00 0.0004048434    1.501    0.334
        51  -9.5100    212.6769     88.3222   8.8722205960e+01   2.1143268287e+01    0.3862459    0.3103807  89.39    0.0020081    1.893    0.472
        52 -11.1460    159.3310     86.0010   9.8260982709e+01   3.3177390249e+01    0.6881557    0.4500748  12.02  0.002859505    2.085    0.520
        53 -11.0714    191.7345     56.6985   8.3164688753e+01   3.0237064763e+01    0.4041747    0.3123372  10.26  0.001077771    1.389    0.280
        54 -12.1000    197.4669     52.5034   8.1008529472e+01   2.9441519964e+01    0.8480098    0.6445367  -4.65  0.001673983    1.342    0.255
        55  -8.4943    203.0491     80.5298   8.8201265337e+01   2.4307470712e+01    0.2004101     0.146222  55.52 0.0008623799    1.552    0.356
        56 -10.1750    142.2801     83.8176   1.0162712075e+02   3.7341006363e+01    0.3421326    0.2800293 -45.33 0.0007462462    1.278    0.218
        57 -11.5214    156.9225     74.2999   9.5272522385e+01   3.5753070778e+01    0.3892351     0.285483 -16.98 0.0006655394    1.401    0.286
        58  -9.8331    250.0784     66.8651   7.8047336201e+01   1.6329790100e+01    0.3230558    0.1709482 -16.91  0.001556079    1.750    0.428
        59 -10.6896    227.2914    173.5215   1.0543930626e+02   7.0312924341e+00    0.3652789    0.2545879  26.31  0.002314571    1.266    0.210
        60 -10.8729    235.1525    173.9457   1.0421267294e+02   5.8098132011e+00    0.3852988     0.267109  43.63  0.002146202    1.824    0.452
        61  -9.2030     90.6012     64.2924   1.1038365206e+02   5.1856763238e+01    0.3747404    0.2144413 -62.72  0.001416037    2.648    0.622
        62  -9.0497    200.6752    173.6394   1.1015418697e+02   1.1139625853e+01    0.2106733    0.1310975   7.05  0.001124671    1.732    0.423
        63 -10.2544    144.3801     59.3255   9.3250112618e+01   4.1222541619e+01    0.4082238    0.2736439 -54.65  0.001013577    1.880    0.468
        64 -12.0245    174.9662     72.1346   9.0843349320e+01   3.1920628899e+01    0.9158682    0.6656219 -20.79  0.002743223    1.328    0.247
        65  -8.1630     72.5741     58.4529   1.1489121584e+02   5.6218254999e+01    0.1449369    0.1307201 -37.80 0.0001774534    1.030    0.029
        66 -12.1473    224.9576     27.9704   7.0509527805e+01   2.5929660555e+01    0.5199272    0.3472736  39.69  0.001662936    1.700    0.412
        67 -10.1461    248.4873     46.5209   7.3096771254e+01   1.8937095829e+01    0.4915355    0.2373677 -41.99  0.002333518    1.947    0.486
        68 -10.8833      2.3709     43.1957   1.4216601925e+02   6.6769432203e+01    0.5668442    0.1663092 -64.19   0.00244532    2.292    0.564
        69  -9.2328    241.2634     44.2404   7.3238186287e+01   2.0662482935e+01    0.3761284    0.2085764 -79.09  0.001600738    3.157    0.683
        70  -8.1505     23.6926     43.6922   1.3164613294e+02   6.5447846378e+01    0.1384379    0.0803107 -38.62 0.0002561609    1.612    0.380
        71  -9.9630    216.4599    169.0703   1.0645947336e+02   9.2480725364e+00    0.2948616    0.2329537  52.51 0.0007920779    1.899    0.474
        72  -8.6236    181.6070     34.5409   7.7758237500e+01   3.5551876243e+01    0.2339312    0.1348355 -24.23 0.0007861246    1.641    0.391
        73 -11.0598    181.2088     64.9025   8.7465539916e+01   3.1560560152e+01    0.6176487    0.4323243 -82.91  0.001602423    2.317    0.568
        74 -10.0741    198.9770     30.1931   7.4023923498e+01   3.1770176271e+01    0.3785346    0.2080207 -46.98  0.001222311    1.917    0.478
        75  -8.4832    211.6106    166.2875   1.0678405961e+02   1.0377344866e+01    0.2015279    0.1489796  50.39 0.0008235236    1.863    0.463
        76  -8.5253    189.9877     35.9432   7.6997796304e+01   3.3307988601e+01    0.1857413    0.1519453 -21.68 0.0009797895    1.148    0.129
        77  -9.8004    116.7112     28.0400   8.8087373072e+01   5.2736038144e+01    0.2166276    0.1901589 -15.49 0.0007763995    1.089    0.082
        78 -11.3936    106.3326     22.2094   8.8284832769e+01   5.6019934402e+01    0.6758015     0.187828  48.60  0.002145856    3.297    0.697
        79 -13.9783     38.7415    193.1179   1.4638328458e+02   3.0211701346e+01     1.162151    0.9252108  -3.99  0.008308119    1.874    0.466
        80 -10.6954    247.3448    158.6545   9.9311410653e+01   5.7598985557e+00    0.4195853    0.2352801  31.01  0.002167213    1.661    0.398
        81  -9.7839    131.1671    247.8422   1.3324258025e+02   1.1124158874e+01    0.1412301    0.1033268  18.43 0.0005055848    1.361    0.265
        82 -10.9893    243.9726    243.2095   1.1402558277e+02  -2.2237433307e+00    0.6056654    0.1417563  30.68  0.002735204    3.584    0.721
        83  -9.3832     70.9759    243.4120   1.4341947776e+02   1.8650459660e+01    0.1443027    0.1319153  73.04 0.0002615618    1.287    0.223
        84 -10.2993    145.8384     21.2106   7.8905800236e+01   4.6262517871e+01    0.2538932    0.2249742  -2.57 0.0002140483    1.104    0.094
        85 -13.9627    244.1862    114.1518   9.0238721696e+01   1.1650653279e+01     4.438347     1.020922 -25.80   0.01364713    4.436    0.775
        86  -8.1691    160.2534     17.3256   7.5033165843e+01   4.2942465511e+01    0.1884375    0.1412788  83.17 0.0002649683    1.503    0.335
        87 -10.8932    247.5622    229.1969   1.1146818164e+02  -1.4440663830e+00    0.3899262    0.1742703  31.28  0.002467992    1.757    0.431
        88 -12.9844      8.2756    219.1391   1.5331017850e+02   2.8311926971e+01    0.6886641    0.4944197  62.21  0.004252531    1.038    0.036
        89 -10.2870     69.5142    145.4836   1.3483284325e+02   3.6549610319e+01    0.3195024    0.2808103  78.34  0.001134006    1.080    0.074
        90 -10.3856     66.4803    144.0318   1.3542897816e+02   3.7236002047e+01    0.3887415    0.2764325 -88.46   0.00147512    1.477    0.323
        91  -8.7020    192.2605    144.1088   1.0588679186e+02   1.6805410173e+01    0.1824605    0.1577893  -8.54 0.0004179608    1.096    0.087
        92  -8.5440     48.7434    222.4388   1.4616060041e+02   2.4150615397e+01    0.1275951   0.08750288  26.22 0.0006960006    1.573    0.364
        93  -9.2058    134.9931    136.0514   1.1659803128e+02   2.8582164962e+01    0.2032668    0.1881409  16.16  0.001191116    1.023    0.023
        94  -9.0790    157.5845    132.8018   1.1065217340e+02   2.5067714553e+01    0.1923265    0.1340193 -49.02 0.0007279398    1.641    0.391
