#   1 NUMBER                 Running object number                                     
#   2 MAG_AUTO               Kron-like elliptical aperture magnitude                    [mag]
#   3 X_IMAGE                Object position along x                                    [pixel]
#   4 Y_IMAGE                Object position along y                                    [pixel]
#   5 X_WORLD                Barycenter position along world x axis                     [deg]
#   6 Y_WORLD                Barycenter position along world y axis                     [deg]
#   7 A_WORLD                Profile RMS along major axis (world units)                 [deg]
#   8 B_WORLD                Profile RMS along minor axis (world units)                 [deg]
#   9 THETA_WORLD            Position angle (CCW/world-x)                               [deg]
#  10 FWHM_WORLD             FWHM assuming a gaussian core                              [deg]
#  11 ELONGATION             A_IMAGE/B_IMAGE                                           
#  12 ELLIPTICITY            1 - B_IMAGE/A_IMAGE                                       
         1 -13.5019     32.5854    176.6394   1.2384226619e+02   3.4731431575e+01     1.278122    0.9632294   2.44  0.001827801    2.086    0.521
         2 -11.8175    191.6728     51.2732   6.0082989023e+01   3.0512166488e+01     12.82905          nan -40.15   0.01394401   27.539    0.964
         3 -11.5941    181.3919     26.3715   5.3579250210e+01   3.6196782731e+01     1.294579    0.9873524 -30.29  0.006607629    1.242    0.195
         4 -10.6050    239.9398      3.4385   4.1348610850e+01   2.4232145703e+01    0.6191667    0.2611042  76.13 0.0004458448    2.608    0.617
         5 -13.9440    215.9443     72.8512   6.2728326798e+01   2.1963993324e+01     12.04159     2.772709 -43.19    0.0263572    6.452    0.845
         6 -13.9695    237.7973     13.3583   4.4106321516e+01   2.3816104099e+01     3.682474    0.5608559  61.39   0.01171879    5.029    0.801
         7  -9.5684    195.3087     14.0574   4.7948102245e+01   3.3911377984e+01     1.552923    0.6640975 -26.72  0.006323412    2.087    0.521
         8 -12.5738    186.7240     99.8401   7.4823595463e+01   2.4462823199e+01     4.579751    0.7375152 -32.41    0.0102192    6.910    0.855
         9 -13.4508    140.3388     40.0436   6.5495020867e+01   4.5106014697e+01     4.253728     2.245812  69.74   0.01610743    2.392    0.582
        10 -12.2414    247.3805     37.1062   4.9557386430e+01   1.9383096916e+01     1.615603    0.7596517 -42.51  0.005892694    1.939    0.484
        11 -11.9139    249.4755     26.1757   4.6574913795e+01   2.0056956211e+01     0.924582    0.2596942 -28.16  0.001187739    2.632    0.620
        12 -13.7177    235.2510     65.5977   5.8246023050e+01   1.8720267257e+01     4.023269    0.8905806 -38.10   0.01268524    3.868    0.741
        13 -12.5382    219.5701     52.9959   5.6771419504e+01   2.3682620542e+01     1.992706     1.137061  72.76  0.009048448    2.204    0.546
        14 -13.0189    230.2664     45.2217   5.3387843137e+01   2.2193580482e+01     1.388411    0.9140401  71.05  0.004190156    1.785    0.440
        15 -11.6494    249.9647      4.4712   4.1022464815e+01   2.1973458858e+01    0.4335589      0.23446 -30.76  0.001129334    1.502    0.334
        16  -9.0642    115.9871     12.5107   5.9360396633e+01   5.4980588282e+01    0.3244847     0.241005  58.77  0.001171953    1.344    0.256
        17 -10.6357    120.3208      8.9686   5.6812525315e+01   5.4249053751e+01    0.4593108    0.4173741  52.87  0.001471224    1.092    0.084
        18  -9.4558    183.2645      3.2840   4.5653860238e+01   3.8009886241e+01     0.381724    0.2159417 -34.69  0.001757048    1.646    0.392
        19  -8.5084    205.5096      3.2344   4.3683892573e+01   3.2338440485e+01    0.1902667    0.1277789 -21.97 0.0009716157    1.413    0.292
        20  -9.1071    172.0182      2.5676   4.6552567136e+01   4.1037481447e+01    0.2673696    0.1729061 -41.37 0.0005493542    1.512    0.338
        21  -8.5283    138.8119      1.8567   5.0469376644e+01   5.0022448330e+01    0.2152301    0.1848004  29.72 0.0003707072    1.170    0.145
        22  -7.9005     90.4606      6.4315   6.2757302661e+01   6.1963286148e+01    0.1428836    0.1300571  12.93 6.776214e-05    1.012    0.012
        23  -8.2312    199.7338      1.3081   4.3560627220e+01   3.3947104830e+01    0.1441756   0.09103423 -50.13 0.0003074578    1.535    0.348
        24 -12.5333    221.4424     37.7222   5.2262970821e+01   2.5041128607e+01     1.224728     0.588116 -48.37  0.004398432    2.220    0.550
        25  -8.2123    234.3428    240.6803   9.3185097370e+01  -8.1924618872e-01    0.0870616   0.07055829  36.04 0.0007049716    1.721    0.419
        26  -8.9612    239.0261    250.0014   9.3718760340e+01  -2.1230752585e+00    0.1459835   0.09770385  18.85 0.0003184192    1.039    0.038
        27 -10.2012    132.3297    235.3698   1.0924553300e+02   1.2985217250e+01    0.1919352    0.1456285  37.79 0.0002303846    1.019    0.018
        28  -9.4998     88.6974    229.7182   1.1652740173e+02   1.9296091530e+01    0.2759277    0.1254052  22.06  0.001219059    4.109    0.757
        29  -8.8337    242.1422    207.8591   8.7246415315e+01   1.0834755100e+00    0.1502565    0.1171503  16.55 0.0002681832    1.209    0.173
        30  -8.3345    159.3815    158.1926   9.3381482318e+01   2.0244503075e+01    0.1721493      0.12493 -53.41 0.0009443131    1.699    0.411
        31  -8.0965     83.2319    158.1847   1.1048376982e+02   3.2507308896e+01    0.1581097    0.1232723  64.44 0.0002412766    1.211    0.174
        32 -11.4130      2.3842    199.8123   1.3095574209e+02   3.3083315522e+01    0.4396028    0.2462177 -75.05  0.002248278    1.870    0.465
        33  -8.4721    217.6595    155.1025   8.1861732351e+01   1.0532652519e+01    0.1697784    0.1368933   0.18 0.0003602219    1.069    0.065
        34  -8.7254    203.8124    153.0512   8.3850426862e+01   1.3177446903e+01    0.2207239    0.1615497 -16.85 0.0007077216    1.327    0.246
        35  -9.0388    134.0754    147.6162   9.6891940686e+01   2.6546101120e+01    0.4283011    0.1412814 -54.18  0.001437786    4.070    0.754
        36 -10.0190     69.5102    145.4892   1.1220772511e+02   3.7008733745e+01     0.342401    0.2669081  63.85   0.00158538    1.190    0.160
        37 -10.1591     66.3843    144.2193   1.1284050361e+02   3.7685187106e+01    0.4126175    0.2622401 -81.27  0.001550416    1.624    0.384
        38  -7.7006    222.5716    145.5173   7.9103267323e+01   1.0915822765e+01     0.128223    0.1067035   3.25 0.0001995633    1.026    0.025
        39 -10.5178    178.8931    142.8907   8.6442421003e+01   1.9172586621e+01     0.392871    0.2516682 -52.40  0.001918904    2.102    0.524
        40  -8.9851    192.1985    144.0154   8.4124769789e+01   1.6539691149e+01    0.1829917    0.1788758 -23.50 0.0005015587    1.278    0.217
        41  -9.0225    150.2628    140.9804   9.2000366039e+01   2.4833956568e+01    0.3481283    0.2317227  85.57  0.001372423    3.434    0.709
        42 -11.5722    189.9099    137.7753   8.3233940616e+01   1.7897821863e+01    0.5152578    0.4313729  34.68  0.003060663    1.165    0.142
        43  -8.5768    154.5071    138.4973   9.0568154116e+01   2.4482332055e+01    0.1375633    0.1271937  22.54 0.0008106488    1.002    0.002
        44  -8.8900    211.5580    136.7043   7.9096292136e+01   1.4032272219e+01    0.2429315    0.1207273 -25.39  0.001031042    2.021    0.505
        45 -12.2976    199.1824    121.3045   7.7821957474e+01   1.8582050596e+01     1.470795     0.771349 -49.37  0.006074328    2.722    0.633
        46 -11.1129      2.0000    195.9903   1.3092182386e+02   3.3791290695e+01     0.338187    0.1348926 -81.45  0.001523502    2.331    0.571
        47  -9.3769    192.6886    194.3837   9.3205933108e+01   9.5882029465e+00     0.609521    0.3492675 -61.31   0.00206509    7.954    0.874
        48  -9.9760    160.6094    128.2964   8.7055627415e+01   2.5105072428e+01    0.3258676    0.2646683 -52.95   0.00177076    1.423    0.297
        49  -9.2596    174.3931    129.1679   8.4377055879e+01   2.2246635509e+01    0.1878489    0.1289681 -45.53 0.0004656677    1.626    0.385
        50  -9.9864    135.0903    124.2344   9.1929443719e+01   3.0822909123e+01    0.6828075    0.2549455 -56.07  0.002072664    4.385    0.772
        51 -12.8384     44.7243    168.3578   1.2055634816e+02   3.5140994100e+01    0.8814077    0.7231578  75.00  0.002997802    1.057    0.054
        52  -9.1244    205.5753    122.0164   7.6851242055e+01   1.7224555085e+01    0.2248726    0.1940419  60.34 0.0005105456    1.476    0.323
        53  -9.1539    223.9876    119.5622   7.3210016283e+01   1.4040610393e+01    0.2361933    0.1682641 -37.72 0.0006813743    1.507    0.336
        54 -10.3759    167.9890    113.8724   8.2110792659e+01   2.6125547909e+01    0.3332288    0.2842671 -36.93 0.0004586462    1.200    0.167
        55  -8.4653    174.4457    115.0296   8.1061841514e+01   2.4589042417e+01    0.2232151    0.2035179  75.51 0.0008077786    1.357    0.263
        56  -9.8426    215.3298    115.7881   7.3736419724e+01   1.6205275600e+01    0.3237312    0.1568485 -24.80  0.001424528    2.018    0.504
        57 -11.1597    205.0087    110.8017   7.4288193117e+01   1.8962217903e+01    0.4962034    0.3632018  16.88  0.002616229    1.427    0.299
        58  -9.7009    135.0000    109.5736   8.8535002734e+01   3.3723180182e+01    0.4960091    0.1457838 -42.77  0.001554113    3.463    0.711
        59  -8.1796    156.5052    112.4367   8.4231130522e+01   2.8767301319e+01    0.1430483    0.1382671  16.43 5.433153e-05    1.040    0.038
        60  -8.1180    126.3522    110.2215   9.0847755722e+01   3.5312097383e+01    0.1979772    0.1344338 -55.81 0.0002851916    1.602    0.376
        61  -8.8344    161.0176    105.9121   8.1601655698e+01   2.8990034376e+01    0.2390083    0.1988012  69.77 0.0003140133    1.471    0.320
        62  -8.6805    143.2424    103.5659   8.5030050128e+01   3.3195437608e+01     0.216919    0.1367512  34.47 0.0009545283    1.715    0.417
        63  -8.9748    123.9968    102.9862   8.9662677178e+01   3.7259299960e+01    0.2392783    0.1838145  -6.65  0.000848615    1.723    0.420
        64 -11.8597    200.5383     65.6560   6.3006795676e+01   2.6436334494e+01     1.133175    0.4575287  36.66  0.003670334    3.661    0.727
        65  -9.5585    217.4536    100.8435   6.9777250075e+01   1.7845386963e+01    0.2332243    0.1990803  21.44 0.0003573952    1.147    0.129
        66  -9.5430    150.0554     99.0468   8.2249055762e+01   3.2595633308e+01    0.3655014    0.2855174 -19.94  0.001062653    1.379    0.275
        67 -11.6500    244.7988     69.7784   5.8180122844e+01   1.6261718238e+01      0.75441    0.5656149   3.48 0.0005955173    1.365    0.267
        68 -10.2209    197.2943     96.9629   7.2152068614e+01   2.2623636257e+01    0.4190077    0.3041137  29.25  0.001318192    1.435    0.303
        69  -9.5194    136.7862    242.1732   1.0914480802e+02   1.1554895822e+01    0.2168387   0.08623741  45.30  0.001127773    2.073    0.518
        70  -9.1747    159.0724     92.4588   7.8431993689e+01   3.1809724411e+01    0.3080603    0.2334457  27.06  0.001493829    1.435    0.303
        71  -9.8769    162.8282     90.7952   7.7159105133e+01   3.1259633255e+01    0.3247038    0.2918215  36.02  0.001133884    1.116    0.104
        72  -9.0329    220.2015    184.2050   8.6822240515e+01   6.6194158029e+00    0.1466451    0.1315407  20.67 0.0005996316    1.352    0.260
        73 -10.0154    144.2023     88.0422   8.0564027363e+01   3.5935951053e+01    0.3406954    0.3045444 -12.25 0.0008553213    1.145    0.127
        74  -9.0486    136.1533     95.5898   8.4628420529e+01   3.6240172164e+01    0.2927722    0.2372704 -86.03 0.0008365359    1.627    0.385
        75  -8.1002    186.4798    180.9482   9.2129222727e+01   1.2292465938e+01    0.1376362    0.1098954 -69.44 0.0004949294    2.224    0.550
        76 -11.4295    160.0484     80.8003   7.4876600599e+01   3.3629065910e+01    0.4128288    0.3106392 -13.59 0.0007495728    1.461    0.315
        77  -7.7118    105.2812     84.7636   8.9925528026e+01   4.4798781291e+01    0.1376164    0.1147838  82.70            0    1.445    0.308
        78  -8.7211    207.0856     82.9007   6.6784262989e+01   2.2541068834e+01    0.2221678    0.1843699 -49.26 0.0007142705    1.353    0.261
        79  -9.1162    202.8646     80.5459   6.6821837999e+01   2.3811140283e+01    0.3011961    0.2159323 -51.88 0.0006094375    1.642    0.391
        80  -8.7784    151.4507     82.3203   7.7215402586e+01   3.5348032769e+01    0.2448675    0.1925043  81.87 0.0006821883    1.690    0.408
        81 -10.2972    151.6738     71.3963   7.3827543120e+01   3.7223483076e+01     0.510418    0.3198166 -49.50  0.001382429    1.771    0.435
        82 -10.1051    144.7565     69.5234   7.4797681751e+01   3.9191885583e+01    0.6059221    0.2856716 -53.73  0.001976715    3.175    0.685
        83  -8.9281    224.6875     69.1036   6.0512409356e+01   2.0539640145e+01    0.2113613    0.1971494 -68.79 0.0005054641    1.268    0.212
        84  -8.0573    156.2998     69.6407   7.2268392212e+01   3.6418274072e+01    0.1592341    0.1177965 -63.12 0.0007036006    1.713    0.416
        85 -10.3305    119.6590     63.5199   7.9120410737e+01   4.6110171461e+01    0.2749131    0.2628072 -25.93 0.0002056995    1.006    0.006
        86  -7.5914    104.6400     62.3096   8.3034497377e+01   4.9617018388e+01    0.1538365    0.1207578 -83.78   0.00070414    1.740    0.425
        87  -8.1672    131.3239     61.2763   7.5290171645e+01   4.3836664106e+01    0.1554153    0.1185269  16.42 0.0001803169    1.583    0.368
        88 -10.0922    144.2641     59.0610   7.1447129408e+01   4.1114237536e+01    0.3648814    0.2988461 -61.55 0.0006901458    1.407    0.289
        89  -8.3989     72.8146     58.1735   9.2354626846e+01   5.6529836888e+01    0.2089601    0.1840963 -62.14 0.0004121493    1.157    0.136
        90  -8.6975    242.6014     52.8879   5.4105202198e+01   1.8664454952e+01    0.2827765     0.150468 -26.26  0.001367857    1.585    0.369
        91  -9.5527    229.2921    179.9807   8.4605249211e+01   5.7264569925e+00    0.2025548    0.1365391  24.30 0.0001912667    1.229    0.186
        92 -12.4597    178.3240     64.4060   6.6321027030e+01   3.1917738361e+01    0.8345568    0.7575819  67.91  0.004508114    1.213    0.176
        93 -10.1584    237.2319    175.0156   8.2458098203e+01   5.0834289910e+00    0.4028544     0.257892  57.56  0.002135638    2.972    0.663
        94 -11.6257    179.8513     79.3196   7.0482103903e+01   2.9257242666e+01    0.7512434    0.5708598  -3.61  0.001252127    1.449    0.310
        95  -8.7227    190.1695     36.4678   5.5677235386e+01   3.2768841695e+01    0.3297515    0.1813402 -43.36 0.0007089042    1.805    0.446
        96  -8.3260    202.2210     35.0192   5.3674646986e+01   2.9938356276e+01    0.1948139    0.1610932 -27.76 0.0003656008    1.117    0.105
        97 -10.8486    186.4300     74.6856   6.7946199757e+01   2.8436024211e+01    0.4445719    0.3535335   3.39   0.00030163    1.350    0.259
        98  -8.6992    166.4300    135.8486   8.7477900925e+01   2.2676153894e+01    0.3285503    0.1274473 -30.68  0.001126414    3.528    0.717
        99 -10.3806    229.1865    174.9199   8.3716489643e+01   6.3079043127e+00    0.2641293    0.2303074  13.64 0.0009992487    1.263    0.208
       100  -8.2229    224.4348     28.0617   4.9239685665e+01   2.5396327807e+01    0.2089719    0.1228134 -22.54  0.000606683    1.542    0.351
       101  -8.9069    232.3041    160.6470   8.0548150862e+01   7.4599205641e+00    0.1069918   0.09648437 -45.89 0.0007040598    1.708    0.414
       102 -10.1194    197.6902    172.2874   8.8590956407e+01   1.1626798513e+01    0.2582481    0.1898923  42.73 0.0009296453    1.405    0.288
       103  -8.5833     83.7644    173.5179   1.1222750097e+02   2.9410900269e+01    0.1605568    0.1070437  38.74 0.0004110014    1.362    0.266
       104  -7.9931    214.5068    168.4896   8.4963078956e+01   9.3733053238e+00     0.124045    0.1009749  12.04 -6.396085e-05    1.022    0.021
       105  -8.4035    150.1092    174.2641   9.8048351731e+01   1.9211347106e+01    0.1731699    0.1421172  36.54 0.0003458447    1.066    0.062
       106  -8.5372    209.6057    165.7439   8.5290478233e+01   1.0517890944e+01    0.1826461      0.14465  53.01 0.0003062197    1.684    0.406
       107  -8.8939    240.5528    189.8439   8.4545795183e+01   3.0483717709e+00    0.1807423    0.1742965  59.04  0.001168654    1.929    0.481
       108  -9.0670    228.4802    184.7652   8.5572449645e+01   5.3214342030e+00    0.2097756     0.151912  33.66  0.001085578    1.337    0.252
       109  -9.1661     96.9904    240.7539   1.1590829295e+02   1.6729701099e+01    0.1546406    0.1033528  42.55 0.0007906494    1.095    0.087
