#   1 NUMBER                 Running object number                                     
#   2 MAG_AUTO               Kron-like elliptical aperture magnitude                    [mag]
#   3 X_IMAGE                Object position along x                                    [pixel]
#   4 Y_IMAGE                Object position along y                                    [pixel]
#   5 X_WORLD                Barycenter position along world x axis                     [deg]
#   6 Y_WORLD                Barycenter position along world y axis                     [deg]
#   7 A_WORLD                Profile RMS along major axis (world units)                 [deg]
#   8 B_WORLD                Profile RMS along minor axis (world units)                 [deg]
#   9 THETA_WORLD            Position angle (CCW/world-x)                               [deg]
#  10 FWHM_WORLD             FWHM assuming a gaussian core                              [deg]
#  11 ELONGATION             A_IMAGE/B_IMAGE                                           
#  12 ELLIPTICITY            1 - B_IMAGE/A_IMAGE                                       
         1 -14.6759    146.5021     60.6541   9.2459798708e+01   4.0256142885e+01     1.503128     1.170439  20.54  0.004575968    1.518    0.341
         2 -14.7403    157.3477     45.3091   8.5138236634e+01   4.0059946335e+01     1.295738     1.022256 -25.19  0.003730936    1.253    0.202
         3 -14.6111    168.4061     13.7779   7.2144014212e+01   4.1247018165e+01     1.187946      1.02974   5.70  0.003736875    1.189    0.159
         4 -13.6395    184.8792     11.1337   6.8936660899e+01   3.7129021427e+01      1.55918    0.7055606 -73.34  0.004624137    4.427    0.774
         5 -11.2120     58.3257      4.3217   9.4953692258e+01   6.7249110225e+01    0.1306117   0.08906218  -0.08 0.0007047519    1.684    0.406
         6 -14.3771    152.3994    145.0531   1.1204352183e+02   2.4085188584e+01      0.60173     0.497009  66.38  0.003321749    1.247    0.198
         7 -13.7435    187.5217    250.5303   1.2096403475e+02   4.6629639863e+00    0.9649082    0.1589258  42.15  0.003804418    4.395    0.772
         8 -12.4217    181.5110    250.2807   1.2180885228e+02   5.5344248131e+00    0.2473804    0.1244884  46.23   0.00170881    1.452    0.311
         9 -20.0408     94.1997    228.1474   1.3303754928e+02   2.0267090528e+01     6.945781     4.641155  59.90   0.05253288    1.134    0.118
        10 -14.6579    143.3304    144.2706   1.1370724061e+02   2.5906423736e+01     1.008586    0.5206802 -57.38   0.00465932    2.384    0.581
        11 -14.0992    135.9364    128.1180   1.1217249880e+02   3.0170268112e+01     1.984657    0.3325909 -51.04  0.004341284    9.249    0.892
        12 -11.4405    192.2970    153.2313   1.0612611349e+02   1.5221187242e+01     0.208339    0.1589283 -27.50 0.0006935173    1.443    0.307
        13 -13.5704    174.3383    149.5275   1.0867799962e+02   1.9197384511e+01    0.5163726    0.3362092 -54.56  0.002719702    1.936    0.484
        14 -10.5428     18.1956    153.8041   1.4098364720e+02   4.1418976042e+01     0.172502    0.1080084 -59.13  0.000593148    1.890    0.471
        15 -11.2087     17.7727    150.2666   1.4082983948e+02   4.2134058107e+01    0.2577912    0.1287139 -60.96  0.001474036    2.137    0.532
        16 -10.9078    218.4464    220.6573   1.1274889142e+02   2.9296065143e+00    0.2379667   0.09498782 -40.38  0.001286526    3.534    0.717
        17 -13.0602     11.4239    205.9998   1.4488012913e+02   3.2886056154e+01    0.3357368    0.2016295  35.80  0.002228367    1.934    0.483
        18 -11.5629      7.9160    149.3492   1.4276070640e+02   4.3147812445e+01     0.198938    0.1181292 -79.36  0.001426951    1.401    0.286
        19 -14.5684    133.8628    146.3478   1.1599209440e+02   2.7259053352e+01     1.389366     0.498166 -58.28  0.004921782    4.176    0.761
        20 -12.7457     27.8233    145.0786   1.3836082772e+02   4.2218155925e+01    0.3467397    0.2787058  76.07   0.00152148    1.102    0.092
        21 -12.2834    175.0176    141.9312   1.0708749561e+02   2.0236689949e+01    0.2078088    0.1873377  43.08 0.0007349237    1.024    0.024
        22 -12.9875    134.7248    109.0493   1.0836700980e+02   3.3969951174e+01     1.166529    0.1816735 -47.43  0.002737923    7.028    0.858
        23 -13.4004    196.5639    234.6945   1.1782730758e+02   4.8625088373e+00    0.2322084    0.2067355 -58.33  0.001305802    1.700    0.412
        24 -10.0070     13.3099    135.2879   1.4070222114e+02   4.5451237036e+01   0.09555994   0.07209826 -59.52 0.0002727412    1.577    0.366
        25 -13.6172    160.5714    128.3210   1.0711814775e+02   2.5323616161e+01    0.4566494    0.4287715 -81.38  0.002081058    1.153    0.133
        26 -11.5315    139.6678    148.8887   1.1526046483e+02   2.5775426867e+01    0.2457526    0.2112558  56.17 0.0003984537    1.051    0.048
        27 -10.5009     29.7331    200.7798   1.4167316612e+02   3.1976405507e+01    0.1266689    0.1022069  76.27  0.000780393    1.242    0.195
        28 -11.6469     12.7957    240.7513   1.4590849244e+02   2.7554645791e+01    0.1413715    0.1035342 -77.65  0.001358525    1.727    0.421
        29 -11.7899    141.4779    121.0967   1.0954294778e+02   3.0394059963e+01    0.3703379      0.18315  61.33  0.001444306    2.753    0.637
        30 -11.2155     20.3761    195.9129   1.4298194039e+02   3.3696454839e+01    0.1319616    0.1132973  73.49 0.0005764494    1.370    0.270
        31 -11.0260     28.3698    237.2102   1.4356678304e+02   2.6554318705e+01    0.1124974   0.07240853  73.00 0.0003489945    1.166    0.143
        32 -11.3959      3.5899    112.6761   1.4119400194e+02   5.0786772521e+01    0.2466336    0.1642517   4.80  0.001651061    2.536    0.606
        33 -11.9598     21.7293    235.1382   1.4444540299e+02   2.7502324956e+01    0.1404107   0.09012263  78.10 0.0008462913    1.239    0.193
        34 -11.6456     32.1300    104.3177   1.3312161937e+02   5.0223207618e+01     0.241232    0.1960713  -0.17  0.001108946    1.890    0.471
        35 -11.7718     96.7090     96.2726   1.1458920997e+02   4.3524680198e+01    0.2874484    0.1792299  51.04 0.0009176256    1.677    0.404
        36 -10.6156    124.4681     95.4745   1.0750625088e+02   3.8610607709e+01    0.1386044    0.1336947 -78.11 4.724791e-05    1.005    0.005
        37 -12.4387     52.8447     91.5539   1.2548576635e+02   5.0803628563e+01      0.29403    0.2676072  49.50  0.001223524    1.273    0.215
        38 -11.2902     41.9926     92.2089   1.2865600446e+02   5.1863723192e+01    0.2196337    0.1551601 -84.89 0.0008031593    1.289    0.224
        39 -10.8738    205.5672    110.1272   9.4563597467e+01   1.8696651457e+01    0.2676596    0.1903009  40.92  0.000662475    1.354    0.261
        40 -10.1186      4.8132    233.4593   1.4680850766e+02   2.9316842212e+01    0.1022433   0.06147439  53.32 0.0002835819    1.258    0.205
        41 -11.1823    142.0991     80.9880   9.9549291752e+01   3.7679020102e+01    0.2213417    0.2150186 -30.56 0.0005199896    1.032    0.031
        42 -12.0353    187.8078    174.8799   1.1074912496e+02   1.3100199889e+01     0.209805    0.1744179 -69.14  0.001351088    1.681    0.405
        43 -19.0759     78.8054     92.8386   1.1855949693e+02   4.7081064086e+01     16.09676    0.7224109 -55.58   0.02342789   19.654    0.949
        44 -13.2491    160.9407     36.4997   8.1432904087e+01   4.0412759857e+01    0.4953274    0.4470497  35.25 0.0007736082    1.116    0.104
        45 -11.8277    151.2868    238.4839   1.2509015643e+02   1.1079109289e+01    0.2470267    0.1380957  37.27 0.0008605492    1.545    0.353
        46 -11.0385     13.3693     59.8647   1.3197478826e+02   6.1405510939e+01    0.1691435    0.1426162  77.94 0.0004468634    1.268    0.211
        47 -10.4309     15.6148    247.1287   1.4572071614e+02   2.6409234861e+01    0.1149899   0.05572483  76.78  0.000935654    1.628    0.386
        48 -14.3666    163.7501    157.8422   1.1216023603e+02   1.9908424078e+01    0.5916879    0.5119396 -89.29  0.002021712    1.382    0.276
