#   1 NUMBER                 Running object number                                     
#   2 MAG_AUTO               Kron-like elliptical aperture magnitude                    [mag]
#   3 X_IMAGE                Object position along x                                    [pixel]
#   4 Y_IMAGE                Object position along y                                    [pixel]
#   5 X_WORLD                Barycenter position along world x axis                     [deg]
#   6 Y_WORLD                Barycenter position along world y axis                     [deg]
#   7 A_WORLD                Profile RMS along major axis (world units)                 [deg]
#   8 B_WORLD                Profile RMS along minor axis (world units)                 [deg]
#   9 THETA_WORLD            Position angle (CCW/world-x)                               [deg]
#  10 FWHM_WORLD             FWHM assuming a gaussian core                              [deg]
#  11 ELONGATION             A_IMAGE/B_IMAGE                                           
#  12 ELLIPTICITY            1 - B_IMAGE/A_IMAGE                                       
         1 -18.7898    230.9697     74.3544   7.4595550420e+01   1.7830374242e+01     6.191451     4.060037 -26.83   0.01117451    1.552    0.356
         2 -12.4337      5.3876     17.0548   1.1870669910e+02   7.1387670077e+01     1.351607    0.3243402 -41.37  0.005910691    3.017    0.668
         3 -10.8634     84.6774     21.5988   8.7180434856e+01   5.9963714220e+01    0.2359433    0.2197823 -11.20 0.0006047302    1.167    0.143
         4 -10.6856     80.4820     12.9437   8.4663783543e+01   6.1795707036e+01    0.2801521    0.1642019 -40.13  0.001136344    2.025    0.506
         5  -9.4366    105.3163      2.3229   7.3527894971e+01   5.7570404901e+01     0.140929   0.08351912  31.87 0.0007042674    1.665    0.399
         6  -9.5878    116.5261    135.0542   1.1361578122e+02   3.1912280694e+01     0.215635    0.1998502  48.39 0.0004080634    1.101    0.091
         7 -12.8954    244.7077    245.9899   1.0805980839e+02  -9.6542067745e+00     1.107921    0.6285274  20.87  0.006566209    1.514    0.340
         8 -10.3408    161.0538    129.1567   1.0149023602e+02   2.4018916796e+01    0.4146069    0.2899785 -71.13   0.00162312    2.013    0.503
         9 -12.3030     47.2921    146.9792   1.3364310074e+02   3.9646662717e+01    0.6724655    0.4971612 -23.90  0.003749504    2.039    0.509
        10  -9.4877    162.9029    121.4383   9.9170099301e+01   2.5183231678e+01    0.2802482    0.2120483 -60.72 0.0006807727    1.509    0.337
        11 -12.2958      6.8216    160.3374   1.4460756924e+02   4.0494286119e+01    0.5413516    0.3479888  -1.51  0.002747138    2.874    0.652
        12  -9.5353    167.8647    114.2268   9.6232081694e+01   2.5508986003e+01    0.3146191    0.2330156 -66.88  0.001361411    1.694    0.410
        13  -8.7210    118.7952    150.2659   1.1622301064e+02   2.8067929188e+01    0.1878744    0.1696253 -20.07 0.0003759374    1.306    0.234
        14 -12.7622     75.1299    134.6208   1.2441285642e+02   3.8959414515e+01     1.084657    0.7659799  20.84  0.005521017    1.856    0.461
        15  -9.1600    165.1793     98.6512   9.2665441655e+01   2.9179513713e+01    0.2546331    0.2038867 -50.92 0.0003945511    1.278    0.218
        16  -8.7709    171.4822     96.4990   9.0722915445e+01   2.8097898829e+01    0.2402607     0.143784  41.30 0.0006047246    1.798    0.444
        17  -9.1316    174.6510     95.6669   8.9833958259e+01   2.7499781787e+01    0.2877134    0.1764057  36.49 0.0009812579    1.901    0.474
        18  -9.9964    130.4941     87.0062   9.7561358587e+01   3.9457377389e+01    0.3604259    0.1404133 -46.82  0.001206056    2.676    0.626
        19  -9.7218    170.9748     75.4652   8.4867923151e+01   3.2022476065e+01    0.3100783    0.1950452 -46.55 0.0004811192    1.625    0.384
        20 -10.6933    172.7823     72.0204   8.3506002790e+01   3.2163002061e+01    0.4877505    0.3103153  66.60  0.001772502    1.751    0.429
        21 -11.6222    158.1650     74.4198   8.7217792564e+01   3.5344405250e+01    0.5716927    0.2826689 -38.90  0.001479658    1.984    0.496
        22 -12.6268    152.7971     71.9110   8.7629597884e+01   3.7088998047e+01    0.6479698    0.5056956 -49.51   0.00316012    1.330    0.248
        23 -11.6885     66.8050    144.3585   1.2827918137e+02   3.7829526902e+01    0.7708352    0.3653353  58.35  0.003122813    2.775    0.640
        24 -13.0869    162.5491     61.6544   8.2427596064e+01   3.6411352602e+01      1.05569    0.7295677 -16.26  0.004770434    1.736    0.424
        25  -9.7912    105.9928     65.3972   9.7442418867e+01   4.8858899298e+01    0.5415252    0.1955079 -39.34  0.001900799    2.696    0.629
        26 -12.1862    170.4312     57.3655   7.9601825096e+01   3.5113152573e+01    0.8827929    0.4900973  79.70  0.003267124    2.703    0.630
        27 -12.3249    151.4831     48.8664   8.0636845913e+01   4.1136679271e+01     1.310863    0.6581185  33.19  0.004685254    2.899    0.655
        28  -9.6658     94.9604     53.0712   9.6446970930e+01   5.3266838388e+01    0.3141153    0.1922098 -46.38  0.001212202    1.752    0.429
        29 -10.4131    141.4471     52.0323   8.3817151201e+01   4.3124535921e+01    0.2897428    0.1991729  38.40  0.000915738    1.525    0.344
        30 -10.4792    176.5517     46.2624   7.5186015421e+01   3.5199914025e+01    0.3806432    0.2704486 -64.14  0.001395447    1.607    0.378
        31 -10.0981    138.0461     36.5381   7.9306984588e+01   4.6174097191e+01    0.2420345    0.2044123 -20.51 0.0002365067    1.234    0.190
        32 -14.8644    215.9019    194.9954   1.0433797106e+02   1.2538337918e+00     3.929934     2.474864  -0.26   0.01944358    2.065    0.516
        33 -11.0644     79.6659     22.9907   8.9365463430e+01   6.0752240513e+01    0.2859613    0.2244803 -20.85 0.0004268589    1.224    0.183
        34  -9.8967    172.0660    205.7441   1.1463094132e+02   7.2590221632e+00    0.2061795    0.1865184 -21.30 0.0003649021    1.212    0.175
        35  -8.5618     26.6291    231.1736   1.4552798286e+02   2.4175006401e+01    0.1322168   0.08353701 -74.93 0.0003645605    1.566    0.361
        36 -11.8524     64.3764    138.5940   1.2797175403e+02   3.9512605392e+01    0.4271065    0.3566306  57.90  0.001036016    1.231    0.188
        37 -10.7817     74.9921     17.6167   8.8522482200e+01   6.2298762823e+01    0.2526261    0.2209507 -22.67 0.0004234388    1.230    0.187
        38  -9.0537    161.8537     26.9712   7.1681745710e+01   4.1419620776e+01    0.2034739     0.175834  38.78  0.001134297    1.198    0.165
