#   1 NUMBER                 Running object number                                     
#   2 MAG_AUTO               Kron-like elliptical aperture magnitude                    [mag]
#   3 X_IMAGE                Object position along x                                    [pixel]
#   4 Y_IMAGE                Object position along y                                    [pixel]
#   5 X_WORLD                Barycenter position along world x axis                     [deg]
#   6 Y_WORLD                Barycenter position along world y axis                     [deg]
#   7 A_WORLD                Profile RMS along major axis (world units)                 [deg]
#   8 B_WORLD                Profile RMS along minor axis (world units)                 [deg]
#   9 THETA_WORLD            Position angle (CCW/world-x)                               [deg]
#  10 FWHM_WORLD             FWHM assuming a gaussian core                              [deg]
#  11 ELONGATION             A_IMAGE/B_IMAGE                                           
#  12 ELLIPTICITY            1 - B_IMAGE/A_IMAGE                                       
         1  -8.9954    116.0018     30.6792   7.3363521946e+00   5.2188237632e+01    0.2402515    0.1127065  89.61 0.0007045412    4.248    0.765
         2  -9.1169     96.4962    225.4785   5.8359388744e+01   1.4851831996e+01    0.1300334    0.1061763  33.75  7.40429e-05    1.032    0.031
         3  -9.1864    117.8658    211.1216   5.1637293147e+01   1.4733094593e+01    0.2075735    0.1660312  45.66  0.001044445    1.281    0.219
         4  -9.7299    128.1423    197.5260   4.7306072003e+01   1.5883675912e+01    0.3228615    0.1757034  -6.31  0.001091289    4.261    0.765
         5 -12.0120    163.8748    193.0915   3.8646101434e+01   1.1467571727e+01    0.6203722    0.3681197  10.99  0.003019366    2.030    0.507
         6 -10.0186    132.3397    188.2784   4.4878426526e+01   1.7069549811e+01    0.2684953     0.162635  21.44  0.001279924    1.706    0.414
         7 -11.3506    122.7431    186.0840   4.6840425869e+01   1.8981407898e+01    0.4950586    0.2480997 -33.64  0.001987241    2.724    0.633
         8  -8.9537     57.0111    187.7192   6.4466544548e+01   2.7892231597e+01    0.2010794    0.1716953  41.61   0.00116789    1.052    0.049
         9  -9.8112    149.9840    181.0000   3.9589467986e+01   1.5756230834e+01    0.2302345   0.07269014  35.35 0.0008108726    3.001    0.667
        10  -9.2503    194.6760    178.6612   3.0084737084e+01   9.4518379677e+00    0.1333147   0.08684225  -6.73 0.0007051105    1.722    0.419
        11  -9.2262     37.6675    178.3384   6.9075668684e+01   3.2370641464e+01    0.2387755    0.1317053  56.29  0.001111219    1.723    0.420
        12 -10.2968    164.2905    176.5993   3.5693119845e+01   1.4343285520e+01    0.3220041    0.1587374  40.42   0.00146344    2.058    0.514
        13  -9.1480    155.3115    177.0220   3.7704085919e+01   1.5673249934e+01    0.3083086    0.2186651  77.68  0.001362177    2.905    0.656
        14  -9.5211     36.4921    173.7924   6.9031497287e+01   3.3624051821e+01     0.276494    0.1853333  29.90  0.001425555    1.412    0.292
        15 -12.0130    151.2003    169.9543   3.7329635041e+01   1.7689570167e+01    0.6229539    0.3582296   2.82  0.002313211    3.324    0.699
        16  -9.9413    180.3285    171.0992   3.1414871386e+01   1.2837155583e+01    0.2189516    0.1531829 -19.14 0.0008768641    1.455    0.313
        17 -11.3052    140.9727    166.4974   3.9047074425e+01   2.0076393950e+01     0.276042    0.2057682  49.48  0.001419063    1.479    0.324
        18  -9.0735     46.1987    172.3960   6.6028198555e+01   3.2904209107e+01    0.2170767    0.1093784  38.81 0.0009554527    1.730    0.422
        19  -9.4620    181.3285    161.6655   2.9423338643e+01   1.4328911528e+01    0.1250418    0.1082213 -83.99 0.0007051908    1.722    0.419
        20 -11.1920    109.2574    158.5109   4.5651772481e+01   2.7195245452e+01    0.5108965    0.2391302 -61.80  0.001909971    2.589    0.614
        21 -12.7174    124.6484    152.8953   4.0477485573e+01   2.5800559091e+01    0.5983602    0.4816226 -41.72  0.003096392    1.277    0.217
        22 -12.1592    163.3343    154.8451   3.1736711030e+01   1.8571823233e+01    0.5646289    0.2676643  31.86  0.002325578    2.360    0.576
        23  -8.7307     31.7021    159.6691   6.9240325630e+01   3.7722985569e+01    0.1405814    0.1029431 -40.66 0.0004423613    1.642    0.391
        24 -12.4767    113.6096    147.2959   4.2313311189e+01   2.9040376248e+01    0.6317453    0.4549727   8.90   0.00285251    1.799    0.444
        25 -12.0753    158.2093    144.0257   3.0604389802e+01   2.1585785755e+01     0.435938    0.3297417 -22.25  0.002243145    1.425    0.298
        26 -10.6247    172.6704    157.8832   3.0400813911e+01   1.6421520346e+01    0.2274508    0.1622231 -23.25  0.001199899    1.438    0.305
        27 -10.8032    169.7818    144.3149   2.8214480994e+01   1.9445524028e+01    0.2494638    0.2005352 -33.99  0.001222201    1.175    0.149
        28  -9.8794     90.2261    145.2124   4.8686969164e+01   3.3595572424e+01    0.2628357    0.1666533  66.69  0.001059949    2.115    0.527
        29  -9.1176     38.3405    145.6707   6.5630533969e+01   4.0728435478e+01    0.1627279   0.09576023  58.55  0.000705159    1.740    0.425
        30  -9.0440     13.0000    145.0298   7.4116563200e+01   4.3235384565e+01    0.2331053   0.07324471 -79.65 0.0008080891    2.982    0.665
        31 -10.5370    166.1605    134.9082   2.6931533936e+01   2.1898189598e+01    0.2209207     0.198882 -68.22  0.001246865    1.283    0.221
        32 -10.2826    148.9977    131.0097   2.9806756654e+01   2.5952240230e+01    0.1804202    0.1751159 -18.69   0.00101505    1.005    0.005
        33 -11.0572    139.1934    154.5048   3.7155776856e+01   2.2870155071e+01    0.4541317    0.2210222 -28.29  0.001516072    3.510    0.715
        34  -9.8727    175.5052    129.4952   2.3853718462e+01   2.1176569569e+01    0.1395738    0.1290136 -29.96 8.790669e-05    1.013    0.013
        35  -9.9859    143.0035    126.4985   3.0168323601e+01   2.8073394168e+01    0.2163428    0.1309866  19.62 0.0008106894    2.629    0.620
        36 -10.8915     98.3084    124.1974   4.1851341102e+01   3.7384622331e+01    0.3208278    0.2470696 -26.97  0.001472135    1.572    0.364
        37  -9.8570    127.5177    122.9819   3.3208011246e+01   3.1946966394e+01    0.2236839    0.1305216 -26.37 0.0008103935    2.587    0.613
        38  -9.7100     59.3137    122.6489   5.4752271779e+01   4.4313621202e+01    0.1660331    0.1117452  66.44 0.0007046188    1.727    0.421
        39 -10.4414     42.3562    118.8261   6.0462354933e+01   4.7572223081e+01    0.3421626    0.2009901  74.92  0.001384697    2.124    0.529
        40 -11.2096     96.3867    115.1757   4.0330805171e+01   3.9964095269e+01    0.6345376    0.3612467  83.85  0.001614326    5.645    0.823
        41 -10.7453     73.1120    115.2764   4.8237054427e+01   4.4131443529e+01    0.3697067    0.2314222 -17.26  0.001331374    2.807    0.644
        42 -10.6094    149.1363    114.7453   2.5917504702e+01   2.9256368305e+01    0.3052436    0.1770312 -33.38  0.001273917    1.903    0.475
        43  -9.3080    189.3091    114.6687   1.7981194048e+01   2.1244488057e+01    0.1377567    0.1028611 -66.42 0.0007041339    1.668    0.400
        44 -10.4331    108.8213    110.3375   3.5288342370e+01   3.8650394621e+01    0.2294742    0.2086216 -73.40  0.001163859    1.138    0.121
        45  -9.5573     66.3207    107.3411   4.8940436061e+01   4.7319959634e+01     0.162644    0.1194333 -25.56  0.000705013    1.719    0.418
        46 -10.5276     92.3254    109.5200   4.0244718013e+01   4.2134398200e+01    0.2920814    0.1453951 -53.11 0.0007577335    2.019    0.505
        47 -11.1569    160.9847    102.0624   2.0195633405e+01   2.9246203135e+01    0.5180837    0.2104007 -42.33   0.00193574    2.312    0.568
        48 -10.0053    155.8097    107.8190   2.2726007989e+01   2.9238078666e+01    0.2111136    0.1770157 -74.40  0.001086758    1.357    0.263
        49 -11.1938    169.2383    100.7566   1.8254654904e+01   2.7739185452e+01    0.3606661    0.2813862  56.44  0.001902352    1.380    0.276
        50 -11.3357    133.5189     99.0494   2.5544684181e+01   3.5847139422e+01    0.4943547    0.2969061  54.46  0.002093944    1.755    0.430
        51 -11.2939     42.9665     96.8667   5.6096399454e+01   5.3471449291e+01    0.5824491    0.1862988 -58.14  0.001950494    2.736    0.634
        52  -9.6601    117.5009     94.5091   2.8484747988e+01   4.0369692684e+01    0.2883867    0.1446032 -56.21   0.00103019    2.359    0.576
        53 -10.9102    167.7274     92.9182   1.6543167840e+01   2.9483709125e+01    0.3450343    0.2478693 -69.39  0.001666153    1.676    0.403
        54 -10.0755     94.6180     94.1972   3.5362150796e+01   4.5364781730e+01    0.2325042    0.1455734 -40.28 0.0009553015    1.729    0.422
        55  -9.6151     20.3263     93.3333   6.5630948395e+01   5.6765548886e+01    0.1561798   0.09646516 -39.87 0.0007051394    1.714    0.417
        56 -10.0829    144.0182     90.5151   2.0725156083e+01   3.5205341281e+01    0.2342701    0.1491483  53.72  0.001040094    1.615    0.381
        57 -11.1970    132.5263     87.1509   2.2447218114e+01   3.8497930344e+01    0.3155788    0.2790172  51.51  0.001638116    1.152    0.132
        58 -10.5601     34.1995     87.7185   5.8088325528e+01   5.6956520763e+01    0.3231372    0.1877662 -54.32  0.001141793    1.612    0.380
        59 -11.0120     50.6176     84.5907   4.9763192296e+01   5.5666091270e+01    0.5357737    0.1560783 -62.98  0.001515001    3.943    0.746
        60 -11.0269     63.1747     91.1799   4.6151341634e+01   5.2017646088e+01    0.4214729    0.2720595  78.47  0.001634897    2.391    0.582
        61  -9.6964     86.3186     83.3314   3.4971077984e+01   4.9605081675e+01    0.1591723    0.1260189  -7.38 0.0006627937    1.690    0.408
        62 -10.4047    161.7879     81.8339   1.4708930227e+01   3.2774049451e+01     0.305365    0.2317405 -67.51  0.001535479    1.428    0.300
        63  -9.6136     99.3265     87.3228   3.1803322109e+01   4.5948192683e+01    0.1590545     0.127429  -1.42   0.00070484    1.689    0.408
        64 -10.8303     92.3420     79.9762   3.1821685653e+01   4.9096168252e+01    0.2998028    0.2266996  72.58  0.001351045    1.601    0.376
        65 -10.1347     23.9951     77.9782   6.1003962960e+01   6.0571873246e+01    0.1791798    0.1640368 -61.15  0.001001638    1.029    0.028
        66 -10.0961    109.0050     78.5009   2.6094968317e+01   4.5696134685e+01    0.2292154    0.1362706  72.32 0.0008106812    2.627    0.619
        67  -8.5191      8.3274     77.3357   6.9021150145e+01   6.1889355118e+01    0.1533588   0.08750298 -42.13  0.000705178    1.723    0.420
        68 -10.7184     75.1880     75.3682   3.6580701689e+01   5.3682110582e+01    0.2927677     0.261422  13.50   0.00150055    1.232    0.188
        69 -10.0592     46.4111     79.7574   5.0384155360e+01   5.7506712909e+01    0.2245084    0.1288121 -48.90 0.0009545023    1.703    0.413
        70 -10.4160     49.9807     65.5013   4.4326145306e+01   6.0489699124e+01    0.3242398    0.1975729 -76.40  0.001285154    2.456    0.593
        71 -10.9012     64.1465     63.1774   3.6935326671e+01   5.8566180151e+01    0.4176593    0.2584046 -21.24   0.00160607    2.575    0.612
        72  -9.0609    124.3436     61.6805   1.6524548012e+01   4.5265824858e+01    0.1608816    0.1147941 -77.13 0.0007049575    1.723    0.420
        73  -9.2669     25.1983     55.6102   5.4565319903e+01   6.6139077283e+01    0.1996726    0.1307065   3.85  0.000956364    1.729    0.422
        74  -9.2136     30.6545     49.3234   4.9133693132e+01   6.7004443683e+01    0.1424586    0.1070391  62.78 0.0001423721    1.738    0.425
        75  -9.5275     96.6484     43.3123   1.7140942736e+01   5.5228019273e+01    0.1555883    0.1141999 -80.08 0.0007045505    1.725    0.420
        76  -9.1874     31.4171     40.7760   4.5273311939e+01   6.8814312968e+01    0.2025997    0.1178275 -41.38 0.0008156786    1.699    0.411
