#   1 NUMBER                 Running object number                                     
#   2 MAG_AUTO               Kron-like elliptical aperture magnitude                    [mag]
#   3 X_IMAGE                Object position along x                                    [pixel]
#   4 Y_IMAGE                Object position along y                                    [pixel]
#   5 X_WORLD                Barycenter position along world x axis                     [deg]
#   6 Y_WORLD                Barycenter position along world y axis                     [deg]
#   7 A_WORLD                Profile RMS along major axis (world units)                 [deg]
#   8 B_WORLD                Profile RMS along minor axis (world units)                 [deg]
#   9 THETA_WORLD            Position angle (CCW/world-x)                               [deg]
#  10 FWHM_WORLD             FWHM assuming a gaussian core                              [deg]
#  11 ELONGATION             A_IMAGE/B_IMAGE                                           
#  12 ELLIPTICITY            1 - B_IMAGE/A_IMAGE                                       
         1 -15.5784    234.3539     77.6564   7.2503609058e+01   1.6477530370e+01     2.292969     2.134364 -30.08   0.01367601    1.256    0.204
         2 -14.9561    182.8752     66.7028   7.8112211275e+01   3.0719124478e+01     1.583351     1.159047 -34.67  0.003614828    1.477    0.323
         3 -16.6560    184.1271    103.5615   8.7566383590e+01   2.3780555163e+01     8.586527     2.408675 -48.22   0.02256128    4.377    0.772
         4 -18.0994    208.8079    103.8175   8.2809447731e+01   1.7803329058e+01     7.800595     6.785714  51.85   0.04111763    1.188    0.158
         5 -11.0921    236.3570     31.9335   6.2188245564e+01   2.2799808239e+01    0.7051986    0.2655231 -47.17  0.002420566    2.404    0.584
         6 -10.6662    225.6588     22.9840   6.1378404473e+01   2.6393237891e+01    0.3831015    0.2678114 -60.76  0.001931291    1.314    0.239
         7 -10.1660    187.9808     16.9638   6.4335055503e+01   3.6158528983e+01    0.2054196    0.1421006  44.05 0.0005959489    1.655    0.396
         8  -9.1218     23.2730     10.9782   1.0639312113e+02   6.9553005764e+01    0.1319952    0.0789167 -30.21  0.000542201    1.450    0.310
         9 -10.2498    222.9911      7.8977   5.8408127521e+01   2.8755583948e+01    0.1883934    0.1461565 -85.86 0.0003019758    1.029    0.029
        10 -10.2604    168.0181      6.5290   6.4304557187e+01   4.2112365892e+01    0.1994123    0.1888815 -47.82 0.0001517666    1.254    0.203
        11  -9.7057    166.6104      2.0409   6.3298306796e+01   4.2857478758e+01    0.2431532     0.171017  53.43  0.001422249    1.316    0.240
        12  -9.6722     66.7482      6.4334   8.6740592363e+01   6.4170005973e+01     0.189021    0.1571774   9.67  0.000453209    1.126    0.112
        13 -10.3496    222.5100      1.3825   5.7083142804e+01   2.9558539794e+01    0.2177878   0.09928181  75.29 7.974359e-05    1.846    0.458
        14 -11.1305    180.4702    223.4763   1.1439705742e+02   5.2903354886e-01    0.5561666    0.2317682  43.80  0.001677313    2.145    0.534
        15 -10.4883    175.6624    220.2992   1.1486191041e+02   1.9797696104e+00     0.232889    0.1759336  48.11 0.0003462824    1.262    0.207
        16  -9.3375    235.0094    214.5124   1.0186912203e+02  -7.5832406382e+00     0.204751    0.1173811  35.56  0.001046595    1.634    0.388
        17  -9.3861     58.3155    214.6708   1.3908408528e+02   2.3091320661e+01    0.1362534   0.07871145  70.03 0.0007045353    1.678    0.404
        18  -9.7378    223.0090    208.0863   1.0296118572e+02  -4.5364119877e+00     0.219131    0.1833198 -23.41 0.0006151975    1.194    0.162
        19  -9.8076    206.1045    202.5941   1.0528775984e+02  -5.5376287099e-01    0.2080508    0.1920299 -36.33 0.0005349635    1.211    0.174
        20  -9.4528    195.7356    203.0682   1.0752181210e+02   1.3137146238e+00    0.1894564    0.1745597   5.57 0.0003829163    1.060    0.057
        21  -8.4308    154.3173    203.6658   1.1660195571e+02   9.2291656190e+00    0.1489218    0.1109779  74.04 0.0003919479    1.694    0.410
        22 -11.9475    190.3054    200.5596   1.0818647929e+02   2.8158410712e+00    0.4511725    0.2719609  49.30  0.001102637    1.705    0.413
        23 -10.2752    128.1461    200.1434   1.2190610912e+02   1.4967383045e+01     0.226009    0.2059197  54.45  0.000277062    1.041    0.039
        24 -10.6445    213.5533    197.8417   1.0285325481e+02  -1.1030980324e+00    0.4276154    0.4007136  72.96  0.002530872    1.366    0.268
        25 -10.2673    197.4644    197.4743   1.0608335167e+02   2.0051881069e+00    0.2746426    0.2134686  31.68 0.0007364097    1.204    0.170
        26 -11.0095    200.3908    192.5826   1.0450954600e+02   2.3429677083e+00    0.4595642    0.2886634 -30.07 0.0008472499    1.764    0.433
        27 -10.2723    155.3656    194.7441   1.1476307408e+02   1.0856676446e+01    0.3618991    0.2239802  46.15  0.001264911    1.502    0.334
        28 -10.3584    141.6072    192.7602   1.1754847021e+02   1.3989496611e+01    0.3951108    0.2436947  63.14  0.001517991    2.004    0.501
        29 -10.9719    227.0459    191.4463   9.8919126796e+01  -2.4656235020e+00    0.3444953    0.2683078 -12.47 0.0008645005    1.290    0.225
        30 -10.8266    231.5221    188.5130   9.7469090893e+01  -2.7701457630e+00    0.3215676    0.2397967  31.87 0.0007737283    1.311    0.237
        31  -9.8204    207.8329    191.9730   1.0285057352e+02   1.0200128087e+00    0.2960609    0.2412875  30.05 0.0007342533    1.157    0.136
        32  -9.7733    207.9432    188.4565   1.0212093536e+02   1.6408822321e+00    0.2313111    0.1914583 -65.51   0.00105417    1.585    0.369
        33  -9.6565    183.1958    192.3810   1.0813003653e+02   5.7717891042e+00    0.2053269    0.1312302  50.48  0.000370786    1.605    0.377
        34 -10.0506    129.9882    192.0533   1.2011793590e+02   1.6385916444e+01    0.2162853    0.1970191  66.47 0.0003018241    1.033    0.032
        35  -9.8922    118.3003    190.8894   1.2265236119e+02   1.8831654987e+01     0.341546    0.1701063 -50.34   0.00141489    2.147    0.534
        36 -11.7900    215.7423    186.1417   1.0007125254e+02   5.6584527564e-01    0.3945375     0.277596  23.56 0.0004208322    1.499    0.333
        37  -9.2456    128.4783    188.4811   1.1984867075e+02   1.7465802549e+01    0.1485417    0.1376022  60.91 3.497421e-05    1.016    0.016
        38 -10.2590    243.4300    184.2357   9.4381457323e+01  -4.1496238634e+00    0.2536536    0.2147889  22.13 0.0002516979    1.161    0.139
        39 -10.5102    197.9983    184.3732   1.0335677034e+02   4.3613234459e+00    0.3599043    0.2425442  49.55 0.0009294355    1.542    0.351
        40 -10.4407    193.9954    181.3072   1.0357627035e+02   5.7599863748e+00    0.5213373    0.2248347 -37.93  0.001931935    2.527    0.604
        41 -11.5429    188.9258    183.1177   1.0503618373e+02   6.4348982777e+00    0.4831594     0.429392 -78.07  0.001871857    1.374    0.272
        42 -10.4598    189.4425    177.6823   1.0380315320e+02   7.4070493640e+00    0.2814548    0.2463496  -7.58 0.0009360875    1.220    0.180
        43 -11.7510    198.4448    177.3386   1.0180725744e+02   5.6288619110e+00    0.7235517    0.4210786  16.04  0.002039348    3.016    0.668
        44 -11.1312    202.9594    178.4818   1.0110017209e+02   4.4945275218e+00    0.4526393    0.2927659 -20.82   0.00199278    1.939    0.484
        45 -10.2939    179.6317    184.8708   1.0742004969e+02   7.9807346129e+00    0.3860273    0.2075573  37.17  0.001114716    1.839    0.456
        46  -9.4676    223.1766    182.8253   9.7921048223e+01  -2.4620630651e-01     0.197994    0.1565106  -3.09 0.0004310107    1.335    0.251
        47 -10.6693    206.6299    181.8695   1.0104403295e+02   3.1205417790e+00    0.3717467    0.1755314 -41.24  0.001501907    2.157    0.536
        48  -9.4616    211.0030    179.5193   9.9662578880e+01   2.6981139099e+00    0.2225162     0.188295 -32.80 0.0005315462    1.182    0.154
        49 -10.4089    174.8767    179.0812   1.0730263444e+02   1.0142673152e+01     0.290146    0.2003835  40.27  0.001345215    1.384    0.277
        50 -10.1731    220.0843    176.7650   9.7270761159e+01   1.4356286872e+00    0.3342887    0.2732893 -42.23   0.00181007    1.269    0.212
        51  -9.8916    216.2245    175.2095   9.7709329020e+01   2.4733430541e+00    0.2701969    0.2341936 -44.33  0.001215713    1.226    0.184
        52  -9.0731    236.3527    177.0404   9.4212338245e+01  -1.6683194508e+00    0.1876139    0.1665528 -27.29  0.000494642    1.101    0.092
        53  -9.7916     33.1174    176.9046   1.4055859987e+02   3.4600963803e+01    0.1876781    0.1538779 -78.38 0.0005699035    1.108    0.097
        54  -9.7079    161.4236    176.3104   1.0980239496e+02   1.3531610839e+01    0.2575674    0.1802507  62.71 0.0005387701    1.678    0.404
        55 -11.0287    147.1637    171.4156   1.1216582335e+02   1.7571275194e+01    0.2711197    0.2561287  45.35  0.001443923    1.038    0.037
        56  -9.2865    123.2887    176.6369   1.1895853922e+02   2.1145639442e+01    0.1572209    0.1141104  80.93  0.000298951    1.696    0.410
        57  -9.0231    248.0121    173.5117   9.1364658826e+01  -3.1484906094e+00    0.1849556    0.1311953  37.70 0.0004598419    1.478    0.323
        58  -8.9321    243.4854    172.0625   9.1873826929e+01  -2.0984210594e+00    0.1979318    0.1651524  32.16 0.0006318892    1.240    0.194
        59 -15.2399    173.3118    155.8408   1.0267186309e+02   1.5394338498e+01     3.088717     2.307198  21.81    0.0124254    1.610    0.379
        60  -9.0344    165.3726    249.1871   1.2152386433e+02  -1.1029976967e+00    0.1576784    0.1250171 -67.54 0.0005661621    1.682    0.406
        61  -9.2300    132.3139    246.6548   1.2778455940e+02   5.0460549266e+00    0.2037376    0.1303184  64.48 0.0006551921    1.715    0.417
        62 -14.4497    178.2022     82.5236   8.3257078583e+01   2.9188584643e+01     1.998492     1.240175   9.02  0.004173742    3.994    0.750
        63 -10.9028    215.4415    243.3847   1.1074921495e+02  -8.6712363404e+00    0.2403974    0.1967817  21.66 0.0001606866    1.030    0.029
        64  -9.0799     65.7161    242.3254   1.4025794746e+02   1.6393686358e+01    0.1273336   0.07305076  69.37 0.0002328492    1.601    0.375
        65 -10.4642    235.4404    163.9070   9.1623233501e+01   8.1880671596e-01    0.3406341    0.2066123  50.78  0.001165551    1.871    0.465
        66  -9.0834     31.3282    136.3161   1.3598454903e+02   4.4271423663e+01      0.13021   0.08384155 -42.53 0.0003903785    1.677    0.404
        67 -12.7434    129.2977    156.4681   1.1348065376e+02   2.4661332653e+01    0.8316616     0.561352  75.01  0.002702544    2.075    0.518
        68  -9.3333     41.9177    130.9950   1.3226821031e+02   4.4488296131e+01    0.1535174    0.1371399 -69.00 0.0005446093    1.048    0.046
        69  -9.6248    213.4738    170.8786   9.7342475157e+01   3.8289124608e+00    0.2493401    0.2040796  40.20 0.0004053099    1.225    0.183
        70 -11.7797    108.2288    122.5200   1.1146290928e+02   3.6790728185e+01    0.4871774    0.2908974  52.89  0.002032654    1.896    0.472
        71 -10.6773    112.6768    121.9736   1.1007884585e+02   3.6060302952e+01    0.3772872    0.2195014 -34.16  0.001189523    2.088    0.521
        72 -11.5278    114.0452    118.0050   1.0871065100e+02   3.6701191686e+01    0.3954159    0.2757125  62.55  0.001735324    1.764    0.433
        73 -11.5253     96.7068    118.1080   1.1370493527e+02   3.9923597087e+01    0.3256496    0.2953253 -20.07  0.001761447    1.176    0.150
        74  -9.1174     77.5616    118.4844   1.1945108934e+02   4.2958259988e+01    0.1435551    0.1308137 -46.28 3.639314e-05    1.042    0.040
        75 -10.2688    118.2168    158.2021   1.1666631264e+02   2.6437580060e+01    0.2203291    0.1782312  76.49   0.00107134    1.360    0.265
        76 -10.5039     89.8283    116.1363   1.1525445968e+02   4.1560713257e+01      0.22751    0.2028015 -87.59  0.001229407    1.246    0.197
        77 -11.5882    102.2059    112.4307   1.1069611046e+02   4.0233534875e+01    0.3685142    0.2916473  47.49 0.0008452949    1.322    0.244
        78 -12.7136    100.9435    105.3202   1.0923259811e+02   4.2059363523e+01     0.654344    0.4686822 -43.33  0.002881034    1.360    0.265
        79 -10.1865    250.3382    153.6015   8.6796113794e+01  -1.4431611782e-01    0.2308054    0.1684152 -34.99 0.0006515186    1.240    0.194
        80 -10.0647     94.0306    100.7366   1.1009719757e+02   4.4312111880e+01    0.2965068    0.1775308  15.58  0.001157842    2.585    0.613
        81 -10.5235     82.3272     95.5265   1.1234143617e+02   4.7408110116e+01    0.2430042    0.2099257 -48.44 0.0003031557    1.130    0.115
        82 -10.6630    133.9261    153.6778   1.1171280495e+02   2.4367766818e+01    0.2788211    0.2243302 -62.48 0.0002765305    1.294    0.227
        83 -11.1448    103.1284     89.7169   1.0428156723e+02   4.4981623676e+01     0.260512    0.2051099 -53.74 0.0008977128    1.365    0.267
        84 -11.1645     87.8577     88.1844   1.0856214083e+02   4.8052474791e+01    0.3967739    0.2183336 -35.34  0.001717194    1.914    0.478
        85 -12.0546    116.6999     84.4017   9.8751204042e+01   4.3324261648e+01    0.4731525     0.311086  45.66   0.00148201    1.507    0.336
        86 -10.3822     50.1236     85.0505   1.2024336531e+02   5.4031739333e+01    0.2424587     0.182194  32.83  0.000409226    1.503    0.335
        87 -10.8077     92.1550     81.6832   1.0531354790e+02   4.8626256900e+01    0.2568587    0.2130136 -21.85 0.0003043822    1.197    0.165
        88  -9.6579     52.9519     81.4788   1.1833783615e+02   5.4454495785e+01    0.1827945    0.1276234  25.07 0.0008995358    1.558    0.358
        89 -15.6101    224.5924    135.5477   8.7379590612e+01   8.2461859072e+00      4.31113     1.911594  41.43   0.01627111    2.552    0.608
        90 -11.3606    103.0435     78.3098   1.0093162506e+02   4.7260866123e+01    0.3413559    0.2068021 -25.49  0.001474243    1.981    0.495
        91 -11.7603    123.3420     76.5449   9.4540454177e+01   4.3387928659e+01    0.4881066    0.2585025  55.46   0.00194427    2.110    0.526
        92 -10.1873     67.2295     77.2789   1.1223300435e+02   5.3471772351e+01    0.2166503    0.1838447  22.45 0.0002512215    1.226    0.184
        93 -10.9402    113.5435     74.9854   9.6813988897e+01   4.5771511958e+01     0.280782     0.213534  41.81 6.134963e-05    1.278    0.217
        94 -11.3365    100.9430     70.8005   9.9245725062e+01   4.9069135012e+01    0.3167135    0.2017112 -43.04  0.001143787    1.617    0.382
        95 -11.8149    118.8820     69.4049   9.3574794470e+01   4.5640700862e+01    0.4165496    0.3479474 -83.81  0.002128936    1.604    0.376
        96 -11.2488    117.1477     63.8270   9.2298746915e+01   4.6971707222e+01    0.2846881    0.2452321 -13.15 0.0009085684    1.206    0.171
        97 -11.9299    126.3367     66.6515   9.0695220178e+01   4.4471569148e+01    0.4033684    0.3165236 -63.42  0.001220859    1.614    0.380
        98 -11.4865    122.1240     64.6524   9.1196448308e+01   4.5747454067e+01    0.3319364    0.2084869 -41.76  0.001168482    1.695    0.410
        99 -10.0153     84.0167     62.9682   1.0211264280e+02   5.3555257757e+01    0.2022297    0.1825023  -3.62            0    1.019    0.019
       100 -11.3023    112.5700     59.1091   9.2064177345e+01   4.8726877173e+01    0.3553147    0.2631227  13.27  0.001009943    1.553    0.356
       101 -12.0424    127.4504     56.1393   8.7100765090e+01   4.5924641046e+01    0.5483103    0.2202514  43.18  0.001631777    2.433    0.589
       102  -9.3964     95.2021     58.6125   9.7072229266e+01   5.2288007522e+01    0.2057077    0.1211701  32.81  0.000957323    1.710    0.415
       103  -8.5874     49.6928    162.2796   1.3489436823e+02   3.6170283048e+01     0.133229   0.09006904  72.40 0.0001654762    1.556    0.357
       104  -8.7382     64.6565    171.7268   1.3254183004e+02   3.2010426938e+01    0.1271785    0.1045589 -31.83 0.0006997124    1.618    0.382
       105  -9.4142     99.0319     50.0065   9.2984140333e+01   5.2919627224e+01    0.1728952    0.1452164  31.38 0.0008263621    1.098    0.089
       106 -11.1068    135.1035     48.4773   8.2795726262e+01   4.5289068832e+01    0.3633698     0.234159  70.03   0.00165719    1.852    0.460
       107 -12.1270      7.3249     57.7552   1.2906076102e+02   6.3068548956e+01     0.213633    0.1766047 -35.69 0.0003853559    1.107    0.096
       108 -10.5674    242.1131     38.4933   6.2971998402e+01   2.0626798256e+01    0.3291008     0.259328 -12.60  0.001339737    1.957    0.489
       109  -9.2837     56.5641    241.5078   1.4187895647e+02   1.7810647099e+01     0.120229   0.09247212  71.36 6.273216e-05    1.025    0.024
       110  -9.1468    181.3217     37.2859   7.0530957330e+01   3.5402784918e+01    0.1404518    0.1006229  40.44 0.0002352372    1.597    0.374
       111 -11.4490    145.2026     35.9789   7.6684306511e+01   4.4541383903e+01    0.6803703    0.3334506  74.54  0.002509263    2.974    0.664
       112  -9.7374     57.9798     34.9461   1.0148439764e+02   6.2116828335e+01    0.1842632    0.1532143   0.21            0    1.045    0.043
       113  -9.6767    133.8423     32.5047   7.8018097906e+01   4.7682884122e+01    0.2198727    0.1976769 -13.82 0.0004372739    1.239    0.193
       114  -9.8156    241.1942    164.3107   9.0662333908e+01  -3.3214056328e-01    0.2766192    0.1863067 -30.13  0.001324089    1.417    0.294
       115 -10.8639     68.7635     28.9261   9.5197482897e+01   6.1310715402e+01    0.2128613    0.1789107   7.72 0.0002166263    1.050    0.048
       116  -9.3137    245.3957     28.8437   6.0649439113e+01   2.1179379722e+01    0.1622834    0.1206942 -25.83 0.0009440457    1.811    0.448
       117 -10.8050    167.6684     25.8819   6.9627554702e+01   4.0205642433e+01    0.3520729    0.2338925 -20.17  0.001806576    1.894    0.472
       118 -10.4959    162.3902     26.7659   7.0749953975e+01   4.1415737426e+01    0.2934519    0.2192227   2.15  0.001070294    1.812    0.448
       119  -9.5312    158.6753     26.0007   7.1169678940e+01   4.2422194103e+01    0.1961878    0.1701491 -89.08  0.000331317    1.179    0.152
       120  -9.8941    146.0003     26.7376   7.3710575522e+01   4.5443721559e+01    0.2023204    0.1946994   7.79 0.0004801561    1.174    0.149
       121 -10.4859    240.7805     23.7921   6.0055337185e+01   2.2845477637e+01    0.3576711    0.1616204 -54.11  0.001035984    2.057    0.514
       122 -10.3497    236.9260    234.8219   1.0519983421e+02  -1.0851045732e+01    0.2025098    0.1448375  10.83 0.0006480786    1.261    0.207
       123  -9.9848    131.0381     23.3245   7.5679692060e+01   4.9382361817e+01    0.3909564    0.1929087  31.53  0.001616109    2.626    0.619
       124  -9.4638     80.2571    172.0027   1.2876236621e+02   2.9690965908e+01    0.1800833    0.1140204 -64.55 0.0003667458    1.498    0.332
       125  -9.6448    184.8097     19.8618   6.5485938655e+01   3.6623317348e+01    0.2323424    0.1565399  61.52 0.0005799748    1.308    0.235
       126  -9.5371    248.8413    233.8349   1.0283063504e+02  -1.2501635955e+01     0.153416     0.140187   0.80  0.001071763    1.321    0.243
       127 -10.7960    128.9508    164.1868   1.1515799202e+02   2.2928459008e+01    0.3222152    0.2466395  59.49 0.0003755077    1.346    0.257
       128  -9.3577    247.4843     16.9496   5.8081909912e+01   2.2208702234e+01    0.1789348     0.106006 -45.33  0.001024049    1.585    0.369
       129 -10.5763    121.0175    137.6533   1.1150898187e+02   3.0751991300e+01    0.2251697    0.2084947  42.26  0.001166198    1.096    0.088
       130  -9.4024     24.0414     15.7376   1.0805817053e+02   6.8848272116e+01    0.1514363    0.1114562  -2.21 0.0004247646    1.092    0.085
       131 -10.1308    174.5837     19.2267   6.6758372935e+01   3.9225988287e+01    0.2675673    0.1917453  48.03 0.0004616772    1.418    0.295
       132 -14.1507    212.6503    120.2544   8.6047905916e+01   1.3792997628e+01    0.8033593    0.5775868  49.87  0.002588979    1.434    0.303
       133  -8.6679    130.2799     11.2989   7.1961059211e+01   5.0747023384e+01    0.1325695   0.08495785  36.54 0.0001955125    1.541    0.351
       134  -9.0515     69.4315    230.4770   1.3843922922e+02   1.8230522353e+01    0.1262731    0.1004207  71.33  0.000122561    1.011    0.011
       135  -9.6122    238.1731     10.4346   5.7581816671e+01   2.5025923503e+01     0.285493    0.1050889  74.74  0.001270857    2.449    0.592
       136 -10.5492     29.6898    228.9462   1.4579327132e+02   2.3670569469e+01    0.1907748    0.1483125  68.36 0.0002331227    1.127    0.113
       137  -9.4798     11.0944    229.1532   1.4907507364e+02   2.5643651711e+01    0.1523821    0.1205906  86.85 0.0002697276    1.208    0.172
       138 -10.3008    203.8373    225.6028   1.0998501333e+02  -4.0260806441e+00    0.3627905    0.2082268  46.07  0.001612184    1.738    0.425
       139  -9.0943     49.4961    226.3997   1.4191625941e+02   2.1780690168e+01    0.1213864   0.09469257  72.70  0.000801847    1.028    0.028
