#   1 NUMBER                 Running object number                                     
#   2 MAG_AUTO               Kron-like elliptical aperture magnitude                    [mag]
#   3 X_IMAGE                Object position along x                                    [pixel]
#   4 Y_IMAGE                Object position along y                                    [pixel]
#   5 X_WORLD                Barycenter position along world x axis                     [deg]
#   6 Y_WORLD                Barycenter position along world y axis                     [deg]
#   7 A_WORLD                Profile RMS along major axis (world units)                 [deg]
#   8 B_WORLD                Profile RMS along minor axis (world units)                 [deg]
#   9 THETA_WORLD            Position angle (CCW/world-x)                               [deg]
#  10 FWHM_WORLD             FWHM assuming a gaussian core                              [deg]
#  11 ELONGATION             A_IMAGE/B_IMAGE                                           
#  12 ELLIPTICITY            1 - B_IMAGE/A_IMAGE                                       
         1 -10.6297     31.0771     64.4215   1.0358572119e+02   6.0220406796e+01     1.274916    0.5225199 -33.27  0.005276327    2.869    0.651
         2 -10.6016      4.8267     85.7277   1.1771025899e+02   5.7188323708e+01      1.99082    0.3051642 -64.65  0.007138856    3.534    0.717
         3 -10.5878     16.2675     66.7106   1.0996211765e+02   6.0832700030e+01     1.440345    0.3115688 -61.23  0.004682875    3.300    0.697
         4 -11.1739     23.6100     32.4361   9.6615645739e+01   6.7299989754e+01     1.935799    0.3946797 -41.05  0.006806073    3.955    0.747
         5 -10.7478     37.4004      9.3955   7.9608600181e+01   6.9519045319e+01    0.8479797    0.3476159 -36.71  0.002237943    2.287    0.563
         6 -10.3660      7.8603     21.0735   1.0017240438e+02   7.0541376152e+01     1.245345     0.382652 -27.41  0.004373599    5.075    0.803
         7  -9.9710     24.5546     11.3911   8.7037483096e+01   7.0737235969e+01    0.6636662    0.2843897  19.95  0.002784032    2.662    0.624
         8 -10.2404     18.3414      4.8355   8.7052312172e+01   7.2326220776e+01     0.569086    0.3832315 -51.71  0.003085855    2.298    0.565
         9  -9.5687      2.0566     14.0008   1.0050971334e+02   7.2136724574e+01    0.4528942    0.2334182 -63.63  0.001997813    2.819    0.645
        10 -10.5454      5.2086      4.6803   9.4510426075e+01   7.3465446411e+01    0.4932309    0.3425112  -9.80  0.001711247    1.219    0.180
        11  -9.7555     91.7277     24.9687   6.5967895209e+01   5.8306023910e+01    0.8460591    0.2749058 -29.29  0.002887571    3.106    0.678
        12  -9.5178    139.6286     20.2146   5.2300010531e+01   4.7787573928e+01    0.5881264    0.3750705 -14.54  0.002849698    1.796    0.443
        13 -10.9151    134.1516     30.9162   5.7215568003e+01   4.7895665882e+01    0.3996166    0.2835512   2.16  0.001940844    1.688    0.408
        14  -9.9376     51.7270     14.0294   7.5482189383e+01   6.6888604265e+01    0.7273614    0.3939048  25.37  0.003831229    1.857    0.461
        15 -10.2225     46.3512     29.6277   8.5001480659e+01   6.5331327830e+01      0.69512    0.5265826 -25.05  0.002934266    1.118    0.105
        16 -10.1322     73.6310     17.6707   6.8722574577e+01   6.2746571133e+01     1.042089    0.2386396 -30.02  0.003424675    4.317    0.768
        17  -9.8186     79.4575     24.0646   6.9566164998e+01   6.0844232020e+01    0.5471912    0.2892739  23.32  0.001447478    2.312    0.568
        18  -8.0612     72.1575      8.4773   6.4924207914e+01   6.4073716559e+01    0.2098128     0.156334 -22.98 0.0004910456    1.379    0.275
        19 -10.1277     62.7921      3.1816   6.5644302078e+01   6.6328423000e+01    0.4949092     0.380173   9.00  0.002088092    1.085    0.078
        20 -10.0375     63.1504     22.8052   7.4974511858e+01   6.3896918267e+01    0.7818423    0.3053293 -35.48  0.002482053    2.458    0.593
        21  -9.9143     64.5040     12.9853   6.9850328963e+01   6.4945120031e+01    0.4353714    0.2849375 -35.20  0.001620392    1.695    0.410
        22  -9.2746    133.5514     11.9389   5.0531689609e+01   5.0141196009e+01    0.4480819    0.2050082 -38.72   0.00189498    2.431    0.589
        23  -9.8858    131.8583     18.4199   5.3206240609e+01   4.9905030256e+01    0.5677621    0.4340246  20.22  0.003055745    1.402    0.287
        24  -9.7256    119.2280     20.3647   5.6693520957e+01   5.2742306171e+01    0.6314244    0.3578442 -15.07  0.001478925    2.008    0.502
        25  -8.7765    120.8458      5.8526   5.0778652857e+01   5.3784878334e+01    0.3410101    0.2806248  89.41  0.001972223    1.429    0.300
        26  -9.0674    114.2423     10.0053   5.3808190843e+01   5.4974044543e+01    0.4101774    0.2028515  35.59 0.0005879751    2.077    0.518
        27  -8.7711    115.2485      4.2324   5.1314123194e+01   5.5251432850e+01    0.3141292    0.1980705 -38.82  0.000894236    1.855    0.461
        28  -8.5120    112.3287     15.6814   5.6502308084e+01   5.4858271472e+01    0.2564703    0.2078269 -37.50 0.0005923494    1.408    0.290
        29  -8.8304    125.2133     12.9324   5.2555850568e+01   5.2083060714e+01    0.2576201    0.2459905 -31.76 0.0007634985    1.179    0.152
        30  -8.9615    126.5435      8.9725   5.0809247579e+01   5.2134342422e+01    0.2724381     0.205155  18.16   0.00060796    1.415    0.293
        31  -9.0123    125.4027      3.7729   4.9096835979e+01   5.2863952912e+01    0.3615013     0.248789 -13.73  0.001220148    1.613    0.380
        32  -8.4069    104.8500     14.7243   5.7976336090e+01   5.6662412279e+01    0.3354184    0.1928017  10.28  0.001511349    2.215    0.548
        33  -8.1303    155.3290     18.2991   4.8842228888e+01   4.4024164932e+01    0.1930113    0.1274785 -37.76 0.0006478664    1.610    0.379
        34  -9.2321     96.1043     14.7308   6.0326457994e+01   5.8584140300e+01    0.5556353    0.2311119 -18.92  0.002268746    2.729    0.634
        35  -7.6009     80.5027     12.5015   6.4031576022e+01   6.2038869584e+01    0.2422079    0.1666422 -49.89  0.001253277    2.167    0.539
        36  -9.5701     85.2102     13.0521   6.2795728289e+01   6.1039634499e+01    0.4296792    0.2636845 -47.82  0.001885647    2.396    0.583
        37  -8.0709     84.9649      7.0351   6.0149758713e+01   6.1705225531e+01    0.4322121    0.1690861  27.91  0.001519425    3.741    0.733
        38  -8.3985    141.7810     12.6936   4.9284300597e+01   4.8021084086e+01    0.2214428    0.2058234 -28.23  0.000753769    1.185    0.156
        39  -8.7930    137.5028      9.2015   4.8829027357e+01   4.9418719744e+01    0.2963672    0.2152695 -79.41 0.0009738501    1.693    0.409
        40  -9.3865    110.0001      5.1473   5.2826937051e+01   5.6397870335e+01    0.5228302    0.2868115 -25.87  0.002593897    1.950    0.487
        41  -8.7260    101.9338      8.0643   5.5951770175e+01   5.7970487108e+01    0.2450246    0.2083204 -38.58 0.0006983692    1.406    0.289
        42  -8.4068    103.9254      2.7061   5.3225547063e+01   5.7993623464e+01     0.382308    0.1819358  29.00  0.001566784    2.358    0.576
        43  -8.2033     97.8154      6.1133   5.6173929235e+01   5.9061081031e+01    0.2373771    0.1622484  15.80 0.0007226866    1.481    0.325
        44  -8.3752     95.9820      2.9841   5.5295490641e+01   5.9737537566e+01    0.2856305    0.2143953  46.68  0.001111482    1.171    0.146
        45  -8.6460     77.2845      6.7797   6.2411296831e+01   6.3267312439e+01    0.2726412    0.2476264 -49.83  0.001762834    1.533    0.348
        46  -8.7618     78.7092      3.1276   6.0235816508e+01   6.3336379983e+01    0.2594718    0.2403438  48.95  0.000836336    1.315    0.240
        47  -9.1247    133.6901      4.6649   4.7899504262e+01   5.0763134994e+01    0.3001358    0.2409126  -9.90  0.001189011    1.385    0.278
        48  -7.5061    142.7819      4.7258   4.6377875724e+01   4.8498258651e+01     0.201285   0.09097721 -34.80 0.0003503789    2.362    0.577
        49  -8.2139     89.0575      2.9422   5.7121174889e+01   6.1229610097e+01    0.2530774    0.1502815 -35.31 0.0009201781    1.972    0.493
        50  -8.4119    238.7269      1.9090   3.5152620653e+01   2.5262455901e+01    0.1871716    0.1511496  75.19 0.0003591379    1.266    0.210
        51  -8.2784    136.7285      1.5690   4.6282306643e+01   5.0267871218e+01    0.1858397    0.1213268  78.81 0.0009161899    1.582    0.368
        52 -10.7087    127.1674    103.7927   8.2714092913e+01   3.6509478961e+01     1.245996    0.6172445 -28.94  0.003467064    3.024    0.669
        53  -8.5374    213.5134    249.9688   9.3347581376e+01  -6.9659428995e+00    0.2506095    0.1182577  14.38  0.001041008    3.534    0.717
        54  -7.7098    201.3160    250.3180   9.5603320725e+01  -5.2013699626e+00    0.1214205   0.07710078  12.41  0.000334887    1.653    0.395
        55  -9.9476    175.2552    247.7046   1.0004376314e+02  -8.5226816633e-01    0.4358011    0.2073355 -37.26  0.002252808    2.666    0.625
        56 -10.3937    162.1093    247.7648   1.0251988294e+02   1.2047793655e+00    0.3487073    0.2586365 -23.87   0.00222591    1.741    0.426
        57 -10.6719    131.9282    119.6882   8.5663473949e+01   3.1948774135e+01    0.9150749    0.6021713  83.21  0.002851147    2.881    0.653
        58 -10.5753    109.1538     99.7285   8.6674645074e+01   4.1110530597e+01     1.096476    0.6039447  62.30  0.003779253    3.113    0.679
        59  -9.4550    140.3930     82.5138   7.2976244242e+01   3.7979868999e+01    0.8637436    0.2894904 -39.62  0.002694483    2.939    0.660
        60  -8.6145    139.9445     75.6738   7.0964833279e+01   3.9398822554e+01    0.4646511    0.2703006 -52.12 0.0008971933    2.030    0.507
        61 -10.6614    123.1917     91.8359   8.0385536964e+01   3.9951765344e+01    0.8239594    0.5877596 -37.58  0.002550173    1.383    0.277
        62  -9.1709    126.2821     83.1493   7.6901616067e+01   4.1079376577e+01    0.5479588    0.3865021  13.24  0.001983868    1.930    0.482
        63  -9.8018     41.9846    122.7167   1.1204750831e+02   4.5555107368e+01    0.7055091    0.3309976 -89.31  0.002551488    3.557    0.719
        64  -9.9928     27.3321    122.9850   1.1628109929e+02   4.6863231684e+01    0.5207515    0.2884625  72.93  0.002063923    2.264    0.558
        65 -11.3527    133.5232    109.7287   8.2631635002e+01   3.3832436816e+01     1.408644    0.5165951 -44.12  0.004563784    2.679    0.627
        66 -10.0391    140.7999    118.5872   8.3078929640e+01   3.0293844493e+01    0.5011556    0.3696256 -83.15  0.001369641    1.978    0.494
        67 -10.5854    108.9925    112.3094   9.0076513865e+01   3.8260586358e+01     1.421969    0.5279561 -51.64  0.002973356    2.692    0.629
        68  -8.1806    158.0386    122.0036   7.9698547896e+01   2.5732652006e+01    0.2588498     0.200833 -82.43  0.001130849    1.771    0.435
        69  -9.6771    203.6642    119.5490   6.9207383226e+01   1.5886204260e+01    0.2968082    0.2541941 -30.34 0.0003878229    1.111    0.100
        70  -7.9206    247.6616    120.2788   6.1739294220e+01   6.5485134150e+00    0.1338654    0.1057251 -64.29 0.0002134371    1.618    0.382
        71  -7.2013    186.6563    120.3224   7.2837654267e+01   1.9572628810e+01    0.1593146    0.1254163 -78.79 0.0007050297    1.731    0.422
        72  -8.7165     99.8533    119.2503   9.4405672402e+01   3.8308882073e+01    0.4646738    0.2905448   5.02  0.001659576    3.208    0.688
        73  -7.4654    166.2876    119.6410   7.7153821692e+01   2.4361908463e+01    0.1616114    0.1264334 -75.35 0.0007023994    1.683    0.406
        74  -8.8464    147.1425    122.1978   8.2405910173e+01   2.8112633628e+01    0.2982009    0.2252111 -52.69 0.0006469187    1.373    0.272
        75  -8.4845      1.4737    116.2812   1.2268536324e+02   5.0274126968e+01    0.3598883   0.09772518 -76.12  0.001231372    3.030    0.670
        76 -10.2814     92.1030    113.3006   9.5246706354e+01   4.1070575235e+01    0.6340795    0.4592564  86.50  0.001967468    1.932    0.483
        77  -8.1304    208.8279    115.9741   6.7330990128e+01   1.5397368868e+01     0.231602    0.1941052   2.18 0.0004139735    1.317    0.241
        78  -8.7226    152.9987    115.4666   7.9215063973e+01   2.8262146955e+01    0.2559283     0.206464 -41.31 0.0005516604    1.225    0.184
        79  -9.6572     81.6363     99.6085   9.5043341750e+01   4.6023358372e+01    0.7684827     0.298625 -52.51  0.001152569    2.366    0.577
        80 -10.3183     78.2782    112.9632   9.9315068410e+01   4.3363913639e+01     0.581671    0.3568818 -80.49  0.001666119    2.377    0.579
        81  -7.8991     77.7590    105.8240   9.7807335700e+01   4.5154685029e+01    0.2901898    0.2034522 -26.14  0.001003897    1.737    0.424
        82 -10.1680     14.2361    111.3559   1.1846704713e+02   5.0643793632e+01    0.5978836    0.2785549  78.26   0.00251477    3.167    0.684
        83  -8.4423     14.3337    105.2961   1.1760195912e+02   5.2071655665e+01    0.2736746    0.1484285 -46.49  0.001300983    1.752    0.429
        84  -7.5218    167.3685    114.1644   7.5473653570e+01   2.5244158593e+01    0.2177921    0.1932782 -78.97  0.000464825    1.306    0.234
        85 -10.5808     62.9400     95.7569   1.0012505253e+02   4.9636230777e+01     0.837814     0.517947 -88.66  0.001598383    2.880    0.653
        86  -9.0279     63.7463     86.8457   9.7590240218e+01   5.1600710228e+01    0.9131192    0.5015326  -5.14  0.003099591    4.229    0.764
        87 -10.4463     65.8580    109.9752   1.0245951537e+02   4.5852366900e+01     1.005886    0.8709295 -46.94  0.003361904    1.097    0.088
        88  -9.9801     59.5882    109.6211   1.0433167959e+02   4.6748940049e+01    0.6572952    0.5434025  35.44  0.002323957    1.361    0.265
        89  -9.4981     36.3646    111.5984   1.1187790727e+02   4.8804754713e+01    0.3601195    0.2155457  86.95  0.001408361    2.074    0.518
        90 -11.1955    120.8581    109.5023   8.6001083896e+01   3.6555601090e+01     1.580905    0.6254973 -49.37   0.00366983    2.540    0.606
        91 -10.6552     25.7038     78.2436   1.0899477940e+02   5.7580155809e+01    0.8288111    0.4983272 -85.97  0.003375165    2.258    0.557
        92  -7.7096    227.6657    249.6609   9.0787175866e+01  -8.9623893749e+00    0.1234304   0.07204968  10.03 0.0007051563    1.750    0.428
        93  -9.2985     38.6635     56.1126   9.8105776130e+01   6.1266852241e+01    0.7686884    0.1393769 -47.65  0.002510366    3.848    0.740
        94 -11.0703     21.0082    100.9835   1.1487917452e+02   5.2628192002e+01     1.389675    0.6659288  81.52  0.004093773    3.677    0.728
        95  -9.9838     19.7137     86.3188   1.1275338885e+02   5.6160795157e+01    0.9312509    0.1371998 -58.63  0.003076208    3.525    0.716
        96 -10.0378     34.5018     90.4470   1.0850000583e+02   5.4023337055e+01    0.5862202    0.3094986 -83.66  0.001844672    2.805    0.643
        97 -10.0369     36.8553     81.0543   1.0559754517e+02   5.5987111235e+01    0.7360289    0.3636379 -17.42  0.002777761    3.654    0.726
        98  -8.6131    149.5982    110.2462   7.8656082024e+01   3.0146424403e+01    0.2997667    0.1511341 -45.78 0.0006563467    1.987    0.497
        99 -10.8655     44.8173    102.4399   1.0753371886e+02   5.0175096317e+01    0.8785082    0.4713029  72.14  0.003141306    3.799    0.737
       100  -9.0866     39.9348    106.4424   1.0985852355e+02   4.9706551741e+01    0.3860389    0.1583442 -69.08  0.001399428    2.363    0.577
       101  -9.6551    149.3462    103.5941   7.6892583531e+01   3.1609492290e+01    0.5151023    0.3513286 -39.31  0.001101454    1.451    0.311
       102  -9.0715    158.9285    111.4116   7.6708049976e+01   2.7763729643e+01    0.4154572    0.2164296 -43.01  0.001343827    1.895    0.472
       103  -9.6126      6.3335    103.5955   1.1978767728e+02   5.2963974595e+01    0.4081079    0.2425519  71.33  0.001605517    1.979    0.495
       104  -9.0021     92.5061    103.5672   9.2692152884e+01   4.3298888634e+01    0.6109646    0.3850173  16.07  0.002521515    2.312    0.568
       105  -8.3854    165.9794    103.8938   7.3022452105e+01   2.7657671201e+01    0.2771458    0.2192003 -40.32 0.0004813413    1.244    0.196
       106  -8.4159     74.0223    102.0828   9.8076836454e+01   4.6600799055e+01    0.3684368    0.1825172 -53.37  0.001056615    1.811    0.448
       107  -8.4006    159.0199    101.3944   7.3942856490e+01   2.9806750347e+01    0.2845052    0.2141546 -54.92 0.0005638085    1.447    0.309
       108  -8.3325    247.0000    100.9875   5.7354342930e+01   9.8147190669e+00    0.2426446   0.07143559 -34.91 0.0001441754    2.982    0.665
       109  -9.7650     93.9898     97.1655   9.0529819628e+01   4.4519160635e+01    0.3581188    0.3218135  87.76 0.0008098176    1.296    0.229
       110  -8.9489     96.3588     90.7340   8.7987292876e+01   4.5545268477e+01    0.5371623    0.3447628  -7.97  0.002069043    2.660    0.624
       111  -9.2031    150.3069     95.4952   7.4361099736e+01   3.3057635425e+01     0.392491    0.3527517 -38.70  0.001809431    1.099    0.090
       112  -9.4048    240.6465     96.5341   5.7227471864e+01   1.1848063522e+01    0.3534228    0.1441968  56.70  0.001374847    2.803    0.643
       113  -8.3586    143.2677    250.1829   1.0636633390e+02   3.7999018487e+00     0.165392    0.1222862  58.73  0.001061017    1.397    0.284
       114  -8.1825    212.6623    246.3228   9.2946637041e+01  -6.3981605863e+00    0.1075998   0.08852496  51.78 0.0006578253    1.716    0.417
       115  -9.9833    189.8564    244.4659   9.6855317361e+01  -2.6906060011e+00    0.1902863    0.1648469   1.98  0.000582743    1.204    0.169
       116 -10.1736    111.4607    249.1377   1.1218847159e+02   8.8234049928e+00    0.2125838    0.1806287  53.92 0.0003688323    1.093    0.085
       117 -10.3492    187.6956    233.6705   9.5642482513e+01  -8.4957564642e-01    0.4949422    0.2506489 -35.14  0.002289576    2.341    0.573
       118 -10.8146     21.8261     53.4785   1.0433303477e+02   6.3296279625e+01    0.7639555    0.4571575 -88.20  0.002930843    3.585    0.721
       119  -8.4528    114.2973    235.0185   1.1012359315e+02   1.0776549885e+01    0.1656997    0.1396514  53.83 0.0003556295    1.038    0.037
       120  -8.5624    224.0361    226.0931   8.7606171399e+01  -5.5422916348e+00    0.1807003    0.1452803  14.52            0    1.044    0.042
       121  -7.7547    110.4710    224.4816   1.0965404134e+02   1.3260028508e+01    0.1265952    0.1065704  53.71 0.0005623411    1.021    0.020
       122  -7.3275     56.0000    215.9129   1.1961838818e+02   2.2662108827e+01    0.1877234   0.06148086 -70.23 0.0006546986    3.019    0.669
       123 -10.2157      4.9263     41.5881   1.0840567586e+02   6.6795028010e+01    0.6860084    0.2789128 -62.65  0.003123436    2.162    0.537
       124  -9.4390      6.9028     32.5079   1.0473336574e+02   6.8480163815e+01    0.2430906    0.1762023 -21.56 0.0008750651    1.254    0.202
       125  -9.9506      7.4466     28.3192   1.0305366883e+02   6.9243277443e+01    0.2758978    0.2566579  35.98   0.00106444    1.553    0.356
       126  -8.8802    164.4327     94.2655   7.0680455517e+01   2.9938487373e+01    0.4613899    0.2616727 -41.25  0.001349788    1.734    0.423
       127  -8.1330    163.5692     87.2336   6.8850174446e+01   3.1505172628e+01    0.2909919    0.1487778 -41.66 0.0006028365    1.931    0.482
       128  -8.4642    157.6645     91.0347   7.1309283547e+01   3.2199867125e+01    0.4554839    0.1986956 -30.48   0.00147123    2.801    0.643
       129 -10.3624     47.7977     84.1767   1.0245209024e+02   5.4158692859e+01     0.702386     0.380791 -69.39  0.001664814    2.155    0.536
       130  -9.3402     48.7775     77.1742   1.0029986715e+02   5.5641645060e+01    0.6395903    0.4178675  -8.72  0.003217058    1.992    0.498
       131  -8.9601    150.5831     89.1660   7.2448074049e+01   3.4261616350e+01    0.3901702    0.2605784 -35.15  0.001431043    1.506    0.336
       132  -7.3962     78.3382     90.3321   9.3639410431e+01   4.8686161871e+01    0.1535058    0.1076018 -20.58 0.0007051914    1.742    0.426
       133  -7.5535    174.5773     88.7571   6.6891589410e+01   2.8528021383e+01    0.2253362    0.1432252 -47.67 0.0009122178    1.627    0.385
       134 -10.0132     81.7145     72.5676   8.7231681705e+01   5.2034689764e+01    0.4607882    0.3375619 -70.80 0.0009715916    1.952    0.488
       135  -9.0520     83.4118     64.8747   8.4113311508e+01   5.3312954187e+01    0.5994433    0.3443648 -12.91  0.002223546    3.031    0.670
       136 -10.2647     85.2750     86.5873   9.0314947354e+01   4.8408646588e+01    0.4612941     0.372196 -82.92 0.0008458534    1.644    0.392
       137  -9.6677     87.4536     78.6758   8.7233408483e+01   4.9764193618e+01    0.6632162    0.4136303  17.12  0.002042126    2.184    0.542
       138  -9.6881    138.5933     92.5113   7.6441954381e+01   3.6386635505e+01     0.847837    0.5583885 -72.41  0.002613642    2.533    0.605
       139 -10.2331    103.9415     82.6661   8.3236271152e+01   4.5863164750e+01    0.5362718    0.3183855 -53.35 0.0007780619    1.850    0.459
       140  -9.4998    105.5186     70.8539   7.8972970154e+01   4.7960959833e+01    0.7839882    0.5758026 -16.87  0.003719522    1.533    0.348
       141  -8.7665    157.8189     82.7799   6.8843027197e+01   3.3751520541e+01     0.585807    0.2184383 -34.48  0.001464903    2.834    0.647
       142  -8.8734    157.1594     76.8723   6.7215205142e+01   3.5010587668e+01    0.3227547    0.2285483 -59.70 0.0007857502    1.705    0.414
       143  -7.9167    170.2795     82.7330   6.6071228472e+01   3.0700123060e+01    0.3007638    0.1785776 -46.85  0.001222741    1.747    0.428
       144  -7.9015     63.7614     81.7970   9.6214112843e+01   5.2744999560e+01      0.18093    0.1604011 -77.42 0.0005111828    1.316    0.240
       145  -8.5452    149.8971     80.7471   7.0089699411e+01   3.6058274372e+01    0.2945301    0.2215979 -46.87 0.0006202247    1.366    0.268
       146  -9.5724    127.3903     75.2929   7.4125402920e+01   4.2384273837e+01     0.428194    0.3216268 -60.11 0.0007983384    1.616    0.381
       147  -8.8473    118.9836     80.4559   7.8102862349e+01   4.3222274108e+01    0.3536908    0.2529548 -51.44 0.0007044943    1.500    0.333
       148  -8.4872    119.9809     75.9691   7.6394185937e+01   4.3901981010e+01    0.3692767    0.2177351  31.00  0.001395749    2.022    0.506
       149  -8.8716    129.5291     68.9733   7.1502160907e+01   4.3085750245e+01    0.5239117    0.2958508  23.41   0.00182653    2.886    0.654
       150  -8.5623    130.4835     65.4677   7.0093881051e+01   4.3500076131e+01    0.3195034    0.2350896 -38.83  0.001021441    1.366    0.268
       151  -9.2594     74.2983     79.2510   9.1831628150e+01   5.1790822189e+01    0.6429639    0.2553235 -48.09  0.002079303    2.265    0.559
       152  -8.7714    240.0000     79.5302   5.3229265525e+01   1.4707945048e+01    0.3211476   0.07297199 -34.07 0.0009371861    3.954    0.747
       153  -8.1857     68.6001     79.4913   9.3872060741e+01   5.2583880411e+01    0.3633659    0.1122008 -47.05  0.001253629    2.820    0.645
       154  -8.0975    166.7723     78.5168   6.5583971724e+01   3.2336218691e+01    0.3115795    0.1924224 -50.95 0.0008115565    1.789    0.441
       155  -8.0203    184.6036     78.0206   6.1817381316e+01   2.7993791153e+01    0.2231335    0.1876951 -35.81 0.0004366554    1.169    0.145
       156 -10.0459     63.0102     60.8657   9.0082055840e+01   5.7332857785e+01     1.183307    0.3504177  31.49   0.00396708    4.039    0.752
       157 -10.6176     55.0635     70.9088   9.6224114276e+01   5.6280998654e+01    0.6715431    0.3777433  52.79  0.001229694    2.841    0.648
       158  -9.2384     54.5688     63.5650   9.4164511068e+01   5.7907265118e+01    0.4465686    0.2755193 -23.90  0.001688081    1.808    0.447
       159  -9.1729    115.2273     72.5026   7.6629556003e+01   4.5609899447e+01    0.5670716    0.2908599 -36.15  0.002040347    1.956    0.489
       160  -9.0194    204.9264     71.8121   5.6494094548e+01   2.4037305005e+01     0.353566    0.2172955 -30.46  0.001013099    1.641    0.391
       161  -7.6849    175.6703     72.9747   6.2107424234e+01   3.1095983972e+01    0.2206771    0.2021958 -46.72 0.0009557893    1.086    0.079
       162  -8.4082    162.6674     72.4401   6.4647432328e+01   3.4441870130e+01    0.3805127    0.2575745 -36.92  0.001479728    1.470    0.320
       163  -8.1471    169.3542     71.4205   6.2927482361e+01   3.2947617214e+01    0.2664261    0.1442911 -36.07 0.0005834824    1.828    0.453
       164  -8.6271    156.5617     69.8359   6.5190636965e+01   3.6418366932e+01    0.2841092    0.1547141 -30.35 0.0009533538    1.949    0.487
       165  -9.2118    146.9343     69.1297   6.7184714478e+01   3.8913938164e+01    0.3639721    0.2705979 -61.05  0.001001766    1.634    0.388
       166  -9.7951     94.7667     68.3225   8.1503694235e+01   5.0570277898e+01    0.4437517    0.2781083 -48.56 0.0008745244    1.663    0.399
       167  -9.3491     97.0980     58.7530   7.7443229332e+01   5.1944561646e+01    0.7218633    0.4095861  -9.50  0.002527975    3.299    0.697
       168  -9.2484    121.2707     66.1656   7.2810111939e+01   4.5481759415e+01    0.4197825    0.2657409 -48.98  0.001053116    1.757    0.431
       169  -8.2057    122.0700     61.4477   7.0990429653e+01   4.6150635119e+01    0.3278609    0.2130735  28.52  0.001014178    1.784    0.439
       170  -8.7934    138.0190     66.3996   6.8475408562e+01   4.1553294051e+01    0.4048081    0.2450579 -40.16 0.0005731365    1.663    0.399
       171  -8.3066    138.4768     62.0275   6.6927074575e+01   4.2205516511e+01    0.3462256    0.2047002  37.69  0.001427951    1.831    0.454
       172  -9.4114    109.7840     63.9226   7.5346565843e+01   4.8399327814e+01    0.4252685    0.2728007 -50.62 0.0007181419    1.789    0.441
       173  -9.0450    110.5066     58.3140   7.3180087692e+01   4.9259338763e+01    0.4387695    0.2921163  19.87  0.001343155    1.864    0.464
       174  -7.7037    170.6303     64.8684   6.0702475499e+01   3.3733904604e+01    0.2223116    0.1341114 -45.30 0.0005030736    1.707    0.414
       175  -8.4013    157.8371     62.9437   6.2762088991e+01   3.7277792808e+01    0.2691926     0.223414 -48.96 0.0007309311    1.256    0.204
       176  -7.2812    179.4153     62.2136   5.8225831608e+01   3.1941780992e+01    0.1567898    0.1075797  37.06 0.0006832115    1.663    0.399
       177  -8.3556    164.6214     60.3995   6.0548971240e+01   3.5984906289e+01    0.3514961    0.1535541 -27.42  0.001217771    2.646    0.622
       178  -9.9539     73.1758     59.4080   8.5832000938e+01   5.6092972323e+01     0.579159    0.2731268 -50.75 0.0009249961    2.313    0.568
       179  -9.8607     74.1929     52.0027   8.2801995726e+01   5.7334124295e+01    0.6396852    0.3386065 -10.95  0.002104871    4.171    0.760
       180 -10.2759     11.7559     45.9859   1.0656784256e+02   6.5522827726e+01    0.8376675    0.3892699   2.38  0.003778169    2.774    0.639
       181  -9.5041    155.4234     49.5601   5.9011655286e+01   4.0003822152e+01    0.5608338    0.3239429  34.43  0.002066617    2.113    0.527
       182  -9.3804    146.9776     57.0585   6.3281843726e+01   4.0953901303e+01    0.8268973    0.3065752 -25.36  0.002448576    3.810    0.738
       183 -10.0283    149.4882     45.8524   5.9039553290e+01   4.2049454930e+01     0.838917    0.2819039 -36.61  0.002117301    2.910    0.656
       184  -8.8662    153.0941     40.4442   5.6514877336e+01   4.1902681602e+01    0.5987661    0.3384568 -61.06  0.001916028    2.657    0.624
       185  -8.9991    153.5172     35.0871   5.4670525052e+01   4.2510095455e+01    0.4280019    0.2206581 -47.99  0.001730295    2.275    0.561
       186  -8.9462    130.0898     57.3175   6.7450563005e+01   4.5004246797e+01    0.4995361    0.2344422 -31.65  0.001580213    2.221    0.550
       187  -9.1000    222.5090    208.3496   8.4754938198e+01  -2.8695146284e+00    0.2578711    0.2363648 -81.12 0.0008017704    1.821    0.451
       188  -8.4833     87.4896     58.7441   8.0592731900e+01   5.3770541191e+01    0.2908964    0.2274941 -59.33 0.0008665727    1.629    0.386
       189 -10.5535     85.6429     48.5976   7.7485398096e+01   5.5938752855e+01    0.6643297    0.4589748 -63.03   0.00170421    2.381    0.580
       190  -8.9168    138.8560     56.7844   6.5091255856e+01   4.2992350071e+01    0.4324905    0.2123681 -41.40 0.0006545034    2.106    0.525
       191  -8.9637    141.4539     49.3380   6.1975131730e+01   4.3533365040e+01    0.5486433    0.3473623   6.84  0.001667542    2.426    0.588
       192  -8.1397    122.3450     41.3228   6.3786836608e+01   4.9327748498e+01    0.4459773    0.2308142  20.55  0.001448901    3.708    0.730
       193  -9.2623    118.0016     55.4330   7.0022636743e+01   4.8108386703e+01    0.3421025    0.2929507 -75.62 0.0007177292    1.513    0.339
       194  -9.0371    120.8648     47.6077   6.6453091361e+01   4.8726877842e+01    0.6874953    0.3520045 -19.02 0.0007920531    2.591    0.614
       195  -7.5884    169.0291     55.9748   5.8315057573e+01   3.5566254821e+01    0.1868755    0.1726619  61.97 0.0008406236    1.063    0.059
       196  -8.9190     44.2209     53.6726   9.5042329571e+01   6.1169501648e+01     0.272482    0.2267732 -28.35 0.0006506315    1.021    0.020
       197 -10.0098     49.9493     54.5238   9.3009576173e+01   6.0328100750e+01    0.4294186    0.3498511 -79.36  0.001152133    1.840    0.457
       198  -9.9147     55.1917     44.3926   8.7242310896e+01   6.1591810347e+01     1.199069    0.5985383  -2.28  0.003383845    6.611    0.849
       199  -8.8831    162.9288     53.6833   5.8801221386e+01   3.7473276122e+01    0.4853719    0.2121766 -28.33  0.001263062    2.512    0.602
       200  -8.9537    105.6783     51.6323   7.2210075676e+01   5.1440878949e+01    0.6065731    0.3138213 -28.14  0.002044854    2.073    0.518
       201 -10.3130     90.1255     38.2218   7.1934420953e+01   5.6771052230e+01    0.8332282     0.321334  33.46   0.00284217    3.422    0.708
       202  -8.0791    172.3442     50.2155   5.5935118422e+01   3.5592093215e+01    0.2528555    0.1771595 -42.17  0.001194146    1.444    0.308
       203  -8.8416    111.9828     46.9088   6.8634618057e+01   5.0844615587e+01    0.4483682    0.2661874 -54.94  0.001827308    2.473    0.596
       204  -8.7812    113.4490     42.0358   6.6414464653e+01   5.1265235262e+01    0.5566956    0.3215658   2.07  0.002083449    2.916    0.657
       205  -9.9987     10.3691    207.4006   1.2766567179e+02   2.9371542054e+01     0.565237     0.252353  28.49  0.003113949    2.849    0.649
       206  -9.5609    130.7120     46.3098   6.3476694306e+01   4.6607175700e+01     0.867586    0.3701528 -20.11  0.002778104    3.548    0.718
       207  -8.5462    132.6642     35.8445   5.9305988210e+01   4.7621563874e+01    0.2939267    0.2266626 -44.79  0.000509392    1.435    0.303
       208  -9.7528    123.9941    205.9864   1.0441840309e+02   1.4579798198e+01    0.1894179    0.1672444  52.35            0    1.005    0.005
       209  -7.5365    162.4597     46.4472   5.6616356784e+01   3.8670961427e+01    0.1476657    0.1420718  80.60 3.249303e-05    1.038    0.037
       210  -8.8411     46.6854     20.2914   8.0672454540e+01   6.6743389187e+01    0.3905476    0.2039796 -19.73  0.001933413    2.036    0.509
       211  -8.9321    210.7424    203.2265   8.6039724227e+01  -1.5681732683e-01    0.2461815    0.1995881  39.83 0.0007886814    1.313    0.238
       212 -10.4279    242.1041    201.3516   7.9888344845e+01  -4.9996890041e+00    0.2236204    0.1892809   7.10 0.0002949363    1.121    0.108
       213  -8.2152     42.1973     27.8934   8.6100369002e+01   6.6142826706e+01    0.2341569    0.1428528 -17.15 0.0002333364    1.627    0.386
       214 -10.0476     37.8173     41.9933   9.3674988928e+01   6.4149017475e+01    0.3807166    0.3368443 -67.18  0.001498163    1.559    0.359
       215 -10.2962     35.8979     37.9924   9.3035075832e+01   6.5099261794e+01    0.4795049    0.2483744 -26.11 0.0003637956    2.004    0.501
       216  -9.0874     71.0544     26.2134   7.3499972176e+01   6.2078744832e+01    0.3999788    0.2583601  16.83  0.001582323    1.629    0.386
       217  -9.1257    191.5230    193.4273   8.8011397389e+01   4.8107559961e+00    0.6523919    0.3577425 -63.59  0.002108035    5.194    0.807
       218 -10.0181     69.3045     41.0333   8.0394067134e+01   6.0071526700e+01    0.8625249    0.3616714 -39.29  0.002121605    2.244    0.554
       219  -9.9064     76.2466     32.2843   7.4232983785e+01   6.0277901325e+01    0.5962836    0.3245867  45.22  0.001686467    1.924    0.480
       220  -7.1203    134.6848    201.7152   1.0147907267e+02   1.3578932428e+01     0.130465    0.1053874   6.74  0.000579371    1.582    0.368
       221  -8.9017     84.5973     21.7554   6.6843198540e+01   6.0148173607e+01    0.2321049    0.2125383 -19.29 0.0007164583    1.231    0.188
       222  -7.9372    142.7643     44.4081   6.0010256687e+01   4.3941085926e+01     0.317413    0.1297512  52.39  0.001169997    2.251    0.556
       223  -9.1399    110.2930     33.0841   6.3870877635e+01   5.3245889398e+01    0.3532547    0.2315596 -43.95  0.001001768    1.772    0.436
       224  -8.8480    104.9264     40.8593   6.8391340958e+01   5.3317943777e+01    0.3662311    0.2357416 -49.49   0.00114922    1.960    0.490
       225  -8.4385    106.0574     36.4422   6.6357480785e+01   5.3718990369e+01    0.3459873     0.207174  32.41  0.001153182    1.746    0.427
       226  -9.0417    139.3927     39.7751   5.9169788111e+01   4.5433482531e+01    0.4587817    0.2452498 -33.71  0.001598826    1.914    0.478
       227  -8.8576    211.8335    198.4475   8.4937149975e+01   3.9241660055e-01    0.2301509      0.18154  -5.35 0.0003010108    1.213    0.175
       228  -8.4429     53.7663     39.1353   8.5776484046e+01   6.2727652302e+01     0.187325    0.1662917 -32.15 0.0009331064    1.238    0.193
       229  -9.1152    144.1430     36.6496   5.7073012529e+01   4.4674002372e+01    0.2772368    0.2257417 -59.20  0.000622598    1.412    0.292
       230  -8.8084    118.8947     34.5055   6.2145535873e+01   5.1086651150e+01      0.33546    0.1955101 -31.21 0.0007118428    1.761    0.432
       231  -9.3088    101.0154     32.1673   6.6132312570e+01   5.5406055966e+01    0.4663416      0.24664 -30.52 0.0008331303    1.904    0.475
       232  -8.1210     96.8291     33.1982   6.7798264572e+01   5.6147751547e+01    0.2308922    0.1544713  16.29 0.0004192023    1.681    0.405
       233  -7.4106    138.9412    199.0037   1.0012951795e+02   1.3358055027e+01    0.1612597    0.1376063  43.54            0    1.054    0.051
       234  -9.4023     60.3767     33.7626   8.0880696108e+01   6.2679165010e+01    0.4319687    0.2514908 -47.29  0.001540896    2.037    0.509
       235  -6.7942    132.9949    198.8214   1.0139586304e+02   1.4440422178e+01    0.1671296   0.09496046  40.59 0.0007813115    1.590    0.371
       236  -8.4713    212.1780    193.9009   8.4004346383e+01   1.0445686623e+00    0.2144838    0.1731098  25.60 0.0003931235    1.124    0.110
       237  -9.0651    144.0910     26.0620   5.3460216080e+01   4.6010037654e+01    0.3428403    0.1842891 -27.43  0.001515964    1.969    0.492
       238  -7.3153    215.4158     27.5618   4.3359512844e+01   2.7795602481e+01     0.133886    0.1213604 -74.46 0.0001529056    1.025    0.024
       239  -8.2190    109.7308     26.3754   6.1397210558e+01   5.4238596835e+01    0.2261863    0.1818223 -34.09  0.001246275    1.354    0.262
       240 -10.3933    180.0242    189.4171   8.9628626920e+01   7.6306894288e+00    0.2523391    0.2372633  14.58 0.0001659682    1.064    0.060
       241  -8.4276    128.5739     25.7918   5.6596702798e+01   4.9882180175e+01    0.2604913    0.2199349 -48.70 0.0008226987    1.355    0.262
       242  -7.9544    238.6876    189.1528   7.8138372662e+01  -2.7226911937e+00    0.1926695    0.1560273 -36.23  0.001018302    1.431    0.301
       243  -8.3455    132.1125    189.0707   1.0002068275e+02   1.6557405363e+01    0.1997605    0.1834143  48.32 0.0003057914    1.014    0.014
       244  -7.1739    222.7457    187.7124   8.0779551220e+01   1.7747206738e-01    0.1319927    0.0929463   1.45 0.0006864468    1.479    0.324
       245  -9.1175     64.9423    184.0135   1.1455859210e+02   2.8279073529e+01     0.187142     0.160676  82.38            0    1.028    0.027
       246  -8.8481    201.1301    173.6029   8.2129778856e+01   6.4552691112e+00    0.2369904    0.2090787 -24.14 0.0004164542    1.137    0.121
       247  -8.4046    111.6657     20.6637   5.8640347194e+01   5.4471567597e+01    0.3971903    0.1703475 -19.51  0.001569775    2.705    0.630
       248  -8.0708    186.7608    171.6329   8.4686192618e+01   9.5945751151e+00    0.2537962    0.1910502 -70.10  0.001130342    2.011    0.503
       249  -7.8066    247.8338    169.8420   7.2614294121e+01  -1.3597152449e+00    0.1705834    0.1523666 -32.99  0.000633777    1.321    0.243
       250  -8.3254    230.2917    168.8160   7.5506674431e+01   1.8449717392e+00    0.3834636    0.2033223 -55.04  0.001402371    3.746    0.733
       251  -8.5207     65.7684    168.2976   1.1241794982e+02   3.1761808642e+01    0.1965378    0.1646516 -79.33 0.0003509985    1.088    0.081
       252  -9.1504    102.6698     20.9516   6.1113202010e+01   5.6462999737e+01    0.3476318    0.2774112 -45.22 0.0008048526    1.527    0.345
       253  -7.6224    128.9426    166.0062   9.6665358103e+01   2.2056482642e+01    0.1708471    0.1593354 -63.01 0.0009409338    1.101    0.092
       254  -8.9560     40.8779     20.5725   8.3426129738e+01   6.7468463233e+01     0.302172    0.1540755 -36.29 0.0008109045    1.742    0.426
       255  -7.2201    151.2928     20.6387   5.0298488761e+01   4.4800424318e+01    0.1461859    0.1032055 -62.75 0.0005105642    1.701    0.412
       256  -6.9719    220.3182    149.7413   7.3194289283e+01   6.9201091229e+00      0.13046    0.1164145 -81.77 0.0002708535    1.541    0.351
       257  -8.1825    134.0000    148.0192   9.1782235422e+01   2.5100170732e+01    0.3409378    0.1920812 -52.54   0.00122404    1.829    0.453
       258  -8.0531    133.3107    144.6472   9.1220399364e+01   2.5999043751e+01    0.2837194    0.1407587 -49.27  0.001090527    2.027    0.507
       259  -9.1196     67.1965    144.4551   1.0856030650e+02   3.7259629930e+01    0.5517721    0.2914164  55.95  0.002413343    2.227    0.551
       260  -8.4903    236.9864    145.7672   6.9292902453e+01   4.3879539866e+00    0.1761439    0.1158818  42.33 0.0005542939    1.626    0.385
       261  -7.3331    189.4565     15.4961   4.3158961625e+01   3.5614940470e+01    0.1360137    0.1238097  82.59 4.689179e-05    1.033    0.032
       262  -7.2028    158.5367    145.5547   8.5287494971e+01   2.0593623654e+01    0.1544227    0.1472219   8.17 9.633699e-05    1.052    0.049
       263  -8.7800    112.5466    134.0580   9.4275579934e+01   3.2477847203e+01    0.3885203    0.2714398  79.48  0.001651759    2.048    0.512
       264  -9.8416    154.5883     27.1454   5.1861867410e+01   4.3221502256e+01    0.5647708    0.2437763  45.78  0.002187324    2.338    0.572
       265  -9.1297    135.5246    132.5007   8.7881674658e+01   2.8299558049e+01    0.5331642     0.277036 -46.34  0.002080731    1.912    0.477
       266  -9.3119    131.8014    131.1847   8.8526355480e+01   2.9365798243e+01    0.3727235    0.2734665 -89.38  0.001191987    1.964    0.491
       267  -8.8425     83.4404    131.9375   1.0184450700e+02   3.7968662136e+01    0.6376163    0.3511043  71.05  0.002214096    3.473    0.712
       268 -10.8265     70.2008    126.2498   1.0449653771e+02   4.1296785626e+01    0.8341575    0.6708227 -19.76  0.001523479    1.570    0.363
       269 -10.1629     58.2046    124.5018   1.0764504214e+02   4.3292172590e+01    0.6595656    0.4000408  77.90  0.002218363    2.327    0.570
       270  -9.8150     98.4405    128.4691   9.6908898403e+01   3.6350787880e+01    0.6330621    0.3894758  74.50  0.002054694    2.797    0.642
       271  -8.0770    160.3903    128.2694   8.0722624450e+01   2.3875283949e+01    0.3175534    0.1504176 -39.11  0.001146279    2.163    0.538
       272  -9.1752    126.5686    128.9372   8.9357574543e+01   3.0945353886e+01    0.3180586     0.249637   1.79  0.001156071    1.684    0.406
       273 -10.0172    117.2753    125.3684   9.0993191020e+01   3.3616726367e+01    0.6767507    0.5008762  85.94  0.001205149    1.874    0.466
       274  -9.8540    111.0274     89.8061   8.3271028671e+01   4.2926488325e+01     1.003884    0.4753369  33.94  0.003624301    2.527    0.604
       275 -10.1894    139.5817    104.7627   7.9687584044e+01   3.3580221549e+01    0.7916732    0.4050037 -49.51   0.00247737    2.056    0.514
       276  -8.0980    102.2358     25.7298   6.3184852234e+01   5.5983593318e+01    0.3080617    0.1337156  35.76  0.001188442    2.554    0.608
