#   1 NUMBER                 Running object number                                     
#   2 MAG_AUTO               Kron-like elliptical aperture magnitude                    [mag]
#   3 X_IMAGE                Object position along x                                    [pixel]
#   4 Y_IMAGE                Object position along y                                    [pixel]
#   5 X_WORLD                Barycenter position along world x axis                     [deg]
#   6 Y_WORLD                Barycenter position along world y axis                     [deg]
#   7 A_WORLD                Profile RMS along major axis (world units)                 [deg]
#   8 B_WORLD                Profile RMS along minor axis (world units)                 [deg]
#   9 THETA_WORLD            Position angle (CCW/world-x)                               [deg]
#  10 FWHM_WORLD             FWHM assuming a gaussian core                              [deg]
#  11 ELONGATION             A_IMAGE/B_IMAGE                                           
#  12 ELLIPTICITY            1 - B_IMAGE/A_IMAGE                                       
         1 -12.3074    195.6520     42.9146   4.3843182282e+01   3.1105844979e+01    0.9226859    0.8661912  46.19  0.003758477    1.261    0.207
         2 -11.9085    203.5357     34.7962   4.0834941515e+01   3.0321657088e+01    0.6154137    0.5876849 -72.55  0.001249054    1.168    0.144
         3 -12.1164    227.3821      8.5012   3.2571835665e+01   2.8056948516e+01    0.8297799    0.6525931 -67.56  0.004414647    1.047    0.045
         4 -11.5559     41.6593      8.3512   6.9069135824e+01   6.9166602697e+01    0.3740915     0.236838  21.07  0.002283555    1.405    0.289
         5 -10.7044     59.8780      4.2485   5.9637816025e+01   6.6550477891e+01    0.3139069    0.2001734 -18.55  0.001885065    1.602    0.376
         6 -10.7191     49.0788      3.3917   6.3346872545e+01   6.8515804717e+01    0.2557572    0.2309578  66.13    0.0017719    1.719    0.418
         7 -10.0782     78.8469    237.1464   1.1125089042e+02   1.4441997710e+01    0.3158905    0.2165225 -52.87  0.001629272    1.783    0.439
         8 -10.9310    127.8407    248.2501   1.0241709583e+02   5.1482849460e+00    0.4238833    0.2524025 -42.81  0.002303417    2.112    0.526
         9 -10.6973    106.7398    249.2697   1.0681880422e+02   8.1343850237e+00    0.3167484    0.2812756  41.23  0.002171453    1.127    0.112
        10 -10.0758     72.0000    247.9975   1.1363019987e+02   1.3281088618e+01    0.3346621    0.2145244  75.78  0.000743956    1.597    0.374
        11 -10.3035     72.0107    244.7337   1.1334137919e+02   1.3901467212e+01    0.5127319    0.2398389  44.95  0.001592456    1.726    0.421
        12 -18.2166     11.8650    185.3430   1.2114661710e+02   3.3668157293e+01     17.82477     3.574376 -77.78   0.05700432    4.750    0.789
        13  -8.5403     82.8038    194.8239   1.0550921448e+02   2.2973774454e+01    0.1977808    0.1474725  65.67 0.0006112624    1.322    0.243
        14  -8.9175    146.7503    186.0761   8.8744095239e+01   1.4103415810e+01    0.2711273     0.136421 -48.86  0.001108292    2.068    0.516
        15 -12.2523     60.4702    184.1078   1.0955576622e+02   2.8644938071e+01     0.862708    0.7432531  14.86  0.004285261    1.473    0.321
        16 -10.5139    124.8618    244.8586   1.0260978104e+02   6.1968015739e+00    0.5201711    0.1860109 -54.64  0.002219854    3.274    0.695
        17  -9.0323     49.0461    187.8157   1.1275428363e+02   2.9198862633e+01    0.2138892    0.1535961  69.58 0.0006158206    1.301    0.232
        18  -9.3184     99.5514    180.9167   9.9331968668e+01   2.3611415379e+01    0.2532858    0.2073493  18.79 0.0006371401    1.438    0.304
        19  -9.6248    186.8513    174.8841   7.7568377025e+01   8.9039103488e+00    0.3554085    0.3024884 -44.83  0.001196327    1.232    0.188
        20  -9.5550     49.5752    170.6566   1.1062464102e+02   3.3294109598e+01    0.2703097    0.2268012 -37.93  0.001137903    1.463    0.316
        21 -10.5641    102.5708    171.9100   9.7045183831e+01   2.5258238228e+01     0.432538    0.2988758  77.18  0.001943563    1.859    0.462
        22 -10.6120     77.5583    166.2038   1.0265358079e+02   3.0645908804e+01    0.3716658    0.2800726 -42.45  0.001192347    1.499    0.333
        23 -11.2422     73.3632    170.8970   1.0448487627e+02   3.0096261309e+01    0.5257332    0.3136923 -49.32  0.002441075    1.779    0.438
        24 -10.4390     44.4496    169.8403   1.1183868611e+02   3.4096822394e+01    0.3896287    0.2567998 -41.83  0.001994069    1.883    0.469
        25 -14.6220     71.3899    148.0700   1.0131556946e+02   3.6106086456e+01     8.175268     3.994092  79.20  0.008383132    8.480    0.882
        26 -10.0054    135.0535    235.1788   9.9230810324e+01   6.3452041807e+00    0.2385155    0.1679066  79.11  0.001237908    2.107    0.525
        27 -10.2346     90.4904    152.9658   9.6834763709e+01   3.1932191953e+01    0.4739673    0.3531282   1.77  0.001154264    1.908    0.476
        28 -10.1664     92.9888    149.4852   9.5471008417e+01   3.2388122920e+01    0.4856853    0.2943057  41.90  0.002016458    1.673    0.402
        29 -10.3834    103.0818    237.3642   1.0623887563e+02   1.0887077231e+01    0.2333981    0.1905208 -88.34  0.001465012    1.342    0.255
        30 -10.1914    134.4276    147.6819   8.3925164056e+01   2.5129270894e+01    0.8743134     0.158749 -51.65  0.001821292    6.731    0.851
        31  -8.2325    174.9888    149.0000   7.4526701951e+01   1.6502581900e+01    0.2458907   0.08726028  43.94 0.0007565738    2.887    0.654
        32  -9.8421    104.5303    137.5194   8.9721230521e+01   3.3338598698e+01    0.5031528    0.3358522 -13.16  0.001943296    2.526    0.604
        33  -9.3867    105.9248    130.9609   8.7834668431e+01   3.4687072478e+01    0.4001798    0.3142186 -60.98  0.001404238    1.286    0.223
        34 -10.6818     92.4946    137.1687   9.3096541034e+01   3.5548408189e+01    0.2881074    0.2607605 -49.26 0.0004381328    1.087    0.080
        35 -12.5383     42.7640    127.9738   1.0634527701e+02   4.4820566956e+01    0.8500668    0.4671438 -66.14  0.003241568    1.607    0.378
        36 -10.0857    113.6465    129.2828   8.5247752559e+01   3.3622302101e+01    0.3440662    0.3373138  58.99  0.000825864    1.042    0.040
        37  -8.0188    168.2812    231.6691   9.1772241240e+01   1.6591324169e+00    0.1212441    0.1003651  64.84 0.0003941461    1.607    0.378
        38  -9.3645    100.3836    124.7640   8.7985077783e+01   3.7219943670e+01     0.292737    0.2436095 -11.43 0.0004882854    1.438    0.305
        39 -10.1810    119.4223    123.4038   8.2194551921e+01   3.3874800922e+01    0.4223644    0.2630438  15.18   0.00151971    2.702    0.630
        40  -9.0525    135.0000    118.9714   7.6856501080e+01   3.1639841757e+01     0.268832   0.08942799 -45.79 0.0006257089    2.955    0.662
        41  -8.4962    108.8729    118.1331   8.3865959209e+01   3.7212876318e+01    0.2267182    0.2103232  84.59 0.0004275999    1.167    0.143
        42 -10.9870    143.0695    228.6482   9.6608944239e+01   6.2518025348e+00    0.3923653    0.2565271 -58.93  0.002078627    1.868    0.465
        43  -8.7076    231.3408    113.8307   5.5756539871e+01   1.1774780972e+01    0.2177496    0.1933373  78.34 0.0009173105    1.307    0.235
        44  -8.1551    205.7005    110.3373   5.9180431967e+01   1.7688813162e+01    0.1517802    0.1106742 -67.69 0.0007034493    1.660    0.398
        45 -10.0328    118.3242    109.6488   7.8932300042e+01   3.7284694180e+01    0.2542731    0.1976367  87.87  0.001126139    1.743    0.426
        46  -8.8563    163.7567    224.2437   9.1546771089e+01   3.6714923754e+00    0.2049701    0.1019983 -35.28 0.0008983088    2.454    0.593
        47  -9.2699    134.7617    104.7452   7.3116918368e+01   3.4837268371e+01     0.481129    0.1314726 -41.51  0.001311605    3.765    0.734
        48  -8.3051     60.6348     97.3170   9.4004218568e+01   5.0237790094e+01    0.1447265    0.1109348  72.98 0.0007039611    1.774    0.436
        49  -9.0477     73.5161    238.1889   1.1244184112e+02   1.4971440387e+01    0.2800892    0.1563733 -53.19  0.001493062    2.195    0.544
        50 -10.0220    111.2142    203.1417   9.9957222750e+01   1.6624981663e+01    0.2713283    0.1574011  58.24 0.0005970111    1.982    0.495
        51 -10.5501     62.1227    199.6565   1.1098291603e+02   2.4768160465e+01    0.4018957    0.2415237 -57.50   0.00053591    1.736    0.424
        52  -9.3019     65.7893    194.5913   1.0954051306e+02   2.5450586751e+01    0.2771185      0.24869  70.94 0.0006994572    1.054    0.051
        53 -11.5871    183.0169     52.9081   4.8285715707e+01   3.2729678665e+01    0.5339423     0.463293  39.50  0.001148456    1.331    0.249
        54 -10.7907    121.9412    198.2582   9.6689504859e+01   1.5887549515e+01    0.4292825    0.2967029 -80.55  0.002035394    1.905    0.475
        55  -8.7755     89.0232    210.9181   1.0613878660e+02   1.8422514651e+01    0.2044795    0.1739573  66.36 0.0005184614    1.069    0.064
        56 -10.4229    119.5409    246.1500   1.0385819846e+02   6.7779999883e+00    0.2732342    0.1990145 -24.48  0.001450987    2.005    0.501
        57  -9.9443    193.7365    196.0181   8.0322761318e+01   3.6931170652e+00    0.3908182    0.1910045 -54.03  0.001526769    2.990    0.666
        58 -10.6299    115.4237    244.7283   1.0453451531e+02   7.6564025780e+00    0.2982292    0.1926372 -58.70  0.001705628    1.816    0.449
        59  -9.8055    114.2217    195.5047   9.8077872834e+01   1.7805634724e+01    0.2639312    0.1851917 -20.64  0.001200642    2.161    0.537
        60 -10.1958    108.6117    241.4022   1.0555228910e+02   9.2942699605e+00    0.2860552    0.1891136 -19.16  0.001360817    2.918    0.657
