#   1 NUMBER                 Running object number                                     
#   2 MAG_AUTO               Kron-like elliptical aperture magnitude                    [mag]
#   3 X_IMAGE                Object position along x                                    [pixel]
#   4 Y_IMAGE                Object position along y                                    [pixel]
#   5 X_WORLD                Barycenter position along world x axis                     [deg]
#   6 Y_WORLD                Barycenter position along world y axis                     [deg]
#   7 A_WORLD                Profile RMS along major axis (world units)                 [deg]
#   8 B_WORLD                Profile RMS along minor axis (world units)                 [deg]
#   9 THETA_WORLD            Position angle (CCW/world-x)                               [deg]
#  10 FWHM_WORLD             FWHM assuming a gaussian core                              [deg]
#  11 ELONGATION             A_IMAGE/B_IMAGE                                           
#  12 ELLIPTICITY            1 - B_IMAGE/A_IMAGE                                       
         1 -11.4892    119.1867     58.8215   7.8179957547e+01   4.7299006364e+01     2.116357     1.395659 -66.73  0.008592162    2.166    0.538
         2 -12.0543    124.6692     27.7761   6.4732569388e+01   5.1122202653e+01    0.9276087    0.7500572  22.67  0.003645772    1.353    0.261
         3 -12.9240    120.2489     38.6132   7.0288070018e+01   5.0609208559e+01    0.9362447    0.5920539 -58.24  0.001957843    2.044    0.511
         4 -10.4419     59.9837     24.5064   8.5364836649e+01   6.6187665265e+01    0.6909593     0.279797 -36.33  0.002344351    2.567    0.610
         5 -12.2223     60.5589     45.1670   9.4001059700e+01   6.1860790583e+01     1.060048    0.5368823 -49.93  0.004667146    1.817    0.450
         6 -11.2484    178.5161     21.1905   5.2595117507e+01   3.7316858494e+01    0.6563206    0.3729656  43.29  0.002099704    1.941    0.485
         7  -9.8085     22.0639      4.2349   9.6858011166e+01   7.5357388757e+01    0.3537932    0.1685251 -60.66  0.001140128    2.546    0.607
         8 -11.2148      5.2044      9.3293   1.1239567924e+02   7.5577238440e+01    0.8574874      0.56095 -73.27   0.00519333    1.477    0.323
         9 -11.4071      3.5156      1.7612   1.1068129247e+02   7.7295735736e+01     0.447528    0.1962925   1.51  0.002195803    2.882    0.653
        10 -12.4590     19.0365     22.6170   1.0759532471e+02   7.1757286690e+01     1.020075    0.6561438  31.56  0.004597736    1.798    0.444
        11 -12.0218     22.5833     11.2158   1.0028456504e+02   7.3905286242e+01    0.5337981    0.4262306  -3.54  0.003416793    1.330    0.248
        12 -12.3270    104.7327     13.0222   6.3114252470e+01   5.8245817209e+01    0.8685961    0.4779042 -36.08   0.00374572    1.832    0.454
        13 -12.4079    105.9736     20.2074   6.6210668140e+01   5.6982792918e+01     0.460874    0.2944354 -32.55 0.0003725599    1.557    0.358
        14 -12.4273    105.5869     33.0549   7.2109330161e+01   5.5127072256e+01    0.9359007    0.5548847   7.14  0.002962771    3.274    0.695
        15 -11.7726    111.2088     24.9188   6.6924468411e+01   5.4997743445e+01    0.5122851    0.2804971 -43.12  0.001886479    1.936    0.483
        16 -11.1745    165.1253     17.6619   5.3209595629e+01   4.1368420128e+01    0.5098574    0.3224702  33.13  0.001558513    1.862    0.463
        17 -12.3209    163.2541     28.4590   5.7351196280e+01   4.0612147625e+01    0.6609378    0.4700696  26.92 0.0006616481    1.656    0.396
        18 -10.7665    198.7004     28.5362   5.2425474970e+01   3.1144439862e+01    0.6794461    0.4056995 -11.41   0.00257135    1.899    0.474
        19 -12.4099     16.8333     13.4857   1.0542582236e+02   7.3929635665e+01    0.5338075    0.3824596 -59.98 0.0006044069    1.265    0.209
        20 -10.6235    121.7130     19.5434   6.1907475844e+01   5.3014926853e+01     0.746759     0.494142  85.49  0.003217062    1.927    0.481
        21 -10.9797    138.5657     21.5267   5.9148889438e+01   4.8230615786e+01     1.129654    0.3216609  48.81  0.003360362    3.447    0.710
        22 -10.6229    146.8426     16.2556   5.5539172504e+01   4.6581250304e+01    0.6128107     0.465685  56.29   0.00300846    1.268    0.211
        23 -11.9762    132.1278     14.7511   5.7617166739e+01   5.0798349153e+01     1.418656    0.6300306  77.91  0.004309404    3.012    0.668
        24  -9.8007    141.4820     12.3114   5.4883973577e+01   4.8499531825e+01    0.2577676    0.2201743  -0.26 0.0006855915    1.257    0.204
        25 -10.7671     90.9847     20.9558   7.1145784944e+01   6.0483603065e+01    0.6489975    0.4496118 -27.56  0.002351224    1.435    0.303
        26 -11.6589     85.6510     14.3954   6.9607630958e+01   6.2674333035e+01    0.8725239    0.4244879 -31.85  0.003654656    2.000    0.500
        27  -9.2141     87.9025      7.6204   6.5220675429e+01   6.3053554957e+01    0.6198364     0.362324  54.00  0.002860062    1.658    0.397
        28  -9.9470     49.9050      6.4765   8.0372989516e+01   7.1087138697e+01    0.2819577    0.1466324  40.25 0.0007117369    2.011    0.503
        29 -10.5763     32.7590     12.6051   9.4166995235e+01   7.2512559422e+01    0.2494646    0.2105286  61.90 0.0005042609    1.637    0.389
        30 -11.7297     36.0841     17.8018   9.4798625458e+01   7.1066297189e+01    0.6969378    0.2937466 -38.41  0.002218231    2.391    0.582
        31 -12.3371     48.7744     12.9249   8.4868839576e+01   7.0180034788e+01    0.7118477    0.4030865  37.47  0.003523922    1.883    0.469
        32 -10.2327     63.0634      6.4786   7.3930268612e+01   6.8646632854e+01     0.384392    0.2775156  -6.06  0.001499364    1.481    0.325
        33 -10.0598     61.7951     11.9565   7.7778642015e+01   6.8055618386e+01    0.3743313    0.1634003 -33.86 0.0006094371    2.206    0.547
        34 -10.7041     65.5087     10.1994   7.5083540858e+01   6.7607646202e+01    0.5399838    0.1909726  46.80   0.00192118    2.830    0.647
        35 -12.0411     68.6777     18.1766   7.8173490068e+01   6.5708629567e+01    0.6078255    0.5222133  39.31  0.002855685    1.206    0.171
        36 -12.2016    239.1280     16.1173   4.5069534076e+01   2.2620160835e+01    0.7843465    0.4908514  60.91  0.002811508    1.747    0.428
        37 -11.7071    233.8884      7.1000   4.3064953941e+01   2.4676622832e+01    0.6381376    0.3322985  64.10  0.002544499    2.027    0.507
        38 -11.0106    218.7061      3.1741   4.3049162012e+01   2.8661281373e+01    0.3359638    0.2953503 -26.86  0.001187425    1.127    0.112
        39 -11.0894    224.8112      2.2117   4.2357374002e+01   2.7263867915e+01     0.618425    0.3142485 -82.28     0.002386    2.232    0.552
        40 -10.4620    186.5126     15.2066   4.9636382228e+01   3.5804623139e+01    0.3300599    0.2869328  57.73  0.000637585    1.177    0.150
        41 -11.6133    192.6858      6.9787   4.6347004602e+01   3.4968976681e+01    0.8346179    0.5063566  11.55  0.003623961    2.203    0.546
        42 -10.0352    192.1561     16.0203   4.9269742966e+01   3.4217916091e+01    0.3798282    0.2706832  19.49  0.001826738    1.714    0.417
        43 -11.6981     26.5544     27.6803   1.0483142969e+02   6.9987569463e+01    0.5413666    0.3733951 -70.24  0.002865631    1.493    0.330
        44 -10.2150    225.9925     15.6630   4.5969510875e+01   2.5717753820e+01    0.3929379    0.1708505 -28.24  0.001062821    1.987    0.497
        45 -11.8900    244.7594      6.5755   4.2225622569e+01   2.2257282515e+01    0.7933313     0.406584 -45.21  0.003100813    1.684    0.406
        46 -11.2899    211.8425      9.7681   4.5474369032e+01   2.9755819445e+01    0.5314505    0.3267986  10.09  0.001594846    2.182    0.542
        47  -9.8717    168.8936     10.0905   5.0002219748e+01   4.1121596072e+01    0.3330619    0.2273891  45.62  0.001279919    1.529    0.346
        48  -9.1055    163.3709     10.2004   5.0755209863e+01   4.2638641232e+01    0.2571917    0.1735617 -71.93 0.0009135659    1.657    0.397
        49  -9.6735    162.9285      6.0093   4.9282146399e+01   4.3169181409e+01    0.2467263    0.2089275 -24.42 0.0004505654    1.213    0.176
        50 -10.1910    184.9736      6.8001   4.7052919320e+01   3.7047627223e+01    0.4780171    0.1830134 -32.71  0.001403199    2.321    0.569
        51  -9.2722    157.3479      8.2915   5.0863944868e+01   4.4502078566e+01    0.2847112    0.1456134 -13.81  0.001080072    2.194    0.544
        52  -9.9887    151.6747      7.6010   5.1402233694e+01   4.6150846210e+01    0.4794528    0.2345206  62.59 0.0008749615    1.878    0.467
        53 -10.7085     82.1077      1.3283   6.3518190930e+01   6.5168480714e+01    0.3375625    0.1271894  59.51 0.0003769421    2.654    0.623
        54  -9.5104     78.4936      7.4830   6.8328722929e+01   6.5241919334e+01    0.3093666    0.1817402  55.61  0.001437407    1.749    0.428
        55 -11.1728     76.6098      3.7762   6.6844974848e+01   6.6139404018e+01    0.8553861    0.3709113  54.52  0.003519536    2.257    0.557
        56  -9.7032      1.2608      7.4014   1.1481295632e+02   7.6176195328e+01    0.1932524    0.0851845 -67.45 0.0001486138    1.866    0.464
        57 -10.6746     41.3354      4.6719   8.4080208608e+01   7.2781851777e+01    0.4315451    0.2440637 -18.47  0.001858278    2.280    0.561
        58 -10.3234    175.4553      5.1796   4.7516739538e+01   3.9786851606e+01    0.4525675    0.2755058  86.00  0.002034816    1.711    0.416
        59 -11.2855    205.0566      2.5974   4.3915260504e+01   3.2141506789e+01    0.4508041    0.3539313  80.66  0.001144719    1.275    0.216
        60 -10.7867    142.5230      2.9397   5.0897320935e+01   4.9146198541e+01    0.3918875    0.3374569  42.80  0.001330853    1.162    0.140
        61 -11.8294    133.2531      2.6903   5.2257281352e+01   5.1744573499e+01    0.5075013    0.3012444  65.35   0.00118122    1.575    0.365
        62  -8.6524     55.2724      4.2743   7.6200900283e+01   7.0468994807e+01    0.1310955   0.09607813   5.99 0.0002377676    1.485    0.327
        63  -9.3160    157.6686      2.6747   4.8707755864e+01   4.4941135782e+01    0.2548736    0.2115497  12.08  0.001324082    1.336    0.251
        64  -8.8210    161.4803      1.0000   4.7617550173e+01   4.4026949778e+01    0.3747552    0.1332001  69.34  0.001322994    2.551    0.608
        65  -9.5960    117.0130      2.4997   5.5156468206e+01   5.6197271900e+01    0.2978621    0.2777134  57.54  0.001519002    1.036    0.035
        66 -10.3912    111.1280      2.0112   5.6157244452e+01   5.7814608276e+01    0.5445547    0.2672361  75.62  0.002107887    2.362    0.577
        67 -10.6343    105.3261      1.7573   5.7340301937e+01   5.9362215873e+01    0.5012717    0.2615322  78.41  0.001467467    2.402    0.584
        68 -10.2647     13.0210      2.0648   1.0275029861e+02   7.6616179930e+01     0.258956    0.2063755  -7.02  0.001184543    1.301    0.232
        69  -9.4046    122.6021      1.2603   5.3493549430e+01   5.4802346433e+01    0.4507802    0.1151802  66.99  0.001348457    3.523    0.716
        70 -11.5373     62.9401    150.0352   1.1501784394e+02   3.7167402115e+01    0.4615421    0.3628007  29.57  0.001904706    1.412    0.292
        71  -9.6194    239.8264    146.8284   7.6403943443e+01   7.1448323814e+00    0.1916613    0.1414989  11.06 0.0007498162    1.174    0.148
        72 -10.9146    249.5572    142.8636   7.4145625143e+01   5.9943347036e+00    0.5312564    0.2095725 -25.97  0.002504797    2.351    0.575
        73 -10.6718     33.0739    144.2665   1.2223352296e+02   4.1786056256e+01    0.2686966    0.1930236  61.01 0.0007732855    1.171    0.146
        74 -10.0547    133.3643    140.3035   9.5793684749e+01   2.7952160608e+01    0.3116686    0.2525552  31.14  0.001409669    1.220    0.180
        75 -11.9543     29.8321    132.8746   1.2218461002e+02   4.4633267775e+01    0.5566424    0.3514868  79.67 0.0003516717    1.417    0.294
        76 -11.6585     23.2658    136.1010   1.2423079497e+02   4.4498882653e+01    0.5000524    0.3360675  58.19   0.00187444    1.273    0.214
        77  -8.6929    186.3015    139.3540   8.4156855861e+01   1.7871393575e+01    0.1429916   0.09920125   9.26 0.0007038473    1.704    0.413
        78 -10.4152     80.3953    136.3379   1.0862174115e+02   3.7759793735e+01    0.4205742    0.3412664  -5.67  0.001361364    1.786    0.440
        79 -10.2258     47.4483    135.1675   1.1751932480e+02   4.2306323935e+01    0.4052005    0.1874654 -60.16   0.00175487    2.164    0.538
        80  -9.1463     44.2951    133.2843   1.1819616389e+02   4.3081267889e+01    0.2246902    0.1246154  63.08 0.0006808244    1.759    0.431
        81  -9.1933     40.7493    138.1691   1.1965961439e+02   4.2359244318e+01    0.2233779   0.09008682  61.38 0.0009392474    2.717    0.632
        82  -9.9248     26.8494    139.8260   1.2353863724e+02   4.3352410989e+01    0.2180004    0.1673787  55.68 0.0003523528    1.147    0.128
        83 -10.1174     69.0654    136.0586   1.1166642087e+02   3.9425538155e+01    0.2269586    0.1389833  67.12  0.001080804    1.744    0.427
        84  -8.9252    216.6060    135.2023   7.7757927559e+01   1.2683271074e+01    0.1771716    0.1152299 -14.17 0.0005350208    1.576    0.366
        85  -9.7567     93.3574    135.1559   1.0495437507e+02   3.6020603584e+01    0.3128481    0.1990056 -84.23  0.001186295    2.012    0.503
        86 -10.3643     92.8679    129.3885   1.0410450102e+02   3.7354726792e+01    0.3892927    0.2899815  87.97  0.001839523    1.513    0.339
        87  -9.2882     87.2911    135.3436   1.0660842791e+02   3.6936171276e+01    0.1296095    0.1065413 -24.65 0.0005124724    1.655    0.396
        88  -9.8014    107.3381    146.0698   1.0315674310e+02   3.1435152038e+01    0.2231228    0.1786563  32.54  0.000615551    1.272    0.214
        89  -9.8029     73.6539    132.8759   1.0995369215e+02   3.9501582781e+01    0.2707499    0.1806799  47.65  0.001405681    1.377    0.274
        90  -9.7874     62.1647    131.8896   1.1302051795e+02   4.1275910628e+01    0.3684317    0.2033901 -47.98  0.001764322    2.212    0.548
        91 -10.7732     18.5302    124.3802   1.2470712762e+02   4.7541446167e+01    0.3617782    0.1688006 -72.73  0.001872264    1.890    0.471
        92  -9.5707      2.1425    125.7505   1.2940167697e+02   4.8396371568e+01    0.2829654    0.1263927  71.32  0.001237378    1.925    0.481
        93 -10.1831      4.4407    120.3142   1.2849313272e+02   4.9473949550e+01    0.3905254    0.1857349 -70.89  0.001618651    1.877    0.467
        94  -9.7022      7.1073    114.8839   1.2741190925e+02   5.0544019841e+01    0.2613483    0.1727482  69.55 0.0009657667    1.279    0.218
        95 -11.3075      2.3697    112.1213   1.2866955468e+02   5.1470541366e+01    0.3083665    0.1881265 -89.14 0.0007903641    1.339    0.253
        96 -12.0050      3.7924    105.6005   1.2786397646e+02   5.2896612993e+01    0.4584615    0.3134916  77.38 0.0007733951    1.210    0.174
        97  -8.7371    223.7357    126.6794   7.4730225473e+01   1.2476228869e+01    0.1336727   0.09104326   8.03 0.0002229855    1.555    0.357
        98 -10.2640     82.6670    124.5341   1.0610453446e+02   4.0048813160e+01    0.4713568    0.3451119   4.59  0.001937089    2.108    0.526
        99 -10.7462     54.7358    123.2738   1.1401148949e+02   4.4183104226e+01    0.7151492     0.331347  28.86  0.002744161    2.352    0.575
       100 -10.3678     45.7628    120.3643   1.1630423781e+02   4.5900875375e+01    0.3670911    0.2183386  62.67  0.001338946    1.672    0.402
       101 -11.6146    104.6085    121.7566   9.9472132627e+01   3.7022471562e+01    0.4605551    0.4228175 -89.32  0.001463492    1.096    0.087
       102  -9.9467     68.2783    123.8428   1.1012835196e+02   4.2301034042e+01    0.2411803    0.1815664  -7.99  0.001239131    2.072    0.517
       103  -8.9004    137.9133    122.7345   9.1088498909e+01   3.0466152310e+01    0.2330347    0.1069715  27.92 0.0006985411    4.009    0.751
       104  -9.1188    221.3108    120.6547   7.3785158907e+01   1.3733870798e+01    0.1271989    0.1047664 -58.24 0.0005184558    1.705    0.414
       105  -9.3927    148.1982    120.0307   8.8034688274e+01   2.8880911307e+01     0.224988    0.1934289   3.19 0.0006035144    1.308    0.235
       106 -10.8101     33.3648    119.5440   1.1992978582e+02   4.7367781433e+01    0.2807131    0.2113068  67.32 0.0003548734    1.182    0.154
       107  -9.2110    210.9678    118.9678   7.5130007162e+01   1.5997142307e+01    0.2563259    0.1653511 -70.52 0.0009498982    4.058    0.754
       108  -8.8828     81.5513    117.4687   1.0518252438e+02   4.1826654999e+01    0.1377918    0.1276875  76.74 7.427847e-05    1.019    0.019
       109  -9.6265    113.1808    116.1099   9.5968320537e+01   3.6666348221e+01    0.2103136    0.1969743   4.15 0.0004053899    1.215    0.177
       110 -10.5486    107.9060    112.3220   9.6586257988e+01   3.8472720714e+01    0.7115924    0.4001279 -73.27  0.002694858    2.853    0.650
       111 -10.6890    101.8177    109.9549   9.7784248537e+01   4.0112507592e+01    0.4593845    0.3437069  32.15  0.001918014    1.434    0.303
       112  -9.8752    103.1545    106.0951   9.6536348638e+01   4.0722620663e+01    0.3241518    0.2100707  41.50 0.0003916557    1.513    0.339
       113  -9.9699     67.3117    113.6668   1.0878468522e+02   4.4798787172e+01    0.3455134    0.2160303  81.82  0.001632388    1.927    0.481
       114  -9.7279     66.7792    110.6055   1.0842589572e+02   4.5592469359e+01    0.3238189    0.1848286  36.55  0.001556252    1.756    0.430
       115 -10.4209     17.3680    100.8915   1.2312615708e+02   5.3129186463e+01    0.3355122    0.2945993  58.32  0.001301763    1.173    0.147
       116  -9.3598     26.1326     86.7865   1.1845818596e+02   5.5866983641e+01    0.7866599    0.5211353  49.83  0.004485327    1.541    0.351
       117 -11.3271      9.8302     97.3226   1.2532525813e+02   5.4485612671e+01    0.7190022    0.4547022  73.91  0.004263211    1.411    0.291
       118 -11.9576      7.2429     88.7820   1.2551036308e+02   5.6676834289e+01    0.6219277    0.4365117  31.64  0.002187275    1.586    0.369
       119 -11.1228     37.7421    103.5912   1.1668010342e+02   5.0732562410e+01    0.7480171    0.3637105  44.89  0.003620996    2.003    0.501
       120 -11.4469     36.2575     92.7426   1.1565659183e+02   5.3508519765e+01     0.931947    0.4121097  45.56  0.000798331    2.293    0.564
       121 -11.7328     21.8696     95.2012   1.2101885220e+02   5.4160594360e+01     0.583868    0.3900718   9.54  0.003067277    1.955    0.488
       122 -12.0235     18.3615     90.2643   1.2170219272e+02   5.5614279929e+01    0.3539277    0.2598733 -68.72 0.0004578434    1.222    0.182
       123 -13.1189     24.8930    110.4373   1.2161493822e+02   5.0270826410e+01     1.422291    0.8805183 -66.11  0.008132351    1.499    0.333
       124 -11.9223     18.8389    106.1269   1.2313009389e+02   5.1774294551e+01    0.2294038    0.1968578  82.12 0.0002601436    1.048    0.046
       125 -11.8029     43.4202     85.4020   1.1184878846e+02   5.4566539492e+01    0.5367218    0.4082847  19.96  0.001547361    1.564    0.361
       126 -10.9624     37.3344     85.8483   1.1417873924e+02   5.5087258386e+01    0.3598622     0.277145  54.17  0.001645007    1.329    0.247
       127  -9.2301     82.0630    102.6776   1.0212307251e+02   4.5163270243e+01    0.2067025    0.1917789 -29.87 0.0004432663    1.249    0.199
       128 -10.7065     90.9362    103.2235   9.9506913429e+01   4.3555806578e+01    0.4732973    0.3804281  56.08  0.001707175    1.233    0.189
       129 -11.3037     79.8198    108.6160   1.0402955986e+02   4.4138276174e+01    0.7746632     0.462104  57.23  0.003566559    1.840    0.456
       130 -10.1702     85.6996    104.2195   1.0132405882e+02   4.4211833839e+01    0.4140952    0.2328772 -44.73  0.001462426    1.988    0.497
       131  -9.0213    126.6675    113.6896   9.1861603842e+01   3.4540374761e+01    0.1477963     0.116991   4.51 0.0007042908    1.673    0.402
       132 -11.1545    170.3262    110.3612   8.0812440713e+01   2.5897919565e+01    0.4299451    0.3855835   5.97  0.001508965    1.125    0.111
       133  -9.4009     93.9124    111.8444   1.0047060960e+02   4.1086500310e+01    0.2882193    0.1873388 -89.94  0.001253893    2.175    0.540
       134  -9.7022     48.7786    112.1433   1.1429880209e+02   4.7502467219e+01     0.230562    0.1625769  52.68  0.001292256    1.360    0.265
       135 -10.1749    130.2276    109.5634   8.9975096860e+01   3.4656633108e+01    0.2674738    0.2259935  55.21  0.001403428    1.170    0.146
       136  -9.9261    120.1143    109.3147   9.2566618705e+01   3.6761200054e+01    0.2497455    0.2038042 -33.64 0.0007345785    1.372    0.271
       137  -9.7628     58.2583    108.1592   1.1069515485e+02   4.7305569403e+01    0.3692342    0.1799086 -83.09   0.00108271    2.622    0.619
       138 -10.1997     57.5312     96.9371   1.0897790758e+02   5.0090216479e+01    0.4156611    0.3247337 -69.04  0.002348581    1.190    0.160
       139  -9.8976     57.8304    102.5481   1.0988592002e+02   4.8702007410e+01     0.313867    0.2123559 -71.24  0.001276999    1.394    0.283
       140 -10.0869     60.7177    100.6825   1.0860144299e+02   4.8774111466e+01    0.2319785    0.1971083  79.72 0.0006326523    1.125    0.111
       141 -10.4018     64.3150     99.1718   1.0712750672e+02   4.8650156307e+01    0.2841567    0.2470753  24.84 0.0008965547    1.320    0.243
       142 -10.5311     68.4827     95.5797   1.0502098904e+02   4.8919064910e+01     0.392314    0.3287934  25.15  0.001924143    1.365    0.267
       143 -11.1183    157.7524    106.1516   8.2501610236e+01   2.9404864926e+01    0.5064057    0.3347622  16.35  0.001482823    2.179    0.541
       144  -9.7145    141.0690     96.3518   8.3886125813e+01   3.4957066510e+01    0.4664522    0.1826631  40.09  0.001550972    2.827    0.646
       145  -9.9687    138.9195     93.0705   8.3532500278e+01   3.6076941118e+01    0.3431514    0.2775599  45.83 0.0009892605    1.206    0.171
       146 -10.8929    143.3178    106.2300   8.5892594602e+01   3.2547689694e+01    0.3795649    0.3057547  47.86  0.001243445    1.199    0.166
       147 -11.8894    145.9247    100.2631   8.3738416071e+01   3.3123361510e+01    0.5557907    0.5005035   5.21  0.002029634    1.201    0.167
       148 -10.4360     47.6576    103.5247   1.1339587096e+02   4.9693309177e+01     0.351662    0.2250752 -34.14  0.001378208    2.178    0.541
       149 -10.7326     52.1225     97.7787   1.1096458979e+02   5.0559406268e+01     1.026418    0.4363134 -75.17  0.004057358    2.622    0.619
       150  -9.4368    120.8046    101.1913   9.0405443979e+01   3.8329442122e+01    0.2066346     0.180923  -6.59 0.0008801446    1.357    0.263
       151 -11.0179     89.8181     89.5303   9.6606566066e+01   4.6885939605e+01    0.6859283    0.3944145 -36.78   0.00285057    2.195    0.544
       152 -10.5499     58.4471     78.4756   1.0479325266e+02   5.4427799896e+01    0.3924617    0.3271208 -74.61  0.001593919    1.137    0.121
       153 -12.8435     52.6285     73.7973   1.0591853954e+02   5.6314325678e+01    0.5505314    0.2988271 -67.86 0.0008404585    1.800    0.445
       154 -10.9211     46.9576     74.4026   1.0828599434e+02   5.6853928279e+01    0.3578649    0.2026415 -68.84            0    1.660    0.398
       155 -10.0014     60.5211     83.4223   1.0516511423e+02   5.2955743645e+01    0.2388678    0.2220641 -83.09 0.0006161457    1.018    0.017
       156 -10.7176     66.7686     81.8895   1.0254915609e+02   5.2437088685e+01    0.6204425    0.4748104 -65.27  0.003320288    1.241    0.194
       157 -11.5439     77.8358     96.9248   1.0222779258e+02   4.7183437283e+01    0.4164442    0.2966489 -71.42 0.0003573702    1.441    0.306
       158 -11.0941     81.6236     92.8164   1.0006225652e+02   4.7533623710e+01    0.6821709    0.4256843  52.15  0.003177982    1.692    0.409
       159 -10.4733     80.6922     83.6547   9.8116759774e+01   4.9823304152e+01    0.5898717    0.5060691 -85.99  0.003215452    1.217    0.178
       160 -11.7095     73.1038     77.9595   9.9280157037e+01   5.2396387257e+01    0.8282763    0.6095725  50.51  0.004253254    1.426    0.299
       161 -10.1938    210.9255     97.4837   6.9988242769e+01   1.9046743886e+01    0.3911031    0.2668959  24.85  0.001595531    1.617    0.382
       162  -9.5763    160.5582     93.6905   7.8612697652e+01   3.1018648720e+01    0.4894571    0.2550908  67.28  0.001645021    3.222    0.690
       163 -10.6929    152.7037     92.0062   7.9925366045e+01   3.3138177147e+01    0.5019348    0.3450382  49.16  0.002323273    1.424    0.298
       164 -10.3253    117.4498     93.1567   8.9249405021e+01   4.0718127825e+01      0.37749    0.3000299  21.52  0.001473583    1.497    0.332
       165 -10.8014    124.8631     93.5645   8.7320081425e+01   3.9065683672e+01    0.6645302     0.316387  43.95  0.002200978    2.070    0.517
       166 -11.6366    120.7453     87.0547   8.6653735376e+01   4.1298590241e+01    0.6588771     0.446662 -56.58  0.002973984    1.622    0.383
       167 -12.8007    101.7863     90.0747   9.3006705487e+01   4.4537245742e+01    0.5301307    0.4040131 -42.69 0.0005548703    1.365    0.267
       168 -10.1660    104.9390     76.5385   8.8215908041e+01   4.6863039552e+01    0.4593693    0.4389649  -7.73    0.0025154    1.125    0.111
       169 -11.3226    113.4233     84.3440   8.7965511105e+01   4.3428489515e+01    0.6757885    0.3754718 -37.84  0.002099584    1.983    0.496
       170  -9.2031    211.6023     88.2144   6.7528124393e+01   2.0206544100e+01    0.1989397    0.1292283 -15.42  0.000753955    1.612    0.380
       171 -10.4434    183.5911     85.8249   7.1744584274e+01   2.6958554448e+01    0.6529353    0.2686686 -42.58  0.002358411    2.566    0.610
       172  -9.3219    136.5527     85.8971   8.2118298745e+01   3.8013463717e+01    0.4974804     0.163443  47.33  0.001572576    2.969    0.663
       173 -11.3345    143.1729     84.0220   7.9928535730e+01   3.6843310119e+01    0.3520739    0.3359375 -40.44  0.001004012    1.067    0.062
       174 -10.3735    165.7736     83.5178   7.4652573746e+01   3.1571786850e+01    0.4430227    0.3588389 -61.65   0.00163342    1.447    0.309
       175 -10.5187    127.4206     83.2906   8.3747904204e+01   4.0598548273e+01    0.3272841    0.3048878 -20.51  0.001277967    1.133    0.118
       176 -11.0984    109.2600     80.6477   8.8123968686e+01   4.5087250286e+01    0.4381805    0.3589006  -7.61  0.001088367    1.553    0.356
       177 -10.4011    232.5287     77.3373   6.1705537845e+01   1.7128939524e+01     0.461462    0.2611139 -36.08  0.002238807    1.634    0.388
       178 -11.7174     14.0323     74.8704   1.2152609953e+02   5.9642146269e+01    0.4932633    0.3230279 -81.02  0.001943991    1.290    0.225
       179  -9.4405    170.1873     77.8192   7.2097190025e+01   3.1466327228e+01    0.2293025    0.2113819 -71.36 0.0006534975    1.204    0.169
       180  -9.9120    134.8271     77.5364   8.0085843101e+01   4.0032823652e+01    0.3858524    0.2465995  56.09  0.001315433    1.626    0.385
       181 -10.4665     93.7858     76.3376   9.1708182350e+01   4.9129842711e+01    0.5521766    0.3422531  32.95  0.001821258    1.835    0.455
       182 -11.5858     85.5536     73.4768   9.3637351022e+01   5.1307477679e+01    0.7359135    0.5746218  44.69  0.003781342    1.315    0.240
       183 -11.0020     79.1288     67.4171   9.4091680784e+01   5.3821887362e+01    0.7154991    0.5291873  82.05   0.00339163    1.818    0.450
       184 -10.9504     76.3209     57.8156   9.2037631636e+01   5.6460175792e+01     0.570453     0.308661 -56.28   0.00161403    1.920    0.479
       185 -12.0426     72.8822     47.9149   8.9840567430e+01   5.9213738320e+01     1.136756    0.9258577  88.70  0.003329567    1.588    0.370
       186  -9.6243     33.1699     77.7688   1.1438670205e+02   5.7464124813e+01    0.1961761    0.1662162  83.66    0.0012072    1.125    0.111
       187 -11.8141      1.9592     71.5347   1.2598033204e+02   6.1081415557e+01    0.6559867    0.1604992 -76.73  0.002527083    3.106    0.678
       188 -12.4519      6.5576     62.1859   1.2305846390e+02   6.3130330406e+01     0.799296    0.4590315 -40.36  0.003222575    1.893    0.472
       189  -9.6364    126.9613     76.9797   8.1984406839e+01   4.1962405863e+01    0.2311348    0.2290481 -84.74 0.0003411884    1.017    0.017
       190 -10.0817     14.3119     67.3367   1.2041247684e+02   6.1460325743e+01    0.3707378    0.3217911 -12.04  0.002474924    1.410    0.291
       191  -9.7654    192.5769     65.7390   6.4469584155e+01   2.7849808528e+01    0.2763829      0.23804 -77.86 0.0007878622    1.346    0.257
       192 -12.1080    186.7239     70.4686   6.6836568787e+01   2.8585416203e+01    0.8909274    0.6096584 -32.02  0.003076952    1.417    0.294
       193  -9.6699    184.4840     61.4999   6.4577894320e+01   3.0473608811e+01    0.3855553     0.262913  -6.64    0.0010818    1.773    0.436
       194  -9.6680     66.9408     88.3521   1.0398857904e+02   5.0868843734e+01     0.265841    0.2077969 -21.67  0.001376231    1.688    0.408
       195 -11.7187     40.8093     70.6476   1.0993476897e+02   5.8450301285e+01    0.5466822    0.2867616 -56.99  0.002287849    1.674    0.403
       196 -11.3508     32.3140     71.9829   1.1368124921e+02   5.8960081835e+01    0.5490873     0.293763  25.58  0.002725706    2.109    0.526
       197  -9.6004    151.7847     73.2846   7.4682799954e+01   3.6746434522e+01    0.4371555    0.1562276  44.43  0.001379463    2.982    0.665
       198 -10.0792    142.9519    249.5120   1.0863842995e+02   9.6797787998e+00     0.169538   0.07402629  37.82   0.00103024    1.583    0.368
       199  -9.6719    174.6573    246.8278   1.0299263083e+02   5.7613838506e+00    0.2155777    0.1079462  24.73  0.001317971    1.886    0.470
       200 -10.0879    123.3406     72.9546   8.1722094514e+01   4.3588790009e+01    0.2915262    0.2570052  50.67 0.0005134533    1.129    0.114
       201 -11.8686    122.3484     68.3732   8.0527070154e+01   4.4719890732e+01    0.9497414    0.4209964  43.23  0.003415002    2.354    0.575
       202 -12.7286    116.1347     41.5770   7.2590590793e+01   5.1140232707e+01     1.043687    0.7354963 -76.71  0.004420929    2.078    0.519
       203 -11.1625    127.8930    242.9980   1.1065303171e+02   1.2456431885e+01     0.347893    0.1988869 -66.59  0.002287312    2.777    0.640
       204  -9.7578    162.2882     70.5582   7.1553406643e+01   3.4619656714e+01    0.3246852    0.2568761 -61.45  0.001257499    1.465    0.318
       205 -10.7985    171.6505     66.7638   6.8509741892e+01   3.2896121416e+01    0.6482537    0.3476601 -40.18   0.00263824    1.853    0.460
       206 -11.3087    113.5130     49.4852   7.6407139543e+01   5.0378638404e+01    0.6634049     0.413616  35.87   0.00216677    1.823    0.452
       207 -11.4430    219.8687     66.4582   6.0580592371e+01   2.1295053415e+01    0.7086352    0.3637927  54.26  0.002544028    2.013    0.503
       208  -9.2313    208.0993     68.4790   6.2808487685e+01   2.3742264349e+01    0.2150485    0.1406982  55.33  0.001026087    1.587    0.370
       209  -8.9287     70.0519     66.9624   9.7338527445e+01   5.5445674969e+01    0.1728572    0.1543862 -58.61 0.0005471362    1.056    0.053
       210 -10.1659     21.2812     65.2659   1.1711194039e+02   6.1503305525e+01    0.3122939    0.1919399  70.07   0.00110897    1.821    0.451
       211 -10.0428     25.9161     65.1894   1.1509659719e+02   6.1169209078e+01     0.234348    0.1765973 -46.84 0.0002941028    1.330    0.248
       212 -10.5173     22.8225     36.8319   1.0999083659e+02   6.8214314549e+01    0.4262218    0.2804082  56.34  0.001626378    1.929    0.482
       213 -10.4210     53.0975     49.3988   9.8829609677e+01   6.2009576994e+01    0.9624031    0.5575442  77.56  0.003255608    4.406    0.773
       214 -11.4470     21.4411     46.9587   1.1337146282e+02   6.5925398647e+01    0.5979236    0.3110902 -40.22  0.001082718    1.997    0.499
       215 -10.2435     28.0172     47.0476   1.1008958201e+02   6.5377255779e+01    0.5568654    0.2893187 -23.52  0.001533356    2.885    0.653
       216 -10.9591     33.9850     42.8274   1.0587151407e+02   6.5810656219e+01    0.6121145    0.3647032 -49.08  0.001998068    1.479    0.324
       217 -11.1437     32.9605     58.8276   1.1065407000e+02   6.2104992028e+01    0.4582933    0.2950861 -14.34 0.0003367341    2.162    0.537
       218 -10.1291     26.1288     59.9763   1.1398458495e+02   6.2422503449e+01    0.3821702    0.2638619  47.35  0.001832515    1.605    0.377
       219 -11.8805     25.4069     54.3525   1.1312174526e+02   6.3843466904e+01     1.273639    0.4943835   6.83  0.004509718    4.734    0.789
       220 -11.0259     57.8819     62.0027   1.0070495217e+02   5.8427924990e+01     0.869889    0.5033295  67.89  0.003446118    2.950    0.661
       221 -11.4587     40.1748     56.2193   1.0674040853e+02   6.2002911347e+01    0.5887144    0.4113407  69.00  0.002115084    1.779    0.438
       222 -11.4089     46.5412     49.1856   1.0175989341e+02   6.2917810648e+01    0.4516719    0.3885264 -17.63  0.001637125    1.286    0.223
       223 -11.9646     41.7437     45.3173   1.0279759300e+02   6.4389618522e+01    0.4778344    0.4067786  32.61 0.0003833342    1.309    0.236
       224 -11.8839     50.6893     61.0531   1.0344389217e+02   5.9613309467e+01    0.3405437    0.2774369  56.93 0.0005181331    1.358    0.264
       225 -11.5108     46.1143     58.2994   1.0465728508e+02   6.0830815427e+01    0.5342239    0.2891569 -59.91  0.002037143    1.648    0.393
       226  -9.2706     53.3880     65.9162   1.0363836283e+02   5.8109379880e+01    0.2652463    0.1669512  57.19  0.001257211    1.932    0.482
       227 -10.5446    106.2796     63.6980   8.3693782900e+01   4.9269141824e+01    0.3966822    0.3379459   3.11   0.00165377    1.393    0.282
       228 -10.4698     98.9566     61.8193   8.5389620505e+01   5.1219870172e+01    0.4964361    0.3425758 -14.13  0.001911293    2.144    0.534
       229 -10.9193     91.5030     57.9173   8.6543565546e+01   5.3565559424e+01    0.3317106    0.2926788  47.39 0.0008406175    1.166    0.143
       230 -10.8805     87.5942     56.7720   8.7511876228e+01   5.4583618600e+01     0.501209    0.2699624 -43.86  0.001647367    1.806    0.446
       231  -9.3989    198.1172     62.8310   6.2741700844e+01   2.6908812728e+01    0.2387734    0.1930411 -55.32 0.0008474236    1.346    0.257
       232 -10.6073    159.4529     61.6387   6.9348000134e+01   3.6806598033e+01    0.4901005    0.2864607  42.59  0.001824428    1.804    0.446
       233  -8.8915    205.9866     61.6970   6.1230800799e+01   2.5162874249e+01    0.1935004    0.1875566  64.41 0.0005124138    1.103    0.093
       234  -9.4571    147.5533     60.6458   7.1608620245e+01   3.9996474185e+01    0.3791129    0.1532966  60.13   0.00124098    2.776    0.640
       235 -10.9382    138.4974     32.7420   6.3596468541e+01   4.6753800247e+01    0.5858168    0.5210564 -72.95  0.002072471    1.216    0.177
       236 -10.7022    140.3058     43.3006   6.7187611329e+01   4.4700968884e+01    0.7421741    0.4778405  17.05  0.001529563    2.268    0.559
       237 -11.6932    145.7083     47.8578   6.7633455601e+01   4.2573038181e+01     1.184821    0.5288928 -25.37  0.004115196    2.569    0.611
       238 -10.7561    136.4996     56.5378   7.2822009232e+01   4.3491099400e+01    0.6387598    0.4477731   2.02  0.001510555    2.024    0.506
       239 -10.7306    133.7939     49.7294   7.1069768021e+01   4.5340034004e+01    0.4677168    0.3084876 -59.91  0.001417857    1.922    0.480
       240 -11.4929     91.2807     62.7879   8.8293808195e+01   5.2577537573e+01    0.8973352    0.5080995  49.94  0.001647384    1.882    0.469
       241 -10.1256    105.4955     56.9995   8.1604734579e+01   5.0787870143e+01    0.6497704    0.2250708 -51.04  0.001869451    3.883    0.742
       242 -11.2470    157.6029     54.9211   6.7535344251e+01   3.8359783092e+01    0.5911297    0.4315634 -51.41   0.00196544    1.479    0.324
       243 -10.9086    155.2250     49.4690   6.6182830935e+01   3.9830323652e+01    0.4474746    0.3074736  -7.37 0.0005628693    1.818    0.450
       244  -9.4072      1.9482     56.4351   1.2441608467e+02   6.4715967391e+01    0.1868029    0.1347987 -76.99 0.0005139403    1.118    0.106
       245  -8.6080    219.6794     56.7122   5.7970702432e+01   2.2581657190e+01    0.1423498    0.1035734  23.33 0.0006418658    1.599    0.374
       246  -9.2189    237.7864     54.5446   5.5233666509e+01   1.8774419317e+01    0.2697456    0.1874812 -49.57 0.0007521203    1.492    0.330
       247 -10.4610    244.5107     50.9680   5.3598715462e+01   1.7739843295e+01    0.2671648    0.2077586 -17.94 0.0008944043    1.181    0.154
       248 -10.9630    240.1991     50.3167   5.3881797714e+01   1.8739620933e+01     0.334931    0.2905907 -36.74 0.0006141085    1.073    0.068
       249  -9.7528    188.0510     55.1497   6.2067936947e+01   3.0485361631e+01    0.3039636    0.1927312  54.82   0.00137365    1.584    0.369
       250  -9.8917     67.0045     54.7263   9.4666562416e+01   5.8722100823e+01    0.2734723    0.2006621 -62.98 0.0007217525    1.411    0.291
       251  -9.4790    130.6753    240.6721   1.0994558366e+02   1.2378161642e+01    0.1799726    0.1054614  30.56  0.001196599    1.452    0.311
       252  -9.4987    199.1014    244.5175   9.8713034644e+01   2.7568671075e+00    0.1650281   0.07402679  36.28  0.001030372    1.586    0.370
       253 -11.2759     60.7488     36.1004   9.0313773381e+01   6.3761776069e+01    0.4461058    0.2322989 -42.89  0.001510259    1.796    0.443
       254 -11.5106     57.0593     31.3369   8.9964729013e+01   6.5334263121e+01    0.3955136    0.3571166 -37.46  0.001228242    1.034    0.032
       255 -11.4108     48.1560     30.7215   9.4095705552e+01   6.6800017311e+01    0.6690134    0.3033824  29.00  0.002461367    2.635    0.621
       256 -10.1052    210.8249     53.0957   5.8124227600e+01   2.5130037895e+01    0.3198686    0.2142933  63.99 0.0008653025    1.597    0.374
       257 -10.9033    201.9573     47.1126   5.7595336824e+01   2.8065137268e+01    0.5778778    0.3771693 -17.64  0.002142603    1.585    0.369
       258  -9.6846    176.4526     43.4867   6.0292345266e+01   3.5099241232e+01    0.3350916    0.2273998 -69.98  0.001052493    1.860    0.462
       259 -10.2869     90.8304     47.8243   8.3041615410e+01   5.5763778372e+01    0.3324568    0.2527788 -50.07  0.001102387    1.334    0.250
       260  -9.6575      2.4353     48.7944   1.2321107817e+02   6.6531868906e+01    0.2374192    0.2110483  22.65  0.001676405    1.371    0.271
       261  -9.2176      3.1551     44.6109   1.2224165398e+02   6.7505340214e+01    0.2334385    0.1391368 -17.39 0.0007842943    2.066    0.516
       262  -9.0464      6.3787     43.2009   1.2034453140e+02   6.7709168129e+01    0.2607277    0.1651773  83.71  0.001483543    1.607    0.378
       263 -10.4108    162.6937     44.0822   6.2889685840e+01   3.8659824043e+01    0.3309074    0.2905359 -12.18 0.0008521639    1.190    0.160
       264 -10.4846     16.0401     43.7158   1.1540075416e+02   6.7068975440e+01    0.8623866    0.2046498 -44.31  0.002838502    4.475    0.777
       265 -10.0102    209.0041     46.8863   5.6592298903e+01   2.6354902716e+01    0.3213561    0.2331775 -83.26  0.001552166    1.680    0.405
       266 -10.8282    174.2521     48.0842   6.2153570317e+01   3.5037950237e+01    0.6121437    0.4538425  77.67  0.002657525    1.507    0.336
       267  -9.8948    193.3219     45.6891   5.8384780060e+01   3.0426383678e+01    0.2378972    0.1454847  79.05  0.001011788    1.978    0.494
       268  -9.8723    234.5131     45.3322   5.3182736506e+01   2.0562061529e+01    0.3072898    0.1745452 -52.40 0.0008644471    1.927    0.481
       269  -9.9345    101.0086     55.7639   8.2588030473e+01   5.2017611638e+01    0.2409465    0.1896851 -75.81 0.0003688039    1.608    0.378
       270  -9.5736    101.3229     44.6341   7.8253133246e+01   5.4096404089e+01    0.2681468    0.1847499  63.13 0.0009082044    1.692    0.409
       271 -11.0850     94.9088     41.3250   7.9026934572e+01   5.6140036082e+01    0.8047661    0.3553367  52.54  0.002994003    2.426    0.588
       272 -10.8962    153.1696     36.1624   6.1902371317e+01   4.2331336063e+01    0.3272421    0.3032391 -63.00 0.0004347892    1.114    0.102
       273 -10.8755    189.0692     41.4562   5.7697058394e+01   3.2068775942e+01      0.51384    0.2816785 -19.07 0.0009197643    1.962    0.490
       274  -9.8200     87.4489     27.4961   7.5519425419e+01   6.0232724657e+01     0.517288    0.1960618 -26.49  0.001569903    3.823    0.738
       275 -10.7055     80.6811     39.8164   8.3533738890e+01   5.9403180418e+01    0.6497704      0.42207  47.05  0.003067946    1.615    0.381
       276 -10.8988     77.4826     34.2311   8.2366106259e+01   6.1109473874e+01    0.4583682    0.3008398  48.66  0.001016175    1.623    0.384
       277 -10.4746     82.0417     31.6963   7.9455913439e+01   6.0655619861e+01     0.472736    0.3958714  76.62  0.002474889    1.507    0.336
       278 -10.4044    231.8031     39.4554   5.1902458801e+01   2.1840004505e+01     0.340814    0.2118115 -58.99  0.001293134    1.823    0.451
       279  -9.2415    217.6035     38.7902   5.3244586842e+01   2.5244281782e+01    0.2076885    0.1144728 -36.23 0.0006932084    1.631    0.387
       280  -9.9906    182.6521     32.0224   5.5612164682e+01   3.4939369371e+01    0.2685229    0.2000384  51.83 0.0006592562    1.365    0.267
       281 -11.2265    175.9117     36.0678   5.7942192864e+01   3.6227196234e+01    0.7472832    0.5192885 -69.22   0.00242521    1.718    0.418
       282 -10.3865    176.3239     30.0990   5.5890316807e+01   3.6866859913e+01    0.4387547    0.2678912  47.14  0.001689113    1.703    0.413
       283 -11.6552    182.8723     25.2798   5.3378555346e+01   3.5680754025e+01    0.6783902    0.3395841  51.32  0.002764022    2.023    0.506
       284  -8.9292    163.5343    243.5196   1.0450793738e+02   7.6075109900e+00    0.1081915   0.07590586  35.06 0.0002471814    1.044    0.043
       285  -9.9020    206.9070     37.2458   5.4051541431e+01   2.8047105259e+01    0.2661231    0.2208099 -45.43 0.0006325271    1.159    0.137
       286  -9.5865    133.1977     36.9143   6.6399946220e+01   4.7544920125e+01    0.4520578    0.2796641 -66.15  0.001738354    2.370    0.578
       287 -11.4687    155.9914     41.9127   6.3409270468e+01   4.0757405234e+01    0.4447088    0.3997256 -26.45  0.001098702    1.121    0.108
       288  -8.5691    200.2954    241.3568   9.8135582885e+01   2.8999187618e+00      0.10694   0.06244402  14.67 0.0005585474    1.696    0.410
       289  -9.9310      5.2082     35.7278   1.1959251472e+02   6.9534428032e+01    0.6216697    0.2044718  17.00  0.002737639    3.468    0.712
       290  99.0000      8.3897     29.7551   1.1641865404e+02   7.0792206316e+01    0.5939142     0.373175 -32.45   0.00347284    1.647    0.393
       291  -8.6698    221.5090    239.5037   9.4531155386e+01   3.0763377775e-01    0.1052989   0.07148878  22.82 0.0008105976    1.010    0.010
       292 -10.9993    149.1426    237.9647   1.0641091107e+02   1.0206485108e+01    0.3615708    0.1498985  42.68  0.002062761    1.806    0.446
       293 -10.7458    198.0415    232.9050   9.7445488310e+01   4.0301700414e+00    0.2360471    0.2307521  82.00  0.002011255    1.770    0.435
       294 -10.5128     31.0407     27.9988   1.0232094247e+02   6.9478114379e+01     0.273144    0.2144164 -48.41 0.0006990163    1.094    0.086
       295  -9.7525     15.1041    233.7197   1.3021158755e+02   2.6781194534e+01    0.1620074    0.1185263  78.41  0.001261102    1.340    0.254
       296 -10.8219    240.5240     31.9316   4.9084484640e+01   2.0697029771e+01    0.5727767    0.4014944 -17.68  0.003152889    1.368    0.269
       297 -10.5912    242.4921    231.1977   9.0205042545e+01  -1.6417402034e+00    0.2166852    0.1644774  49.68  0.001580946    2.358    0.576
       298  -9.5543     23.3963    231.6721   1.2870356906e+02   2.6327620332e+01    0.1777342    0.0747489  44.56  0.001189309    1.552    0.356
       299  -9.8079    247.3063    231.1962   8.9488366154e+01  -2.2381950594e+00    0.1553345   0.09457367   6.02 0.0006539336    1.377    0.274
       300 -11.8364    115.0808     24.9543   6.5912721023e+01   5.4008454550e+01    0.4385429    0.2855268  51.55 0.0007376146    1.486    0.327
       301  -9.3386    108.0000    230.0050   1.1309596487e+02   1.6832966644e+01    0.1381287   0.06354619 -61.18 0.0006238313    2.914    0.657
       302  -9.7284    248.7689     33.1062   4.8670941123e+01   1.8775623055e+01    0.2986544    0.1397421 -34.93  0.001413239    1.758    0.431
       303  -9.7578    234.1045    222.9145   9.0310173021e+01   1.4056481243e-01    0.1731095   0.09445187  15.45 0.0008850311    1.637    0.389
       304  -9.6053      9.9959    217.7457   1.3071494045e+02   2.9792436788e+01    0.1422693   0.09584784  54.62 0.0007317745    1.040    0.039
       305 -10.4549     68.7838     32.8627   8.5341212680e+01   6.3023771689e+01    0.4599021     0.312857  46.87  0.001899451    1.594    0.373
       306  -9.5307    216.2663     32.6406   5.1649378203e+01   2.6272066789e+01    0.2611556    0.1708507  14.49 0.0009945483    2.007    0.502
       307 -10.4583    165.2949    212.5062   1.0051367172e+02   1.1045202283e+01    0.2330018    0.1488891  54.20  0.000942934    1.864    0.463
       308 -10.7012    189.4322     28.7148   5.3630915852e+01   3.3540029813e+01    0.6305702    0.3036413 -18.12   0.00232264    2.266    0.559
       309  -9.2031    148.1500     31.8257   6.1274223680e+01   4.4283611223e+01    0.2304548    0.2072347 -75.19 0.0007328588    1.177    0.151
       310  -9.0385    204.3879     31.1123   5.2534176633e+01   2.9396547801e+01    0.2172337    0.1163416 -36.81  0.000944185    1.707    0.414
       311  -9.5576    152.9260    207.6967   1.0220054535e+02   1.3547677528e+01    0.1739086    0.1216716  37.75  0.001006496    1.107    0.096
       312  -9.3793    221.5776     29.4537   5.0199271114e+01   2.5341539210e+01    0.2479098    0.1968827 -37.07 0.0006252348    1.144    0.126
       313 -10.7687     98.5514     27.5148   7.1807410007e+01   5.7697162118e+01    0.4904038     0.287834 -45.12 0.0007623417    1.824    0.452
       314 -10.0861    230.9471     27.8386   4.8861249189e+01   2.3304789245e+01    0.4103976    0.1883164 -34.09   0.00183223    1.844    0.458
       315  -9.2611     60.9451    207.1072   1.2042501757e+02   2.6380635517e+01    0.1744142    0.1094764  55.62  0.000461364    1.240    0.193
       316 -10.5241    144.4540     25.3217   5.9508507203e+01   4.6146102390e+01    0.5987074     0.401401  71.13  0.002688385    1.543    0.352
       317  -9.1350    222.9846    206.3176   8.9612161634e+01   3.2368574108e+00    0.1653405   0.08194712  53.31 0.0007047959    4.277    0.766
       318 -11.1367      4.9741    202.1649   1.3127001284e+02   3.2875286578e+01    0.5827694    0.1174195 -74.26  0.002618254    4.683    0.786
       319  -9.5451    238.5743    204.5315   8.6863080506e+01   1.2309372419e+00    0.2234363    0.1277648  -1.19  0.001404669    1.779    0.438
       320 -10.5518    245.6323    200.8851   8.5202647320e+01   6.0804553965e-01    0.1944385    0.1136118  24.84 0.0006989395    1.331    0.249
       321 -11.0253    153.8966     25.6032   5.7892751983e+01   4.3527536211e+01    0.8189168    0.4993463  55.78  0.003580622    1.576    0.366
       322 -10.1668    157.0792     20.4947   5.5463651113e+01   4.3267220749e+01    0.5681555    0.2578899  60.16  0.002185032    2.046    0.511
       323  -9.1488     66.7088     28.0388   8.4012402445e+01   6.4326833645e+01    0.2968818    0.1842523  23.54  0.001329715    2.082    0.520
       324  -9.9009    250.5579     26.5993   4.6886468745e+01   1.9062022787e+01    0.2660183    0.1098726 -24.95 0.0006162852    2.070    0.517
       325  -8.9607     41.7482     27.1327   9.5920319449e+01   6.8420833433e+01    0.1706249    0.1359763 -23.66 0.0005174378    1.268    0.211
       326 -10.6174    214.3120     23.7703   4.9308808148e+01   2.7724236529e+01    0.4340847    0.3385639  -5.58  0.001840268    1.392    0.281
       327 -10.5820    211.0869     18.8419   4.8192338127e+01   2.9044094060e+01    0.3255794    0.2239046  61.65 0.0004586081    1.507    0.336
       328  -9.3821    161.5208     23.4691   5.5843717183e+01   4.1695077495e+01    0.2382818    0.2175207   4.83 -1.789005e-05    1.167    0.143
       329  -9.7435     80.2730     19.2710   7.4087977019e+01   6.3138259462e+01    0.2876713    0.2357948  31.75  0.000786326    1.226    0.184
       330  -8.7715    207.4646    201.4717   9.1447560039e+01   6.0168276672e+00    0.1176276     0.087922  21.49 0.0005001189    1.019    0.019
       331  -9.5506     86.1702     23.7860   7.4195240469e+01   6.1127420190e+01    0.2404168    0.2219944  -9.19 0.0002150841    1.042    0.041
       332  -8.6842      1.3153    200.2957   1.3193038541e+02   3.3504344143e+01   0.08170792   0.07584968 -66.26 0.0003528487    1.604    0.376
       333 -10.2443    234.6210    196.8822   8.6264965081e+01   2.5277144057e+00    0.3737112    0.2045173  18.98  0.001948992    1.664    0.399
       334  -9.6801    223.9224     22.4684   4.8029339303e+01   2.5523146483e+01    0.3738552    0.2136369 -77.80  0.001692705    2.158    0.537
       335  -8.6375     83.6792    195.7182   1.1482726444e+02   2.5510562300e+01    0.1041825   0.08852333  11.40 0.0002877669    1.587    0.370
       336 -10.5082     47.1702     19.0539   8.9086678456e+01   6.9294704319e+01    0.3395219    0.2843482  10.37  0.001159323    1.255    0.203
       337 -12.2922      4.8870    184.5587   1.3082853438e+02   3.6074531097e+01    0.6193107    0.3604377  62.66   0.00389664    1.260    0.206
       338 -10.0736     38.7677     21.6250   9.5077605344e+01   6.9949394261e+01    0.3517253    0.1924669 -40.94  0.001196634    1.661    0.398
       339  -9.9155    239.8833    184.6605   8.3406542194e+01   3.0021091467e+00    0.1908904    0.1292424   0.51 0.0006667901    1.295    0.228
       340 -10.1387    249.7192    180.1779   8.1125162371e+01   2.0269224371e+00    0.2425949   0.08942684 -24.69  0.001197516    2.706    0.630
       341 -10.4739    242.7064     21.9741   4.6319559268e+01   2.1238879518e+01    0.3484294    0.1769532  62.37  0.001690481    2.119    0.528
       342 -10.0174     52.0083    173.7228   1.1991689073e+02   3.3591030952e+01    0.3745613    0.1635811  83.29  0.001713342    2.917    0.657
       343  -9.8116     28.3467    175.8999   1.2543208875e+02   3.5663300673e+01    0.2045569    0.1525722  35.67  0.001440621    1.384    0.277
       344 -10.0530    169.9663    191.3675   9.6672493847e+01   1.3127820562e+01    0.3632791      0.14852  32.48  0.001176222    2.341    0.573
       345 -10.3816     74.4649     19.5469   7.6490080416e+01   6.4318222137e+01    0.2616913    0.2187881  19.39 0.0007595872    1.228    0.185
       346  -8.9673    230.4414    175.4971   8.3308025495e+01   5.3996309971e+00    0.1204626   0.09293526  12.96 5.851832e-05    1.012    0.012
       347  -8.9657    224.6838    175.6588   8.4276984043e+01   6.2819730527e+00    0.1275707   0.07681348  11.70 0.0007048426    1.709    0.415
       348  -9.0165     57.2833    174.9857   1.1880718305e+02   3.2723655237e+01    0.1610934    0.1323523  68.89 0.0004232963    1.074    0.069
       349  -9.8914    247.2829    174.0420   8.0410018240e+01   3.0009383147e+00    0.3511801    0.1141923  29.11  0.001357379    3.925    0.745
       350  -9.7787     39.5099    173.4974   1.2276737006e+02   3.5012517007e+01    0.1961049    0.1383046  87.06 0.0006917886    1.316    0.240
       351 -10.5616     35.8291    170.9528   1.2344587985e+02   3.5902239328e+01    0.3772328    0.1699606  71.49  0.001943887    2.210    0.548
       352  -8.4780    170.6476    172.2692   9.3487480323e+01   1.5752330843e+01    0.1233915   0.09431057  59.57 0.0004867933    1.629    0.386
       353  -9.8879    194.5514     18.4476   4.9773213660e+01   3.3333067327e+01    0.2486492    0.2327046 -61.36 2.285246e-05    1.026    0.025
       354 -10.1228      8.9016    156.1878   1.2897652315e+02   4.1353672761e+01     0.238363    0.1771715 -79.03  0.001699536    1.362    0.266
       355  -9.6116    115.2641     17.6461   6.2597455287e+01   5.4952093627e+01    0.3018251    0.2493933  10.16  0.001532855    1.300    0.231
       356 -11.9877      9.8399    166.5883   1.2916818974e+02   3.9158510757e+01    0.5245996    0.3578462 -89.25  0.002612154    1.328    0.247
       357 -11.0562     14.1779    158.5326   1.2782500692e+02   4.0443913571e+01    0.3781691    0.1972331  83.50  0.001708773    1.663    0.399
       358  -8.8493    197.9835    168.0133   8.7538544348e+01   1.1626570487e+01     0.151925    0.1283881  12.19 0.0005945464    1.063    0.059
       359  -9.6884    219.8923     12.6356   4.5625924429e+01   2.7486268390e+01    0.3624923    0.1539157  67.91  0.001526224    2.365    0.577
       360  -9.9163     40.2192    164.1410   1.2195164918e+02   3.6830330071e+01    0.4710101    0.1429327 -77.38  0.001985518    3.375    0.704
       361 -10.5366     28.3537    163.3255   1.2471846023e+02   3.8190829241e+01    0.4876057    0.1974126 -83.99   0.00246269    2.389    0.581
       362 -10.1613     18.9029    165.0104   1.2702337725e+02   3.8712263340e+01     0.249666    0.1765207  32.77  0.001714607    1.483    0.326
       363  -9.9079    188.9481    164.0034   8.8484706602e+01   1.3748592842e+01     0.270055    0.1801814 -18.52  0.001017995    1.697    0.411
       364  -8.6906    116.3633     10.2646   5.8942082889e+01   5.5555239040e+01     0.160311    0.1026926  36.57 0.0006986497    1.643    0.391
       365  -9.9337    204.9893    163.0120   8.5354685016e+01   1.1081138750e+01    0.4639196    0.2171327  52.80  0.002006082    2.855    0.650
       366  -9.4828    208.3694    160.7577   8.4331190475e+01   1.0790994822e+01    0.3344195    0.1935934 -39.86  0.001771578    2.040    0.510
       367  -9.5189     79.2006    160.0382   1.1209877126e+02   3.2896898884e+01    0.2138653    0.1268089  74.99  0.001072661    2.002    0.501
       368  -9.4976    215.5791    158.1627   8.2582087551e+01   9.8806317517e+00    0.2477482    0.1458915 -11.70  0.001171981    1.931    0.482
       369 -10.5381    104.9100    154.4047   1.0506321405e+02   3.0158720664e+01    0.3869757    0.3395016 -86.42  0.002405128    1.211    0.175
       370 -10.0830     23.2144    155.3715   1.2548379810e+02   4.0323072920e+01    0.2863319    0.1599832  37.49  0.001723983    1.625    0.385
       371 -11.0020     31.1852    153.0014   1.2336251606e+02   4.0080729809e+01    0.4753614    0.2711279  82.06  0.002757841    1.606    0.377
       372 -11.0410     10.4544    127.6676   1.2719914555e+02   4.7405986443e+01    0.4999239     0.218282 -65.20  0.001801001    2.183    0.542
       373 -11.0821     15.4543    147.8173   1.2698578410e+02   4.2594410741e+01    0.4468253    0.2011686  57.67    0.0016951    1.852    0.460
       374 -11.6686     12.9206    138.4666   1.2713549614e+02   4.4822952554e+01     1.597183    0.4521039  84.42  0.005918027    4.060    0.754
       375 -10.9987     21.2931    150.6947   1.2568475914e+02   4.1485048444e+01    0.2147644    0.1568738  69.64  0.000204514    1.091    0.084
       376 -11.5940     24.0111    148.5299   1.2486936551e+02   4.1708239396e+01    0.2589168    0.2202271  79.01 0.0005946797    1.118    0.105
       377 -11.8487      3.7327    147.4045   1.2988096771e+02   4.3579095854e+01    0.6598643    0.3965658  88.20  0.003751543    1.394    0.282
       378 -12.4469      3.8414    137.3513   1.2945219571e+02   4.5727747074e+01    0.4064043    0.2027738 -67.78 0.0003828267    1.965    0.491
       379 -10.9368      5.1383    141.5159   1.2929419147e+02   4.4735931026e+01    0.2339459    0.2095251  15.10  0.001006325    1.487    0.327
       380 -10.2885     70.7289    151.5862   1.1320352061e+02   3.5818644980e+01    0.3277714    0.1717102  49.49  0.001100883    1.698    0.411
       381  -9.7997     47.7611    151.9644   1.1909806364e+02   3.8569478857e+01    0.3121011    0.2261739  48.65 0.0009785519    1.212    0.175
       382 -11.1355     47.2645    146.6940   1.1873468669e+02   3.9766242168e+01     0.462083    0.4504518 -85.81   0.00329209    1.276    0.217
       383  -9.9327    214.7206    151.0179   8.1334965940e+01   1.0944243338e+01    0.2458593    0.2183119  -6.95 0.0009905914    1.173    0.147
