#   1 NUMBER                 Running object number                                     
#   2 MAG_AUTO               Kron-like elliptical aperture magnitude                    [mag]
#   3 X_IMAGE                Object position along x                                    [pixel]
#   4 Y_IMAGE                Object position along y                                    [pixel]
#   5 X_WORLD                Barycenter position along world x axis                     [deg]
#   6 Y_WORLD                Barycenter position along world y axis                     [deg]
#   7 A_WORLD                Profile RMS along major axis (world units)                 [deg]
#   8 B_WORLD                Profile RMS along minor axis (world units)                 [deg]
#   9 THETA_WORLD            Position angle (CCW/world-x)                               [deg]
#  10 FWHM_WORLD             FWHM assuming a gaussian core                              [deg]
#  11 ELONGATION             A_IMAGE/B_IMAGE                                           
#  12 ELLIPTICITY            1 - B_IMAGE/A_IMAGE                                       
         1 -13.5266    168.5488     56.0554   6.3323500654e+01   3.5683108037e+01     2.506467     1.498551  22.47  0.006916802    2.498    0.600
         2 -12.9908    183.1824     40.6753   5.5865293676e+01   3.4117872943e+01    0.8909878     0.780653 -69.28  0.002393057    1.206    0.171
         3 -12.8581    188.0931     34.1660   5.3110933357e+01   3.3687941374e+01    0.6819027    0.6365429  -3.97  0.001838044    1.144    0.126
         4 -13.9124    205.1887      9.2099   4.3719593599e+01   3.2109610078e+01     1.088812     1.050202  34.20  0.003750885    1.167    0.143
         5 -11.9301    190.5225     14.8762   4.7004341978e+01   3.5273874343e+01     0.457725    0.3612997  53.90  0.002102705    1.250    0.200
         6 -12.0955    235.5034      2.5068   3.9255925903e+01   2.5395321658e+01     1.346023    0.3148145  75.96  0.004302095    4.579    0.782
         7 -10.7103      2.1451    218.6440   1.3195599036e+02   2.8931504398e+01    0.1278772    0.0559682  58.21 0.0004600184    1.738    0.425
         8 -13.1216    247.3970    244.6216   9.2001816185e+01  -9.8264557502e+00     1.117382    0.7982157 -21.02  0.008072088    1.538    0.350
         9 -12.5638    248.9733    228.0116   8.9021955159e+01  -8.3354443120e+00    0.7220771    0.3210951 -27.95  0.003896561    2.347    0.574
        10 -10.0704     81.6060    195.8529   1.1582909134e+02   2.4200656784e+01    0.3023786    0.2262953 -51.00  0.001436544    1.642    0.391
        11 -11.6629     67.5051    194.9075   1.1854269221e+02   2.6324481053e+01    0.3189651    0.2292714 -46.16  0.001173919    1.914    0.478
        12 -11.3152    141.2832    188.5918   1.0248842191e+02   1.5919760495e+01    0.2837572    0.2455396  80.12  0.001426121    1.255    0.203
        13 -19.1399     28.9824    101.6148   1.1545487427e+02   5.1527024735e+01     16.56065    0.9218108 -65.54   0.02850164   14.549    0.931
        14 -10.1956    150.4410    187.2399   1.0035690259e+02   1.4503244121e+01      0.17794    0.1324256 -64.39 0.0008232116    1.609    0.379
        15 -10.5909    238.0169    185.0075   8.2977341136e+01  -1.3159284860e+00    0.1843462    0.1696759 -73.30  0.001138114    1.741    0.426
        16 -10.6147    153.1186    184.1648   9.9265234849e+01   1.4576470240e+01    0.2994265    0.1830319 -61.62  0.001292684    2.125    0.529
        17 -11.9167    145.4501    182.0104   1.0049835346e+02   1.6406239248e+01    0.4228049    0.3489248  72.32  0.001393199    1.345    0.257
        18 -12.2311    141.3859    172.8740   9.9742764063e+01   1.8942318704e+01     0.685963    0.5939428  87.00  0.003893006    1.282    0.220
        19 -10.0516    188.8912    178.2477   9.0835950808e+01   8.7934651442e+00    0.3837384    0.2895907  70.83  0.001331042    1.927    0.481
        20  -9.8401    240.3362    175.3203   8.0607260042e+01  -3.7034161691e-01    0.1418311   0.09118965   8.80 0.0007049834    1.706    0.414
        21  -9.9211    187.8796    173.7042   9.0132722363e+01   9.7669907990e+00     0.345045    0.2277012 -57.14  0.001613618    2.080    0.519
        22  -9.6804    184.7197    212.8403   9.7870882114e+01   4.0487739794e+00    0.2121007    0.1830492 -70.61  0.001329197    1.619    0.382
        23 -11.4203     70.8065    209.7134   1.1938946831e+02   2.2975270853e+01    0.3198443    0.1702811  41.54  0.001484458    1.768    0.434
        24  -9.6854     75.5362    206.5204   1.1817572325e+02   2.2949399175e+01    0.2020407    0.1321656 -75.75 0.0005399989    1.499    0.333
        25  -9.6769    186.9626    165.8495   8.8705430701e+01   1.1323158315e+01    0.3392017    0.2036591 -47.53 0.0009991212    1.883    0.469
        26 -11.4763     63.4997    206.6286   1.2047248551e+02   2.4526009996e+01    0.2681869    0.1912445  82.80 0.0008348305    1.220    0.180
        27  -8.8959    117.1688    161.8671   1.0317056486e+02   2.5649896926e+01    0.2121836     0.175185  80.75 0.0005681547    1.279    0.218
        28  -9.8835      5.5162    161.6810   1.2808006717e+02   3.9886156574e+01     0.162651    0.1300258  67.19  0.000254412    1.235    0.190
        29 -11.0559     95.0034    157.3563   1.0754837767e+02   3.0368242950e+01    0.2480049     0.222532  76.49 0.0003128133    1.044    0.042
        30 -11.9953    100.1564    150.8936   1.0520231442e+02   3.0979499609e+01    0.6233884     0.451385 -33.87  0.003144515    1.778    0.438
        31 -12.6612     11.2163    206.1913   1.2984292703e+02   3.0403827798e+01     0.376246    0.1655174  44.26  0.002368624    2.018    0.505
        32  -9.5114    113.1113    151.5438   1.0221698095e+02   2.8617369699e+01    0.2678449    0.1909945 -75.16 0.0007943939    1.593    0.372
        33 -10.9004    133.8807    146.0023   9.6166760498e+01   2.5954379104e+01     1.245096    0.3033698 -54.37  0.002867804    6.550    0.847
        34 -10.2536    174.5451    149.1573   8.7681957472e+01   1.6967857131e+01    0.2751337    0.2108045  44.58 0.0006492216    1.280    0.219
        35  -9.1572    193.3495    205.3050   9.4975164623e+01   3.6534491285e+00    0.1358255   0.09170695  14.39 0.0003375761    1.701    0.412
        36  -9.1191      1.8977    155.3183   1.2835944719e+02   4.1520620596e+01    0.1626615    0.1065189 -45.73  0.001059579    2.042    0.510
        37 -11.0761    110.0505    137.6233   1.0020333477e+02   3.2275197493e+01    0.5398794    0.3038379 -35.54  0.002199261    2.347    0.574
        38 -11.8618     98.8808    136.8654   1.0286345079e+02   3.4378282925e+01    0.3161878    0.2954312 -44.19  0.000514937    1.153    0.132
        39 -10.9641    105.8381    130.7515   9.9821432661e+01   3.4583547853e+01    0.3888514    0.3206375 -69.04  0.001118888    1.210    0.173
        40  -9.4599     87.7494    203.4717   1.1547879687e+02   2.1815682184e+01    0.2719416    0.1879992 -67.72  0.001447005    1.484    0.326
        41  -9.9892    116.4695    128.6827   9.6643879170e+01   3.3117830959e+01    0.2852988    0.2453671   0.73 0.0005864526    1.435    0.303
        42 -10.0595    160.4847    127.5934   8.5711683071e+01   2.4284680258e+01    0.3139926    0.2671576 -66.18  0.001559531    1.343    0.255
        43 -10.4868    104.4788    124.4220   9.8786225746e+01   3.6270360219e+01    0.2745591    0.2333422 -26.44  0.000622823    1.350    0.259
        44  -9.7135    120.8495    123.2764   9.4270643660e+01   3.3493375049e+01    0.2830137    0.1919973 -24.22  0.001031316    2.003    0.501
        45  -8.5376    153.6689    120.2814   8.5450192959e+01   2.7291542513e+01    0.1542286    0.1248685  89.65 0.0002324116    1.608    0.378
        46  -8.9617    135.0000    119.8860   8.9866461378e+01   3.1389593498e+01    0.2568929     0.085915 -45.46 0.0008001167    2.926    0.658
        47  -9.4834    111.3369    118.0805   9.5503838009e+01   3.6470417431e+01    0.2569792    0.2100357  52.87 0.0003033876    1.297    0.229
        48  -9.8276    231.2410    113.7640   6.8146143582e+01   1.0960972912e+01    0.2541457    0.2304717  23.67 0.0008376369    1.135    0.119
        49  -9.9017    168.0346    113.1160   8.0287054508e+01   2.5498140234e+01     0.356908    0.2940098 -86.12  0.001308122    1.571    0.363
        50 -10.3075    134.7244    104.8603   8.5993952926e+01   3.4675556261e+01    0.4872907     0.165355 -45.27  0.001536225    2.887    0.654
        51 -10.8161    118.8879    110.3573   9.1576025266e+01   3.6752066840e+01     0.541454    0.3431093  69.27  0.002125968    2.486    0.598
        52  -9.7039    205.5553    110.0769   7.1769835908e+01   1.7337518736e+01    0.2848892    0.2216172  37.64 0.0007093553    1.331    0.249
        53  -9.4702     74.8105    104.1871   1.0239969851e+02   4.5721376219e+01    0.1919566    0.1531528 -34.20 0.0004067879    1.329    0.247
        54  -9.7616    128.2351     95.4003   8.5011224244e+01   3.8063620907e+01    0.2725355     0.198222  54.79  0.001251307    1.518    0.341
        55 -13.3033     75.2484    248.8309   1.2196709598e+02   1.5509550747e+01    0.3015661    0.1720377 -62.96  0.002012016    2.055    0.513
        56 -10.9149    193.1396    195.1880   9.3216849777e+01   5.2362655422e+00    0.9137211    0.4586573 -59.88  0.002890943    5.830    0.828
        57 -11.3574     71.7416    244.1642   1.2218657185e+02   1.6726864504e+01    0.2448772    0.1604854 -81.31  0.001179074    1.554    0.356
        58 -17.8793     44.2141    240.8076   1.2643701627e+02   2.0678270063e+01     6.394641     5.487381  65.90   0.04797111    1.344    0.256
        59 -12.2176    198.7836     23.3376   4.8438468570e+01   3.2226247074e+01    0.4763383    0.3897894  47.66  0.002612318    1.275    0.216
        60 -11.7604    151.4378    195.7618   1.0157881251e+02   1.2775119824e+01    0.4366349    0.3644922  20.03   0.00258761    1.321    0.243
        61  -8.4903     73.2204    218.2733   1.1974913812e+02   2.1046446413e+01   0.09199224   0.08484943 -70.92            0    1.414    0.293
