#   1 NUMBER                 Running object number                                     
#   2 MAG_AUTO               Kron-like elliptical aperture magnitude                    [mag]
#   3 X_IMAGE                Object position along x                                    [pixel]
#   4 Y_IMAGE                Object position along y                                    [pixel]
#   5 X_WORLD                Barycenter position along world x axis                     [deg]
#   6 Y_WORLD                Barycenter position along world y axis                     [deg]
#   7 A_WORLD                Profile RMS along major axis (world units)                 [deg]
#   8 B_WORLD                Profile RMS along minor axis (world units)                 [deg]
#   9 THETA_WORLD            Position angle (CCW/world-x)                               [deg]
#  10 FWHM_WORLD             FWHM assuming a gaussian core                              [deg]
#  11 ELONGATION             A_IMAGE/B_IMAGE                                           
#  12 ELLIPTICITY            1 - B_IMAGE/A_IMAGE                                       
         1 -14.2412    248.7141     27.5449   3.0576276179e+00   2.1576158895e+01     1.040527    0.3270608 -36.92  0.004759878    3.002    0.667
         2 -13.5359    247.2395      7.2388   3.5949822247e+02   2.4182710931e+01    0.7916606     0.447662 -52.18  0.005180689    1.466    0.318
         3  -9.6764     35.3990     12.1935   4.1288373049e+01   6.8544716674e+01    0.1391189    0.1028061 -30.71 0.0003801621    1.553    0.356
         4 -10.4013    218.6193    246.1423   4.9948725815e+01  -7.9298258190e+00    0.2775986    0.1044968 -36.56  0.001281349    2.690    0.628
         5 -10.0501    247.9072    250.4841   4.5324843555e+01  -1.2149897176e+01    0.1634023   0.09440199  23.71  0.001001583    1.545    0.353
         6 -10.0295    187.6536    246.5325   5.6086662123e+01  -3.6608979276e+00    0.2072797    0.1164778 -40.83   0.00109613    1.969    0.492
         7 -10.7298    250.1868    244.4699   4.3947307359e+01  -1.1633398848e+01    0.2975733    0.1299107 -30.62   0.00143388    2.090    0.522
         8 -10.6676    248.2190    239.0985   4.3399614012e+01  -1.0687667603e+01    0.2813552    0.1392006 -26.07  0.001556501    1.868    0.465
         9 -10.7674    233.0951    245.0608   4.7082744657e+01  -9.6468380539e+00    0.2690303     0.129769 -23.46  0.001379944    2.181    0.541
        10  -9.5275    212.4908    246.4867   5.1173240984e+01  -7.1577901263e+00    0.1265054   0.09700248   4.94 0.0008094973    1.070    0.065
        11  -9.9200    201.6150    241.8235   5.2538846101e+01  -4.9514991246e+00    0.1613648    0.1178373 -46.94 0.0009507958    1.761    0.432
        12  -9.8433    239.5816    239.7788   4.5037884010e+01  -9.7295185985e+00     0.150132    0.1034469 -37.67 0.0009449812    1.628    0.386
        13  -9.5444    214.6641    240.3266   4.9750365539e+01  -6.5523554409e+00    0.1096921   0.09852622  52.73 0.0007051637    1.721    0.419
        14 -10.3929    221.1367    238.7675   4.8260090425e+01  -7.2020874498e+00    0.2451027    0.1353978 -14.34  0.001239695    2.116    0.527
        15 -10.2868    159.7622    238.7766   6.0708467251e+01   1.8658443678e+00    0.1880965    0.1135271 -61.45  0.000890666    2.482    0.597
        16 -10.3552    243.2896    236.5666   4.3840696287e+01  -9.7445379308e+00    0.2298146    0.1260767 -29.45  0.001331742    1.646    0.393
        17 -10.9930    230.8831    236.2204   4.6018588910e+01  -8.1236839764e+00    0.2664732    0.1575956 -52.83  0.001323426    2.977    0.664
        18  -9.6833    209.2763    237.6483   5.0348717659e+01  -5.4017390612e+00    0.1068901    0.1022618  67.18 0.0006713917    1.642    0.391
        19  -9.9517    183.0000    237.0095   5.5527691433e+01  -1.4394921955e+00    0.1969537    0.0732441 -44.34 0.0008050459    2.961    0.662
        20  -9.6918    248.2856    233.6553   4.2473735989e+01  -9.9538776964e+00   0.09911097   0.09217797 -33.64 0.0004473776    1.646    0.392
        21 -10.0502    241.4800    231.0636   4.3229531399e+01  -8.7481621478e+00    0.1787674    0.1026025 -32.21  0.001034047    1.596    0.373
        22 -10.5765    236.0252    229.6804   4.3970357330e+01  -7.8500081294e+00    0.2940051    0.1399949 -36.52  0.001533246    1.992    0.498
        23 -10.1097    194.5848    231.2363   5.2201664550e+01  -2.2481943569e+00    0.1817426    0.1133564 -26.97 0.0009574021    1.682    0.406
        24  -9.7428    158.0000    230.9754   5.9882330465e+01   3.5359558326e+00    0.2009213   0.07791551 -48.39 0.0007971051    2.906    0.656
        25 -10.2846    144.0000    230.9768   6.2965835498e+01   5.8021868428e+00    0.2042763   0.07901948 -50.96 0.0008027193    2.944    0.660
        26 -10.7896    249.0000    228.0510   4.1395490712e+01  -9.2614618932e+00    0.2709666    0.1005436 -34.81  0.001282987    2.439    0.590
        27 -10.0527    248.3820    224.1703   4.0833972622e+01  -8.6349360173e+00    0.1842903    0.1025457 -32.75  0.001054572    1.603    0.376
        28  -9.8946    229.6582    227.6733   4.4787531786e+01  -6.7120409030e+00    0.1322107   0.08164316  -2.84 -5.78896e-05    1.737    0.424
        29  -9.6516    184.2768    227.6496   5.3722319823e+01  -6.5676323776e-02    0.1200294    0.1066594  70.98 0.0005376402    1.640    0.390
        30 -10.3114    139.2914    227.3925   6.3475684534e+01   7.2524482061e+00    0.2153435    0.1586858   1.12   0.00110882    1.689    0.408
        31 -10.4660    212.5636    227.8512   4.8053956483e+01  -4.3573097176e+00    0.2918639    0.1187494 -43.15   0.00129318    2.635    0.620
        32  -9.8057    223.6205    226.1716   4.5651755019e+01  -5.6603601488e+00    0.1775189     0.102518 -26.38 0.0009501799    1.673    0.402
        33 -10.0513    206.3164    224.1575   4.8640393096e+01  -2.8544985079e+00    0.2570582    0.1041497 -34.26   0.00108627    2.618    0.618
        34  -9.4581    200.0000    224.9363   5.0035691645e+01  -2.0333719397e+00    0.2035307   0.07147863 -42.38  0.000804792    2.959    0.662
        35 -10.2485    216.6809    222.7291   4.6370597529e+01  -4.1446448593e+00    0.2306491    0.1578849 -58.66  0.001177401    2.506    0.601
        36 -10.5398    180.8437    222.2550   5.3530807449e+01   1.4140998606e+00    0.3360121    0.1629221 -28.96  0.001386121    2.688    0.628
        37 -10.1929    172.7086    221.5330   5.5145953043e+01   2.8595648849e+00    0.2344749    0.1219478 -45.02  0.001076973    2.087    0.521
        38 -10.3673    238.8547    220.3829   4.1848653162e+01  -6.8549605963e+00    0.2888578     0.126521 -40.42  0.001407599    2.241    0.554
        39 -11.0266    192.1663    218.8999   5.0583509509e+01   1.9594310359e-01    0.5046023    0.1777885 -42.43  0.001983607    2.935    0.659
        40 -10.3279    210.3240    217.2856   4.6643970148e+01  -2.3327821338e+00    0.3244673    0.1149172 -43.38  0.001300663    2.944    0.660
        41 -10.0102    202.6657    218.6645   4.8406354605e+01  -1.3987564724e+00    0.1406889   0.09242558  -2.33 0.0007052108    1.740    0.425
        42 -11.1114    249.8344    214.8490   3.8953951578e+01  -7.4683107625e+00    0.4643576    0.1486683 -42.60  0.001925053    3.220    0.689
        43 -10.1215    244.4676    215.0422   3.9915387940e+01  -6.7998885723e+00    0.1837325    0.1049989 -35.18     0.001029    1.591    0.372
        44 -10.6321    232.7668    214.0935   4.1831364881e+01  -5.0727469559e+00    0.3093393    0.1587598 -47.00  0.001501135    2.368    0.578
        45 -10.4881    198.3577    214.3561   4.8511068854e+01   1.8282468826e-03    0.2712977    0.1959201 -20.85  0.001505897    1.378    0.274
        46 -10.2646    168.6915    214.5525   5.4825427823e+01   4.8108579644e+00    0.2404761    0.1269623 -46.18  0.001084214    2.049    0.512
        47 -10.3268    185.5516    212.7066   5.0869963372e+01   2.3511873974e+00    0.2543517    0.1273891 -38.65  0.001139973    2.067    0.516
        48 -10.1944    131.0000    212.0557   6.2994572070e+01   1.1711820008e+01    0.2227848   0.08245139 -53.01 0.0008064079    2.970    0.663
        49 -10.5755    161.5703    210.6788   5.5732266240e+01   6.7571763878e+00    0.2681554    0.1329894 -42.02  0.001149356    2.160    0.537
        50 -10.7982    176.8557    209.4204   5.2141857007e+01   4.3983905397e+00    0.3252972    0.1557126 -47.80  0.001388007    2.301    0.565
        51 -10.8076    147.6150    208.4078   5.8516610512e+01   9.6121657378e+00    0.3398464    0.1290584 -44.94  0.001256045    2.847    0.649
        52 -10.7446    204.9737    206.7842   4.5805223348e+01   2.6245778348e-01    0.4169241    0.1561967 -31.82  0.001499764    3.353    0.702
        53 -10.0870    246.5604    206.0225   3.7939153903e+01  -5.7166956697e+00    0.1898902    0.1043344 -34.79  0.001031158    1.608    0.378
        54 -10.1601    192.4718    209.4657   4.8839663826e+01   1.8008809117e+00    0.2294258    0.1303716 -53.29  0.001033373    2.320    0.569
        55 -10.6898    197.2880    202.8879   4.6639778324e+01   2.1881389633e+00    0.3797864    0.1735926 -38.14  0.001634471    2.197    0.545
        56 -10.5897    228.3017    201.8031   4.0411919773e+01  -2.4761693851e+00    0.3210209    0.1325735 -26.02  0.001196704    3.350    0.701
        57 -10.2219    183.6065    202.8177   4.9489424107e+01   4.4885781436e+00    0.1903613    0.1329984 -52.30 0.0009541364    1.699    0.412
        58 -11.1795    163.5387    201.1931   5.3601855466e+01   8.2789656691e+00    0.3551903    0.1365924 -44.25  0.001320565    2.722    0.633
        59 -10.4820    250.4999    200.2390   3.6221412068e+01  -5.3609547514e+00    0.2963588    0.1027241 -36.11  0.001278568    2.557    0.609
        60 -10.5611    243.5565    200.2465   3.7406272144e+01  -4.4136984059e+00    0.3029059    0.1062558 -37.29  0.001291223    2.554    0.609
        61 -10.5304    210.8286    200.5294   4.3488114214e+01   4.1601963705e-01    0.2560751    0.1706208 -51.77  0.001260028    1.878    0.467
        62 -10.6354    237.2669    197.1871   3.7941081492e+01  -3.0374267521e+00    0.3521034    0.1339725 -37.57  0.001529074    2.383    0.580
        63 -10.9860    236.8964    207.6923   3.9934199267e+01  -4.6515402090e+00    0.3175044    0.2425457 -60.46   0.00180384    2.170    0.539
        64 -10.3990    202.6618    196.7179   4.4390711010e+01   2.4090786106e+00    0.2841021    0.1644474 -46.21  0.001356502    1.849    0.459
        65 -10.5272    215.9656    194.9852   4.1448850211e+01   5.5964152177e-01    0.2783222    0.1831498 -60.81  0.001301306    2.503    0.601
        66 -10.1476    192.5529    196.2225   4.6366421528e+01   4.1937356285e+00    0.2022592    0.1244416 -29.52 0.0009572742    1.704    0.413
        67 -11.0225    245.6812    192.6816   3.5646978104e+01  -3.5183807442e+00    0.3310184    0.2337036 -52.26   0.00188935    1.855    0.461
        68 -10.8673    224.3204    192.4574   3.9395136438e+01  -3.1825453685e-01    0.3987598    0.1573649 -42.65  0.001672268    2.451    0.592
        69 -10.4437    101.0083    200.2558   6.8400133763e+01   1.9285162159e+01    0.3089722    0.1678844 -34.26  0.001192925    2.839    0.648
        70 -10.6918    185.5086    192.7903   4.7196621793e+01   6.0540610283e+00    0.4461904    0.1783973 -37.97  0.001680168    2.657    0.624
        71 -10.5454    160.5692    192.7318   5.2713818696e+01   1.0517145629e+01    0.2808905    0.1386723 -42.68  0.001147987    2.115    0.527
        72 -10.0315    199.1449    191.1230   4.4032769723e+01   4.0137743774e+00    0.1794017    0.1690937 -57.29 0.0006689929    1.317    0.241
        73 -11.5816    148.6859    196.2657   5.6130091482e+01   1.1927258255e+01    0.5015141    0.1767663 -52.47  0.001695499    3.255    0.693
        74 -10.9835    138.6233    188.0774   5.7039399290e+01   1.5502672728e+01    0.3361486    0.1438219 -50.61  0.001253027    2.463    0.594
        75 -10.0324    237.4949    187.4642   3.6078120535e+01  -1.4874768362e+00    0.2386544    0.1055166 -30.16  0.001031819    2.330    0.571
        76 -10.4412    216.5651    186.7011   3.9746700265e+01   1.9082625585e+00    0.2678609    0.1196607 -36.18  0.001143457    2.154    0.536
        77 -10.3323    191.1470    186.2524   4.4736788935e+01   6.3100887828e+00    0.2621034    0.1919482 -69.53  0.001234964    2.139    0.533
        78 -10.7425    128.7217    186.3774   5.9166137204e+01   1.7676081139e+01    0.3752716     0.166674 -40.42  0.001345551    2.726    0.633
        79 -10.5796    164.5310    184.8337   5.0292964542e+01   1.1416912660e+01    0.3559158    0.1462201 -48.74  0.001305848    2.589    0.614
        80 -10.9089    155.5726    184.0578   5.2219157693e+01   1.3241541797e+01    0.4876283    0.1461344 -48.36  0.001526866    3.485    0.713
        81 -10.1374    202.7121    183.1773   4.1761829538e+01   4.8683339323e+00     0.321923    0.1168699 -40.12  0.001196058    2.682    0.627
        82 -10.5628    182.6416    183.0452   4.5912754264e+01   8.4531235522e+00    0.3288566    0.1336586 -44.18  0.001242013    2.472    0.596
        83 -11.0462    119.8783    181.9578   6.0592075081e+01   2.0268599559e+01    0.5397739    0.1039015 -54.66  0.001285193    5.900    0.831
        84 -10.3230    249.6046    183.1668   3.3214778984e+01  -2.5579866448e+00    0.1885251    0.1002557 -28.94 0.0009514174    1.751    0.429
        85 -10.6125    174.1303    181.6222   4.7494790291e+01   1.0296770093e+01     0.386536    0.2033539 -37.77  0.001617762    1.988    0.497
        86  -9.7982    235.2165    180.9617   3.5235206103e+01  -6.0353890395e-02    0.1747764   0.09464059 -38.67 0.0005801705    1.661    0.398
        87 -10.8575    147.2489    178.0768   5.3035232750e+01   1.6089235446e+01    0.3808256    0.2032729 -45.39  0.001567708    1.932    0.482
        88 -10.1693    210.4515    182.5577   4.0112903241e+01   3.6607625692e+00    0.2628948    0.1175851 -31.65  0.001038629    2.483    0.597
        89 -10.0642    231.3629    176.1901   3.4987585680e+01   1.3527142009e+00    0.1929248    0.1123222 -45.77 0.0009556894    1.733    0.423
        90 -10.0790    217.4009    176.2211   3.7534029956e+01   3.6309001438e+00    0.1950183    0.1213945 -48.05 0.0009529775    1.710    0.415
        91  -9.9925    230.5586    186.2183   3.7068402282e+01  -2.2784066642e-01    0.1938556    0.1102875 -28.45 0.0009567176    1.703    0.413
        92 -10.6975    183.0151    174.3506   4.4083851588e+01   1.0105722756e+01    0.3528039    0.2002222 -29.33   0.00147836    2.054    0.513
        93 -10.6304    158.0749    173.1414   4.9461504307e+01   1.5092989601e+01    0.3730135    0.2203093 -48.85  0.001610965    1.763    0.433
        94  -9.5342    224.4778    172.5501   3.5501803469e+01   3.1025351535e+00     0.307227     0.105348 -29.19 0.0008102486    5.813    0.828
        95 -10.5748    175.9889    170.2565   4.4776502252e+01   1.2258534971e+01    0.4118447     0.173085 -31.63   0.00130097    3.535    0.717
        96 -10.3789    205.4452    168.7585   3.8322456243e+01   7.0761693510e+00    0.2692776    0.1301353 -46.00  0.001072869    2.078    0.519
        97 -10.9417    191.8431    176.1267   4.2573931425e+01   8.1302942690e+00    0.5065757    0.1834093 -35.98   0.00170919    3.166    0.684
        98 -10.2515    218.6255    167.1874   3.5497372276e+01   5.0474852717e+00    0.2065331    0.1176921 -31.70 0.0009607866    1.727    0.421
        99 -10.3531    184.5993    165.2949   4.1870013478e+01   1.1616450274e+01    0.2866976    0.1382437 -47.44  0.001136618    2.135    0.532
       100 -10.4858    191.8503    164.3641   4.0150655943e+01   1.0423257795e+01    0.4142161   0.09467894 -40.05  0.001108181    4.677    0.786
       101 -10.4323    212.6526    162.3685   3.5627345581e+01   6.9757671838e+00    0.3508113    0.1205853 -37.67   0.00123923    2.890    0.654
       102 -10.7860    138.0070    163.2063   5.2310435525e+01   2.1176850380e+01    0.2268753    0.1763061 -75.23 0.0009501629    1.627    0.385
       103  -9.7118    132.3351    162.3229   5.3572632979e+01   2.2478197630e+01    0.1599132    0.1220071  -6.85 0.0007050625    1.710    0.415
       104  -9.6619    222.2876    160.3573   3.3446509357e+01   5.6452286811e+00     0.141044    0.1002558 -10.24  0.000510548    1.679    0.404
       105 -10.8570    177.5519    158.5451   4.1960712814e+01   1.4355125642e+01    0.4291397    0.1436298 -43.95  0.001411126    2.955    0.662
       106 -10.2938    151.3267    159.8430   4.8299035425e+01   1.9302050447e+01    0.3071179    0.1418047 -54.78  0.001080004    2.576    0.612
       107 -10.0747    227.1795    157.9946   3.2102362302e+01   5.2233719313e+00     0.219655    0.1461776 -59.80  0.001066864    2.004    0.501
       108 -10.5073    196.4178    155.8116   3.7411432513e+01   1.1226652160e+01    0.3689367    0.1343162 -39.93  0.001299261    2.698    0.629
       109 -10.6148    167.3837    155.6831   4.3615699724e+01   1.6978929379e+01    0.4310599     0.189596 -44.63  0.001596718    2.271    0.560
       110 -10.3573    218.0000    156.0033   3.3326781916e+01   7.1892863344e+00    0.2342301   0.07292176 -41.34 0.0008046207    2.958    0.662
       111 -10.1933    157.5652    154.7402   4.5696426174e+01   1.9163232984e+01    0.3004914    0.1469892 -41.98  0.001143693    2.090    0.522
       112 -10.4251    166.9532    167.0760   4.6147453465e+01   1.4661803813e+01    0.3593202    0.1854818 -32.66  0.001363719    2.350    0.574
       113 -10.7076    243.5928    150.2346   2.7824233500e+01   3.8200583085e+00    0.1912012    0.1094288 -31.37 0.0009527933    1.658    0.397
       114 -10.6840    189.3637    149.3660   3.7456863546e+01   1.3869602213e+01    0.3601762    0.1319641 -47.44  0.001226298    2.836    0.647
       115 -10.3420    204.8143    153.4269   3.5252387825e+01   1.0090185363e+01    0.2453397    0.1645586 -35.24  0.001202068    1.428    0.300
       116 -10.1584    213.3209    148.0290   3.2513604279e+01   9.5104878539e+00    0.2367814    0.1073069 -24.50 0.0007048486    4.390    0.772
       117 -10.7833    199.1274    147.0339   3.4987260763e+01   1.2404930597e+01    0.3752585    0.1605399 -31.04  0.001273866    3.114    0.679
       118 -10.0526    233.6301    146.1773   2.8610468590e+01   6.1951367822e+00    0.2013028    0.1129005 -31.65 0.0009529509    1.755    0.430
       119  -9.8412    223.6742    145.6650   3.0179529847e+01   8.0448456429e+00    0.1402924    0.1035353  -5.23 0.0007051422    1.717    0.418
       120 -10.1302    250.8181    155.6585   2.7762924859e+01   1.7576902336e+00    0.2514701   0.08427317 -38.20  0.001001627    2.598    0.615
       121 -10.3529    181.6788    140.5166   3.7098181169e+01   1.7197959118e+01    0.2775452    0.1345057 -43.04  0.001087919    2.015    0.504
       122 -10.0310    207.5002    136.9846   3.1214527763e+01   1.2682465699e+01    0.2255226    0.1322066 -41.79   0.00103382    1.595    0.373
       123  -9.5295     16.3136    137.3020   8.2553436131e+01   4.5285088129e+01    0.1330749   0.08457612 -42.60 0.0002285008    1.613    0.380
       124 -10.2511    197.8306    135.3324   3.2672327448e+01   1.4918630365e+01    0.4311498    0.1043308 -38.15  0.001145025    4.694    0.787
       125 -10.8328     69.0497    135.8661   6.6109402028e+01   3.9860758126e+01    0.2453226    0.2015544 -56.43 0.0004053633    1.165    0.142
       126 -10.0693    171.9754    137.9581   3.8613718884e+01   1.9742209906e+01    0.2419255    0.1896222 -82.80 0.0009911419    1.722    0.419
       127 -10.1212    204.3882    130.1905   3.0297246070e+01   1.4574657534e+01    0.2088027    0.1257164 -50.40 0.0009434631    1.687    0.407
       128 -10.7223    147.9555    143.7999   4.5580071967e+01   2.3527316534e+01    0.3673595    0.2173054 -63.61  0.001388854    2.365    0.577
       129 -10.4685     53.6176    130.2081   6.9861641680e+01   4.3319960505e+01    0.2099527    0.1172017 -51.20 0.0008504525    1.649    0.393
       130 -10.9824    246.5000    127.9357   2.2939245115e+01   7.1012591678e+00    0.2003728    0.1115461 -40.35 0.0005564659    1.543    0.352
       131 -11.1952     81.6672    121.9487   5.9167162328e+01   4.1303417298e+01     0.340163     0.195266  42.68 0.0008242648    1.814    0.449
       132 -10.0067    158.0000    120.0807   3.7535743231e+01   2.6454765401e+01    0.2590154   0.08729398 -43.26 0.0008076695    2.979    0.664
       133 -10.2445    193.0000    114.0331   2.8752776087e+01   1.9976648295e+01    0.2476396   0.08000489 -40.82 0.0008085122    2.985    0.665
       134 -10.2132    140.6329    117.8183   4.1184433719e+01   3.0740654132e+01    0.2290118    0.1444592 -55.15 0.0009498861    1.776    0.437
       135 -10.0296    174.0000    110.0668   3.1560380761e+01   2.4897383670e+01    0.2510426   0.08417892 -41.26 0.0008051649    2.961    0.662
       136 -10.2700    139.3379    103.8723   3.7914575119e+01   3.3921510198e+01    0.3049574    0.1371093 -50.40  0.001053187    2.516    0.603
       137 -10.1820    166.2312    102.9879   3.1442895693e+01   2.8007424407e+01    0.2050064    0.1242404 -41.70 0.0007064596    1.659    0.397
       138 -10.9590    149.6380    100.3132   3.4474561043e+01   3.2305159003e+01    0.5124117    0.1459447 -40.94   0.00150967    3.623    0.724
       139 -10.9871    246.5149    101.5226   1.7638664539e+01   1.1450119408e+01    0.1281969    0.1092172 -52.30 1.759239e-05    1.002    0.002
       140 -10.6476    107.3890     97.6267   4.4964725071e+01   4.2050796614e+01    0.2839067    0.1375285 -58.28 0.0009562476    3.063    0.674
       141  -9.8415    145.4734     95.4684   3.4177701399e+01   3.4191910818e+01    0.1506912    0.1459682  63.47 0.0001140576    1.018    0.018
       142 -10.0100    164.7633     93.0291   2.9221327509e+01   3.0207102337e+01    0.2044911    0.1241881 -41.21 0.0008945644    1.670    0.401
       143 -10.0792    170.7730     91.0439   2.7484557882e+01   2.9178896767e+01    0.1984326    0.1204266 -41.35 0.0008778588    1.660    0.398
       144 -11.4770    137.9996     89.9097   3.4482391745e+01   3.6954645150e+01    0.4161029    0.1907571 -42.72  0.001580371    2.255    0.557
       145 -10.8361     58.4681     90.9946   5.9383126855e+01   5.1886130960e+01    0.2155999    0.1303336 -50.17  0.000768262    1.580    0.367
       146 -10.3489     80.4905     85.5396   5.0081525591e+01   4.9618591093e+01    0.1434278    0.1350052   1.20 0.0001903732    1.026    0.026
       147 -10.7462    157.6798     82.8485   2.8054164126e+01   3.3681090822e+01    0.2933597    0.1401826 -31.16  0.001093743    2.573    0.611
       148 -11.3782    140.4940     81.5241   3.1552840165e+01   3.7922442382e+01    0.3084827    0.1479202 -40.04  0.001212688    2.176    0.540
       149 -11.2029    182.1434     80.8726   2.2790130571e+01   2.8317181234e+01    0.2194019    0.1857939 -81.25 0.0003773363    1.212    0.175
       150 -10.3869    149.6936     79.3469   2.8840693732e+01   3.6163289013e+01     0.152654    0.1147347 -78.20  0.000704269    1.699    0.411
       151 -11.0818    176.0063     76.8590   2.2891970474e+01   3.0407162355e+01    0.2599447    0.1938824  52.08  0.001149972    1.332    0.249
       152  -9.9867    157.3131     75.6498   2.6207100766e+01   3.5002012274e+01    0.1527546    0.1117629 -76.72 0.0005669304    1.723    0.420
       153 -10.9067    140.6783     73.6594   2.9297875246e+01   3.9247348719e+01    0.4090487    0.2270977 -26.61  0.001665094    2.318    0.569
       154 -10.0566    127.5237     72.9718   3.2285133651e+01   4.2398314269e+01    0.2224126    0.1470179 -37.54  0.001037974    1.608    0.378
       155  -9.6174    163.2631     71.0005   2.3774321239e+01   3.4360734505e+01    0.1807447     0.125476 -38.95  0.000880565    1.509    0.337
       156 -13.2640    249.4738     67.2168   1.0502947814e+01   1.6156024205e+01    0.5023656    0.2529489 -41.15  0.002659203    1.752    0.429
       157  -9.8961    118.9912     69.6972   3.3526759292e+01   4.4877296766e+01    0.1925033    0.1678592  44.06 0.0001487702    1.072    0.067
       158  -9.5368    154.4678     67.5625   2.4600487406e+01   3.6997464223e+01    0.1441099    0.1334843  70.61 8.040014e-05    1.016    0.015
       159  -9.4897    130.7206     57.3501   2.6862324373e+01   4.4178687298e+01    0.1416503    0.1098948 -75.17 0.0004997939    1.645    0.392
       160  -9.8583    158.9932     54.9723   2.0294265121e+01   3.7827087469e+01    0.1660521    0.1582441 -75.32 0.0009120661    1.089    0.081
       161 -10.9111     86.0415     54.6700   3.8428596425e+01   5.4239606060e+01    0.2443481    0.1979388 -25.23 0.0003459276    1.277    0.217
       162  -9.6216     61.7897     54.0314   4.6831424176e+01   5.8618818043e+01     0.170301    0.1024393 -39.26 0.0004344457    1.681    0.405
       163 -10.8296    243.1634    245.5946   4.5362053022e+01  -1.0953210876e+01    0.3128161    0.1410169 -32.72  0.001674007    2.065    0.516
       164  -9.7540     28.1606     45.6295   5.8136924754e+01   6.4476580247e+01    0.1678846    0.1025628   7.87 0.0005000381    1.645    0.392
       165 -10.7782    159.7476     41.9277   1.6638715442e+01   3.9425936055e+01    0.2164391     0.174379  66.13 0.0003288452    1.108    0.097
       166 -10.0510     28.4793     42.4702   5.6889036719e+01   6.4990411579e+01    0.1247958   0.09895705 -12.70 0.0001288307    1.023    0.022
       167 -10.0162    184.5086     41.5200   1.2738513650e+01   3.3614154186e+01    0.1330901    0.1162507  87.03 0.0002368204    1.008    0.008
       168 -11.0727    121.8039     36.9930   2.2646831603e+01   4.9035793575e+01    0.2448249    0.2301234 -77.55 0.0008613637    1.201    0.167
       169 -10.3124    176.8969     33.3150   1.1780291361e+01   3.6422604835e+01    0.1854555    0.1463853  71.60 0.0003025273    1.121    0.108
       170 -10.2535     89.0000     32.9916   2.9854287762e+01   5.6719400043e+01    0.2038494   0.07519697 -31.12 0.0001440149    3.008    0.668
       171 -10.0809    112.7186     21.5539   1.9693776799e+01   5.2858798073e+01    0.2139128    0.1533903 -56.24 0.0007512338    1.809    0.447
       172 -10.2031    224.4583    247.0399   4.8997739519e+01  -8.8207506128e+00    0.1737425    0.1057164 -30.88 0.0009841163    1.603    0.376
