#   1 NUMBER                 Running object number                                     
#   2 MAG_AUTO               Kron-like elliptical aperture magnitude                    [mag]
#   3 X_IMAGE                Object position along x                                    [pixel]
#   4 Y_IMAGE                Object position along y                                    [pixel]
#   5 X_WORLD                Barycenter position along world x axis                     [deg]
#   6 Y_WORLD                Barycenter position along world y axis                     [deg]
#   7 A_WORLD                Profile RMS along major axis (world units)                 [deg]
#   8 B_WORLD                Profile RMS along minor axis (world units)                 [deg]
#   9 THETA_WORLD            Position angle (CCW/world-x)                               [deg]
#  10 FWHM_WORLD             FWHM assuming a gaussian core                              [deg]
#  11 ELONGATION             A_IMAGE/B_IMAGE                                           
#  12 ELLIPTICITY            1 - B_IMAGE/A_IMAGE                                       
         1 -15.4385    247.4273    157.2757   5.3952469706e+01   2.7650613597e+00     5.980441     1.066757 -43.87   0.01751372    4.849    0.794
         2 -14.2350    247.9917    124.6554   4.7450083057e+01   8.3191991196e+00       3.3551    0.8210562 -48.53   0.01043335    4.474    0.776
         3 -15.4746    248.2301     85.6724   3.9714552114e+01   1.4697722497e+01      7.09021    0.7258518 -40.28   0.01794586    7.130    0.860
         4 -13.2116     84.2774     20.3315   5.0687518542e+01   5.9533707676e+01    0.4214635    0.2911443 -37.80  0.002423263    1.738    0.425
         5 -14.2273     97.5464     14.1651   4.4898038818e+01   5.7264138318e+01      1.30754     0.429756 -29.06  0.005485752    3.319    0.699
         6 -14.0586     75.3193     17.2199   5.2122651679e+01   6.1695137022e+01    0.8779216    0.4447397 -29.01  0.004500278    2.202    0.546
         7 -11.2970     50.2991     16.0655   6.0603088752e+01   6.6504796944e+01    0.3399887    0.1745846   2.95  0.001481119    3.068    0.674
         8 -14.8891    105.2262      7.0295   4.0683187159e+01   5.6157948676e+01     1.209834    0.9956067  23.41  0.007960478    1.321    0.243
         9 -12.4960     63.7611     20.8888   5.7550500076e+01   6.3558232812e+01    0.3833309    0.2484948 -42.51  0.002120727    2.052    0.513
        10  -9.6050     40.9053     21.1313   6.7044965265e+01   6.7419081947e+01    0.1713997    0.1466949  10.51 0.0003283275    1.176    0.149
        11  -8.8425     13.6977    250.7240   1.1954584404e+02   1.7787967290e+01   0.09737375   0.08793969 -47.57 0.0002335498    1.541    0.351
        12  -9.6748    123.5140    225.0547   9.2483307930e+01   9.0687849428e+00    0.1981399    0.1398978 -53.06 0.0005581707    1.541    0.351
        13 -10.9269    125.9789    220.7239   9.1236913416e+01   9.6066563482e+00    0.3004119    0.2537884  62.01 0.0007919795    1.371    0.271
        14  -9.6789     79.6571    211.2939   1.0128630035e+02   1.8713497357e+01     0.150141   0.09886766  60.64  0.000324673    1.660    0.398
        15 -10.7318    165.9887    248.7527   8.6467691951e+01  -1.7460414574e+00    0.1926714    0.1538258  16.20  0.001180696    1.057    0.054
        16  -9.5750    206.5898    169.7663   6.3540562243e+01   6.8513691152e+00    0.1994031    0.1239805 -48.95 0.0008340492    1.633    0.387
        17 -10.8146     56.3065    170.3492   1.0191129489e+02   3.2179360252e+01    0.3187295    0.1689811  37.96  0.001372298    1.894    0.472
        18 -10.0304    236.1101    239.9965   7.1075606632e+01  -9.3002263368e+00    0.3195047    0.1075557  23.60  0.001325054    3.455    0.711
        19  -9.9232     38.9899    165.2274   1.0619311500e+02   3.5530695857e+01    0.1818249    0.1187137  26.46 0.0008842223    1.678    0.404
        20  -9.8991    173.0158    195.6490   7.5794359923e+01   7.2554951052e+00    0.2250421    0.2029984 -52.87  0.001127617    1.294    0.227
        21 -10.0918     71.9280    163.7083   9.6299029637e+01   3.1843967285e+01    0.2379178    0.1257463   1.68 0.0007027687    4.247    0.765
        22  -9.0443    205.5108    159.9958   6.1716236720e+01   8.9433022557e+00    0.2068975    0.1122839 -23.56 0.0008094158    2.454    0.592
        23 -11.5899     52.3455    156.5542   1.0098284726e+02   3.6320959894e+01    0.5459293    0.2072222  42.10  0.001961882    2.789    0.641
        24  -9.2696    219.0146    155.7231   5.8331054355e+01   7.4773557086e+00    0.1857355    0.1697047 -23.73 0.0005921125    1.082    0.076
        25 -10.9917     85.1139    155.7631   9.0921377878e+01   3.1954539371e+01    0.5546815    0.2418228  37.67  0.002022372    2.290    0.563
        26 -11.3571     71.5272    154.4698   9.4783871886e+01   3.4342640653e+01    0.5643976    0.2580791  23.95  0.002045514    2.590    0.614
        27 -12.2625    237.1154    230.5619   6.9287691823e+01  -8.0124774738e+00    0.3577261    0.2487012 -11.46  0.001372798    1.168    0.144
        28 -10.7515     40.6707    148.5188   1.0332048861e+02   3.9782551879e+01    0.4325952    0.2059946  47.72  0.001729582    2.448    0.592
        29 -11.5454     57.8956    146.9216   9.7650164304e+01   3.8196009572e+01    0.5804177    0.2784689  52.91  0.002092207    2.826    0.646
        30 -10.1767     91.0156    145.1527   8.6973321220e+01   3.3756922112e+01    0.3871565    0.1128751  33.39  0.001112353    3.545    0.718
        31  -9.8212     73.0055    143.0000   9.2127185608e+01   3.7156115085e+01    0.2527556   0.08876804  30.29 0.0008101854    2.996    0.666
        32 -10.1852     23.9660    138.7700   1.0715251345e+02   4.3944520291e+01    0.3589649    0.1802799  61.26  0.001424281    2.800    0.643
        33  -9.3649    197.3759    136.2452   5.8121279915e+01   1.5135692406e+01    0.2109736    0.1258025 -49.53 0.0008548785    1.622    0.383
        34  -9.9033     39.5395    136.5064   1.0175772294e+02   4.3086882478e+01    0.2507838    0.1179487  38.10 0.0009164994    2.282    0.562
        35  -9.1566    126.9814    196.9641   8.7061763786e+01   1.4732946847e+01    0.1793085    0.1692833 -35.58 0.0009789941    1.080    0.074
        36  -9.6098     13.2542    129.6967   1.0935882898e+02   4.7123669133e+01    0.3361603    0.1447152  61.78  0.001154954    4.002    0.750
        37 -11.6388     61.5231    125.9515   9.2357327981e+01   4.3234607712e+01    0.6581781     0.333728  53.24  0.002371763    2.890    0.654
        38 -11.5710     45.6151    124.3260   9.7494256651e+01   4.5627132738e+01    0.6858203    0.3718939  62.05  0.002527283    3.103    0.678
        39 -10.9650     28.9197    122.6292   1.0298420273e+02   4.7739107628e+01    0.7335573    0.3552479  75.03  0.002218086    4.968    0.799
        40 -10.2269     72.9697    121.0000   8.7350806554e+01   4.2851829264e+01    0.2508753   0.08823035  31.41 0.0007418105    2.980    0.664
        41 -11.3601     85.8287    132.9305   8.5893972154e+01   3.7765671398e+01    0.7440037    0.2106652  40.02  0.002167901    3.577    0.720
        42 -11.0159     61.6141    178.0035   1.0151705950e+02   2.9496893382e+01    0.3512707    0.1668672  35.38  0.001438606    2.068    0.516
        43 -10.7302     81.6716    114.6987   8.2871426627e+01   4.3028675898e+01    0.3963182    0.2382309  52.91  0.001587521    2.147    0.534
        44  -9.8032     94.4714    113.8290   7.8445125065e+01   4.0996162806e+01    0.3379342    0.1945023  59.68   0.00119406    2.772    0.639
        45 -10.5912     68.3894    112.0988   8.6782658767e+01   4.5767481088e+01    0.3133334    0.1928359  48.12  0.001335827    1.950    0.487
        46 -10.2155     14.3137    110.2803   1.0608691888e+02   5.2021280680e+01    0.3565116    0.2109186  83.56  0.001630974    2.264    0.558
        47 -11.7896     46.4745    103.0629   9.2587634644e+01   5.0909936851e+01    0.8271414    0.4516748  63.58  0.002745527    4.215    0.763
        48 -11.1751     23.0041    102.3965   1.0141224076e+02   5.3364468695e+01    0.6522188    0.3601065  69.17  0.002523572    3.421    0.708
        49 -10.7938     97.1582    188.1786   9.3328112853e+01   2.1730004622e+01    0.4760535    0.1501463  35.43  0.001541268    2.959    0.662
        50 -11.3295     64.8041     97.1389   8.4190328889e+01   4.9897157711e+01    0.4743553    0.3048355  63.70  0.001895829    2.707    0.631
        51 -10.3777     57.2016    188.3864   1.0414064561e+02   2.7383972997e+01     0.211438    0.1196311  42.13 0.0009540776    1.729    0.422
        52  -9.8512     57.7478     92.0392   8.5445601648e+01   5.2092870134e+01    0.2036987     0.175502 -36.87 0.0003497396    1.075    0.070
        53  -9.4604     43.4891     92.4707   9.1129452854e+01   5.3799482495e+01    0.1449491    0.1247943 -30.67  -8.6952e-05    1.029    0.028
        54 -10.5671     35.0080     90.0137   9.3912910397e+01   5.5288656155e+01    0.3917867     0.232279 -76.60  0.001692276    2.433    0.589
        55 -10.0305     86.8029     87.2029   7.3464963104e+01   4.8426135303e+01     0.242098    0.1703108  81.95 0.0009455364    2.793    0.642
        56 -11.2735     49.2496     85.0965   8.6840827659e+01   5.4802577665e+01    0.4898089    0.3105462  60.37  0.002046541    2.820    0.645
        57  -9.5157     35.9976    188.4960   1.0976314933e+02   2.9816367732e+01    0.2084393   0.08473143  49.84 0.0008106628    2.595    0.615
        58 -10.3878     24.5361     80.6684   9.5948875520e+01   5.8421381056e+01     0.327193    0.2244946 -88.01  0.001280639    2.234    0.552
        59 -11.2150     51.8438     69.9169   8.1182599631e+01   5.7712864303e+01    0.3773495    0.2023555 -58.33  0.001600279    2.450    0.592
        60 -10.8622     83.5118     73.8566   7.0397016098e+01   5.1739435860e+01    0.4034384    0.2878504 -89.95   0.00163163    2.953    0.661
        61  -9.0472    202.7238    187.3436   6.7847252092e+01   4.0827232842e+00    0.1290764    0.1110958 -67.87  0.000317604    1.624    0.384
        62  -9.5415    204.9632    176.2785   6.5188003160e+01   5.8552342052e+00    0.2621649    0.1613672 -28.77  0.001025637    1.587    0.370
        63 -11.8126     74.1297     60.4416   6.9194986850e+01   5.5942609604e+01    0.3791084    0.2979792  60.27  0.001786357    1.715    0.417
        64 -10.1762     37.4117     64.2212   8.5567359761e+01   6.0699210157e+01    0.1819601    0.1255879 -58.05 0.0009517733    1.708    0.415
        65  -9.1433     25.3119     59.6232   8.9673685828e+01   6.2895052373e+01    0.1195728    0.1035499  70.42 0.0007029016    1.792    0.442
        66  -9.6731    123.6493     57.6783   5.3299236811e+01   4.6029136380e+01    0.1504041    0.1066293  23.96 0.0007048279    1.747    0.428
        67 -11.3109     63.2271     55.0876   7.1421206725e+01   5.8770138899e+01    0.2672102    0.2314478 -49.08  0.001165313    1.435    0.303
        68 -10.0598     44.2858     55.4483   7.9513203803e+01   6.1549740774e+01    0.2110483    0.1680304 -62.46 0.0009587425    1.795    0.443
        69 -10.8757     54.6320     54.1825   7.4585885423e+01   6.0300406874e+01    0.3149402    0.1650133 -53.23  0.001351228    2.649    0.622
        70 -11.8561     93.9886     51.8421   5.9468276264e+01   5.3468705785e+01    0.4416442    0.2571394  61.40   0.00192262    2.217    0.549
        71  -9.9420     31.2792     51.4505   8.4094610042e+01   6.3879050336e+01     0.201554    0.1617863 -65.02  0.000762021    1.805    0.446
        72 -10.7777     45.3428     49.1315   7.6725718336e+01   6.2541365060e+01    0.2442186    0.1903808   9.89 0.0003097351    1.149    0.129
        73 -12.0582     83.0778     47.4090   6.1361144421e+01   5.6366182777e+01    0.3987144    0.2263797  55.52  0.001663519    2.056    0.514
        74 -11.0553     92.2540    182.9444   9.3784196521e+01   2.3812835873e+01    0.3571115    0.2078702 -57.61  0.001042978    1.702    0.413
        75 -11.7851     58.4118     42.5301   6.8583114279e+01   6.1626702470e+01    0.3570513    0.2397403 -52.41  0.001825628    2.158    0.537
        76  -9.5007    212.0464    182.3337   6.5026458277e+01   3.5729648343e+00    0.1891099    0.1664109  -2.53 0.0008284948    1.106    0.096
        77 -12.2736     70.0452     41.8939   6.3834029340e+01   5.9680492306e+01    0.3605616    0.2818504  68.17  0.001780189    1.947    0.486
        78  -8.6662      5.3372     42.6582   9.4310570484e+01   6.7803472636e+01    0.1071477   0.09413459  54.66 0.0007050168    1.765    0.433
        79 -10.8431    113.6986     41.0513   5.0365150553e+01   5.0667302199e+01    0.1797874    0.1749799  17.14 0.0004801777    1.102    0.092
        80 -11.8099     84.0486     39.5033   5.8109344492e+01   5.7298292758e+01    0.2830935    0.1856968  50.22  0.000906456    1.465    0.317
        81 -11.9626    114.3008     36.1210   4.8584980609e+01   5.1153162874e+01    0.3582844    0.1954826  62.78  0.001667847    1.807    0.447
        82 -10.4788     45.1514    182.7085   1.0667570387e+02   3.0288480480e+01    0.2799869    0.1030192  35.24  0.001076249    2.563    0.610
        83 -12.6381     72.8057     31.8969   5.8905766669e+01   6.0525382802e+01    0.3843465    0.3032254 -75.17  0.002071677    2.232    0.552
        84 -11.5635     60.8810     32.7871   6.3656934508e+01   6.2613096639e+01    0.2509755    0.2328737  31.97  0.001186211    1.286    0.222
        85 -10.3506     49.8581     32.7407   6.8168511519e+01   6.4465891670e+01    0.2150749    0.1729357 -59.82  0.001233521    2.099    0.524
        86 -13.1821     93.6005     27.8941   5.0941627725e+01   5.6732011475e+01    0.5708852    0.3700206 -88.44  0.002494117    3.058    0.673
        87 -13.0033     82.5658     28.3029   5.4298877730e+01   5.9014678760e+01    0.4381998    0.3423117 -78.32  0.002398143    2.068    0.516
        88  -9.4273    103.6842    180.6495   9.0264591371e+01   2.2553336113e+01    0.1617092    0.1172737 -22.16 0.0007047086    1.731    0.422
        89  -9.6196    159.4124    231.2905   8.5171308266e+01   2.3425233571e+00    0.2339316    0.1582595  47.73  0.001185842    1.765    0.434
        90 -11.2146    162.9852    225.9245   8.3491506863e+01   2.8236596811e+00    0.5102718    0.3115525  23.94    0.0025195    1.565    0.361
        91 -10.9416     89.0000    223.0219   1.0049525143e+02   1.4673632613e+01    0.2707831    0.1715296 -64.01  0.001250268    1.693    0.409
        92  -9.4258    192.0143    225.9749   7.7232958865e+01  -1.4464825276e+00    0.2113445    0.1399321  -7.43 0.0006020708    1.585    0.369
        93  -9.8483    171.1025    225.7663   8.1667384044e+01   1.6334926373e+00    0.1912589     0.170452  22.49 0.0003496484    1.168    0.144
        94 -10.2102     40.9222     14.0450   6.3704257250e+01   6.8271883356e+01    0.1836492    0.1415015  15.33 0.0002858623    1.011    0.011
        95 -11.2013     99.3908    225.2959   9.8288841986e+01   1.2657004894e+01    0.3411627    0.2795021  30.50  0.001532351    1.152    0.132
        96 -12.0987    118.0667     23.6257   4.3640075066e+01   5.1701520556e+01    0.2505341    0.2069255 -28.19  0.001539444    1.391    0.281
