#   1 NUMBER                 Running object number                                     
#   2 MAG_AUTO               Kron-like elliptical aperture magnitude                    [mag]
#   3 X_IMAGE                Object position along x                                    [pixel]
#   4 Y_IMAGE                Object position along y                                    [pixel]
#   5 X_WORLD                Barycenter position along world x axis                     [deg]
#   6 Y_WORLD                Barycenter position along world y axis                     [deg]
#   7 A_WORLD                Profile RMS along major axis (world units)                 [deg]
#   8 B_WORLD                Profile RMS along minor axis (world units)                 [deg]
#   9 THETA_WORLD            Position angle (CCW/world-x)                               [deg]
#  10 FWHM_WORLD             FWHM assuming a gaussian core                              [deg]
#  11 ELONGATION             A_IMAGE/B_IMAGE                                           
#  12 ELLIPTICITY            1 - B_IMAGE/A_IMAGE                                       
         1 -12.9262     37.9550     49.2226   6.6665026242e+01   6.2680211906e+01    0.8813783    0.6673636 -45.84  0.005571259    1.216    0.177
         2 -11.6558      3.2422     16.1220   7.1160692370e+01   7.1417371580e+01    0.3137027    0.2701459 -85.61  0.001898587    1.994    0.498
         3 -12.5648    132.8339     18.9443   2.4590712183e+01   4.9757196991e+01    0.3618699    0.2466537  50.36 0.0004615853    1.303    0.233
         4 -12.2241    234.9851     10.0625   8.5474880947e+00   2.5559443690e+01    0.4931801    0.2084342 -36.51  0.002349089    2.187    0.543
         5 -12.1034    243.5037      3.2328   6.4069733493e+00   2.4404339535e+01    0.4384274    0.2225674  85.60  0.002292377    1.860    0.462
         6 -12.3273    238.1205     17.5128   9.9325152825e+00   2.3989645480e+01    0.3134705    0.2350754 -52.16 0.0003253476    1.198    0.165
         7 -11.3893     77.6610      9.9694   3.5296962762e+01   6.2765623339e+01    0.4314364    0.2593273  25.53 0.0008562826    1.628    0.386
         8  -9.9567     81.8654      7.1325   3.2715414633e+01   6.2244409257e+01    0.2246892    0.1486997  32.94 0.0004545683    1.323    0.244
         9 -10.0910     72.5041     10.5270   3.7262926528e+01   6.3663120797e+01    0.3344751    0.2300051   2.88  0.001962445    1.436    0.304
        10 -11.8332     72.9160     16.1760   3.9646025671e+01   6.2944056441e+01    0.4698813    0.3477765 -42.33  0.001922179    1.718    0.418
        11 -10.8435     11.2238     14.5395   6.6290633015e+01   7.1140473042e+01     0.334619    0.1357713 -29.67  0.001436007    2.305    0.566
        12 -11.4654     19.4848     16.3451   6.2786041750e+01   7.0177993361e+01    0.3890727     0.352066  63.35  0.002815029    2.020    0.505
        13 -11.8274     28.6674     19.7537   5.9723558592e+01   6.8765170742e+01    0.2705841    0.1956515  -0.43 0.0002429029    1.249    0.199
        14 -11.8151     30.9881     13.3591   5.5741971177e+01   6.9471674101e+01    0.3284916    0.2655968 -28.46 0.0006207661    1.301    0.232
        15 -11.0747     50.0600     15.7477   4.8232565558e+01   6.6700533602e+01    0.3838398    0.2447745   9.77  0.002233067    1.587    0.370
        16 -11.2785     59.9040     13.5624   4.3243107000e+01   6.5477366532e+01    0.3152763    0.2986286   7.13  0.001511002    1.352    0.260
        17 -10.6907    130.2925     13.2375   2.3108288564e+01   5.0959955522e+01    0.3240428    0.2610467 -30.99  0.001878526    1.381    0.276
        18 -10.6151    155.0059      8.7475   1.7273326720e+01   4.5295883295e+01    0.3551351    0.2608531 -69.11  0.001755955    1.535    0.349
        19 -10.3326     99.0332     12.2441   2.9971858394e+01   5.8209485939e+01    0.2317171      0.18762 -23.49 0.0006831399    1.338    0.253
        20  -9.9575      5.0148     12.2577   6.8663312688e+01   7.1942607670e+01    0.1447913    0.1191664  43.04 0.0009560684    1.993    0.498
        21 -10.9735    177.0759     10.2899   1.4619014759e+01   3.9582539994e+01    0.3919069    0.2353672  48.96  0.001864763    1.695    0.410
        22 -11.3450    145.9391      7.6836   1.8378667932e+01   4.7657205684e+01    0.4266283    0.2888729 -13.64  0.002269977    1.758    0.431
        23 -11.9043    241.3779      9.0663   7.8126824235e+00   2.4232050193e+01    0.2385458    0.1562188 -86.58 0.0005716128    1.377    0.274
        24  -9.6257    159.8781      8.7984   1.6555532018e+01   4.4067151016e+01    0.1815556    0.1456907 -75.60 0.0003979731    1.310    0.237
        25 -11.0490     36.5541      7.7965   5.0433994150e+01   6.9565046884e+01    0.3168928     0.234181  24.79 0.0007585827    1.349    0.258
        26 -11.1559     18.5709      3.6832   5.7381577709e+01   7.2127090545e+01     0.382676    0.3434469  50.22  0.002830322    2.103    0.524
        27 -10.5943     22.1773      1.7995   5.4521731641e+01   7.2012761748e+01    0.2270564    0.1514497 -21.62  0.001499869    1.208    0.172
        28 -11.9051     27.2189      3.0863   5.2595506887e+01   7.1292444378e+01    0.2404452    0.2026024  -5.65  0.001040812    1.263    0.208
        29 -10.2498     34.0535      1.3285   4.8342063811e+01   7.0684119712e+01    0.4040086    0.1020188  39.79  0.001640275    4.105    0.756
        30 -11.3842      9.4058      8.2292   6.4519231467e+01   7.2264197077e+01    0.2688459    0.2032149   6.18  0.001136708    1.326    0.246
        31 -11.9752     11.1095      2.4615   6.0852839811e+01   7.2975903835e+01    0.2692931    0.1745555 -14.25  0.001632752    1.237    0.191
        32 -12.2647    236.6687      2.2206   6.6977233542e+00   2.6035216241e+01    0.4398769    0.3552091  68.90  0.002888378    1.331    0.249
        33 -11.1146    213.7575      7.0935   9.7384030180e+00   3.0845855173e+01    0.2984106    0.2819461 -72.11   0.00156746    1.186    0.157
        34  -9.9402    108.9726      6.6665   2.5271998454e+01   5.6556562290e+01    0.3366507    0.1568619   1.30  0.001057281    3.515    0.715
        35  -9.2922     65.4679      8.4553   3.8785133857e+01   6.5137705766e+01    0.1247281    0.1009422  13.66 0.0008080911    1.006    0.006
        36  -9.8553     91.9532      7.0226   2.9733644009e+01   6.0216037832e+01    0.2002975    0.1538776  35.25 0.0006068013    1.110    0.099
        37 -11.0638    223.0177      5.3729   8.5018501149e+00   2.8834464011e+01    0.2388072    0.1792209 -34.18   0.00144642    1.459    0.315
        38  -9.7667    150.9272      5.7588   1.6962885335e+01   4.6591937035e+01    0.1804211    0.1513014  73.12 0.0002273874    1.079    0.073
        39  -9.5514    101.3609      6.1380   2.6896145532e+01   5.8292041920e+01    0.1715923    0.1132565 -32.77 0.0009375737    1.715    0.417
        40 -10.8787     73.8832      2.7052   3.3228633269e+01   6.4201419288e+01    0.3990484    0.2553177 -24.43  0.001947509    1.629    0.386
        41 -10.1065    164.7330      4.9618   1.4714248539e+01   4.3205627245e+01    0.1959929    0.1590466 -69.46 0.0005409858    1.281    0.219
        42 -10.6813    126.3568      2.8748   2.0202334446e+01   5.2848060300e+01    0.4001301    0.2391206  26.26  0.001586859    1.922    0.480
        43  -9.4784     68.5229      5.5061   3.6324918867e+01   6.4910954867e+01    0.1257933    0.1003186  17.21 3.574962e-06    1.029    0.028
        44  -9.3545     60.5779      5.5269   3.9201433596e+01   6.6286083054e+01    0.1218551   0.09827259  10.80 0.0001332563    1.015    0.015
        45  -9.6420      1.2479      5.2164   6.7746566080e+01   7.3296505386e+01    0.1365526   0.07665858 -49.02 0.0002777255    1.717    0.418
        46 -11.7367    233.4282     14.6985   9.7155858420e+00   2.5387002732e+01    0.3514457    0.2184267 -39.89  0.001841756    1.538    0.350
        47 -10.4590    201.2060      3.7650   1.0136228460e+01   3.4227572101e+01    0.2139127    0.1772475  58.79 0.0002599866    1.280    0.219
        48 -10.7460    178.9881      3.8746   1.2587160832e+01   3.9726578995e+01    0.1958264    0.1819268 -79.31 0.0002701164    1.109    0.098
        49 -10.2454    168.1131      1.9383   1.3381578303e+01   4.2630635840e+01    0.1949185    0.1654727  81.48 0.0003215585    1.046    0.044
        50 -10.0560    171.8767      5.1386   1.3822437717e+01   4.1393053851e+01    0.1995377    0.1604579 -77.16 0.0003934696    1.232    0.189
        51  -9.8568     41.8163    198.7324   9.1427975418e+01   2.8333918978e+01    0.1691832    0.1613666  41.75  0.001220153    1.433    0.302
        52 -11.4818    248.8972    248.5479   5.7168096454e+01  -1.2274859773e+01     0.427264    0.2399698  -2.47  0.002490509    1.969    0.492
        53 -12.5072    226.2273    246.0846   6.0728926699e+01  -8.8101763065e+00    0.5421478    0.3869997  -3.64  0.003601903    1.369    0.270
        54 -12.7275     19.2433    247.4436   9.8754286803e+01   2.1271752663e+01    0.7953514    0.1638094  51.31    0.0037422    3.099    0.677
        55 -10.2365     12.0159    250.5832   1.0005420469e+02   2.1473168068e+01    0.1426101   0.07865718  46.81 0.0004226338    1.542    0.351
        56 -10.8974     20.0296    200.4390   9.5903602483e+01   3.0326612005e+01    0.4208012    0.1190901 -66.94  0.001907869    2.977    0.664
        57  -9.4941    215.3858    193.8510   5.3662336368e+01   3.0454563473e-01    0.1852422    0.1193276 -22.85 0.0008390902    1.668    0.401
        58 -11.8746     15.5690    192.3879   9.6228999758e+01   3.2461285756e+01    0.3184464    0.3064725  59.60  0.001937749    1.446    0.309
        59 -10.4247    244.8388    188.1190   4.7136530109e+01  -3.8285729072e+00    0.1846501      0.17208  -5.40 0.0004770934    1.232    0.188
        60  -9.7060    163.3959    188.2229   6.3263804423e+01   1.1008147379e+01    0.1972446    0.1384638 -59.27 0.0009610662    1.708    0.415
        61  -9.8834     61.8608    184.4075   8.5688185360e+01   2.8999997075e+01    0.2278494    0.1566361 -85.75  0.001291029    1.348    0.258
        62 -12.7034     18.5435    181.3517   9.4822905321e+01   3.4566473062e+01    0.5698946    0.3508803  26.23  0.002548755    2.117    0.528
        63  -9.4031      1.3589    180.2977   9.8271397280e+01   3.6294277971e+01    0.1049377   0.07532161 -55.11 0.0007034426    1.707    0.414
        64 -10.2811    244.3421    178.7710   4.5371564954e+01  -2.3366345327e+00    0.2427879    0.1531565 -22.61 0.0009665228    1.536    0.349
        65  -9.8104    118.4850    177.0301   7.1473763429e+01   2.1791556494e+01    0.2117409    0.1409263 -57.67 0.0007776393    1.560    0.359
        66  -9.6062    172.4895    175.4841   5.8851402361e+01   1.1716988145e+01    0.1458805     0.137636  37.70 7.168246e-05    1.032    0.031
        67 -10.8465     17.9601    172.4303   9.4238305767e+01   3.6596229502e+01    0.3283916    0.1627199  60.29  0.001776707    1.938    0.484
        68  -9.9689     25.4712    169.5126   9.2328178134e+01   3.6548015866e+01    0.1220735   0.09793299 -87.68 2.597268e-05    1.053    0.050
        69  -9.4665    177.2769    168.6704   5.6430665652e+01   1.2093895939e+01     0.142945    0.1185154 -89.43 0.0002552198    1.596    0.373
        70 -10.7451     35.1933    161.1474   8.9249378022e+01   3.7496799240e+01    0.3096898    0.2442095  -9.10 0.0002284593    1.969    0.492
        71 -11.1498     36.8453    165.8393   8.9363674529e+01   3.6235741194e+01    0.3148359    0.2010719  78.29 0.0005131977    1.485    0.326
        72 -11.7588     33.0624    166.1138   9.0271168296e+01   3.6567726524e+01    0.2250275    0.1631107  88.75 0.0003361887    1.159    0.137
        73 -10.9450      5.5109    167.9709   9.6580169996e+01   3.8649264521e+01    0.1709532    0.1386808  73.97 0.0009193655    1.150    0.130
        74  -9.1281    210.7106    166.3199   4.9027803456e+01   5.8444786313e+00     0.134342    0.1157321 -78.47 0.0005442786    1.600    0.375
        75  -8.9465     93.3121    166.7286   7.5830721474e+01   2.8453731363e+01     0.144089     0.100972  70.32 0.0002564256    1.551    0.355
        76 -11.1350     51.8376    161.9661   8.5338759956e+01   3.5442565680e+01    0.6233035    0.3689204 -69.35  0.003293258    1.499    0.333
        77 -10.2165    186.6850    165.3508   5.3720394576e+01   1.0826557154e+01    0.2291928    0.1860467  85.59  0.001122175    1.713    0.416
        78  -9.9485     67.5166    165.4939   8.1978826141e+01   3.2597683245e+01    0.1369306    0.1172048  84.69 5.769357e-06    1.028    0.027
        79 -10.1580      9.2067    162.8926   9.5388158395e+01   3.9484725101e+01    0.2043886    0.1391702 -36.51  0.001247234    2.161    0.537
        80 -10.9251     21.1576    156.6968   9.2112230208e+01   3.9879727617e+01    0.2916781    0.2679125 -79.05  0.002104123    1.234    0.190
        81  -9.9498    247.3223    157.6716   4.0511839603e+01   4.6376591070e-01    0.1283151    0.1060887 -64.38 0.0003999541    1.692    0.409
        82  -9.5662      1.6692    157.6768   9.6658136537e+01   4.1230778805e+01    0.1136397   0.07299872 -54.35  0.000704994    1.700    0.412
        83  -9.2646    147.3204    155.6588   6.0524979933e+01   2.0952621722e+01    0.1578775    0.1203482  83.41 0.0007050052    1.719    0.418
        84  -9.7222    216.4714    154.5101   4.5370983305e+01   6.8163552873e+00    0.1436865    0.1335476  -7.28 -1.243567e-05    1.008    0.008
        85 -10.6529     10.7889    153.1224   9.4210265596e+01   4.1568984131e+01     0.261791    0.1732911  46.94 0.0009258736    1.588    0.370
        86  -9.9528    235.7845    152.8215   4.1463732447e+01   3.3675381633e+00    0.2303891    0.0970619 -45.15 0.0008853794    2.556    0.609
        87  -9.5536    222.5372    151.5294   4.3575607102e+01   6.1430298556e+00    0.1416751    0.1324009 -15.70 5.844377e-05    1.043    0.041
        88  -9.8235    176.8672    150.1371   5.2533797538e+01   1.5896445488e+01    0.2319948    0.2099734  86.02 0.0007148841    1.275    0.216
        89  -9.5620    143.8896    147.8724   5.9679841313e+01   2.3375583642e+01    0.2112952    0.1828502  83.35 0.0008078793    1.291    0.225
        90  -9.6472     21.2065    147.8346   9.1208557880e+01   4.1927804306e+01    0.1604853    0.1210931 -60.87 0.0002969425    1.298    0.230
        91  -9.6921     14.1704    148.1665   9.2953068664e+01   4.2436698085e+01    0.1655797    0.1132866  79.22 0.0002398133    1.312    0.238
        92 -10.3274      8.3734    145.5751   9.4105081487e+01   4.3478157810e+01    0.1721909    0.1651204 -84.17  0.001308478    1.293    0.227
        93 -10.3927    216.9589    145.0526   4.3178489838e+01   8.4190997350e+00    0.2336901    0.1728498   3.47  0.000660738    1.664    0.399
        94 -10.2199    187.7551    144.0356   4.8794617943e+01   1.4778654717e+01    0.2563553    0.2128961  42.25 0.0004725145    1.199    0.166
        95 -10.2073     14.5268    140.2000   9.2071866510e+01   4.4251399140e+01    0.1996807    0.1630348  47.79  0.001368933    1.383    0.277
        96  -9.8673     43.5808    137.2454   8.4131131211e+01   4.2274424050e+01    0.2515014    0.1146031 -71.09  0.001123285    1.993    0.498
        97 -10.4195    144.1273    137.1179   5.7202204255e+01   2.5718554661e+01    0.2344347    0.2144509  -5.93 0.0004588731    1.227    0.185
        98 -10.5764      2.6620    133.3271   9.4371929496e+01   4.6678091990e+01    0.3455128    0.1400256 -82.55  0.001496203    2.141    0.533
        99 -11.4512      4.4961    130.0101   9.3583375939e+01   4.7320352523e+01    0.5386105    0.1512909 -62.91  0.002393401    2.526    0.604
       100 -10.0411     21.1481    135.1261   8.9817488948e+01   4.4905871359e+01    0.2722363    0.1363458  69.78  0.001282718    2.452    0.592
       101  -9.1804      9.4730    136.4176   9.2957480252e+01   4.5504597829e+01    0.1197811   0.09437328 -80.58 8.325106e-05    1.019    0.019
       102 -10.9047    241.3724    134.2851   3.6434331062e+01   5.4303761795e+00       0.2456    0.2243836 -42.26  0.000461105    1.132    0.117
       103  -9.6758     88.4821    135.4810   7.1499491478e+01   3.6675780169e+01    0.1461368    0.1346247 -82.81 6.716896e-05    1.028    0.027
       104 -10.8206     53.7721    132.3999   8.0593278154e+01   4.2289309922e+01    0.3271056    0.2122721  28.20  0.001242763    1.814    0.449
       105 -10.1924     59.3877    131.7757   7.8918993151e+01   4.1753629878e+01    0.1930333    0.1566249 -41.13  0.001092976    1.359    0.264
       106 -12.6357     36.0403    131.5898   8.5373272442e+01   4.4403045364e+01    0.4619692    0.2789038 -50.30 0.0006640039    1.631    0.387
       107 -11.2773     73.6520    128.9732   7.4377564530e+01   4.0512010597e+01    0.3243087    0.2830875  60.45  0.001143229    1.195    0.163
       108 -10.7978     56.8544    126.5810   7.8735512803e+01   4.3324232757e+01    0.2537949    0.1866783 -43.22 0.0005474993    1.439    0.305
       109  -9.5871     51.4412    126.4311   8.0259334069e+01   4.4003545459e+01    0.1344763     0.116474 -78.61  5.80219e-05    1.047    0.045
       110 -10.7159      7.0912    117.9981   9.1597909615e+01   4.9922581984e+01    0.1951434    0.1576316  80.66  0.000575117    1.223    0.182
       111 -11.2427     15.3740    125.5175   9.0217384549e+01   4.7609255596e+01    0.3939769    0.1931037  25.46  0.002090844    2.473    0.596
       112 -10.9422     10.7892    122.4955   9.1106229122e+01   4.8638686317e+01    0.3126618    0.1915767 -82.58  0.001361117    1.391    0.281
       113  -9.7340    219.5711    124.2010   3.7887697821e+01   1.1652148491e+01    0.2091993    0.1361589 -25.19 0.0009387499    1.665    0.399
       114 -10.3952    243.6784    122.0961   3.3324161334e+01   7.0362925282e+00    0.2033897    0.1638391 -31.88  0.000607903    1.124    0.110
       115 -10.3474     19.8359    121.6726   8.8508089431e+01   4.8172903828e+01    0.2198831     0.133902 -64.09 0.0006606122    1.325    0.245
       116 -10.5638     24.4791    120.5233   8.7045089508e+01   4.8073155506e+01    0.2287065    0.1634743  70.25 0.0007632679    1.513    0.339
       117 -10.9326     24.3249    117.6813   8.6688671980e+01   4.8756121118e+01    0.2473986    0.1534951  53.84  0.001376249    1.855    0.461
       118 -10.4253      1.3188    118.5458   9.3238873821e+01   5.0144965349e+01    0.2188094   0.09013858 -72.73 0.0001823744    1.840    0.456
       119 -10.0855      3.4008    115.2275   9.2302337371e+01   5.0784423693e+01    0.2838979   0.09662596 -76.19  0.001252824    2.456    0.593
       120 -10.5941     71.8630    116.1201   7.2303623071e+01   4.3863888367e+01    0.3196703    0.2462882  83.13  0.001659898    1.533    0.348
       121 -11.1511     52.5612    116.1422   7.8102118729e+01   4.6349191786e+01    0.2260335    0.2120494 -56.99 0.0001668966    1.100    0.091
       122  -9.8367     42.2989    117.1143   8.1338702274e+01   4.7239185812e+01    0.1977034    0.1465761 -68.17  0.001140018    1.161    0.138
       123 -11.4605    181.7508    114.8862   4.3011090266e+01   2.1955552562e+01    0.5469726    0.3237346  35.76  0.001216159    1.977    0.494
       124  -9.9871     86.0905    116.1870   6.8088299406e+01   4.1688125119e+01    0.2099014    0.1907225 -35.29 0.0002372677    1.149    0.130
       125  -9.7391     31.9946    116.7651   8.4321950099e+01   4.8315827362e+01    0.1465597    0.1097084  26.45 0.0008745454    1.607    0.378
       126 -11.2251     15.8650    115.1567   8.8773029874e+01   4.9993402140e+01    0.2609089    0.1775043  88.88 0.0004129228    1.423    0.297
       127 -11.7803     14.4398    110.2756   8.8526923532e+01   5.1228966920e+01    0.4049902    0.2537428 -79.83  0.002374612    1.403    0.287
       128 -10.6802    105.5789    114.5919   6.2049927458e+01   3.8667216000e+01      0.34658    0.2748263 -47.95  0.001728983    1.222    0.182
       129 -10.9090    249.6438    112.1911   3.0171041075e+01   7.5058457605e+00    0.2796772    0.2037834 -60.61 0.0009855755    1.585    0.369
       130 -10.8545     93.7845    112.1189   6.4867208687e+01   4.1363720041e+01    0.3957123    0.2931522  62.00  0.001908575    1.598    0.374
       131 -11.8435     54.1470    108.6490   7.6160342259e+01   4.7951572910e+01    0.5594798    0.3652397 -67.91  0.001630435    1.450    0.310
       132 -12.0385     38.1552    109.1820   8.1209603462e+01   4.9538836271e+01    0.5238959     0.313366  26.55  0.002661882    1.974    0.493
       133 -10.5653     30.7816    106.6434   8.3040428185e+01   5.0813436913e+01    0.3076474    0.1475553 -58.28  0.001052812    1.669    0.401
       134 -11.3615     25.1803    106.0594   8.4668799666e+01   5.1417033980e+01    0.4884493    0.2902865 -17.99  0.002501926    2.460    0.593
       135 -10.6901      2.5628    106.0327   9.1453518092e+01   5.2935522810e+01    0.3788288    0.1443032 -61.70  0.001911752    1.901    0.474
       136 -10.1336    111.3911    105.9610   5.8194486376e+01   3.9530595052e+01    0.3036282     0.184125  41.89 0.0007868164    1.695    0.410
       137  -9.9037    119.3222    104.3280   5.5523885386e+01   3.8299249353e+01     0.232254    0.1424205  19.38 0.0008429535    2.640    0.621
       138 -10.4074     12.0083    102.4584   8.8153864011e+01   5.3196347844e+01    0.2569931    0.1713046 -86.88 0.0007449185    1.458    0.314
       139  -9.5863      9.6318     99.2198   8.8415209152e+01   5.4086170819e+01    0.1779123    0.0978888 -72.58  0.000335458    1.489    0.328
       140  -9.2358     20.2654    112.3397   8.7104654571e+01   5.0328949391e+01    0.1283354   0.07519308 -48.99 0.0002321527    1.595    0.373
       141 -10.4484     37.6266    102.7780   8.0205313284e+01   5.1097897965e+01    0.2871404    0.2049067 -89.56  0.001601597    1.581    0.367
       142 -10.8336     34.0088     97.6020   8.0385287304e+01   5.2640106353e+01    0.4025387    0.2319293 -72.06  0.002069864    1.678    0.404
       143 -11.8119     62.1893     99.1053   7.1538625997e+01   4.9200085853e+01    0.5053938     0.354802 -32.46  0.002452137    1.553    0.356
       144 -10.2756     61.6086     93.4961   7.0395660348e+01   5.0569575217e+01    0.2837267    0.1379377  31.24  0.001248287    2.296    0.565
       145  -9.9911     47.9888    100.2786   7.6388659524e+01   5.0624163851e+01    0.1682949    0.1604502 -55.54 0.0003358272    1.100    0.091
       146 -10.8258     22.0743     99.3268   8.4530897385e+01   5.3222581060e+01    0.2672241    0.2050941  69.69  0.001378711    1.514    0.340
       147 -10.1383    144.3956     99.0260   4.7418600436e+01   3.3946402890e+01    0.2570663    0.2268249  71.63  0.001093692    1.226    0.184
       148  -9.4260    116.7616     97.6001   5.4400610067e+01   4.0304070987e+01    0.2122541     0.144322  56.37 0.0009274172    1.668    0.400
       149 -10.5711     41.3119     96.9145   7.7863836247e+01   5.2106450275e+01    0.2086876    0.1729607  76.96  0.000968231    1.406    0.289
       150 -10.7592     15.9409     96.6032   8.6033332642e+01   5.4284229250e+01     0.271166    0.2234245  17.71  0.001844538    1.508    0.337
       151 -11.7219    159.5236     90.2514   4.1312928771e+01   3.2134982381e+01    0.7070321    0.5613016  79.63  0.003299364    1.499    0.333
       152 -10.7893    156.7683     83.5792   4.0034935330e+01   3.4082825897e+01     0.521975    0.4949561 -54.03  0.002562264    1.067    0.062
       153  -9.3265     77.6296     93.7062   6.5216856416e+01   4.8250328038e+01    0.1476572    0.1075867 -16.59 0.0007026854    1.726    0.421
       154 -10.1570     52.7098     93.3666   7.3319227741e+01   5.1694399356e+01    0.2013996    0.1635725  30.37  0.001012117    1.393    0.282
       155  -9.6878    231.6836     91.3275   2.8021063537e+01   1.4758414968e+01    0.1500769    0.1046931 -65.69  0.000389463    1.676    0.403
       156  -9.8115     73.7919     90.9387   6.5735602518e+01   4.9454776553e+01    0.2790817    0.1450581 -44.94  0.001220463    1.786    0.440
       157 -10.0913     56.4914     90.6138   7.1401836777e+01   5.1872485657e+01    0.2774024    0.1191671 -55.48 0.0007858734    2.035    0.509
       158 -10.8412     10.5839     90.8310   8.6830566982e+01   5.5936870725e+01    0.1947791    0.1683702 -42.73 0.0003870146    1.203    0.169
       159 -10.5458     84.3349     89.0420   6.1803723841e+01   4.8223536011e+01    0.3262667    0.2452577  44.37  0.001675896    1.446    0.308
       160 -10.2654     97.6499     89.2987   5.7693027997e+01   4.5840985915e+01    0.2420736    0.1414602  44.85 0.0008912409    1.810    0.447
       161  -9.8377      5.3687     88.2671   8.8128767923e+01   5.6807228551e+01    0.3015727    0.1019449 -79.42   0.00112718    3.721    0.731
       162  -9.7166     78.7457     87.9334   6.3306386824e+01   4.9368026643e+01    0.2074434     0.181654 -47.86   0.00116386    1.076    0.070
       163 -11.3469     66.6162     84.4390   6.6393670326e+01   5.1935706265e+01    0.5860354    0.4032882 -26.09  0.002965671    1.636    0.389
       164 -10.4895     39.9325     86.5651   7.6102442494e+01   5.4615622702e+01    0.3634611    0.1563926  38.68  0.001009333    2.711    0.631
       165 -10.3843     21.9118     86.8786   8.2358858879e+01   5.6082047778e+01     0.186735    0.1378106  78.10  0.001117263    1.670    0.401
       166 -10.0296      9.2127     85.9907   8.6490521110e+01   5.7105970236e+01    0.1977345    0.1430324  64.57 0.0008755309    1.719    0.418
       167 -10.4121      7.2188     81.6097   8.6425396603e+01   5.8192761638e+01    0.3423088    0.1433046 -56.77  0.001787903    1.736    0.424
       168 -10.9914    167.7607     83.2383   3.7489341138e+01   3.1454100364e+01    0.5392846    0.3286161  66.19  0.002185496    1.925    0.481
       169  -9.0336     54.2634     85.7422   7.0959689573e+01   5.3242731172e+01    0.1197084     0.101802  85.37 0.0006808903    1.445    0.308
       170 -10.1523     34.4953     84.8224   7.7600272994e+01   5.5520855782e+01    0.2022901    0.1604764 -63.13 0.0007237836    1.145    0.127
       171 -11.8302     30.7315     81.6641   7.8227421495e+01   5.6558842056e+01    0.5743405    0.3043371 -27.23   0.00276569    2.376    0.579
       172  -9.6996    107.1134     84.4954   5.3423532377e+01   4.5050497297e+01    0.2142221    0.1480613  42.00 0.0003681745    1.480    0.324
       173  -9.5486    116.8186     83.6224   5.0332831299e+01   4.3242362246e+01    0.2093266    0.1435613  55.11 0.0007878704    1.612    0.380
       174 -10.8237     76.1715     82.1841   6.2546333889e+01   5.1026225190e+01    0.4024651    0.2312829  42.31  0.001413915    1.916    0.478
       175  -9.3730     15.9373     83.5079   8.3769738287e+01   5.7252123301e+01    0.1534389    0.1214777  12.58  0.000661415    1.545    0.353
       176  -8.9537     86.6329     82.7026   5.9256590722e+01   4.9214781121e+01    0.1500088    0.1102696  -8.50 0.0007031289    1.727    0.421
       177 -10.5742     42.7019     81.9591   7.4062222860e+01   5.5372354772e+01    0.2566473    0.1481306 -60.55  0.001310231    1.576    0.366
       178 -11.0962     21.9852     81.0159   8.1178174442e+01   5.7392509369e+01    0.2311726    0.1507053 -58.42  0.001033354    1.230    0.187
       179 -11.1200     21.6699     74.9096   8.0007343579e+01   5.8764638601e+01    0.2895041    0.1833959 -60.04  0.001060738    1.300    0.231
       180  -9.2812     39.6319     79.7046   7.4609994696e+01   5.6180995320e+01    0.1366244   0.08519779 -30.10 0.0002740094    1.724    0.420
       181 -11.3915    100.1143     76.8430   5.3217849916e+01   4.7990461966e+01    0.3444552    0.3020825  77.83 0.0008098756    1.417    0.294
       182 -11.4874     88.1865     77.3676   5.7159660294e+01   5.0069943560e+01    0.2598414    0.2375411 -40.07 0.0001851355    1.072    0.067
       183 -10.4053     84.0571     79.4903   5.9147430627e+01   5.0332080481e+01    0.2132102    0.1794587 -39.54 0.0003867854    1.111    0.100
       184 -11.7550     44.8357     74.9417   7.1532153545e+01   5.6692499607e+01    0.3385402    0.2368038  47.04 0.0004963908    1.809    0.447
       185 -12.1610    167.7545     73.3298   3.4643685217e+01   3.3241904672e+01    0.3277447    0.2667453 -43.81 0.0003719342    1.240    0.193
       186 -11.2664     46.5342     60.2896   6.6733540289e+01   5.9576893007e+01    0.3282848    0.2476553 -28.32 0.0007691246    1.204    0.170
       187 -11.4660     57.5418     59.2758   6.2194649610e+01   5.8429873968e+01    0.3867648    0.2656761  -0.54 0.0008228076    1.728    0.421
       188 -10.4963     51.3696     62.3413   6.5505929212e+01   5.8597365061e+01    0.2885866    0.1963531 -25.73  0.001584268    1.474    0.322
       189 -12.2797     54.3869     71.7219   6.7163466262e+01   5.6287756338e+01    0.6603947    0.4854503  47.64            0    1.699    0.411
       190 -12.1615     50.3051     68.3963   6.7712131082e+01   5.7476846426e+01    0.3493059     0.249406 -36.76 0.0005666048    1.247    0.198
       191 -13.3055     16.4187     67.3753   8.0299666331e+01   6.0756389941e+01    0.3826898    0.3487935 -33.49 0.0005346975    1.173    0.147
       192 -10.9024     21.9981     66.6444   7.7999596301e+01   6.0527224331e+01    0.4460841    0.2535747  62.00 0.0003979162    3.453    0.710
       193 -10.3840     19.0944     61.2182   7.7808091987e+01   6.1879461216e+01     0.259173    0.2435693  34.31  0.001532142    1.353    0.261
       194 -11.6325      5.9086     72.1129   8.5183986413e+01   6.0344124153e+01    0.5185728    0.4047521 -41.32  0.003655095    1.183    0.155
       195 -11.9313      2.6466     63.0263   8.4630782674e+01   6.2447859925e+01    0.8433591    0.2793891 -61.12  0.004101161    2.131    0.531
       196 -12.6247     12.4527     47.6922   7.7017631235e+01   6.5070917966e+01    0.4988975     0.269437 -66.15 0.0005087608    1.944    0.486
       197  -9.8928     10.5202     61.5443   8.1262705541e+01   6.2352893815e+01       0.2554    0.2288337  64.04    0.0014726    1.461    0.316
       198 -11.0107     12.0528     57.2095   7.9638767637e+01   6.3166883206e+01     0.323352    0.2357419 -87.00  0.001510278    1.796    0.443
       199 -11.6282      3.7337     48.6737   8.0994614429e+01   6.5356114306e+01    0.5861169    0.3199576 -61.18  0.002785902    1.516    0.340
       200 -10.3323      7.2770     41.3654   7.7524913045e+01   6.6614395322e+01    0.3789859    0.1120569 -54.39  0.001785474    2.358    0.576
       201  -9.4418    115.0009     71.8169   4.7191308058e+01   4.5959339889e+01    0.2182276    0.1625444 -59.30 0.0009415746    1.617    0.382
       202  -9.6403    102.6937     72.6664   5.1110568227e+01   4.8321315599e+01    0.1519233    0.1136713  -3.03 0.0004307556    1.667    0.400
       203  -9.7053     39.3615     69.0598   7.2001276605e+01   5.8519135834e+01     0.271745    0.0864681 -49.72  0.001101987    2.463    0.594
       204 -10.2757     35.9135     68.4309   7.3137617328e+01   5.8985861497e+01    0.3465804    0.2039443  74.56  0.001240845    4.902    0.796
       205 -10.3231    186.9501     68.9544   2.9662737266e+01   2.9177036891e+01    0.2165592    0.2076079  78.42            0    1.029    0.028
       206 -11.6769    122.7175     67.1748   4.3537602237e+01   4.5138675600e+01    0.2798933    0.2507748 -40.45 0.0002807152    1.143    0.125
       207 -10.4613    148.7426     66.7699   3.6858154818e+01   3.9093502960e+01     0.298279    0.2395405 -89.48 0.0009333454    1.518    0.341
       208 -11.0302    139.8985     66.2406   3.8796062003e+01   4.1324869573e+01    0.3358797    0.2512166  51.39  0.001055365    1.305    0.234
       209 -10.6795     81.1563     65.0766   5.5607866502e+01   5.3746570214e+01    0.2561311     0.187431 -45.44  0.001342751    1.347    0.258
       210 -11.7567    155.8611     63.6565   3.4303773500e+01   3.7867514021e+01    0.3502086    0.3047853 -61.91 0.0003404306    1.231    0.187
       211  -9.3180    130.9911     64.9310   4.0616550133e+01   4.3654349468e+01    0.1763305    0.1716805   0.54 0.0003502059    1.027    0.026
       212  -9.5163    166.5587     64.2533   3.2229867077e+01   3.5089878992e+01    0.1959524    0.1506634 -19.55 0.0005167702    1.500    0.333
       213  -9.5927    106.2446     63.9809   4.7200093356e+01   4.9256377600e+01    0.1829986    0.1214801 -38.32            0    1.495    0.331
       214 -11.1567     32.4045     63.7379   7.3233115607e+01   6.0296957886e+01    0.3700376     0.201762  33.20  0.001119385    2.143    0.533
       215 -11.0909     28.4133     60.8425   7.4018141307e+01   6.1244802317e+01    0.5203086    0.2513854   7.75  0.002148262    2.854    0.650
       216  -9.9634    161.7842     62.0744   3.2562109590e+01   3.6649494778e+01    0.2755998    0.2133542  -9.69   0.00113154    1.591    0.372
       217 -10.2443     76.6963     62.4879   5.6289164599e+01   5.4985220873e+01      0.27965    0.2061311 -15.86 0.0006926736    1.463    0.317
       218  -9.7265    202.4054     62.0845   2.5185052888e+01   2.6434784817e+01    0.2204619    0.1401688 -34.47  0.001011102    1.587    0.370
       219 -10.8978    120.1623     60.6189   4.2083594462e+01   4.6873729530e+01    0.5082399    0.2852968  52.84   0.00176914    1.826    0.452
       220 -10.5364    114.7146     60.1187   4.3434317407e+01   4.8159196392e+01    0.3388481    0.2048858  27.42 0.0009829876    2.065    0.516
       221 -11.3658     90.6611     60.7010   5.0969138999e+01   5.2899654200e+01    0.4662102    0.2161863  44.23  0.001465322    2.234    0.552
       222 -10.0097    169.0432     59.9150   3.0451320173e+01   3.5169832403e+01    0.2222481    0.2141018  69.02 0.0003875812    1.016    0.016
       223  -9.3752    138.2800     60.2684   3.7289600964e+01   4.2735151719e+01    0.2010273    0.1353857 -42.99 0.0001948744    1.549    0.354
       224 -10.5884    134.9352     58.1921   3.7436374207e+01   4.3878835864e+01     0.308736    0.2331699  71.19  0.000604808    1.542    0.351
       225 -10.0576     98.5817     60.0854   4.8228915566e+01   5.1503438884e+01    0.2379029    0.1933683  49.68 0.0005501626    1.331    0.248
       226 -11.3831     80.6253     56.0663   5.2736206853e+01   5.5535861130e+01    0.4620735    0.2729825 -16.58  0.001510148    2.344    0.573
       227 -10.6738     74.6929     55.9274   5.4764087242e+01   5.6548872640e+01    0.3120084    0.2045288 -30.02  0.001541316    1.485    0.327
       228  -9.7709     73.7031     50.4373   5.3172186339e+01   5.7702677110e+01    0.3230851    0.1808248 -30.58 0.0009131718    1.802    0.445
       229 -11.3707     78.1858     47.5656   5.0531920717e+01   5.7453532875e+01    0.4516832    0.2328724 -39.15  0.001349817    1.873    0.466
       230 -11.2957     82.9697     36.4067   4.4626148545e+01   5.8393167221e+01     0.459949     0.278631  13.59  0.002113673    2.177    0.541
       231 -10.5196    104.3728     46.2352   4.1577774927e+01   5.2670080740e+01    0.3738135    0.2694972  14.58  0.001542857    1.594    0.373
       232 -10.9436     27.7854     53.4306   7.2185515230e+01   6.2806965397e+01    0.3109679    0.1927697 -27.39 0.0005706648    1.559    0.359
       233 -10.4410     27.1225     48.7050   7.1044089992e+01   6.3796952377e+01    0.2672035    0.1825562 -62.85  0.001595051    1.638    0.389
       234 -12.1665      6.7670    244.6101   1.0062428279e+02   2.3065570198e+01    0.3968517    0.2542723  89.87   0.00182182    1.309    0.236
       235 -10.6191     37.9465     39.4245   6.3284633176e+01   6.4498371116e+01    0.3312077    0.1459074 -42.03  0.001089724    1.917    0.478
       236 -11.2877     44.6743     43.7153   6.1985897197e+01   6.2970873435e+01    0.4751558    0.2973729 -63.37  0.002345539    2.488    0.598
       237 -11.8180     45.0429     38.2935   5.9838118736e+01   6.3889883280e+01    0.2746727    0.2457995  54.74  0.001807826    1.647    0.393
       238 -10.5458     89.4351     54.3097   4.9150393584e+01   5.4279148637e+01    0.2524304    0.2109485  58.87 0.0008912746    1.478    0.323
       239 -10.1461     88.9788     50.4765   4.7928344720e+01   5.5027223997e+01    0.1988553    0.1789424  17.84 0.0005126883    1.069    0.065
       240  -9.9569    152.7617     53.1436   3.1721132433e+01   4.0334212401e+01    0.2995768    0.1703474  36.95  0.001210913    2.078    0.519
       241 -11.2529    128.4897     50.3675   3.6444801765e+01   4.6657986709e+01    0.5570477    0.3644739  -8.35  0.002366475    2.070    0.517
       242 -11.1338    132.8124     50.1921   3.5315545274e+01   4.5664893996e+01    0.5227188    0.3639948 -73.94  0.002283703    2.186    0.542
       243  -9.8805    120.1015     52.2141   3.9256063104e+01   4.8294308060e+01    0.2242945    0.1819209  18.71 0.0007455408    1.315    0.240
       244 -11.7689     51.8274     46.9484   6.0225819507e+01   6.1508094876e+01    0.6890794    0.2302194 -42.99  0.002803741    2.636    0.621
       245  -9.7858     62.2693     47.7395   5.6428718107e+01   5.9941704516e+01      0.22132   0.09418863 -33.65 0.0009082567    2.453    0.592
       246 -10.3255     80.4995     41.9959   4.7634828831e+01   5.7972065195e+01    0.3375486    0.2291957  19.64  0.001751569    1.583    0.368
       247  -9.6656    143.1895     45.7999   3.1450825853e+01   4.3812641897e+01    0.2001165    0.1646467  25.86 0.0005249719    1.314    0.239
       248 -10.9672    112.3718     45.4256   3.8991774870e+01   5.1080661826e+01    0.2658955    0.2290448  19.37 0.0003018045    1.138    0.121
       249 -10.9535     96.3992     42.6674   4.2678982200e+01   5.4859459448e+01    0.3371031    0.2356557   0.87 0.0007835809    1.708    0.415
       250  -9.6470     91.7665     45.5912   4.5230893071e+01   5.5308305395e+01    0.1796054    0.1312227  52.19 0.0002973024    1.537    0.350
       251 -10.9902     23.9929     42.5809   7.0464145143e+01   6.5235714088e+01    0.4281809    0.2222999 -56.20  0.001343047    1.853    0.460
       252 -13.2095     27.2070     37.2926   6.7252010953e+01   6.5941097868e+01     0.359293    0.3236796 -87.11  0.001181598    1.706    0.414
       253  -9.9777     72.6234     42.5562   5.0637739042e+01   5.9228953054e+01    0.2946302    0.2120696 -52.83  0.001050898    1.785    0.440
       254 -10.6335     67.1392     41.7595   5.2356120285e+01   6.0241435165e+01    0.2869705     0.164243 -33.43 0.0008419261    1.645    0.392
       255 -10.0186     17.6211     42.7530   7.3329912817e+01   6.5691428408e+01    0.2374097    0.1314181  10.23   0.00125037    2.067    0.516
       256 -11.1740     89.3844     41.4193   4.4436746593e+01   5.6425490498e+01    0.2815327    0.2221692  29.67  0.001585014    1.206    0.171
       257  -9.7256    130.5915     40.7490   3.2649464225e+01   4.7590011994e+01    0.2652501     0.144283 -23.34 0.0007581743    2.126    0.530
       258 -10.2871    124.9536     42.0000   3.4457914018e+01   4.8740358499e+01    0.2408982   0.07829047  54.54  0.000440005    2.922    0.658
       259 -10.0994     60.1869     40.9460   5.4702791850e+01   6.1425282195e+01    0.2490924    0.1537672   4.34  0.001104596    2.079    0.519
       260 -10.2148    235.9122     39.8823   1.5235986008e+01   2.1655885862e+01    0.1840269    0.1774148  58.92 0.0004403086    1.263    0.208
       261 -10.0279    226.4030     40.2355   1.6383328150e+01   2.3814178031e+01    0.1969736    0.1112182 -46.02 0.0007478187    1.627    0.385
       262  -9.3694    168.2208     39.9452   2.4650578562e+01   3.8339047973e+01     0.177086    0.1190646 -33.58 0.0003561106    1.565    0.361
       263 -12.3074     57.4826     34.3568   5.3190759323e+01   6.2901993651e+01    0.4644451    0.3441028  -3.64  0.000301431    1.296    0.229
       264 -10.0984    159.4528     38.1608   2.5698996689e+01   4.0810367042e+01    0.2147617    0.1787519  64.19 0.0004261092    1.124    0.110
       265 -11.2546    248.2162     36.3809   1.3182638227e+01   1.9369118334e+01    0.2327779    0.1908102 -60.29 0.0002781541    1.040    0.039
       266 -10.7019     79.2804     28.9778   4.2898352096e+01   6.0141157441e+01    0.3156062    0.2123929 -11.14  0.001092516    1.564    0.361
       267 -10.0066     73.2938     31.6297   4.6083520279e+01   6.0821572433e+01    0.3058555    0.2327901 -22.84  0.001807041    1.240    0.193
       268 -10.9947     74.6812     35.7050   4.7227684713e+01   5.9973170705e+01    0.2343126    0.2079975 -34.81 0.0006085282    1.281    0.219
       269 -11.0436     77.6831     32.9890   4.5080603218e+01   5.9855744585e+01    0.3779987     0.230996 -21.02 0.0004387222    1.698    0.411
       270 -10.5907     66.4743     36.6179   5.0604788419e+01   6.1183278126e+01    0.3657664    0.1790905  42.62   0.00172485    2.186    0.543
       271  -9.7920      1.6260     37.0131   7.8859521410e+01   6.7743562037e+01    0.1648381     0.110528 -45.58  0.001134681    1.103    0.093
       272  -9.6616    193.3963     35.2767   1.9333797661e+01   3.2554826445e+01    0.4030285    0.2113479 -70.39  0.001544922    2.755    0.637
       273  -9.7315     97.1719     36.1824   3.9989567168e+01   5.5668888492e+01    0.1703567    0.1620955 -51.33 0.0004370686    1.279    0.218
       274  -9.5126    135.0606     35.0046   2.9652702667e+01   4.7298415368e+01    0.2216202    0.1699133 -71.96  0.000791761    1.676    0.403
       275  -9.6242    129.2014     35.6084   3.1200547926e+01   4.8626156969e+01    0.2119896    0.1165648  45.20 0.0004953184    1.712    0.416
       276 -11.1435    111.0700     34.7195   3.5451883450e+01   5.2915918354e+01    0.3030836    0.2180065  42.90 0.0008673172    1.287    0.223
       277  -9.3848     92.5724     35.4512   4.1126859101e+01   5.6698450025e+01    0.1366989    0.1207811  11.39 0.0001401204    1.017    0.017
       278 -11.9341      8.4291     31.3194   7.3938220941e+01   6.8441010220e+01    0.3838073    0.2775071 -45.54  0.001818655    1.156    0.135
       279  -9.3842    177.4888     34.5737   2.1516075014e+01   3.6685668553e+01    0.1432977    0.1301863  63.52 4.390816e-05    1.073    0.068
       280  -9.5054    140.7773     33.8387   2.8018245079e+01   4.6053627878e+01    0.1822777    0.1616857 -80.55 0.0003690033    1.259    0.206
       281 -11.2689    122.7322     33.3482   3.1952149304e+01   5.0448634393e+01    0.4213449    0.2338978  50.58  0.001912652    1.639    0.390
       282  -9.9708     13.9858     34.4753   7.2350038215e+01   6.7502617583e+01    0.1601942     0.123641 -27.90 0.0005174438    1.069    0.065
       283 -11.0686     17.8433     31.0232   6.9352956524e+01   6.7848254029e+01    0.3529821    0.2241642  11.94  0.001736031    1.680    0.405
       284  -9.9846     32.5268     33.0180   6.3294817922e+01   6.6191030873e+01    0.3539794    0.1744877  37.70  0.001837193    2.536    0.606
       285 -11.4670    221.5273     31.0248   1.4713148859e+01   2.6185025507e+01    0.3851634    0.1966796 -41.28    0.0011802    1.817    0.450
       286 -10.3765     99.5163     31.9973   3.7679648075e+01   5.5768424673e+01    0.2606254     0.169063 -45.01  0.001206585    1.848    0.459
       287 -10.7241    101.4024     28.6137   3.5823123804e+01   5.5818802271e+01    0.3117824    0.2667355  79.64  0.001045979    1.532    0.347
       288 -10.5096    207.9904     30.9542   1.6275095350e+01   2.9474268488e+01    0.2052688    0.1855795 -85.70 0.0003692113    1.037    0.036
       289 -12.3265    104.9139     52.3885   4.3618115126e+01   5.1560880519e+01    0.3001191    0.2595764 -31.87 0.0002859615    1.172    0.147
       290 -10.9163     49.5437     28.9809   5.4247505054e+01   6.4855745150e+01    0.3597988    0.1969571 -24.48 0.0004266145    1.829    0.453
       291  -9.9107      1.4358     30.9954   7.7186584158e+01   6.8885520890e+01    0.1592588   0.08478964 -53.11 0.0003321779    1.466    0.318
       292 -11.5691    234.7357     28.6848   1.2772560375e+01   2.3392455381e+01    0.3497292    0.1380222 -41.49  0.001529509    2.206    0.547
       293 -10.5257    144.9569     29.9946   2.5884497538e+01   4.5504564659e+01    0.2129334    0.2024947 -13.51            0    1.140    0.123
       294  -9.7812    146.1055     27.0000   2.4674186040e+01   4.5581255524e+01    0.2731692    0.1742133  60.83 0.0009588795    1.430    0.301
       295 -12.2469    156.7731     28.2502   2.3094040899e+01   4.2751385631e+01    0.2627632    0.2377113  75.22 0.0003337137    1.056    0.053
       296 -11.8650    246.2643     27.4522   1.1399752819e+01   2.0952963166e+01    0.4055528    0.1925053  78.63  0.001224252    2.207    0.547
       297 -10.5691    197.8475     28.1461   1.6819381395e+01   3.2343200489e+01    0.2785377    0.1711329  75.07 0.0007818701    1.556    0.357
       298 -11.3088    112.5344     26.6241   3.2045486794e+01   5.3635361247e+01    0.4002613    0.2616305 -13.85  0.002006004    1.727    0.421
       299  -9.1220    139.7752     27.5902   2.6129863976e+01   4.7078619788e+01    0.1996735    0.1307706  72.42 0.0009455825    1.640    0.390
       300  -9.5623    134.6622     27.1342   2.7042788488e+01   4.8383617710e+01    0.2451528    0.1371899  55.36 0.0007607695    1.597    0.374
       301 -11.5418    216.3561     25.2574   1.3879231827e+01   2.8147632750e+01    0.3132191     0.208746  63.70  0.001676791    1.460    0.315
       302  -9.8426    123.1975     26.2373   2.9287419371e+01   5.1230894031e+01    0.1800973    0.1593391 -64.29 0.0004543256    1.347    0.258
       303 -10.7157     22.1012     24.4520   6.4841062739e+01   6.8633382062e+01    0.2780922    0.1615344 -12.15  0.001050487    1.793    0.442
       304 -11.2558      2.2228     24.2545   7.4630577932e+01   7.0069403087e+01    0.3908691     0.164272 -45.99  0.002256904    1.699    0.411
       305 -10.3065     83.4862    248.0237   8.7682821541e+01   1.3151408213e+01    0.2456494    0.1201382  54.66  0.001083715    1.684    0.406
       306 -10.8609    226.3272     23.6585   1.2446566145e+01   2.5970182295e+01    0.3557089    0.2003815 -53.29  0.001321561    1.658    0.397
       307 -10.1511    128.3902     24.1882   2.7375449513e+01   5.0242004650e+01    0.2660306    0.2094751 -41.90  0.001078321    1.423    0.297
       308  -9.2344    138.2188    247.0065   7.7311564484e+01   4.9614008634e+00    0.1339239    0.1024955 -57.47 0.0005210767    1.616    0.381
       309 -11.4303     28.2305    245.2060   9.7161473186e+01   2.0692464805e+01    0.3184816    0.1679368 -80.94  0.002067242    1.745    0.427
       310  -9.9730    124.8405    245.8314   7.9725044087e+01   7.2891920177e+00    0.1697505    0.1219529  60.54 0.0004558449    1.303    0.233
       311 -11.6838    235.2713     21.9815   1.1192553070e+01   2.4101740539e+01    0.3274353    0.1498031 -55.40 0.0002919556    2.121    0.528
       312 -12.8640     75.2437    238.7879   8.8393344604e+01   1.5974442804e+01    0.5547038    0.4896624  73.05  0.003452123    1.216    0.178
       313  -9.8564    159.8487     24.3762   2.1351915616e+01   4.2430243271e+01    0.2685761    0.1944423 -34.52  0.001033724    1.485    0.326
       314  -9.8622    161.5254     20.5173   1.9886121791e+01   4.2442079597e+01    0.2231465    0.1426374 -19.82 0.0005401343    1.845    0.458
       315 -10.2136     54.4966     23.4920   4.9858483163e+01   6.4986981767e+01    0.2447325    0.2164162  59.91  0.000851606    1.774    0.436
       316 -11.1166     63.8544     21.2684   4.5192785217e+01   6.3851382754e+01    0.3761531     0.207542 -17.27   0.00189163    1.977    0.494
       317 -10.9834     59.0211     21.1838   4.7029023090e+01   6.4630238372e+01    0.2626635     0.192767  16.79 0.0006066385    1.242    0.195
       318 -11.1879     83.5071     22.0461   3.8615400994e+01   6.0264128583e+01    0.4233953    0.3131457  48.43  0.002449647    1.400    0.286
       319 -10.3434     87.2104     20.1728   3.6657370302e+01   5.9772477852e+01      0.26951    0.1761266  37.74 0.0006547776    1.382    0.277
       320 -10.1604     99.6762     20.4403   3.3094370297e+01   5.7183604662e+01    0.2860031    0.1566083 -44.67  0.001112604    2.364    0.577
       321  -9.4857     93.9677     22.2277   3.5451738211e+01   5.8165727598e+01    0.1743038    0.1021696  49.80 0.0004046355    1.611    0.379
       322 -10.2289     34.4189     22.0318   5.7989942376e+01   6.7793911655e+01    0.2430782    0.1705261 -33.82  0.001577101    1.277    0.217
       323  -9.8185     71.8008     25.5508   4.4095968829e+01   6.1940100685e+01    0.2537019    0.1108694  38.27  0.001142861    2.207    0.547
       324  -9.8989    102.2758    243.8024   8.3791933617e+01   1.1136219940e+01    0.1885947    0.1342528  74.63  0.001115617    1.413    0.292
       325  -9.3994     45.1800    244.3818   9.4230036747e+01   1.8865381616e+01    0.1556934   0.07536477  51.35 0.0004339938    1.583    0.368
       326 -10.9627     88.8727    240.6904   8.6014146274e+01   1.3683454961e+01    0.1842429    0.1551923 -72.36 0.0009467814    1.385    0.278
       327 -10.9128     72.8738    244.8737   8.9346671124e+01   1.5192591582e+01    0.2823853    0.2219575  48.55  0.001429252    1.248    0.198
       328 -10.6831     76.4781     15.5100   3.8134943139e+01   6.2373382634e+01    0.2218958    0.2009245  -7.49  0.001470331    1.195    0.163
       329  -9.9917    109.8518    250.1351   8.3017749866e+01   8.9000696741e+00    0.1880889    0.1340449  59.82 0.0006876251    1.207    0.172
       330 -10.0914    195.2537    238.5095   6.5235828162e+01  -3.0498696885e+00    0.2053901     0.168651 -25.49 0.0008831176    1.386    0.278
       331 -10.1767     35.1790    238.4444   9.5586392959e+01   2.1144547102e+01    0.1782319    0.1080296  86.58 0.0007356823    1.417    0.294
       332 -11.2703     18.5123    236.9953   9.8348128892e+01   2.3253256752e+01     0.430511    0.1536503  53.76  0.002406724    2.097    0.523
       333 -10.3535     41.5031     19.2299   5.3533926239e+01   6.7371586377e+01     0.275908    0.1953482  26.78 0.0009984687    1.428    0.300
       334 -11.1612     89.8362    249.4610   8.6650827510e+01   1.1990713014e+01    0.2823429    0.2045944  39.73  0.001280798    1.374    0.272
       335  -9.0115    220.6841     19.2632   1.1974287463e+01   2.7831153705e+01     0.136187   0.08646755 -69.86 0.0002224624    1.544    0.352
       336 -10.3974    108.0695     17.4849   2.9699573468e+01   5.5686960616e+01    0.2495904     0.190254 -12.87 0.0008571981    1.391    0.281
       337 -10.5783    194.0459     16.5476   1.4218568473e+01   3.4654087699e+01    0.2917011    0.1877713  84.05  0.001490147    1.491    0.329
       338 -10.1733    103.2484     17.0538   3.0779207180e+01   5.6794275708e+01    0.2068363    0.1661878  44.98 0.0003171296    1.127    0.113
       339  -9.4330     95.0642     17.4365   3.3184006802e+01   5.8495101262e+01    0.1929035    0.0877562  34.44 0.0008043804    2.356    0.575
       340 -10.3564    169.4122     15.2269   1.7090935826e+01   4.1012872339e+01    0.2160897    0.1659478 -43.79 0.0003074211    1.386    0.278
       341  -9.8116    165.6145     16.7176   1.8094837513e+01   4.1817910727e+01    0.1483133   0.09189546  42.35 0.0007006652    1.735    0.424
       342  -9.3675    143.4510     16.4981   2.1707670977e+01   4.7411399863e+01    0.1400466    0.1213281  49.25 0.0002079625    1.072    0.067
       343  -9.3041    113.2944     16.2603   2.7941619612e+01   5.4641595195e+01    0.1364092   0.08981596  32.52 0.0001571939    1.500    0.333
       344 -10.9559    183.2202    234.3688   6.6899978787e+01  -4.8005052259e-01    0.3437859    0.2430138  38.88  0.001210449    1.194    0.163
       345  -9.5324     64.3304     13.3179   4.1450417317e+01   6.4777359069e+01    0.1942085    0.1150058 -19.58 0.0008408634    1.655    0.396
       346 -10.7973     10.2960     24.4609   7.0655447594e+01   6.9546664092e+01    0.4798945    0.2025112   2.40  0.002140238    3.255    0.693
       347 -11.3858    185.0582    228.1889   6.5587784400e+01   1.4895475975e-01    0.4797348    0.2931616 -15.82  0.002340563    2.467    0.595
       348 -10.3536     39.3998    230.3781   9.4318366269e+01   2.2178758017e+01    0.2617816    0.1505913 -79.15  0.001657881    1.615    0.381
       349  -9.6759     23.8665    232.2030   9.7175438252e+01   2.3581742853e+01    0.1335369    0.1128502  88.51 0.0005393548    1.332    0.249
       350  -9.2565     59.3009    229.3189   9.0574149452e+01   1.9915485551e+01   0.09937221     0.092413 -47.04 0.0004619904    1.622    0.383
       351  -9.9498    151.7902    228.2050   7.2181731217e+01   5.8169095746e+00    0.1942197    0.1582275  54.81 0.0006929173    1.188    0.158
       352 -11.3579    249.0827     19.3606   9.4014962272e+00   2.1332453963e+01    0.2585459    0.1594907 -47.57  0.001472536    1.404    0.288
       353 -10.7662    160.0070    235.3157   7.1559125914e+01   3.2540828710e+00    0.1869836    0.1419739  38.49 0.0005783697    1.090    0.083
       354 -10.1228      3.6915    226.1119   1.0030330224e+02   2.6782737216e+01    0.1912512    0.1019536 -81.95 0.0009328667    1.578    0.366
       355 -11.3707     87.1071    232.9890   8.5603682047e+01   1.5359041540e+01    0.2908279    0.2001128  70.04  0.001482484    1.332    0.249
       356 -11.1510     14.4050    222.0659   9.8258634576e+01   2.6517826129e+01    0.2950012    0.1741676  35.81  0.001468072    1.905    0.475
       357  -9.5082    142.4632    220.5161   7.2976830763e+01   8.7630774003e+00    0.1328043    0.1143152  43.48 0.0001718417    1.033    0.032
       358  -9.6274    126.2344    220.4255   7.6306115309e+01   1.1547556061e+01    0.1931898    0.1038281  50.32 0.0009079391    1.667    0.400
       359  -9.3660     77.3102    220.3133   8.6265145167e+01   1.9226518134e+01    0.1072329   0.09922817 -22.99 0.0003082058    1.630    0.386
       360  -9.6057     42.4999    220.5258   9.3045925155e+01   2.3741527191e+01    0.1192475   0.08882639  71.47 0.0003113961    1.022    0.022
       361  -9.7428    211.7088    219.0040   5.8938989381e+01  -2.9330259402e+00    0.1753778    0.1517465  -4.02  0.001105799    1.138    0.121
       362  -9.6501    120.8221    219.4066   7.7288118798e+01   1.2644604822e+01     0.177984    0.1143937  32.96 0.0006045439    1.611    0.379
       363 -11.1505     29.9296    233.9959   9.6227907421e+01   2.2575831789e+01    0.3628348     0.152779  68.06  0.001949146    2.182    0.542
       364  -9.8993     21.5417    220.0027   9.6871577578e+01   2.6190256234e+01    0.1618365   0.08936374 -82.86 0.0005418662    1.553    0.356
       365 -10.8246      8.5340    216.5043   9.8994064469e+01   2.8183811346e+01    0.2630349    0.1376354  62.88  0.001691819    1.501    0.334
       366  -9.8373    136.1700    215.8885   7.3615747461e+01   1.0699568741e+01    0.1799627    0.1537054  19.15 0.0007560572    1.353    0.261
       367  -9.6548     38.0485    217.0000   9.3624760608e+01   2.4971124393e+01    0.1743976   0.05852152  36.16 0.0007965809    2.902    0.655
       368 -10.8234     29.2811    215.5684   9.5170262713e+01   2.6246246860e+01     0.220839    0.1719299  73.78  0.001131985    1.071    0.066
       369 -10.1281     24.1111    216.1406   9.6165108495e+01   2.6687692320e+01    0.1602473    0.1265834  85.74 0.0004102963    1.160    0.138
       370 -10.3778     14.0526    215.4935   9.7955301426e+01   2.7847204537e+01    0.2225977    0.1111973  45.70  0.001344667    1.754    0.430
       371 -11.6592     11.7777    209.6410   9.8033193778e+01   2.9242781942e+01    0.4641286    0.1810194  85.32  0.002331486    2.458    0.593
       372  -9.9442    110.1626    211.8699   7.8529628931e+01   1.5871838502e+01    0.1661526    0.1587433  18.86  0.001064464    1.307    0.235
       373 -12.4207      5.5777    208.6655   9.9105918201e+01   3.0022330190e+01    0.4984358    0.1986456 -81.09   0.00239894    2.070    0.517
       374 -10.6900    236.9734    209.0651   5.2500281461e+01  -5.5918766585e+00    0.2042632    0.1323532   2.80 0.0007162019    1.665    0.399
       375  -9.9024    217.3572    208.8194   5.6071661202e+01  -2.3627277177e+00    0.1830191    0.1127503 -23.21 0.0006894275    1.765    0.434
       376 -10.0336    247.5110    205.5003   4.9977823574e+01  -6.7333163766e+00    0.2080623    0.1091437 -42.80  0.001036352    2.303    0.566
       377 -10.8887    175.3517    202.2704   6.3239499298e+01   6.1507090348e+00    0.2527911    0.2150487  34.88  0.000471965    1.049    0.047
       378 -10.0030     67.2749    202.9831   8.6546237377e+01   2.4201492796e+01    0.1779553    0.1447524  83.86 0.0004546099    1.079    0.073
       379  -9.0760     53.2608    202.3347   8.9400390875e+01   2.6178297209e+01    0.1106199   0.08990583 -53.90 0.0003282737    1.577    0.366
       380  -9.4699     20.3096    211.6388   9.6582217388e+01   2.7990883160e+01    0.1251535   0.06162443  68.19 0.0007040785    1.743    0.426
