#   1 NUMBER                 Running object number                                     
#   2 MAG_AUTO               Kron-like elliptical aperture magnitude                    [mag]
#   3 X_IMAGE                Object position along x                                    [pixel]
#   4 Y_IMAGE                Object position along y                                    [pixel]
#   5 X_WORLD                Barycenter position along world x axis                     [deg]
#   6 Y_WORLD                Barycenter position along world y axis                     [deg]
#   7 A_WORLD                Profile RMS along major axis (world units)                 [deg]
#   8 B_WORLD                Profile RMS along minor axis (world units)                 [deg]
#   9 THETA_WORLD            Position angle (CCW/world-x)                               [deg]
#  10 FWHM_WORLD             FWHM assuming a gaussian core                              [deg]
#  11 ELONGATION             A_IMAGE/B_IMAGE                                           
#  12 ELLIPTICITY            1 - B_IMAGE/A_IMAGE                                       
         1 -14.1599    229.5180     56.7568   5.2763166684e+01   2.0238835708e+01      10.7363          nan -39.15   0.02294426    7.398    0.865
         2 -11.2026    201.6002     15.9514   4.5281381941e+01   3.2537098932e+01     1.970818     1.010448 -81.80  0.007998199    2.488    0.598
         3 -12.7077    147.6155     31.4417   5.8340075724e+01   4.4678335243e+01     1.670437    0.9701971  46.29  0.007441789    1.679    0.404
         4 -12.4314    165.5818     55.1175   6.2596468611e+01   3.6653515988e+01     2.683248      1.29142 -65.94  0.006217991    6.888    0.855
         5 -12.8853    134.9689     39.2067   6.3784971628e+01   4.6778935337e+01       2.4706    0.9099531  63.26  0.007896381    3.398    0.706
         6 -12.7254    238.4954      5.4736   3.9131399856e+01   2.4661514654e+01     2.857842          nan  64.15  0.007144649    7.690    0.870
         7 -10.7340    214.8688     35.7741   4.9106850608e+01   2.6760491207e+01    0.9998034    0.2771396 -48.68  0.002916199    4.297    0.767
         8 -11.2007    178.5861     23.5279   5.0457783543e+01   3.7623611472e+01     0.733503    0.5526574 -82.55  0.002910487    1.413    0.292
         9 -12.8583    182.8602     83.0831   6.7565657225e+01   2.7485511488e+01      5.82431    0.7692871 -39.51   0.01262305    6.087    0.836
        10 -10.0729    136.0208      7.5624   5.2033258532e+01   5.0256125371e+01    0.3521835    0.2268889 -80.77  0.001272533    2.117    0.528
        11  -9.0612    222.0486    187.1013   8.4685083411e+01   5.7356216815e-01    0.1966393    0.1714867  13.91 0.0003429505    1.029    0.028
        12  -9.8708     52.4464    182.7489   1.1938672053e+02   3.0594072703e+01    0.2856796    0.1924275 -73.48  0.001597203    1.353    0.261
        13  -9.2909    222.7682    182.4726   8.3648200134e+01   1.1408462749e+00    0.2302658    0.1758837 -25.68 0.0005417622    1.302    0.232
        14 -10.1399      2.9415    181.4946   1.2925646264e+02   3.5970202119e+01    0.2023841    0.1196102 -70.66 0.0007219464    1.548    0.354
        15  -9.4494    234.9260    179.4212   8.0855183541e+01  -5.7316531037e-01    0.2357762    0.2266025  20.38 0.0004569866    1.278    0.218
        16 -10.1209    190.4433    178.9725   8.9147774627e+01   7.7863593283e+00    0.2434884     0.230705  20.63 0.0004002283    1.059    0.056
        17  -8.2065    142.9319    180.1453   9.9300315434e+01   1.6753367320e+01    0.1730115      0.15716  20.08 0.0009936577    1.232    0.188
        18  -8.6055     76.0111    177.6620   1.1372020022e+02   2.8564049688e+01    0.1707338    0.1441248  64.85 0.0003556008    1.098    0.090
        19  -9.1792    248.9634    177.5068   7.8047862647e+01  -2.7177583473e+00     0.185053    0.1193423  38.27 0.0004467627    1.544    0.352
        20 -11.3599     30.0738    179.5654   1.2374686626e+02   3.3826606916e+01    0.3158588    0.2697759 -42.34  0.001251169    1.731    0.422
        21  -9.5146    230.5661    167.2251   7.9134231903e+01   2.0545462002e+00    0.2615499    0.1227426 -39.66  0.001137006    2.171    0.539
        22  -8.6128    210.9967    162.3463   8.1719952121e+01   6.5990732637e+00    0.1896293     0.165612  28.65 0.0003603863    1.096    0.088
        23  -8.2649     76.0793    162.1259   1.1162023938e+02   3.2038288333e+01    0.1758413    0.1630927 -82.01            0    1.160    0.138
        24  -9.4607    233.1780    197.1989   8.4608360238e+01  -2.7971583110e+00    0.2885433    0.2509337  74.62  0.001103412    1.885    0.469
        25 -11.3039    247.0516     73.6753   5.4727467254e+01   1.3679122928e+01    0.9267239    0.4681041 -31.28  0.001629663    1.847    0.459
        26 -11.6576    237.9813     39.7125   4.7449924804e+01   2.0633680336e+01    0.5356575    0.3282537  43.12   0.00152596    2.108    0.526
        27 -10.2786    123.9280    240.6754   1.1156413194e+02   9.1247644291e+00    0.2006926    0.1737113  84.67 0.0007514846    1.261    0.207
        28  -8.0191    126.6559    226.2845   1.0939120800e+02   1.1060985656e+01    0.1284408   0.08134571  63.60 0.0002210899    1.642    0.391
        29  -9.3075    155.9984    136.8514   8.7585332704e+01   2.3070502126e+01    0.3229169    0.1879116  46.01  0.001349603    1.700    0.412
        30 -11.3178     11.8796    221.1111   1.2978062591e+02   2.7334923295e+01    0.6571302    0.2487825 -67.10   0.00367094    2.611    0.617
        31  -8.6031    234.9979    215.0473   8.7517378102e+01  -5.4378836579e+00    0.1807926    0.1450445  13.28  0.001205798    1.012    0.012
        32 -11.7727    148.6129     43.1705   6.2158893706e+01   4.2809711920e+01     1.034644    0.6255443 -78.88  0.003762123    3.015    0.668
        33 -11.8292      8.9317    207.3422   1.2958655541e+02   3.0237951466e+01    0.4359977     0.360467  81.76  0.003420977    1.279    0.218
        34  -9.0373    214.4791    121.0019   7.1571240224e+01   1.3098030614e+01    0.2281177    0.1413214 -35.75  0.000459424    1.537    0.349
        35 -13.1699     40.3087    172.1964   1.2092835522e+02   3.4329352144e+01     1.084197     1.030599   9.10  0.006244082    1.545    0.353
        36 -10.4855    168.0070    113.3620   7.9039207158e+01   2.5250741513e+01    0.3991757    0.3463723 -51.01 0.0005556917    1.166    0.142
        37  -8.0590     23.4094    114.4948   1.1838874984e+02   4.9275894163e+01    0.1257322   0.09795005 -75.40  0.000192422    1.020    0.019
        38  -9.5204    156.0640    112.2115   8.1472057480e+01   2.8255747364e+01     0.300865    0.2616347 -88.23 0.0004210906    1.316    0.240
        39 -10.8667    204.8054    110.6443   7.0773395541e+01   1.7151515423e+01    0.5596367    0.2917247  34.84  0.002054761    2.501    0.600
        40 -10.1302    212.0819    108.1050   6.8789329971e+01   1.5930080011e+01    0.2908252     0.268479  -1.87 0.0003306729    1.116    0.104
        41 -10.3203    198.0198    106.4643   7.0984639164e+01   1.9504269667e+01    0.3691076    0.2711332 -84.66  0.001420297    1.953    0.488
        42 -10.7553     67.6418    143.9827   1.1097657881e+02   3.7445897956e+01    0.6103917    0.3539529  61.72  0.002270715    1.948    0.487
        43  -9.9556    217.0942    104.7299   6.7046022129e+01   1.5375012309e+01    0.2775497    0.2037229  32.82  0.001307056    1.550    0.355
        44  -9.1129     18.0368    104.2605   1.1847956243e+02   5.2082480004e+01    0.2412715    0.1478102 -81.06 0.0006750379    1.440    0.306
        45  -9.5911    151.3322     97.4167   7.8558366734e+01   3.2421466303e+01    0.3373641    0.2741353  25.64 0.0008267136    1.404    0.288
        46 -10.1568    197.3152     97.1291   6.8652020427e+01   2.1383772417e+01    0.4103891    0.3501981  35.60  0.001115454    1.249    0.199
        47  -8.3659    136.4349     94.5001   8.1411424455e+01   3.6458269984e+01    0.1563726    0.1506544 -58.62 0.0001083838    1.038    0.037
        48  -9.7773    222.2747     99.5578   6.4852684361e+01   1.5082802922e+01    0.2693647     0.151292  60.75 0.0009463726    2.050    0.512
        49  -9.3751    161.4964     90.5086   7.4220899868e+01   3.1372836143e+01    0.3170868    0.2681104  25.39  0.001528871    1.318    0.241
        50 -10.7229    165.3695     88.8416   7.2875333018e+01   3.0750530964e+01    0.4751496    0.3830937  63.71  0.001745283    1.319    0.242
        51  -9.9270    145.4248     86.5830   7.6845664917e+01   3.6002543221e+01    0.3317752    0.2983762 -35.95  0.000775345    1.100    0.091
        52  -8.9243    157.9148     85.7101   7.3635228933e+01   3.3175640377e+01    0.2886021     0.226487  -0.94 0.0008468247    1.622    0.383
        53  -7.6819    100.2553     89.3741   8.9927558143e+01   4.5065796584e+01    0.1525888    0.1120853 -22.26 0.0003835116    1.648    0.393
        54 -11.2247    161.9070     78.6213   7.0628674199e+01   3.3534190784e+01    0.4119081    0.2951222 -25.99  0.000606704    1.510    0.338
        55 -10.4157    189.1754     71.9728   6.3183133233e+01   2.7837490090e+01    0.2909231    0.2847308  -0.37 0.0003409219    1.076    0.070
        56 -10.1809    115.1552     68.5404   7.9138431527e+01   4.6401842116e+01    0.2591821    0.2281734 -32.17 0.0002615704    1.098    0.089
        57 -13.7701     23.8041    183.8028   1.2534552506e+02   3.3564262656e+01     1.184533      1.15397  28.11  0.003007998    1.557    0.358
        58  -9.1851    211.3964     59.8318   5.6099012872e+01   2.4194833903e+01    0.3718573    0.2554227 -10.05  0.001247919    1.918    0.479
        59 -10.6863    200.2177     64.5080   5.9144283841e+01   2.6268378717e+01    0.3538458    0.2703186  40.17 0.0009300556    1.461    0.315
        60 -10.7992    206.5074     60.6082   5.7053702016e+01   2.5297187919e+01    0.4956418    0.2844979  41.22  0.001949993    2.109    0.526
        61  -9.3510    192.0230    144.0542   8.1422638195e+01   1.3794346040e+01    0.2221096    0.2153013   3.50 0.0004734624    1.021    0.021
        62  -8.6799    190.2447     51.2855   5.6982146061e+01   3.0863907185e+01    0.2762624    0.1630105 -54.11 0.0006710195    1.883    0.469
        63  -8.1714    245.6938     49.3964   4.8976776044e+01   1.7529317659e+01    0.2230815    0.1336211 -60.20 0.0006189156    1.747    0.427
        64  -8.8073    243.4474     45.9875   4.8395067648e+01   1.8514205754e+01    0.3097979    0.1610488 -40.10  0.001086782    1.676    0.403
        65  -8.9873    186.1012     42.5260   5.5059126406e+01   3.3206928046e+01    0.4385827    0.1502553 -44.74  0.001433158    3.080    0.675
        66  -9.1610      4.8380    129.8472   1.2502484882e+02   4.7116886313e+01    0.1620509    0.1103707  77.43 0.0004468911    1.324    0.245
        67  -8.9656    161.1037    127.6504   8.4220518242e+01   2.3881015533e+01    0.2873259    0.2118406 -52.92 0.0009478094    1.419    0.295
        68  -8.9628    201.2302     33.4666   5.0220052274e+01   3.0516928770e+01    0.2312306    0.1822973 -37.63 0.0003654678    1.261    0.207
        69  -9.4505    179.5722     29.3724   5.2099811972e+01   3.6656641781e+01    0.4475934    0.1603513 -42.79  0.001321027    2.840    0.648
        70  -8.9843    192.0596    193.5134   9.1570858530e+01   5.0412743397e+00    0.3392732    0.1789435 -59.64  0.001275919    3.813    0.738
        71  -9.5509    209.2860    126.4674   7.3866897863e+01   1.3267983218e+01    0.4103313    0.1963183 -28.68  0.001524122    2.366    0.577
        72  -9.8724    102.0069     24.7416   6.6593228173e+01   5.6354468261e+01    0.2628917    0.1896949 -23.91 0.0003154833    1.377    0.274
        73 -10.2179    178.3328    141.4510   8.3685369509e+01   1.7264509700e+01    0.3777807    0.2916687 -84.71   0.00108353    1.831    0.454
        74 -12.1625    182.0513     61.1117   6.1305057494e+01   3.1452842657e+01    0.5392936    0.3867521   7.18  0.001618239    1.963    0.491
        75  -8.9147    221.1454    191.9727   8.5784296390e+01   1.2132410589e-02    0.2066928    0.1671245  31.31            0    1.148    0.129
