#   1 NUMBER                 Running object number                                     
#   2 MAG_AUTO               Kron-like elliptical aperture magnitude                    [mag]
#   3 X_IMAGE                Object position along x                                    [pixel]
#   4 Y_IMAGE                Object position along y                                    [pixel]
#   5 X_WORLD                Barycenter position along world x axis                     [deg]
#   6 Y_WORLD                Barycenter position along world y axis                     [deg]
#   7 A_WORLD                Profile RMS along major axis (world units)                 [deg]
#   8 B_WORLD                Profile RMS along minor axis (world units)                 [deg]
#   9 THETA_WORLD            Position angle (CCW/world-x)                               [deg]
#  10 FWHM_WORLD             FWHM assuming a gaussian core                              [deg]
#  11 ELONGATION             A_IMAGE/B_IMAGE                                           
#  12 ELLIPTICITY            1 - B_IMAGE/A_IMAGE                                       
         1 -12.9014    181.1358     37.9628   6.2088294704e+01   3.5089445339e+01     1.388012     1.054668  18.95   0.00405836    1.524    0.344
         2 -11.3326     58.6671     43.6789   9.6333577347e+01   6.0878658556e+01     0.662796    0.1569846 -51.69  0.002011408    4.363    0.771
         3 -10.1614    189.7333     14.8524   5.3285702287e+01   3.5572504946e+01    0.2922873    0.1756537 -28.76  0.001323134    1.613    0.380
         4 -11.5057    204.9320      7.0744   4.9113281477e+01   3.2346090385e+01    0.8360481    0.4295658  26.20  0.003128617    2.925    0.658
         5 -12.2546    200.7958      4.4477   4.8734157783e+01   3.3682999188e+01    0.9323455    0.7186283  54.85  0.004961534    1.314    0.239
         6  -9.7435     77.4889     10.1825   7.4821058254e+01   6.3459597363e+01    0.2778637    0.1969328  58.47  0.001013833    1.768    0.434
         7 -10.2317     67.7267      7.8979   7.7046224807e+01   6.5549991876e+01    0.2579839    0.1846227  49.73 0.0008236375    1.636    0.389
         8  -9.6319     69.3729    218.6418   1.2313202753e+02   2.3249389520e+01     0.218421    0.1126052  65.35 0.0006750656    1.728    0.421
         9  -9.8783    249.1983    248.8838   9.7445710365e+01  -6.4430500257e+00    0.2225791    0.1661612   3.13  0.001861281    1.300    0.231
        10 -10.5729    243.8412    248.1526   9.8124897926e+01  -5.6608632480e+00    0.3187133    0.1602597   1.19   0.00186642    2.796    0.642
        11 -19.4608     36.6279    145.8209   1.2324075619e+02   4.0844979138e+01     17.70928     3.171681 -72.64   0.05622195    5.498    0.818
        12  -9.3445     88.3497    203.1231   1.1847039487e+02   2.3347547182e+01    0.2627327    0.1405175  56.03  0.001235852    1.578    0.366
        13 -10.9482     69.9909    198.4818   1.2139259521e+02   2.6605180265e+01    0.3281231    0.2227437 -51.67  0.001390089    2.050    0.512
        14  -9.4294    193.5156    195.9142   9.8437557639e+01   7.5566099006e+00    0.3261237    0.1716074 -55.41   0.00149417    3.461    0.711
        15 -11.7086    125.8526    191.3430   1.1013608552e+02   1.9728300819e+01    0.3685727    0.2883901 -74.92  0.002412926    1.434    0.303
        16  -9.1293    151.3772    191.6452   1.0537665048e+02   1.5434875831e+01    0.1803498    0.1331959  69.29 0.0008022885    1.559    0.359
        17  -9.8543     77.1914    208.4714   1.2096146646e+02   2.3939074491e+01    0.3314798    0.2428649  36.78  0.002337486    1.582    0.368
        18 -10.4824     62.3490    210.2522   1.2370698150e+02   2.5516157896e+01    0.2700814    0.2266098  25.93  0.001513446    1.808    0.447
        19  -9.6969    151.2372    182.9556   1.0409971735e+02   1.6845757541e+01    0.2509518    0.1643439  52.50 0.0007025172    1.399    0.285
        20 -10.3165     99.3938    180.6851   1.1391512551e+02   2.5750944977e+01    0.2121571    0.1874708  57.10 0.0005835934    1.156    0.135
        21 -11.0844    104.3969    171.8884   1.1177090261e+02   2.6631676757e+01    0.3332783    0.2746462  45.61  0.002117504    1.226    0.184
        22 -10.2034    124.8566    171.8599   1.0759585008e+02   2.3309305935e+01     0.241762    0.1589503  50.72  0.001072735    1.358    0.264
        23  -8.4990    141.4691    169.4691   1.0387081054e+02   2.0855471899e+01     0.129794    0.1151877  55.56 2.340568e-05    1.010    0.010
        24  -9.4076    204.2153    166.2648   9.1336876868e+01   9.6927747521e+00     0.375219    0.2838316  -2.46  0.002051031    1.453    0.312
        25  -8.2736    165.2201    172.2302   9.9669073893e+01   1.6078106306e+01    0.1712744    0.1430835  67.23 0.0005350137    1.322    0.244
        26  -9.7862    193.5613    166.0305   9.3217593853e+01   1.1734896012e+01    0.2898262    0.2572404 -47.70 0.0008312032    1.343    0.255
        27 -10.2266     96.4653    159.4615   1.1171065697e+02   3.0283566332e+01    0.2420033    0.2136157 -55.70 0.0004895864    1.321    0.243
        28  -9.3559     59.8086    207.3263   1.2393069788e+02   2.6325815274e+01    0.2672186    0.1885396 -56.08  0.001897032    1.940    0.485
        29 -11.1163    101.2643    152.4439   1.0962140382e+02   3.0946245130e+01    0.5045742    0.3684085 -37.33  0.002790734    1.863    0.463
        30  -9.4789    189.1656    155.0761   9.1904035355e+01   1.4254122173e+01    0.3923071    0.2741602  61.82  0.002015425    1.740    0.425
        31  -9.7537    134.0000    144.9937   1.0113587613e+02   2.6757329079e+01     0.706606    0.1952098 -56.51  0.001846637    6.311    0.842
        32  -8.2588    174.6717    149.2801   9.3530023970e+01   1.8067793728e+01    0.1333491    0.1078582  79.49 0.0003238933    1.599    0.375
        33  -9.5423     98.5504    214.7319   1.1776837578e+02   1.9999477912e+01    0.2289877    0.1060894 -68.32  0.001274319    2.567    0.610
        34 -10.5559    110.6941    138.3207   1.0511941918e+02   3.2284613770e+01    0.4552685    0.2855136 -34.30  0.002114812    2.310    0.567
        35 -10.6893    100.0115    138.1472   1.0756550133e+02   3.4108136370e+01    0.2546726    0.2420796  50.23 0.0003933985    1.190    0.159
        36 -10.0530    105.8926    130.9095   1.0487056972e+02   3.4660290455e+01    0.3334227    0.2841497 -83.55  0.001179373    1.140    0.122
        37  -9.3824    117.0243    129.4043   1.0194399340e+02   3.3021889896e+01    0.2587263    0.1923515 -35.43  0.001159437    1.626    0.385
        38  -9.0490    160.6779    127.5433   9.1745272549e+01   2.4790639956e+01      0.25145    0.1758445 -63.72  0.001087063    1.817    0.450
        39  -9.4739    105.2647    125.1900   1.0391694755e+02   3.5986261693e+01    0.2621785    0.2072613 -31.97 0.0008534013    1.599    0.375
        40  -8.5497    111.9478    118.5164   1.0090931679e+02   3.6235794617e+01    0.2028723    0.1370941  43.17 0.0004623543    1.524    0.344
        41  -8.7504    167.9888    112.9780   8.6745409119e+01   2.5904024259e+01    0.2413562     0.185481 -78.40  0.001132619    1.774    0.436
        42  -8.9352    205.3708    110.1475   7.8751112280e+01   1.8011899599e+01     0.261052     0.190221  38.30 0.0006649839    1.376    0.273
        43  -8.7963     67.6342    210.7101   1.2282325755e+02   2.4784558423e+01    0.3085209    0.1762268  45.94   0.00156001    1.484    0.326
        44 -11.4377     74.5494    213.9673   1.2188188940e+02   2.3361335300e+01    0.2606798    0.1595082  64.73  0.000348922    1.352    0.260
        45 -10.6195    173.4089     72.2465   7.4377437260e+01   3.1870320824e+01    0.4636803    0.3286008 -80.35 0.0009533086    2.056    0.514
        46 -12.1167    166.8642     53.4541   6.9740395876e+01   3.6563679086e+01    0.8541337     0.603715 -18.99  0.001572492    1.501    0.334
        47  -9.3514     11.0971    205.9849   1.3212980658e+02   3.1749170588e+01    0.3644391   0.09847354  43.58  0.002084949    2.613    0.617
        48 -10.7563    248.8476    242.7609   9.6649804633e+01  -5.9073505224e+00    0.2206245    0.1644701  19.89  0.001798614    1.102    0.092
        49 -11.6535    185.7011     31.1973   5.9162063235e+01   3.4757880550e+01    0.5905882    0.5160448  21.60  0.001332416    1.222    0.182
        50  -9.4224    158.4496    235.6897   1.0982434073e+02   8.1303332745e+00    0.1976779    0.1110663  31.61  0.001197814    1.810    0.447
        51  -8.4484    168.4225    233.6512   1.0795671561e+02   6.8614712740e+00    0.1517089    0.1070877  59.33 0.0003523021    1.524    0.344
        52  -8.9381     87.9833     13.1216   7.2916349530e+01   6.1015273098e+01    0.1936291    0.1809361 -47.08 0.0005621454    1.287    0.223
        53 -10.6288     71.9279    230.0891   1.2354190277e+02   2.1110754010e+01    0.1789109    0.1339384  72.46 0.0003408376    1.126    0.112
        54  -8.5869     81.2242    220.4025   1.2125976613e+02   2.1446397161e+01    0.1952053   0.08890338  38.94  0.001114206    2.076    0.518
        55 -11.2872     61.4812    216.3148   1.2429851814e+02   2.4604169512e+01    0.2936665    0.1849942  62.88 0.0009817748    1.211    0.175
