#   1 NUMBER                 Running object number                                     
#   2 MAG_AUTO               Kron-like elliptical aperture magnitude                    [mag]
#   3 X_IMAGE                Object position along x                                    [pixel]
#   4 Y_IMAGE                Object position along y                                    [pixel]
#   5 X_WORLD                Barycenter position along world x axis                     [deg]
#   6 Y_WORLD                Barycenter position along world y axis                     [deg]
#   7 A_WORLD                Profile RMS along major axis (world units)                 [deg]
#   8 B_WORLD                Profile RMS along minor axis (world units)                 [deg]
#   9 THETA_WORLD            Position angle (CCW/world-x)                               [deg]
#  10 FWHM_WORLD             FWHM assuming a gaussian core                              [deg]
#  11 ELONGATION             A_IMAGE/B_IMAGE                                           
#  12 ELLIPTICITY            1 - B_IMAGE/A_IMAGE                                       
         1 -11.4453    211.4082     31.7764   4.2570890314e+01   2.9066981060e+01    0.8928009    0.6433674 -75.17  0.004916477    1.396    0.284
         2 -11.2063    218.9000     25.8541   4.0290246956e+01   2.8042914726e+01     0.610577    0.3922658  40.23  0.002027455    2.094    0.522
         3 -10.1824      1.7014     17.5232   9.9509665252e+01   7.1808279844e+01    0.4691764   0.08027226 -54.38  0.001655695    4.773    0.790
         4 -11.6640    232.5339     12.5361   3.5928145590e+01   2.6492491450e+01    0.7016403    0.5359374 -64.72  0.002745361    1.122    0.109
         5  -9.4143      2.0127      3.1835   9.2929686431e+01   7.4148383322e+01    0.1998633    0.1240294 -35.65 0.0008357171    1.266    0.210
         6 -10.3417     82.0527    245.5159   1.1497985649e+02   1.3423912253e+01    0.2754376    0.2273083   5.07  0.001825586    1.864    0.464
         7 -10.2750     29.0527    248.8176   1.2472358150e+02   1.9248558624e+01    0.5957131    0.3509189 -40.50  0.003143342    4.091    0.756
         8  -8.7707     32.5274    250.4798   1.2422498043e+02   1.8575102441e+01    0.2178655    0.1239297  62.44 0.0007361773    1.360    0.265
         9  -9.6738     32.5080    246.9948   1.2403356571e+02   1.9204098035e+01    0.3564232    0.1925576  75.99  0.002285523    1.632    0.387
        10 -12.0334      4.4563    184.3630   1.2557985308e+02   3.4541957538e+01     1.139048    0.4839592 -86.47  0.004959119    1.990    0.498
        11 -13.9522      6.3557    139.5369   1.2172094790e+02   4.4658380821e+01     7.489219     2.000095 -83.80   0.02390997    4.743    0.789
        12  -9.7345    120.2850    243.5650   1.0742582175e+02   8.3161842440e+00    0.4164208    0.1433051 -60.39  0.001737089    3.822    0.738
        13 -10.0742     24.8426    228.2918   1.2430824519e+02   2.3533774973e+01    0.3487639     0.127135  60.57  0.001733225    2.505    0.601
        14 -10.3310    126.4383    246.9224   1.0661491523e+02   6.8325178744e+00    0.2857542    0.1859164  31.34  0.001691429    1.449    0.310
        15  -8.8387     33.6916    227.1996   1.2262001561e+02   2.2810249383e+01    0.2539799    0.1571058 -42.26  0.001424073    2.876    0.652
        16 -10.6481    122.1530    226.2459   1.0494637562e+02   1.1103809279e+01    0.5297301    0.2545643  33.93  0.002046068    1.988    0.497
        17  -7.9242     48.5224    225.0127   1.1966204554e+02   2.1564031236e+01    0.1593831    0.1017859 -81.30 0.0003542534    1.479    0.324
        18  -9.6231    164.2732    221.1464   9.5511143226e+01   5.2074666732e+00     0.276519     0.118136 -49.37  0.001197511    2.762    0.638
        19  -8.3760     94.4866    221.5067   1.1010371852e+02   1.6193642126e+01    0.1278244    0.1072226  60.10 0.0001628727    1.028    0.027
        20  -9.4039     72.8506    219.7177   1.1436898013e+02   1.9571348160e+01    0.3071511    0.1538037  57.81  0.001542775    1.953    0.488
        21  -9.6824     30.0483    218.7901   1.2274948588e+02   2.4874855929e+01    0.2861932    0.1904303  74.86  0.001619264    1.226    0.184
        22 -10.3203    114.2399    244.2260   1.0867939240e+02   9.1000017810e+00    0.2840404    0.2172958 -39.08  0.001812232    1.736    0.424
        23  -7.7381     53.4179    240.4790   1.1989899345e+02   1.8004480460e+01    0.1128136   0.08914253  66.68 0.0001961893    1.036    0.035
        24 -11.6132    126.9169    230.8421   1.0455937883e+02   9.5265610061e+00    0.5008363    0.4239675 -48.11  0.003250753    1.389    0.280
        25 -10.0343     41.4710    236.6095   1.2181184863e+02   2.0130674569e+01    0.2491302    0.1706362  79.90 0.0005563932    1.243    0.195
        26 -10.0234     57.9414    181.3912   1.1353852802e+02   2.9813199573e+01    0.3975012    0.2502636 -43.41  0.002040541    2.052    0.513
        27  -9.9826     63.7654    175.5570   1.1145536250e+02   3.0436462620e+01    0.3166452    0.2426265 -44.66 0.0009109065    1.547    0.354
        28 -11.4404     19.3047    219.7365   1.2481995560e+02   2.5780493863e+01     0.492505    0.2994758  71.61  0.001484795    1.324    0.245
        29  -8.9884     38.6729    231.9459   1.2201330888e+02   2.1337682466e+01    0.2035851    0.1446867  63.99 0.0003950367    1.099    0.090
        30  -9.9160     73.8371    165.4488   1.0758860756e+02   3.1490085924e+01    0.2848924    0.2674811 -72.13 0.0004861584    1.108    0.097
        31 -13.0321      4.7899    241.2589   1.2841305545e+02   2.3055126781e+01      1.70739     1.024069 -86.80    0.0117706    1.427    0.299
        32 -10.9172     81.6160    158.9526   1.0458573461e+02   3.1945599515e+01    0.5719111    0.4671645 -38.64  0.002008238    1.402    0.287
        33 -11.5607     60.7316    161.9450   1.1040899691e+02   3.4057824188e+01    0.5038813    0.2846839 -44.35  0.001339423    2.107    0.525
        34 -10.0049     73.1326    154.1373   1.0602989870e+02   3.4321631877e+01    0.3725943    0.2291126  76.98  0.001200016    2.153    0.536
        35 -11.3601     29.2848    209.6044   1.2226873805e+02   2.6840651536e+01    0.4570083    0.3401564 -43.13  0.001023133    1.985    0.496
        36 -13.0021     39.3997    199.6104   1.1944522422e+02   2.7887950230e+01     1.774853    0.9265402  59.28  0.009266525    1.784    0.439
        37  -8.9745    134.0000    146.4861   8.8552787608e+01   2.5874306429e+01     0.524689   0.08658355 -49.06  0.001164988    6.021    0.834
        38 -10.6754     70.4759    145.4813   1.0531864561e+02   3.6807376894e+01    0.4886358    0.3898975 -15.31  0.001805518    1.663    0.399
        39 -10.9138     67.7703    142.5779   1.0557158734e+02   3.7886265112e+01     0.508203    0.3733453  54.63     0.001553    1.454    0.312
        40  -8.4865     96.9021    144.4662   9.7901046830e+01   3.3081139130e+01    0.2237688    0.1457109  38.02  0.001030974    1.592    0.372
        41 -10.3063     84.2662    142.7284   1.0102988897e+02   3.5504794726e+01    0.3046967    0.2491636 -47.26 0.0004440143    1.228    0.186
        42  -8.6884     30.1637    143.3821   1.1593309751e+02   4.1872893806e+01    0.1712376    0.1087467  45.57 0.0008911907    1.688    0.407
        43  -9.6109     75.7047    136.4667   1.0224961969e+02   3.8305279616e+01    0.3014481    0.2096386  59.29 0.0007622139    1.649    0.394
        44  -8.8784    108.0172    131.6245   9.2119218706e+01   3.4261589114e+01    0.3981286    0.2735265  37.58  0.001838232    1.518    0.341
        45 -12.8036      8.7899    207.5842   1.2608994321e+02   2.9238219490e+01    0.9871118    0.8346109  80.76   0.00507259    1.196    0.164
        46  -8.9070     95.2531    128.4023   9.5001050873e+01   3.7257589873e+01      0.30685    0.2297095 -21.12  0.001115766    1.697    0.411
        47  -8.8213    135.0000    124.9795   8.3242385998e+01   3.0573874032e+01    0.2694539   0.08800162 -46.45 0.0008099732    2.995    0.666
        48  -7.6303    114.6517    125.7038   8.8897642088e+01   3.4441909548e+01    0.1575558    0.1219604  -9.09 0.0006056529    1.678    0.404
        49  -7.6751    105.5437    120.4397   9.0196754682e+01   3.7375685016e+01    0.1523452    0.1445261 -37.10 4.907947e-05    1.037    0.036
        50  -8.0738    205.5217    110.4823   6.3720689874e+01   1.8034714775e+01    0.1503691    0.1399107 -33.87 0.0008099896    1.013    0.013
        51  -7.9810    134.3308    109.6610   7.9432569621e+01   3.4133344671e+01    0.1620642    0.1273905 -86.26 0.0007051834    1.740    0.425
        52 -10.0851    115.2840    232.2548   1.0709607585e+02   1.1059969417e+01    0.3356498    0.1765742 -46.71  0.001698941    2.363    0.577
        53 -11.1334     89.2314    228.8393   1.1197434169e+02   1.5523323858e+01    0.4321159    0.2688052 -86.28 0.0008012825    1.891    0.471
        54  -8.1106    134.7150    103.6392   7.7675782334e+01   3.5359967563e+01    0.1628131    0.1237329  -7.66 0.0004940986    1.681    0.405
        55  -8.9869    161.3820     82.1934   6.4975837789e+01   3.3534539627e+01    0.2297566    0.1381642 -47.06 0.0008140812    1.724    0.420
        56  -7.4886     24.6819     82.7140   1.0789699885e+02   5.6948277159e+01    0.1332355   0.07912586 -37.88 0.0002651363    1.590    0.371
        57  -9.8942     13.3196     59.9816   1.0714207792e+02   6.2799644055e+01    0.2366812    0.1533489 -49.14 0.0008035687    1.181    0.153
        58  -9.1075    127.5503     58.7608   6.5691064261e+01   4.5664707311e+01    0.2142169    0.1376847 -45.20 0.0009543729    1.675    0.403
        59  -8.1118     34.8470     55.8664   9.6885561241e+01   6.1993901673e+01    0.1513932    0.1510992 -12.79 0.0005569306    1.322    0.243
        60 -10.1835      1.8563     49.7485   1.0955309245e+02   6.5570501852e+01    0.5605294    0.1406991 -65.85  0.002094554    3.747    0.733
        61 -10.6378      2.3065     36.4426   1.0572825045e+02   6.8252401934e+01    0.7759785   0.09322646 -59.37  0.002457868    5.310    0.812
        62  -9.6119    134.2137     41.1513   5.8036296007e+01   4.6784587026e+01    0.3830344    0.2651168 -57.50  0.001131717    1.840    0.457
        63  -9.4034     95.2916    249.4327   1.1284673415e+02   1.0920604527e+01    0.2232634    0.1009535  34.90 0.0009799895    2.067    0.516
        64 -10.3684     70.1592    248.8661   1.1746978110e+02   1.4390253036e+01    0.3691791     0.180244  39.38  0.002099946    1.761    0.432
        65 -11.3170    204.5525     37.4676   4.4859095997e+01   2.9972113074e+01    0.4991872     0.460233  76.72   0.00207921    1.097    0.089
        66  -9.8283    134.4339    244.2189   1.0473430296e+02   6.0720388598e+00    0.3671937    0.1338543 -62.14  0.001383109    4.799    0.792
        67 -11.6426    132.9720    233.0017   1.0360895883e+02   8.2002354764e+00    0.5186963    0.3227441  43.38  0.002906695    1.370    0.270
