#   1 NUMBER                 Running object number                                     
#   2 MAG_AUTO               Kron-like elliptical aperture magnitude                    [mag]
#   3 X_IMAGE                Object position along x                                    [pixel]
#   4 Y_IMAGE                Object position along y                                    [pixel]
#   5 X_WORLD                Barycenter position along world x axis                     [deg]
#   6 Y_WORLD                Barycenter position along world y axis                     [deg]
#   7 A_WORLD                Profile RMS along major axis (world units)                 [deg]
#   8 B_WORLD                Profile RMS along minor axis (world units)                 [deg]
#   9 THETA_WORLD            Position angle (CCW/world-x)                               [deg]
#  10 FWHM_WORLD             FWHM assuming a gaussian core                              [deg]
#  11 ELONGATION             A_IMAGE/B_IMAGE                                           
#  12 ELLIPTICITY            1 - B_IMAGE/A_IMAGE                                       
         1 -14.7267     68.5706    144.2501   1.0739347704e+02   3.7367268675e+01     5.773348     2.933696  71.81   0.00322339    3.541    0.718
         2 -14.4844    199.3753     36.7008   4.7622113749e+01   3.0720498547e+01     2.177729      1.51963  29.29  0.007598565    1.957    0.489
         3 -14.4722    211.1255     24.4118   4.2951511796e+01   2.9362805921e+01     1.395734     1.075594  10.26  0.007530085    1.839    0.456
         4 -12.5921      2.3983     23.9636   1.0283108867e+02   7.0601150579e+01    0.7999431    0.1864119 -57.59  0.003093315    3.968    0.748
         5 -13.6602      2.8040      7.8830   9.5989729735e+01   7.3334914651e+01     1.309241    0.8023936 -29.95  0.009023854    1.215    0.177
         6 -10.0132     60.0773      7.5105   6.7887884539e+01   6.6380541008e+01    0.1784054      0.11093  42.01 0.0006680649    1.550    0.355
         7 -12.1293    235.4336      2.2303   3.5449313821e+01   2.6140043543e+01    0.6889389    0.2448046  76.31  0.002764453    2.683    0.627
         8 -11.2172     52.3086      2.7620   6.8458275460e+01   6.8191843649e+01    0.2679802    0.2222963 -50.77  0.001724402    1.927    0.481
         9 -11.6943    145.8444     50.2565   6.0910988154e+01   4.2374649509e+01    0.5750926    0.3644611 -81.50   0.00221683    2.687    0.628
        10 -13.3818     47.6791    222.6976   1.2106260385e+02   2.2589651565e+01    0.7285363    0.5056691  87.48  0.002824676    1.257    0.204
        11 -15.3615    124.9895    230.6684   1.0688163720e+02   1.0027888418e+01     7.092529     1.604702  37.45   0.02263669    4.428    0.774
        12 -13.8701     85.7339    229.3118   1.1439311799e+02   1.6260633625e+01     1.357738    0.7613642 -77.59  0.007013859    2.015    0.504
        13  -9.7345    113.7555    208.0551   1.0624367778e+02   1.6053998540e+01    0.2059353    0.1607995  71.91   0.00118983    1.295    0.228
        14 -14.0909     53.7723    193.5303   1.1730282939e+02   2.7870598177e+01     1.257964    0.9132011  57.81  0.007870126    1.223    0.183
        15 -11.6299    192.4548    193.5590   8.7424525152e+01   4.7933486077e+00     0.712262    0.4244541 -67.84  0.002509892    4.539    0.780
        16  -9.8526    108.0219    203.6851   1.0687153592e+02   1.7861915460e+01    0.1872159    0.1561799  52.91 0.0005010333    1.070    0.065
        17 -10.5863    209.0644    198.3125   8.5075240522e+01   1.0746284768e+00     0.216845    0.1918578 -66.14 0.0008257359    1.630    0.386
        18 -10.2586    112.9038    198.2226   1.0505750680e+02   1.8174912316e+01    0.2790551    0.1778273  66.95  0.001011996    1.813    0.448
        19 -11.6288     12.1388    196.1567   1.2598118902e+02   3.1833476910e+01    0.2659127     0.166879  57.35 0.0004622643    1.367    0.268
        20 -12.6762     14.9928    190.3913   1.2504601233e+02   3.2786111442e+01     0.267059    0.1941866  78.03  0.000457308    1.053    0.050
        21  -9.3757     81.7297    194.8065   1.1141343659e+02   2.3794418651e+01    0.1849722    0.1555268  51.59  0.001141235    1.161    0.139
        22 -16.5148      7.1147    202.0315   1.2728165249e+02   3.1079806916e+01     8.341979     1.150437 -73.74   0.02206409    4.980    0.799
        23  -8.9383     97.3783    190.8059   1.0743425242e+02   2.2265607961e+01    0.1737964    0.1201402 -51.87 0.0003923711    1.606    0.377
        24 -10.3351     75.4124    190.0908   1.1222697281e+02   2.5732793738e+01    0.3245686    0.1834569  70.48 0.0009812383    2.026    0.506
        25 -10.2134     72.0000    186.3396   1.1253069942e+02   2.7042637168e+01    0.2318325    0.1657783  89.08 0.0004136377    1.341    0.254
        26  -8.9137    154.3241    185.6702   9.3928791024e+01   1.3325872168e+01    0.1436876    0.1103763  75.88 0.0007050038    1.700    0.412
        27 -10.1612    147.0278    183.7011   9.5175330240e+01   1.5085567183e+01     0.210299    0.1784979  42.58  0.001160914    1.100    0.091
        28 -10.2035     99.3341    180.6837   1.0552467300e+02   2.4165422120e+01    0.2600473    0.2300907  36.48 0.0006354342    1.241    0.194
        29 -12.1735     68.7469    177.2526   1.1214135007e+02   2.9540909298e+01    0.4341821     0.272954 -42.77  0.001673628    2.142    0.533
        30 -12.0756     73.1992    172.2062   1.1043338909e+02   3.0078751118e+01    0.3097318    0.2283666 -51.76  0.000628907    1.498    0.332
        31 -10.1498     39.7780    177.6660   1.1877036919e+02   3.3049120907e+01    0.2356117    0.1699203  71.38 0.0006477106    1.217    0.178
        32 -11.5171    141.1816    174.4877   9.4801158738e+01   1.8083687161e+01    0.3741484    0.2753218  67.93  0.001536231    1.623    0.384
        33 -12.9689     81.9525    162.5987   1.0690989476e+02   3.1040826872e+01     1.299207    0.4993302  55.57 0.0004441926    3.722    0.731
        34 -13.7217     70.0669    158.1346   1.0918890750e+02   3.3821209063e+01    0.6242425    0.4913335 -40.11  0.002875831    1.556    0.357
        35 -11.0193    171.9702    240.5853   9.9140565693e+01   8.4745771528e-01    0.4756068    0.2684858 -62.38  0.002298904    3.234    0.691
        36  -9.8905    230.0000    166.0173   7.4724428822e+01   2.5351692443e+00    0.2249447    0.0726676 -36.73 0.0008006666    2.930    0.659
        37  -9.5515    160.0016    163.9904   8.8466152695e+01   1.6583380492e+01    0.2577518    0.1614309 -70.15  0.001003208    2.601    0.616
        38  -9.8857     48.0118    160.2976   1.1493863337e+02   3.6126516348e+01    0.1758019    0.1516745  77.41 0.0004520395    1.084    0.077
        39 -11.1020    134.0000    144.4827   9.0427545095e+01   2.6050599586e+01     1.167643    0.2248291 -52.11  0.002521451    6.710    0.851
        40 -12.5134     54.8730    146.5979   1.1136870454e+02   3.8580268455e+01    0.6660382    0.5913553 -48.37  0.004123156    1.283    0.220
        41 -10.7602    174.3561    148.3957   8.1892089468e+01   1.6803059467e+01    0.3857036    0.2949786 -58.53  0.001721858    1.502    0.334
        42 -11.3426     39.0171    145.9863   1.1539084638e+02   4.0531061764e+01    0.3642341    0.3159315  31.61  0.001888891    1.406    0.289
        43 -10.2592     84.6029    143.8217   1.0305428219e+02   3.5116391648e+01    0.2906918    0.2156214  69.70 0.0005905281    1.482    0.325
        44 -10.8247    102.6027    140.4901   9.7626086871e+01   3.2927670979e+01    0.5705217    0.3605306 -25.62  0.002268442    2.593    0.614
        45 -12.4466     89.8652    140.6411   1.0105084614e+02   3.5046344776e+01    0.2834839    0.2512819 -53.88 0.0004081665    1.135    0.119
        46 -12.5179     44.3182    129.3980   1.1162087442e+02   4.3974510185e+01    0.4892865    0.3498889  61.32  0.002324102    1.517    0.341
        47 -11.2990    135.9163    128.0202   8.6140612242e+01   2.9367244004e+01    0.5829711    0.2049967 -49.38   0.00184751    2.899    0.655
        48 -10.4461    160.6513    127.6489   8.0054288350e+01   2.4082062014e+01    0.3122916    0.2854666 -74.79  0.001595607    1.194    0.163
        49 -11.1471     98.8961    126.8808   9.5722309376e+01   3.6827958069e+01    0.3112303    0.2652925 -13.90 0.0009213484    1.443    0.307
        50 -10.8123    117.2890    124.8269   9.0221642932e+01   3.3888987306e+01    0.3359365    0.2348055 -10.90 0.0007711155    2.321    0.569
        51 -10.3760    106.0499    130.7606   9.4624947073e+01   3.4622878318e+01     0.345142    0.2980023 -75.08  0.001389863    1.179    0.152
        52 -10.2427    111.7108    130.6818   9.3081804921e+01   3.3591892104e+01    0.3172364    0.2509809  -2.27 0.0008067561    1.735    0.424
        53 -12.7211     88.6885    155.6889   1.0409323760e+02   3.1632968937e+01     1.482909    0.9140068 -77.08  0.003198591    1.841    0.457
        54  -9.6890     36.9988    167.5245   1.1837155474e+02   3.5670755084e+01    0.2469677    0.1485547  60.54 0.0007489974    1.608    0.378
        55 -11.2090     33.2525    165.2503   1.1900455582e+02   3.6590666519e+01    0.2897041    0.1977483  41.55  0.001240174    1.557    0.358
        56  -9.7565    168.2806    113.1723   7.4610436801e+01   2.5359963793e+01    0.3664549    0.2414858 -71.68  0.001201453    2.390    0.582
        57 -10.0013    107.9633    119.4608   9.1474761596e+01   3.6934915697e+01    0.2121788    0.1971046 -52.85 0.0003294976    1.036    0.035
        58 -11.7895    117.9933    108.9632   8.6029462821e+01   3.7391187898e+01    0.7134521    0.4863742 -58.35  0.003168589    1.568    0.362
        59 -15.2980     63.8751    247.1787   1.1997134368e+02   1.5997904122e+01     2.909801    0.6826264  35.53  0.008470541    4.908    0.796
        60 -10.1198    205.3587    110.2345   6.6307096462e+01   1.7373616535e+01    0.3459122    0.2291277  36.45  0.001230235    1.721    0.419
        61 -11.1358     31.3366    107.8139   1.1191441232e+02   5.0480134910e+01    0.2406282     0.187484  -2.73   0.00144544    1.673    0.402
        62 -10.6358    134.7562    104.9555   8.0460868408e+01   3.4723274405e+01    0.5828908    0.1763842 -39.96  0.001650151    3.546    0.718
        63 -10.8471    241.8007    100.2329   5.7857005532e+01   1.1171607364e+01    0.3409981   0.07943384 -40.31   0.00104095    3.582    0.721
        64 -10.1278     33.8955    100.1479   1.0972708511e+02   5.2076583190e+01    0.1981434    0.1633629 -85.47 0.0007154808    1.237    0.192
        65 -10.6170     53.1191     91.5756   1.0152315718e+02   5.2069186511e+01    0.4521792    0.1901218 -59.50  0.001863947    2.165    0.538
        66 -10.2354     41.8768     91.9684   1.0541167940e+02   5.3228892974e+01    0.2149088    0.1895306  17.75 0.0005722785    1.332    0.249
        67 -16.4396      8.8680    242.2164   1.2895863556e+02   2.3190154304e+01     1.736603     1.416237 -84.19   0.01461539    1.448    0.309
        68  -9.6397     74.9014     84.7784   9.2408486821e+01   5.0638514965e+01    0.2027346    0.1805021 -24.49   0.00035128    1.112    0.101
        69  -9.4229    158.1880     81.1849   6.7902145243e+01   3.4056431628e+01    0.2148525    0.1842671 -70.98 0.0004380342    1.303    0.233
        70  -8.9992    184.3868     77.2791   6.1399099558e+01   2.8291246705e+01    0.1592836    0.1173644  25.52 0.0007002088    1.730    0.422
        71  -9.4273     56.7290     66.5637   9.3358643813e+01   5.7180253464e+01    0.1692199    0.1286258  42.04  0.000610436    1.562    0.360
        72  -9.0178     64.9683     63.7718   8.9423768758e+01   5.6613477396e+01    0.1743037    0.1135389  31.37 0.0008815497    1.666    0.400
        73  -9.0350    130.4608    213.2207   1.0346570049e+02   1.2283451230e+01    0.1611448    0.1255391 -80.34  0.000407422    1.522    0.343
        74 -10.4439     13.4775     59.6633   1.0837583946e+02   6.2843813767e+01    0.2117362    0.1797111 -69.58 0.0004051234    1.257    0.205
        75 -12.9142    190.0585     43.6911   5.0878909028e+01   3.2118473386e+01     0.770004    0.5854644  52.82 0.0009069434    1.346    0.257
        76 -14.1369     29.6775    248.6402   1.2588914565e+02   1.9856647277e+01    0.7083514    0.5308787  27.34  0.005172812    1.996    0.499
        77  -9.2884     43.5235    236.4607   1.2280050944e+02   2.0466087246e+01    0.1118588    0.0848498  68.52 8.511957e-06    1.044    0.042
        78  -9.2502     68.2391     52.4044   8.4260233254e+01   5.8330747998e+01    0.1767712    0.1282329  46.49 0.0009376295    1.656    0.396
        79 -10.6783    147.6330     43.8954   5.8423929413e+01   4.2866752033e+01    0.2637846    0.2511702 -82.81 0.0003623609    1.098    0.090
        80 -10.6657     14.8756     32.1340   9.9508553536e+01   6.8279395281e+01    0.1641357    0.1460173 -38.36 0.0005632711    1.252    0.201
        81  -8.4798    115.5191     31.4526   6.1329182272e+01   5.2315444261e+01    0.1402069    0.1304127  29.61 0.0001398758    1.021    0.021
        82  -9.8381     72.8018    230.2192   1.1695115285e+02   1.7900408801e+01    0.2249625    0.1547041  33.61  0.001388639    1.652    0.394
        83 -10.1699     34.3580    227.9620   1.2387248748e+02   2.3130219485e+01    0.1824165    0.1342082  51.64 0.0005723838    1.274    0.215
        84  -9.4077    189.5129     14.9801   4.2873824965e+01   3.5778392948e+01    0.1930715    0.1328085 -30.24  0.000641975    1.543    0.352
        85 -10.0780     56.3595    224.0755   1.1953725802e+02   2.1243522526e+01    0.1983462    0.1214043  61.15 0.0003814697    1.352    0.260
        86  -9.8478    197.7128    223.0106   9.1577835699e+01  -7.5834854702e-01    0.1685473    0.1476916   8.65 0.0003977224    1.094    0.086
        87 -14.5200     45.6904    204.2919   1.1996431087e+02   2.6559267999e+01     2.561591     1.029574  57.84  0.002994915    2.409    0.585
