#   1 NUMBER                 Running object number                                     
#   2 MAG_AUTO               Kron-like elliptical aperture magnitude                    [mag]
#   3 X_IMAGE                Object position along x                                    [pixel]
#   4 Y_IMAGE                Object position along y                                    [pixel]
#   5 X_WORLD                Barycenter position along world x axis                     [deg]
#   6 Y_WORLD                Barycenter position along world y axis                     [deg]
#   7 A_WORLD                Profile RMS along major axis (world units)                 [deg]
#   8 B_WORLD                Profile RMS along minor axis (world units)                 [deg]
#   9 THETA_WORLD            Position angle (CCW/world-x)                               [deg]
#  10 FWHM_WORLD             FWHM assuming a gaussian core                              [deg]
#  11 ELONGATION             A_IMAGE/B_IMAGE                                           
#  12 ELLIPTICITY            1 - B_IMAGE/A_IMAGE                                       
         1 -12.8886     34.2081     12.2170   5.8167507358e+01   6.8083572169e+01    0.2814214    0.2321257 -75.33  0.001785432    2.334    0.572
         2 -12.1381     45.0051     11.7569   5.3443735370e+01   6.6904900097e+01    0.1717215    0.1364384 -13.95  0.001168877    1.043    0.041
         3 -11.4184     27.6007     11.7615   6.0844902770e+01   6.8827612132e+01    0.1575677   0.09217293 -47.22 0.0004458198    1.634    0.388
         4 -12.9461    162.1062     10.9077   2.1114777393e+01   4.3058698964e+01    0.2685992     0.206015  -4.02  0.001383587    1.398    0.285
         5 -12.9441     56.1831      9.2890   4.7886615146e+01   6.5755836288e+01    0.2963535    0.2179523   4.92  0.001550655    1.265    0.209
         6 -14.3549    176.2122      5.6411   1.7195854696e+01   3.9867692768e+01    0.6765817    0.5205404 -60.24  0.003524196    1.460    0.315
         7 -11.8131     78.1685      8.4278   3.9757332609e+01   6.2318426510e+01    0.2262945    0.1602322 -18.86 0.0002475126    1.263    0.208
         8 -11.5992     98.6787      8.0769   3.3512151640e+01   5.8413286833e+01    0.1925301    0.1586408  -3.54 0.0006350073    1.103    0.093
         9 -11.8580     85.4754      7.6524   3.7114466819e+01   6.1069276234e+01    0.2154508    0.1743021 -33.78 0.0006194587    1.400    0.286
        10 -11.4688      3.7484      8.5844   7.0555946039e+01   7.1227401473e+01    0.1208642   0.09792795  21.31 0.0009476627    1.638    0.390
        11 -13.0424    123.6757      6.7446   2.6844018485e+01   5.3032452117e+01    0.3133717    0.2505231  67.09  0.001064204    1.391    0.281
        12 -12.2496    134.7946      4.3845   2.3615666189e+01   5.0594984035e+01    0.2101284    0.1115302  50.10 0.0005323928    1.667    0.400
        13 -12.3662     38.7835      2.6539   5.1677690018e+01   6.8979214455e+01     0.228126    0.1786502  37.07   0.00157063    1.693    0.409
        14 -10.4544    230.3010      2.3400   1.0072895135e+01   2.6115852836e+01    0.1376398   0.09838904  35.03 0.0007037034    1.669    0.401
        15 -12.1644    113.7396      1.9023   2.7066226236e+01   5.5780712017e+01    0.2930195     0.188873  62.76  0.001104938    1.666    0.400
        16 -11.7416     64.7836    221.7222   8.9639891708e+01   2.3041835554e+01      0.24356    0.1362443 -53.31  0.001008156    2.586    0.613
        17 -13.4088    101.6328    241.2724   8.5355398788e+01   1.5060943938e+01    0.4241331    0.3135694  -2.27  0.002292696    4.315    0.768
        18 -12.6849    104.4164    244.7579   8.5221774399e+01   1.4163805335e+01    0.1777551    0.1479777 -64.04  0.001443248    1.588    0.370
        19 -11.8155     65.3375    249.3786   9.1502750636e+01   1.8660630000e+01     0.270995    0.1902286  71.25  0.002259898    1.093    0.085
        20 -12.3156     45.2952    215.4965   9.2329441719e+01   2.6412091989e+01    0.7533076    0.2973463 -72.15  0.003355473    2.389    0.581
        21 -12.8110     34.7082    219.4387   9.4252224423e+01   2.6918860292e+01    0.2796521    0.1969936  46.41  0.001676168    1.526    0.345
        22 -13.8737      7.6856    189.7933   9.6856748894e+01   3.4739137090e+01    0.4932815    0.2836782 -73.07  0.003581911    1.575    0.365
        23 -13.5395     26.7842    178.2195   9.2815596624e+01   3.5114804619e+01    0.3764571    0.3052408  41.89  0.002988506    1.559    0.359
        24 -14.6823     25.2241    200.7196   9.4618926481e+01   3.1130296527e+01     1.962373      0.42833  49.37  0.009650216    3.293    0.696
        25 -15.0568      4.6739    202.6712   9.8004941737e+01   3.2723918577e+01     1.134557    0.3902167 -84.27  0.006678392    2.440    0.590
        26 -15.2000     24.5158    248.7591   9.7261483983e+01   2.3363742532e+01     1.178132    0.2984933  38.66  0.005955957    4.266    0.766
        27 -15.9041     28.5234    236.3926   9.6110724417e+01   2.4835363112e+01      1.37944    0.4448682  47.69  0.008616272    2.253    0.556
        28 -16.5686      7.9775    239.4007   9.9129071696e+01   2.6415559292e+01       0.9839    0.5341468 -89.49  0.008128026    1.480    0.325
        29 -15.7748      3.9461    223.6783   9.9056434790e+01   2.9268774056e+01     0.820685    0.3349248 -85.89  0.005656894    2.004    0.501
        30 -10.3908     66.8212    232.3933   9.0114160136e+01   2.1063765235e+01    0.1958345    0.1382989  49.11  0.001508057    1.359    0.264
        31 -12.5658     65.7713    227.6300   8.9928673022e+01   2.1954757795e+01    0.2159083    0.1650009 -89.26 0.0004910362    1.264    0.209
        32 -11.0067     60.6757    225.1960   9.0557775288e+01   2.2980110326e+01    0.2521148    0.1241603  83.60  0.001229668    2.171    0.539
        33 -11.6433     52.0801    234.0903   9.2497271311e+01   2.2583531033e+01    0.2569164     0.175496  77.91  0.002073409    1.151    0.132
        34 -10.1187     48.4786    233.5329   9.3006804288e+01   2.3090383072e+01    0.2126966    0.1194586 -59.91  0.001113083    2.332    0.571
        35 -11.2966     79.4416    231.9900   8.8095058108e+01   1.9503042559e+01    0.1911808    0.1188009  77.99  0.001087325    1.492    0.330
        36 -11.0346     74.4596    232.0572   8.8889824498e+01   2.0143863791e+01    0.1885874    0.1363472 -72.91   0.00145906    1.535    0.348
        37 -11.7120     76.3691    227.3654   8.8214743578e+01   2.0639750776e+01    0.1964912    0.1684372  80.39 0.0009773903    1.269    0.212
        38 -12.5510    109.0913    230.5510   8.3159653868e+01   1.5582944119e+01      0.15986    0.1465887  53.40 0.0008007326    1.343    0.256
        39 -11.0158     45.6633    229.0831   9.3157219731e+01   2.4123347440e+01    0.2141656    0.1176441  43.65  0.001513502    1.737    0.424
        40 -11.5648     87.3057    224.4485   8.6184765270e+01   1.9639676175e+01    0.2013016     0.164301  53.60  0.001555805    1.261    0.207
        41 -10.5082     61.3591    220.8418   9.0126355732e+01   2.3612392614e+01    0.1244999   0.08534858 -71.68 0.0004521635    1.555    0.357
        42 -10.9872     41.0911    220.9031   9.3349467086e+01   2.5976767759e+01    0.1706958    0.1135103 -55.38  0.001082865    2.241    0.554
        43 -11.8007     66.5138    214.3344   8.8769525366e+01   2.4061741499e+01    0.2738781    0.2082634 -47.75  0.001350292    2.091    0.522
        44 -12.1414    113.8640    214.9398   8.0721672105e+01   1.7308949170e+01     0.176193    0.1394681  63.67 0.0004964405    1.039    0.037
        45 -11.6340    100.4743    213.4735   8.2897773847e+01   1.9560297850e+01    0.1145292   0.09025727  63.97 0.0001652976    1.009    0.008
        46 -10.7144     55.9495    212.3717   9.0368318746e+01   2.5700443455e+01    0.2113175    0.1181296 -48.11  0.001208157    3.195    0.687
        47 -11.4851     32.7169    212.0742   9.4115630529e+01   2.8376819437e+01    0.2040644    0.1040316 -74.20  0.001400942    1.798    0.444
        48 -14.1059     29.6085    188.1113   9.3038670539e+01   3.2974168438e+01    0.8607363     0.372089  49.41  0.005087784    1.989    0.497
        49 -11.4143     39.8336    211.7321   9.2954580093e+01   2.7666459400e+01    0.2105295    0.1098283  72.26 0.0008376029    1.629    0.386
        50 -13.8836     48.9179    246.6454   9.3724169433e+01   2.1019942003e+01    0.6877802      0.37489  62.05  0.005242608    1.313    0.239
        51 -10.3651     73.6858    210.2887   8.7213292103e+01   2.3829049696e+01    0.1143213   0.06517639  68.11   0.00044369    1.587    0.370
        52 -11.6466     90.1703    215.1208   8.4840425450e+01   2.0767264979e+01    0.1605035    0.1345766  58.18 0.0006274859    1.204    0.169
        53 -15.2793     21.6938    217.0213   9.6116953872e+01   2.8672713410e+01      1.16298    0.4428013  72.18   0.00670611    2.506    0.601
        54 -14.3763     15.6289    223.0676   9.7332210596e+01   2.8269743362e+01    0.7599147    0.2838029  65.94  0.004727864    2.202    0.546
        55 -11.5169    124.0002    206.2551   7.7900130925e+01   1.7129461785e+01    0.1667921    0.1304064  55.91 0.0002027767    1.051    0.049
        56 -11.3565    108.6788    202.6723   8.0246381456e+01   2.0148130616e+01    0.1049576   0.09388532   8.35 0.0005860479    1.688    0.408
        57 -11.4028     35.8959    196.4789   9.2555474756e+01   3.0786184107e+01    0.2842051    0.1798127  17.25  0.001620211    3.626    0.724
        58 -11.6809     81.5007    193.5266   8.4200569461e+01   2.5750991160e+01    0.1943919    0.1001228 -80.30 0.0009010263    2.216    0.549
        59  -9.8552     50.2761    194.2733   8.9897922345e+01   2.9585393541e+01    0.0891519   0.07964475 -69.85 0.0001836927    1.490    0.329
        60 -12.0246    117.2924    193.9808   7.7579267102e+01   2.0296870371e+01    0.1672671    0.1461641  77.31 0.0005320277    1.091    0.083
        61 -12.2468    122.4908    190.7013   7.6158022540e+01   2.0023130376e+01    0.2243531    0.1891875  61.37 0.0004974218    1.006    0.006
        62 -10.3144     46.6557    191.6821   9.0323190279e+01   3.0478485826e+01    0.1156503   0.08443864  76.18 0.0008454543    1.049    0.046
        63 -10.4429     44.4925    189.5183   9.0529933533e+01   3.1123592505e+01    0.1081318   0.08337574  79.62 0.0008099863    1.043    0.041
        64 -12.7150     17.2239    189.0849   9.5225056237e+01   3.4003219917e+01    0.2614083    0.1730431  72.46   0.00124374    1.137    0.121
        65 -10.1655     59.8855    187.0000   8.7525044397e+01   2.9787143763e+01    0.1695989   0.05709193  39.53 0.0007962305    2.900    0.655
        66 -10.6950     53.4930    184.9871   8.8513116139e+01   3.0937764217e+01    0.1582994   0.09351633 -77.29 0.0004220217    1.517    0.341
        67 -11.3711     87.3328    184.6674   8.2119658312e+01   2.6572392420e+01    0.1278975   0.07736427  72.17 0.0007052219    1.729    0.422
        68 -11.9110     44.5545    181.6606   8.9859243627e+01   3.2596161595e+01    0.3030757    0.1643095  82.78  0.001340751    1.753    0.429
        69 -10.7836     18.9932    184.0357   9.4599949173e+01   3.4768494645e+01    0.1236965   0.08596673  85.38 0.0009492545    1.068    0.064
        70 -12.2713     72.9574    182.1247   8.4581648867e+01   2.9040175100e+01    0.2407515    0.1549531  35.51   0.00145935    1.842    0.457
        71 -11.2913     51.6383    179.9566   8.8393350641e+01   3.2114719433e+01    0.2460409    0.0912672 -69.97 0.0007618227    2.457    0.593
        72 -11.9318      3.0722    174.8135   9.6785422739e+01   3.7889145840e+01    0.4289403    0.1591413  87.45  0.002345799    2.464    0.594
        73 -11.7959     15.0799    173.6099   9.4590481048e+01   3.7090787781e+01    0.2271568     0.136092  56.41   0.00084167    1.483    0.326
        74 -12.6232     11.9324    180.9689   9.5623612188e+01   3.5983950695e+01    0.2496867    0.1552068  52.86 0.0006281335    1.480    0.324
        75 -13.1621     10.4728    177.3281   9.5649499027e+01   3.6793187396e+01    0.3071577    0.2612742  30.66  0.001610014    1.757    0.431
        76 -11.1787    243.5150    180.5010   5.2135486089e+01  -6.2442919945e-01    0.1298583    0.1057399  17.36 0.0008105062    1.001    0.001
        77 -12.5003     37.0206    175.6793   9.0739518074e+01   3.4561017568e+01    0.4343583    0.1937907  54.64  0.001821776    2.027    0.507
        78 -10.6206    101.0044    175.9928   7.8350219585e+01   2.6179608887e+01    0.1449628    0.1236765  72.10 0.0009497133    1.004    0.004
        79 -11.3192     57.9305    174.7869   8.6693034006e+01   3.2368739215e+01    0.1960319   0.09937666  63.55 0.0007246676    1.973    0.493
        80 -11.8346     18.0395    163.5090   9.3315283891e+01   3.8781112077e+01    0.1968555    0.1226808 -82.60 0.0008058791    1.252    0.201
        81 -13.8797     22.7431    158.3801   9.2000206768e+01   3.9371362459e+01    0.3441242    0.2994324 -59.61  0.001548978    1.493    0.330
        82 -14.7349     27.5465    162.2537   9.1394775875e+01   3.8148810981e+01     1.005911    0.2306682  38.40  0.004591513    3.818    0.738
        83 -12.3948     55.8897    169.8757   8.6583245028e+01   3.3581135242e+01    0.2024292    0.1672284  71.28 0.0003353095    1.116    0.104
        84 -11.7777      6.0092    169.5765   9.5949674748e+01   3.8638212183e+01    0.1786796    0.1117582 -88.56 0.0003681298    1.185    0.156
        85 -10.5915     89.2012    168.1314   7.9678168197e+01   2.9494311421e+01     0.169815     0.125638  76.05 0.0004060496    1.282    0.220
        86 -11.5126     29.9259    172.4548   9.1792007987e+01   3.5912104823e+01    0.1614899    0.1150356  87.94 0.0004371162    1.080    0.074
        87 -13.6354     10.9362    162.2690   9.4558211586e+01   3.9638686206e+01    0.4438464    0.2077968  70.86  0.002677444    1.989    0.497
        88 -13.7411     14.2241    146.7049   9.2710062955e+01   4.2463351876e+01    0.3571106    0.1835178  18.37  0.002008196    3.406    0.706
        89 -13.0102      2.4172    149.9997   9.5306470744e+01   4.2729672480e+01    0.2983663    0.1397876 -82.74   0.00109859    1.635    0.388
        90 -12.8136      2.6781    159.7897   9.5925541244e+01   4.0788366599e+01    0.2799186    0.1420956 -80.49  0.001876699    1.492    0.330
        91 -13.1566      3.4714    154.5110   9.5420550021e+01   4.1758993385e+01    0.2484081    0.2096208 -47.75  0.001719866    1.706    0.414
        92 -14.4080      4.9043    138.9358   9.3970796677e+01   4.4765829054e+01    0.5768288    0.3198172 -77.67  0.002916032    1.355    0.262
        93 -10.9886     49.3428    160.2911   8.6878837777e+01   3.6265949812e+01    0.1037222   0.08540869 -46.00 0.0007026308    1.654    0.395
        94 -12.0891     55.7127    158.2636   8.5349364834e+01   3.5940861287e+01    0.2097624    0.1234254 -75.27  0.001240259    1.508    0.337
        95 -12.4650     28.0509    166.0854   9.1621843242e+01   3.7341815624e+01     0.334135    0.1591837  46.22  0.001077848    1.994    0.498
        96 -11.9857     63.2378    155.3744   8.3431505842e+01   3.5618129266e+01    0.2168557    0.1704556  80.39 0.0003727413    1.106    0.096
        97 -11.9210     26.8021    169.8000   9.2161079050e+01   3.6735103584e+01    0.2478204    0.1399201  72.61 0.0007899688    1.558    0.358
        98 -12.0321     41.0827    156.8992   8.8203727861e+01   3.7860838557e+01     0.184099    0.1269721  78.54  0.001232465    1.258    0.205
        99 -13.2235     20.7156    152.1529   9.1869258601e+01   4.0805134992e+01    0.2476486    0.1338418  45.45  0.001143648    1.874    0.466
       100 -12.8533     23.7791    146.3047   9.0716444785e+01   4.1722458269e+01    0.1969739    0.1309768 -78.84 0.0009564147    1.187    0.157
       101 -13.1960     22.7892    138.6660   9.0184279942e+01   4.3387657287e+01     0.350043    0.1051806 -57.94  0.001629672    2.928    0.658
       102 -14.3703     14.7001    136.1570   9.1674250357e+01   4.4584410981e+01    0.4463252    0.2811519 -79.95  0.002670354    1.215    0.177
       103 -10.8789     46.2405    135.3769   8.4624741122e+01   4.1801819508e+01    0.1589838   0.09827327  51.59 0.0009010028    1.669    0.401
       104 -11.9531     16.8146    124.9052   9.0087894913e+01   4.6764666216e+01    0.2424279    0.1116723 -62.55  0.001209566    1.758    0.431
       105  -9.6680     53.4878    117.5238   8.0327996699e+01   4.4861586175e+01    0.1240641     0.103658 -74.35 0.0008100621    1.011    0.011
       106 -12.3429      8.8278    123.8133   9.1781969550e+01   4.7595735647e+01    0.1646528    0.1194322 -69.17 0.0006111428    1.200    0.167
       107 -13.1366     12.2539    151.3982   9.3488030532e+01   4.1679632550e+01    0.2057343    0.1235194  37.88  0.001204042    1.916    0.478
       108 -10.7750    132.2287     92.8195   5.4532160175e+01   3.7494033798e+01    0.1882214    0.1677431   6.10  0.000404407    1.239    0.193
       109 -10.8533     91.6567     75.0703   6.0405443739e+01   4.8772116131e+01    0.1872296     0.155036 -42.16  0.000226493    1.095    0.087
       110 -10.5367    117.9543     61.2757   4.8707316076e+01   4.6525435976e+01    0.1934133    0.1775083  20.28 0.0002002108    1.101    0.092
       111 -10.9579     96.1955     55.8351   5.3039236169e+01   5.1736090617e+01    0.1938914     0.172785 -39.96 0.0003230342    1.120    0.107
       112 -10.2263     94.0568     48.7635   5.1228225015e+01   5.3398987037e+01    0.1515061    0.1167571  41.01  0.000814373    1.404    0.288
       113 -10.6132    160.5059     26.5258   2.6804551351e+01   4.1744616222e+01    0.1483535    0.1402369  33.06 0.0001884988    1.002    0.002
       114 -11.8333     96.1445     22.0643   4.0246801678e+01   5.7205960775e+01    0.2152697    0.1907566  32.10            0    1.181    0.154
       115 -10.8308     87.5354     22.4710   4.3015838623e+01   5.8783932030e+01    0.1363773    0.1150383  -2.23 1.947089e-05    1.033    0.032
       116 -11.8199     35.3532     19.8009   6.0923511859e+01   6.6728904198e+01    0.1686391     0.150463  -2.65 0.0004980507    1.268    0.212
       117 -12.5557     20.1979     17.4178   6.6449936725e+01   6.8538596184e+01    0.2305842    0.1660758 -29.54  0.001394776    1.105    0.095
       118 -11.9435     90.2170    244.0039   8.7367308664e+01   1.6238724310e+01    0.2495361    0.1850936 -80.48  0.001990784    1.464    0.317
       119 -10.5785     71.9863    246.5138   9.0326639373e+01   1.8254650914e+01    0.1522689   0.07701557  46.74  0.001031109    1.596    0.373
       120 -12.1060     77.0423    243.3486   8.9338360488e+01   1.8079055659e+01    0.2577896    0.1658964 -77.90  0.001809719    1.638    0.389
       121 -12.5385     83.1924    238.6375   8.8032292464e+01   1.7981662178e+01    0.3282171    0.1829044  54.75  0.001611526    1.345    0.257
       122 -10.6124     66.7453    240.3845   9.0692301273e+01   1.9833130548e+01    0.1626101   0.09490675  68.78  0.001175749    1.381    0.276
       123 -10.7919     66.6285    237.4451   9.0505277904e+01   2.0298964412e+01     0.145479    0.1058426 -83.82 6.051184e-05    1.385    0.278
       124 -10.3014     62.4609    241.4905   9.1413448569e+01   2.0192956081e+01   0.09685626   0.07499491  66.11 0.0001094726    1.172    0.147
       125 -11.3312     73.2013    237.3630   8.9487486167e+01   1.9480733234e+01    0.1601995    0.1161915  86.39 0.0001844199    1.272    0.214
       126 -13.1586    103.7507    248.8255   8.5674002820e+01   1.3680739164e+01    0.6216029     0.183099  52.80  0.003003319    2.812    0.644
       127 -12.4279     93.8292    222.5385   8.4926723201e+01   1.9037459096e+01    0.2006852    0.1427456  89.63 0.0006355722    1.395    0.283
       128 -12.8647     92.2878    235.3336   8.6325316334e+01   1.7251207201e+01    0.3546342    0.1954033  46.83  0.002347585    1.482    0.325
       129 -13.4954     95.8771    227.8176   8.5077308537e+01   1.7910401646e+01    0.4051982    0.2757001 -36.25  0.002440583    3.008    0.668
       130 -13.0227     90.4519    229.3926   8.6106165084e+01   1.8421939021e+01     0.311531    0.2892847 -35.35  0.002497732    1.781    0.439
       131 -10.7239     63.3336    234.9404   9.0835756598e+01   2.1096864301e+01    0.1595102    0.1152848  60.71 0.0007458387    1.119    0.107
