#   1 NUMBER                 Running object number                                     
#   2 MAG_AUTO               Kron-like elliptical aperture magnitude                    [mag]
#   3 X_IMAGE                Object position along x                                    [pixel]
#   4 Y_IMAGE                Object position along y                                    [pixel]
#   5 X_WORLD                Barycenter position along world x axis                     [deg]
#   6 Y_WORLD                Barycenter position along world y axis                     [deg]
#   7 A_WORLD                Profile RMS along major axis (world units)                 [deg]
#   8 B_WORLD                Profile RMS along minor axis (world units)                 [deg]
#   9 THETA_WORLD            Position angle (CCW/world-x)                               [deg]
#  10 FWHM_WORLD             FWHM assuming a gaussian core                              [deg]
#  11 ELONGATION             A_IMAGE/B_IMAGE                                           
#  12 ELLIPTICITY            1 - B_IMAGE/A_IMAGE                                       
         1 -14.0903     67.6090    144.0360   1.3209525488e+02   3.7401975615e+01     3.124625     1.514144 -85.44  0.004661588    3.571    0.720
         2 -13.1856    205.6516      2.1325   6.3268025675e+01   3.2662131102e+01     1.499335    0.7608658  74.74  0.002331612    1.880    0.468
         3 -14.1932    184.1148     24.9607   7.2432204280e+01   3.5760421921e+01     1.869044     1.314628  -4.86  0.005250088    1.688    0.407
         4 -14.0758    191.5954     17.9905   6.9331492008e+01   3.4622196610e+01     1.792936     1.137817 -30.02  0.006339901    1.605    0.377
         5 -12.8124    197.5919     10.0666   6.6323108445e+01   3.3917392371e+01    0.6584499     0.526543  48.58  0.001176394    1.272    0.214
         6 -10.0276     29.3401      9.3252   1.0874120257e+02   6.9289558346e+01    0.1243363   0.07277155 -12.25 0.0007051261    1.729    0.422
         7 -10.6246     40.7591      4.9783   1.0151013456e+02   6.8527460337e+01    0.1593242   0.08401062 -29.80 0.0008044863    1.631    0.387
         8 -10.7816     33.0144     24.4662   1.1371064040e+02   6.6496234206e+01    0.1978192    0.1320879 -36.13  0.000975402    1.214    0.177
         9 -11.3595    247.9542    249.6830   1.1297438157e+02  -9.0495382785e+00    0.4517174    0.1480063  37.31  0.002291689    2.368    0.578
        10 -12.8029    201.7160    249.0805   1.2049231771e+02  -2.2314845316e+00     1.074406    0.1841794  38.25  0.003430285    5.285    0.811
        11 -12.4678    140.0253    247.7639   1.3087547902e+02   7.4086830205e+00    0.5236608    0.4234927 -74.69  0.003870499    1.580    0.367
        12 -10.6270    110.5183    248.4834   1.3597290449e+02   1.1644079836e+01     0.204605    0.1603164  47.08  0.000735693    1.134    0.118
        13 -12.7546     99.9898    246.7126   1.3757849237e+02   1.3389787814e+01    0.6073098    0.4419799 -49.70  0.001901631    1.900    0.474
        14 -11.6243    105.6940    245.8031   1.3653342135e+02   1.2729705618e+01    0.2983832    0.2113354  69.52 0.0006173761    1.357    0.263
        15 -14.9800     54.6444    225.6263   1.4351162550e+02   2.2720975055e+01     2.573939     1.253998 -51.73   0.00667465    3.052    0.672
        16 -16.0700     59.7615    212.2054   1.4154443819e+02   2.4493758057e+01     7.399091     2.465623  52.73   0.03223842    2.713    0.631
        17 -12.0552     76.0712    192.6666   1.3654551535e+02   2.6095158958e+01    0.3871676    0.2457351 -47.16  0.001849231    2.051    0.513
        18 -11.9286     80.2753    185.9099   1.3491860531e+02   2.6853762949e+01    0.2780038    0.2259544 -59.70 0.0007835942    1.354    0.261
        19  -9.9202     66.0292    193.6539   1.3863351007e+02   2.7215091105e+01    0.2183546    0.1556823 -61.50  0.001418162    1.503    0.335
        20  -8.9327    181.5950    192.2339   1.1527246357e+02   8.8179615187e+00    0.1616978    0.1237084 -21.15 0.0002488435    1.483    0.326
        21  -9.1563    167.0271    190.5442   1.1783791463e+02   1.1737731725e+01    0.2731918     0.177807 -88.90   0.00107244    3.808    0.737
        22 -15.7819     17.4068    242.6064   1.5047138384e+02   2.3903614648e+01     2.469042     1.145158 -68.75    0.0143481    2.245    0.554
        23 -10.1039    221.5109    177.4991   1.0496980305e+02   3.7527863063e+00    0.1359304    0.1139907  12.48 0.0001049515    1.034    0.033
        24 -13.5159     76.0983    171.3617   1.3398780065e+02   3.0391146049e+01    0.7055437    0.3538493 -40.93  0.001609742    3.259    0.693
        25 -13.3545     93.5970    166.2831   1.2943035327e+02   2.8937518537e+01     4.115109     0.669426  45.41  0.001209737    6.009    0.834
        26 -17.6038      2.3069    128.7554   1.4587168127e+02   4.7054918120e+01     16.81454    0.5976143 -73.50    0.0311658   16.193    0.938
        27  -9.4243     29.9053    169.4882   1.4354946952e+02   3.6166232552e+01    0.1476469    0.1048355  42.94 0.0004717505    1.505    0.336
        28 -10.3203    230.8505    167.4154   1.0125157202e+02   3.5044455655e+00    0.2996147    0.1442574 -46.09  0.001244446    2.839    0.648
        29 -10.5493     39.6859    161.7122   1.4074131012e+02   3.6807205245e+01    0.2928406    0.2082805  84.76  0.001912662    1.237    0.191
        30  -9.8807     52.2743    157.4434   1.3749093556e+02   3.6340668435e+01    0.2635637    0.1872042  68.19  0.000841872    1.364    0.267
        31 -10.1288     49.5048    152.2599   1.3748374046e+02   3.7775992462e+01    0.3026367    0.1089383 -69.53  0.001130875    2.591    0.614
        32 -10.7816     22.3011    155.2142   1.4384450439e+02   3.9860563445e+01    0.2348016    0.1727701  73.60 0.0001496705    1.210    0.174
        33  -9.3215     22.5484    150.4981   1.4334369743e+02   4.0841351190e+01     0.165841   0.09061927 -83.82 0.0005550278    1.587    0.370
        34  -9.9448    107.0278    145.2399   1.2278401180e+02   3.1269261516e+01    0.3413483    0.2353497 -19.05  0.001552535    2.383    0.580
        35 -12.3901     93.8576    148.7877   1.2656553244e+02   3.2627500856e+01    0.2635134    0.2563155  25.17 0.0005493007    1.186    0.157
        36 -10.2743    133.9560    144.9761   1.1637462788e+02   2.6494810675e+01    0.8842472    0.1954529 -53.75   0.00188589    8.195    0.878
        37 -11.4308     45.9997    144.7244   1.3735010043e+02   3.9808212873e+01    0.3453121     0.210789  86.27  0.001900505    1.739    0.425
        38 -10.8135    104.8268    149.1664   1.2402868072e+02   3.0792223880e+01    0.3430772    0.3046461  10.52  0.001016786    1.377    0.274
        39 -10.1874    113.9581    135.1942   1.1912632510e+02   3.2237428106e+01    0.3329148    0.2539231 -21.23  0.001150844    1.719    0.418
        40 -12.8231     44.6495    130.0909   1.3569547855e+02   4.3199004528e+01    0.7620085     0.488988  78.17  0.004235101    1.764    0.433
        41  -9.6017    118.9258    128.0261   1.1636814487e+02   3.2880306643e+01    0.2284848    0.1784872  -9.26  0.001120377    1.719    0.418
        42  -9.9006    109.7236    122.8443   1.1754074979e+02   3.5664699782e+01    0.2095382    0.1921546  20.29 0.0003636362    1.196    0.164
        43  -9.4548    135.0000    119.9718   1.1054071611e+02   3.1476277643e+01    0.2482225    0.0836562 -45.26 0.0008028717    2.945    0.660
        44 -11.0867    102.1298    132.1659   1.2144464418e+02   3.4931298109e+01    0.4265793    0.2875316  23.41  0.002048102    1.921    0.479
        45 -10.8918    168.3210    113.0085   1.0104504251e+02   2.5727620819e+01    0.3695489    0.3090636 -82.72 0.0009685197    1.547    0.354
        46 -11.5471     87.9590    174.2576   1.3180964347e+02   2.8121784439e+01    0.2422962    0.2259419 -86.94 0.0003816227    1.119    0.106
        47  -9.8438    160.8221    127.7881   1.0637993373e+02   2.4521250714e+01    0.2091561    0.1853894 -82.45  0.001084331    1.351    0.260
        48  -9.5625    205.1876    110.2176   9.2829877244e+01   1.7883764412e+01    0.3264782     0.194268  38.32  0.001289379    1.776    0.437
        49  -9.1947     59.9871     97.3395   1.2562782137e+02   4.8842018979e+01    0.1697453    0.1608348 -61.70 0.0003868409    1.088    0.081
        50 -10.8598     22.0561     93.1780   1.3615495887e+02   5.3493416997e+01    0.4241089    0.1407226  32.69  0.001956537    3.346    0.701
        51  -8.9221    184.5132     77.4770   8.7954253695e+01   2.8266471611e+01    0.1543272    0.1440309  11.40 -1.49409e-07    1.078    0.072
        52  -9.2131    153.6962     75.6729   9.3893249225e+01   3.6001537405e+01    0.1587296     0.118419  11.57 0.0004470287    1.646    0.393
        53 -10.9326    193.1593    194.9244   1.1353178136e+02   6.3145437830e+00    0.7576907    0.3932022 -60.83  0.002478342    5.848    0.829
        54 -10.8345    164.7349    250.5842   1.2697256392e+02   3.2608913659e+00    0.2478985    0.1322014  53.17 0.0008291308    1.898    0.473
        55  -9.5698    186.1073    238.1861   1.2165669189e+02   1.5000262455e+00    0.1541244    0.1201939  48.98 0.0004045048    1.315    0.239
        56  -9.5716    172.3003    245.6666   1.2505873240e+02   2.7199021256e+00    0.1089868   0.08064006  62.14 0.0007033623    1.653    0.395
        57  -9.7963     41.6888     17.3424   1.0696449158e+02   6.6655621630e+01    0.1071465   0.09450053 -53.69 0.0007045761    1.699    0.411
        58 -11.1045    183.9102    214.7784   1.1858254042e+02   5.0139204945e+00    0.3057823      0.18339 -32.75   0.00168901    1.992    0.498
        59  -9.9526    229.1926    206.2551   1.0899644213e+02  -1.4644273314e+00    0.2192724    0.1884546 -39.33 0.0008186455    1.571    0.363
