#   1 NUMBER                 Running object number                                     
#   2 MAG_AUTO               Kron-like elliptical aperture magnitude                    [mag]
#   3 X_IMAGE                Object position along x                                    [pixel]
#   4 Y_IMAGE                Object position along y                                    [pixel]
#   5 X_WORLD                Barycenter position along world x axis                     [deg]
#   6 Y_WORLD                Barycenter position along world y axis                     [deg]
#   7 A_WORLD                Profile RMS along major axis (world units)                 [deg]
#   8 B_WORLD                Profile RMS along minor axis (world units)                 [deg]
#   9 THETA_WORLD            Position angle (CCW/world-x)                               [deg]
#  10 FWHM_WORLD             FWHM assuming a gaussian core                              [deg]
#  11 ELONGATION             A_IMAGE/B_IMAGE                                           
#  12 ELLIPTICITY            1 - B_IMAGE/A_IMAGE                                       
         1 -13.6631     12.3526     23.4599   8.7518787688e+01   7.4860929893e+01    0.6993837    0.2969565 -42.16  0.003050113    2.335    0.572
         2 -13.5724      6.3387     10.9563   8.6923987477e+01   7.8138770777e+01    0.9595667    0.4303447 -46.66   0.00464553    1.943    0.485
         3 -12.2708     10.6656      1.8842   7.6198331659e+01   7.9574379854e+01    0.6319772    0.2221552  25.29  0.002520972    3.433    0.709
         4 -14.6851    245.0160      9.6911   2.2525856042e+01   2.2717695766e+01     1.615458    0.7394118 -37.43  0.008726743    1.602    0.376
         5 -12.3141      1.6590     24.9065   9.7096202860e+01   7.5253474190e+01    0.5256152    0.1503621 -72.39  0.001967249    3.162    0.684
         6 -12.7528     13.2970     12.5610   8.1056258238e+01   7.7155199996e+01    0.3761995    0.2092887 -41.50  0.001550752    1.683    0.406
         7 -12.8422     24.9950      4.1664   6.4609620273e+01   7.7186577514e+01    0.5035976     0.319287  18.40  0.002560392    1.976    0.494
         8 -12.5560     16.1778      6.1633   7.3977114724e+01   7.8100023676e+01    0.3603152    0.2525447 -38.01  0.002095076    1.321    0.243
         9 -12.2003     84.5017    244.7422   9.6124091189e+01   1.6267949635e+01    0.3303689    0.1541498  50.35  0.001923125    1.854    0.461
        10 -12.8208    234.9354    243.9689   6.9653143060e+01  -1.8246156445e+00    0.3658673    0.1846195   6.16   0.00245133    1.981    0.495
        11 -13.3049    242.4041    237.0919   6.7664246382e+01  -2.0131670882e+00    0.7581158    0.3011924 -10.62  0.003659546    4.223    0.763
        12 -12.6539    243.2009    245.5327   6.8672874943e+01  -2.8128421537e+00    0.4913662    0.2267355  -8.61  0.003158834    2.419    0.587
        13 -12.3170    247.3794    239.0863   6.7230478278e+01  -2.6995188309e+00    0.3610229    0.1853185  -4.88  0.002036462    1.864    0.464
        14 -11.4087    248.8354    250.1085   6.8477426805e+01  -3.7494239654e+00    0.3605187    0.1298619  29.07  0.002332187    2.167    0.539
        15 -11.3210    248.8738    244.8962   6.7794183637e+01  -3.3325232288e+00    0.2433643    0.1492458   6.75  0.001948206    1.178    0.151
        16 -11.6420    249.9885    232.7136   6.5998437403e+01  -2.4271439645e+00    0.2463907    0.1366887 -13.41  0.001530237    1.575    0.365
        17 -10.9111     87.5163    250.4989   9.5955012700e+01   1.5061895654e+01    0.3090605   0.08853919  30.27  0.001357852    2.983    0.665
        18 -11.2560     74.6069    250.2869   9.8442985558e+01   1.6612123482e+01     0.327107   0.08638348  36.99  0.001582682    2.360    0.576
        19 -11.8167     65.2215    249.0499   1.0019742333e+02   1.7874920091e+01    0.3894784    0.1529464  42.10  0.002252601    1.700    0.412
        20 -11.4871     50.2123    250.1491   1.0318575113e+02   1.9368251628e+01    0.4288172    0.1028802  33.24    0.0019986    2.721    0.633
        21 -11.4731     44.8457    245.0901   1.0400051045e+02   2.0738296726e+01    0.3469989    0.1431329  55.71  0.001689326    2.006    0.501
        22 -11.9329     36.7906    248.6628   1.0573329349e+02   2.1014884963e+01    0.4297015    0.1541001  46.92  0.002500165    1.818    0.450
        23 -11.8319     20.2177    249.0899   1.0895124743e+02   2.2590486768e+01    0.3746973    0.1357671  43.25  0.002040084    1.674    0.403
        24 -11.8623     12.0450    248.9980   1.1051085991e+02   2.3370434312e+01    0.3920738    0.1298564  41.63  0.001782134    1.763    0.433
        25 -11.2651      3.5414    250.3084   1.1214269693e+02   2.3924951933e+01    0.3177647    0.1507992  22.55     0.001896    2.248    0.555
        26 -12.3562      3.3316    243.2294   1.1206469929e+02   2.5088180433e+01    0.4491304    0.1896857  59.71  0.002361089    1.733    0.423
        27 -11.4072    116.5108    244.4948   8.9873985171e+01   1.2341693357e+01    0.2460373    0.1260142  54.58  0.001380635    2.367    0.578
        28 -12.0914     57.3823    242.3794   1.0136667737e+02   1.9797076734e+01    0.4460808    0.1700476  48.53  0.002446867    1.940    0.485
        29 -10.1151     49.5176    243.4656   1.0299513510e+02   2.0493908489e+01    0.1130728   0.07637533  46.27    0.0001267    1.039    0.037
        30 -11.9069     29.6189    240.7943   1.0684755895e+02   2.3014609962e+01    0.4117667     0.172379  54.68  0.002176442    1.792    0.442
        31 -12.3702     16.1433    240.4408   1.0950861671e+02   2.4384717607e+01    0.6032536    0.1670262  42.22  0.002881079    2.028    0.507
        32 -11.7211      6.6905    236.3066   1.1128012954e+02   2.5945914384e+01    0.3601269    0.1560225  57.28  0.001671539    1.654    0.395
        33 -11.8756      4.8123    228.2997   1.1149537523e+02   2.7493557231e+01    0.4426759    0.1600359  59.91   0.00202689    2.045    0.511
        34 -11.6829      2.2884    220.8057   1.1186863542e+02   2.9049927392e+01    0.3589574    0.1577886  70.41  0.001627634    1.930    0.482
        35 -12.2004    225.9160    241.0562   7.0601412706e+01  -5.9775440883e-01    0.2188656    0.1159294 -11.74  0.001505919    1.945    0.486
        36 -11.8560     72.7227    240.2180   9.8152039367e+01   1.8368087280e+01    0.3663452    0.1615984  47.78  0.001996104    1.752    0.429
        37 -11.4674    107.6506    240.1314   9.1191069692e+01   1.4077551546e+01    0.3237921    0.1195664  45.56  0.001627728    2.300    0.565
        38 -10.8889     64.6914    240.2294   9.9771071549e+01   1.9306034088e+01    0.2506481    0.1226065  52.39  0.001454847    1.690    0.408
        39 -10.9182     38.2597    240.4889   1.0510789030e+02   2.2178568816e+01    0.2628001    0.1206651  49.88  0.001253039    1.552    0.356
        40 -11.2296     45.1703    237.3042   1.0356589811e+02   2.1968244840e+01    0.2941824    0.1274577  47.26  0.001704765    1.619    0.382
        41 -11.5012     82.0457    236.4885   9.5999971649e+01   1.7829142625e+01    0.3106743    0.1276454  48.94  0.001653455    2.048    0.512
        42 -11.2476     96.0521    235.8885   9.3121042590e+01   1.6176580286e+01    0.3046241     0.107113  41.43  0.001533787    2.051    0.512
        43  -9.7603      1.2267    235.0083   1.1233733559e+02   2.6646909978e+01    0.1222678   0.07314268  81.06 0.0008694007    1.629    0.386
        44 -11.4967     14.2143    232.0313   1.0967034134e+02   2.5990192227e+01    0.3744674    0.1548752  51.86  0.002042941    1.649    0.394
        45 -11.2571     11.1461    225.7630   1.1013576053e+02   2.7371843121e+01    0.3430258    0.1448191  52.04  0.001514271    1.623    0.384
        46 -11.4533     59.6159    232.2953   1.0031854367e+02   2.1183858078e+01    0.3698814    0.1133557  45.59  0.001802568    2.274    0.560
        47 -11.2632     39.9480    231.1170   1.0434254686e+02   2.3571774336e+01    0.3309318    0.1513037  59.53  0.001894586    1.899    0.473
        48 -10.9734     48.7417    230.7863   1.0249456031e+02   2.2670649349e+01    0.2856404    0.1479631  64.16   0.00171835    1.853    0.460
        49 -12.1015     25.7620    228.7037   1.0719136508e+02   2.5454441709e+01    0.4698561    0.2225146  67.43  0.002825397    1.920    0.479
        50 -11.7590    231.7642    234.1146   6.8803872776e+01  -6.0415639940e-01    0.1915012    0.1093674  -3.90  0.001368879    1.636    0.389
        51 -10.5588     32.3630    229.3525   1.0584267517e+02   2.4672146475e+01    0.2416566   0.09135893  53.34  0.001249772    1.987    0.497
        52 -11.9951    236.9123    228.0672   6.7214300329e+01  -6.1516357266e-01    0.2291086    0.1163999 -12.60  0.001514925    1.981    0.495
        53 -10.6839     73.3501    227.6665   9.7132997655e+01   2.0320368401e+01    0.1934083     0.100531  54.12  0.001115517    1.721    0.419
        54 -12.2194    248.8493    225.1065   6.5092132703e+01  -1.6438325692e+00    0.2848661    0.1440072 -16.49  0.001986697    1.811    0.448
        55 -11.2867     18.5802    221.7800   1.0846033014e+02   2.7388129947e+01    0.3192397    0.1445993  59.05  0.001701371    1.723    0.420
        56 -11.8523     12.0707    217.0073   1.0970541929e+02   2.8871856686e+01    0.4463104    0.1966866  52.81  0.002510151    1.601    0.375
        57 -10.5819     54.8831    222.1052   1.0068513891e+02   2.3477246321e+01    0.1962417    0.1181472  52.22  0.001241917    1.309    0.236
        58 -10.9685     43.7393    221.3372   1.0304602526e+02   2.4872924911e+01    0.2691985    0.1250836  52.95  0.001531269    1.691    0.409
        59 -10.0094     63.6735    221.3381   9.8736886137e+01   2.2574588403e+01    0.1278692   0.06476424  54.70  0.000378497    1.727    0.421
        60 -10.4541     32.8722    236.1120   1.0601418160e+02   2.3464110884e+01    0.2570242   0.08318319  53.75  0.001327369    2.326    0.570
        61 -11.0517     34.9688    217.2778   1.0474557085e+02   2.6555671201e+01    0.3107308    0.1609414  77.32  0.001816466    1.990    0.498
        62 -10.5781     24.3597    217.3643   1.0706205215e+02   2.7628841504e+01    0.2477601   0.09381851  55.18  0.001311586    2.012    0.503
        63 -12.0304    248.5866    214.5374   6.3595553338e+01  -6.5567893944e-01    0.2775711    0.1463503 -13.24  0.001898075    1.735    0.423
        64 -10.5916      1.4651    206.4426   1.1175858279e+02   3.1800178942e+01    0.2135711   0.09554057  89.29  0.001213217    2.185    0.542
        65 -10.7062     21.8694    211.2083   1.0737136095e+02   2.9024097039e+01    0.2749231    0.1469872 -88.72  0.001663956    1.942    0.485
        66 -10.9463     28.6655    211.1772   1.0585594728e+02   2.8348292501e+01    0.2861812    0.1204729  67.68  0.001477139    2.289    0.563
        67 -10.3718     36.0278    207.9699   1.0404100351e+02   2.8185642935e+01     0.211984   0.09579259  55.10  0.001139857    1.784    0.440
        68 -12.0625     12.7752    205.5171   1.0920742896e+02   3.0979708969e+01     0.512805    0.1828953  50.65  0.002695313    1.935    0.483
        69 -10.5715     25.8563    203.6989   1.0615828042e+02   3.0071292328e+01    0.2431326    0.1000063  62.42  0.001234568    2.141    0.533
        70 -11.5509      2.5064    212.5828   1.1165827853e+02   3.0546213694e+01    0.3355241    0.1612942  68.36  0.001745462    1.709    0.415
        71 -12.1493      3.5852    197.0636   1.1106673251e+02   3.3457398008e+01    0.4033733    0.1648987  58.01  0.002205829    1.820    0.450
        72 -10.9306      9.3999    198.1878   1.0975222699e+02   3.2726582629e+01    0.2446182   0.09701573  70.74 0.0009570168    2.250    0.556
        73  -9.7934     24.3108    197.6677   1.0624598777e+02   3.1420129786e+01    0.1321827   0.06190588  55.53 0.0007043169    1.674    0.403
        74 -11.1879     17.0813    189.6925   1.0763011913e+02   3.3747308972e+01    0.2760644    0.1255589  69.80  0.001441505    1.981    0.495
        75 -10.4551     11.5128    190.9670   1.0902127910e+02   3.3998255188e+01    0.1697367    0.1003834  84.47  0.001027814    1.585    0.369
        76 -11.9563      4.1940    188.7315   1.1070808228e+02   3.5096739326e+01    0.4982986    0.1448745  54.10  0.002323965    2.398    0.583
        77 -10.1811     24.5887    186.8087   1.0565931673e+02   3.3617853898e+01    0.1742409   0.09314398  75.15 0.0009498948    1.751    0.429
        78 -11.5599     11.5127    183.8770   1.0876954706e+02   3.5474215222e+01    0.2782954    0.1467021  84.75  0.001571393    1.773    0.436
        79 -10.6474      5.3433    182.9396   1.1026349111e+02   3.6207799127e+01    0.1988453    0.1084414  65.27 0.0009459808    1.470    0.320
        80 -10.1591     17.1372    181.1705   1.0725429976e+02   3.5533913806e+01      0.18227    0.1077153  58.33 0.0008964451    1.336    0.252
        81 -11.6006      1.7911    177.7711   1.1100093964e+02   3.7599145083e+01    0.3054316    0.1452327  84.47  0.001655022    1.908    0.476
        82  -9.9564     11.4896    172.5079   1.0833628968e+02   3.7925779218e+01    0.1279709   0.09321474  58.49 0.0008098108    1.061    0.057
        83 -11.7298      6.6629    171.7634   1.0956801549e+02   3.8503106254e+01    0.2750005    0.1249168  86.85  0.001405901    2.043    0.510
        84 -10.5810     11.0012    166.9553   1.0823526676e+02   3.9200795698e+01    0.2251654    0.1016954  56.08  0.001141602    1.766    0.434
        85 -10.9713      2.3344    165.5794   1.1050572970e+02   4.0223229913e+01    0.3573634   0.07425018  45.27  0.001462612    2.852    0.649
        86  -9.7609     19.6766    164.3339   1.0575270736e+02   3.9006950853e+01    0.1424723   0.06937569  57.14 0.0005824263    1.708    0.415
        87 -10.4610     12.3150    161.6548   1.0764263957e+02   4.0285159834e+01    0.1416305   0.06739823  57.36 0.0007047735    1.715    0.417
        88 -10.8669      5.7648    161.1789   1.0942626040e+02   4.0942101584e+01    0.2355908   0.06542224  55.79 0.0009512913    2.801    0.643
        89 -11.4175     10.3400    155.4940   1.0790987882e+02   4.1872136083e+01    0.2188077    0.1042941 -85.56  0.001086895    1.954    0.488
        90 -11.5795      4.2358    153.3791   1.0955940975e+02   4.2854862891e+01    0.2282789    0.1314106 -75.80  0.001262485    1.713    0.416
        91 -10.4567      2.3737    143.2100   1.0971028282e+02   4.5387275712e+01    0.1850654    0.0956502  77.88 0.0009480732    1.675    0.403
        92 -11.4907      4.2646    136.6606   1.0885099537e+02   4.6825511342e+01    0.2500019    0.1284389  78.04  0.001261252    1.707    0.414
        93 -10.7125      2.6124    126.8155   1.0892041659e+02   4.9354697842e+01    0.1952077   0.09779827  78.17 0.0009509598    1.758    0.431
        94 -11.3345    248.5780    118.7473   4.6698234624e+01   9.7157647608e+00    0.2344596   0.09816352 -26.18  0.001145114    2.088    0.521
        95 -10.6825    248.4820    106.9850   4.4272596120e+01   1.1143256148e+01    0.1724556   0.07759288 -45.26 0.0008098389    2.500    0.600
        96 -10.9328    249.3947     98.2090   4.2309452703e+01   1.2049136453e+01    0.1796009   0.08845556 -36.64 0.0009510781    1.698    0.411
        97 -10.5016      2.0000     94.0170   1.0720381814e+02   5.7714321621e+01    0.2219633   0.06567346 -82.02 0.0008027087    2.944    0.660
        98 -10.6180    242.5263     93.4759   4.2046146625e+01   1.3788852259e+01    0.1232517    0.1016654 -26.91 0.0008095596    1.015    0.015
        99 -11.0488    249.4008     88.1517   4.0137704546e+01   1.3252892021e+01    0.1817103   0.08743481 -37.36 0.0009460791    1.713    0.416
       100 -10.2172      6.0000     85.9694   1.0480561586e+02   5.9571895615e+01    0.2273373   0.06707706 -79.81 0.0008068875    2.973    0.664
       101 -10.5138    243.2946     82.6654   3.9563150923e+01   1.4978048008e+01    0.1263251   0.07998653 -49.86 0.0004019805    1.643    0.391
       102 -11.7652    248.5925     74.5196   3.7209794057e+01   1.5013428920e+01    0.3188493   0.07731158 -33.66  0.001246077    2.908    0.656
       103 -12.2326      3.0600     49.6427   1.0169005403e+02   6.9101552912e+01    0.4872154    0.1925902 -69.17  0.002141115    2.076    0.518
       104 -11.2467      8.4362     44.2464   9.7147482679e+01   7.0161587535e+01    0.2636051    0.1061211 -66.91  0.001138782    2.075    0.518
       105 -12.3567      2.6326     40.2584   1.0020090472e+02   7.1474202720e+01    0.4130362    0.1957376 -71.69  0.001972095    1.810    0.447
       106 -11.9898    225.9331    248.2725   7.1531544012e+01  -1.2472338836e+00    0.2354582    0.1277992  16.59  0.001728935    1.442    0.307
       107 -10.2574    203.3408    249.3079   7.5129110712e+01   1.1444941938e+00    0.1052443   0.05879071  10.49 0.0004680777    1.687    0.407
       108 -10.7640     27.2207    248.6159   1.0758799927e+02   2.1986216104e+01    0.2552312    0.1037387  45.22  0.001104695    1.566    0.362
       109 -12.1915    213.0636    247.5656   7.3392691813e+01   2.1878205594e-01    0.3309267    0.1600655  14.27  0.002072478    2.075    0.518
       110 -10.6027    127.3464    247.6619   8.8124471141e+01   1.0553726607e+01    0.1113002   0.06687091  51.10 0.0001930564    1.780    0.438
       111 -12.0331     97.7705    245.3126   9.3566564431e+01   1.4566436727e+01    0.3837797    0.1451139  47.30  0.001992414    2.284    0.562
       112 -11.0281     77.3684    246.6900   9.7665801304e+01   1.6826175289e+01    0.1778675   0.09150584  52.74  0.001097519    1.703    0.413
