#   1 NUMBER                 Running object number                                     
#   2 MAG_AUTO               Kron-like elliptical aperture magnitude                    [mag]
#   3 X_IMAGE                Object position along x                                    [pixel]
#   4 Y_IMAGE                Object position along y                                    [pixel]
#   5 X_WORLD                Barycenter position along world x axis                     [deg]
#   6 Y_WORLD                Barycenter position along world y axis                     [deg]
#   7 A_WORLD                Profile RMS along major axis (world units)                 [deg]
#   8 B_WORLD                Profile RMS along minor axis (world units)                 [deg]
#   9 THETA_WORLD            Position angle (CCW/world-x)                               [deg]
#  10 FWHM_WORLD             FWHM assuming a gaussian core                              [deg]
#  11 ELONGATION             A_IMAGE/B_IMAGE                                           
#  12 ELLIPTICITY            1 - B_IMAGE/A_IMAGE                                       
         1 -14.8910    101.0040     49.9082   2.3832598951e+01   5.2841080777e+01     1.663373     1.090922  31.60  0.005857086    1.865    0.464
         2 -14.9218     64.4405     53.3169   3.8692260171e+01   6.0361597237e+01     3.277117     1.667035 -23.13  0.009765145    4.431    0.774
         3 -14.9747      6.6033     71.3996   7.3757598569e+01   6.3069455087e+01      1.17877    0.8480001 -70.02  0.004764078    1.239    0.193
         4 -14.3106     41.4866      5.2133   2.4556117532e+01   7.3041019532e+01         1.11    0.6987948   9.75  0.005476073    1.999    0.500
         5 -12.9564      7.9110      2.4754   4.8685657489e+01   7.8739882701e+01    0.5378983    0.4931957 -16.02  0.002628627    1.193    0.162
         6 -15.9875     11.9513     22.3547   5.6634857095e+01   7.4479069586e+01     2.159278     1.127532 -33.54   0.01058737    1.891    0.471
         7 -14.2237     26.4985     13.1445   3.9816017192e+01   7.4509813865e+01    0.8385262    0.5418604   8.24  0.003801448    1.812    0.448
         8 -15.1235    218.0385     17.0269   3.5560176090e+02   2.8149562087e+01     1.939995    0.9246309 -30.03  0.009925075    1.914    0.477
         9 -12.2299    232.5703      2.1676   3.5142642364e+02   2.6648075302e+01    0.4126092    0.2361133  60.38  0.002209477    2.156    0.536
        10 -14.7569    212.4271     40.8039   1.7890407755e+00   2.6629248083e+01      2.10473    0.6922041  77.20  0.007540674    4.156    0.759
        11 -14.3268    190.4279     24.3934   3.5959637127e+02   3.3543514925e+01     1.995901    0.7367894 -40.08  0.008497825    2.240    0.554
        12 -14.3732    166.8047     29.7076   3.6283968958e+00   3.8709294857e+01     1.032107    0.8021463  79.90  0.003702184    1.228    0.186
        13 -14.8507    147.6343     29.6769   6.2277423554e+00   4.3660390649e+01     2.006567    0.8887011  59.38  0.008179778    2.093    0.522
        14 -14.4083    122.3020     36.7803   1.3323096758e+01   4.9424335576e+01     1.171134     0.578505  42.58  0.003094762    2.364    0.577
        15 -13.8143     57.7929     26.7961   2.9449487455e+01   6.6625910104e+01     1.224023    0.4308892  41.72  0.003134219    2.815    0.645
        16 -13.6641    242.9110     34.9625   3.5801885716e+02   2.1182899899e+01    0.6726418    0.5354173 -85.24  0.003085763    1.330    0.248
        17 -12.9117    120.6592     26.1022   9.5881819295e+00   5.1262541633e+01    0.6998209    0.5061058  44.96   0.00347772    1.442    0.307
        18 -15.5729     99.6540     11.9385   8.0160423065e+00   5.8432212261e+01     1.717788    0.9652644  59.79  0.003155776    1.556    0.357
        19 -12.1580     71.0947     16.2031   1.8203492112e+01   6.5170344046e+01    0.4239249    0.2894115 -17.37  0.001548166    1.652    0.395
        20 -12.7270     74.4251     10.2853   1.3855043624e+01   6.5051483532e+01    0.4158006    0.2757363 -14.70  0.002086588    1.722    0.419
        21 -12.8255     60.1888     15.8827   2.2296576425e+01   6.7719594555e+01    0.5664589    0.3738059  33.03  0.002840425    1.532    0.347
        22 -12.4385     46.7570     12.8854   2.6857971222e+01   7.0970662406e+01    0.3776127    0.2785875  61.15  0.001435238    1.621    0.383
        23 -11.5595    152.5140      8.5358   3.5862601035e+02   4.4677890878e+01     0.298637    0.2224008  50.66  0.001624454    1.475    0.322
        24 -13.1516     85.3855     13.6986   1.2377650490e+01   6.1944193290e+01    0.4805312    0.4083646 -31.01  0.002023417    1.285    0.222
        25 -12.2589    119.9283      2.9502   5.8948333784e-01   5.3840962602e+01    0.5056961    0.2411798 -79.24  0.001961584    2.625    0.619
        26 -11.5417     67.7627      2.8093   1.1745674708e+01   6.7426801704e+01    0.3111101    0.2081378  36.72  0.001621758    1.451    0.311
        27 -12.7413     80.2617      1.7683   7.5755337724e+00   6.4408524214e+01    0.7530003    0.1251913  62.67  0.002226043    4.023    0.751
        28 -12.0513     61.3697      1.6033   1.3186012457e+01   6.9069351696e+01    0.4762853    0.1583971  62.93  0.001743674    2.887    0.654
        29 -11.1513     81.0574    192.5597   6.3701898816e+01   2.4174975997e+01    0.2206082    0.1173724  32.90  0.001034865    1.620    0.383
        30 -14.8713     95.3252    234.7410   6.4788275569e+01   1.4128394435e+01     1.477672    0.7675977  56.02  0.007453268    2.316    0.568
        31 -12.3638    109.3652    242.8605   6.2546404924e+01   1.0983061602e+01    0.3052699     0.201546  46.32  0.001319019    1.430    0.301
        32 -13.0847     57.2745    246.9239   7.4044927673e+01   1.6616060010e+01    0.5458422    0.2682364  29.65  0.003078643    1.630    0.387
        33 -11.8892     41.0569    248.0476   7.7538996656e+01   1.8183695251e+01    0.4278263    0.1961202 -88.77  0.002341989    2.725    0.633
        34 -13.5082     28.0833    246.6529   8.0187525619e+01   1.9753587659e+01    0.4957709    0.3909442  47.26  0.002974755    1.096    0.088
        35 -12.1831      2.7879    249.5436   8.5414685558e+01   2.1593593278e+01    0.3450578     0.185717  41.83  0.001777963    1.282    0.220
        36 -14.1239      9.3587    245.5158   8.4000806723e+01   2.1724248718e+01     0.945137    0.3195891  45.31  0.003995085    1.885    0.469
        37 -12.1340    201.0740    191.2266   3.6529568839e+01   6.2679639530e+00    0.3072491    0.2097769   2.87  0.001220609    1.409    0.290
        38 -12.7148     48.5556    181.3661   7.1192017158e+01   3.0890479916e+01    0.5110034    0.3212075 -50.77  0.002608381    1.899    0.473
        39 -12.5437    109.4758    183.4956   5.5192141936e+01   2.1861167274e+01    0.4737907    0.2100213  17.47  0.001388892    4.762    0.790
        40 -13.8372     85.1277    179.9424   6.1046396903e+01   2.6347024534e+01     1.099301    0.2960174  44.66  0.003464279    3.590    0.721
        41 -12.5211     84.8264    172.5130   6.0105831795e+01   2.8066679926e+01    0.5788307    0.2495678 -54.80  0.002346837    2.470    0.595
        42 -12.1842     89.7209    169.5973   5.8328577832e+01   2.7985658867e+01    0.3604245    0.2324906  25.44  0.001704905    1.573    0.364
        43 -13.5767    197.2067    179.1040   3.5084601597e+01   8.6199094044e+00    0.6191498    0.4586366 -71.87  0.003056285    3.108    0.678
        44 -11.4490    122.2949    181.1115   5.1618572228e+01   2.0295809032e+01    0.4036325    0.2455976  73.39  0.001505047    3.606    0.723
        45 -12.1659    131.1170    172.9017   4.8074765138e+01   2.0479899975e+01    0.2844594    0.2018469 -54.84   0.00145105    1.620    0.383
        46 -13.1890    124.8333    167.9923   4.8763358598e+01   2.2554075495e+01    0.7430441    0.3112294 -51.95  0.002890774    2.629    0.620
        47 -11.1829    101.9993    160.5394   5.3476205779e+01   2.8067713820e+01    0.2373356    0.1358289  35.02  0.001037059    1.612    0.380
        48 -14.1423     22.3420    181.0229   7.8315001043e+01   3.3749443444e+01    0.8581167    0.5074083 -53.27  0.004101219    2.043    0.510
        49 -12.8130     85.5205    152.8886   5.6884316487e+01   3.2564126389e+01    0.7303839    0.5643179  -8.63  0.003541567    1.710    0.415
        50 -13.9344     74.0052    153.3002   6.0397961873e+01   3.4245674405e+01    0.7901675     0.576561  31.52  0.001852026    1.324    0.245
        51 -12.8773    122.5435    154.5937   4.6865456789e+01   2.5797563264e+01    0.6142128    0.3649027 -37.42  0.002678312    1.944    0.486
        52 -12.8868    111.8459    155.7009   4.9918027395e+01   2.7464307188e+01    0.5541229    0.3542612  70.12  0.002248653    2.457    0.593
        53 -12.8124     55.4134    155.6238   6.6404888591e+01   3.6255433068e+01    0.5268262    0.3464262 -18.78   0.00232295    2.351    0.575
        54 -12.3636     14.0098    152.4858   7.8911360692e+01   4.1385635530e+01    0.2839551    0.1911921  48.04  0.001564347    1.330    0.248
        55 -12.8131      8.3264    148.4657   8.0413942443e+01   4.2831254525e+01    0.6053813    0.4299386  65.16  0.003463867    1.243    0.196
        56 -12.0451    103.6239    149.6401   5.1059754516e+01   3.0287458861e+01    0.3934229    0.3061057 -21.04  0.001538862    1.603    0.376
        57 -12.9644    208.5195    153.9544   2.8266624772e+01   1.0705706620e+01    0.6091299    0.4277356  30.22  0.003562296    1.450    0.310
        58 -12.5165     77.3233    156.9263   5.9959766158e+01   3.2864410933e+01    0.5135318    0.3632351  27.20  0.001398151    1.419    0.295
        59 -11.0202     38.2136    145.7819   7.0659649408e+01   4.0805095530e+01    0.1880792    0.1624994 -38.72 0.0005417819    1.355    0.262
        60 -12.4713     42.4774    138.5152   6.8380325565e+01   4.2208210879e+01     0.497472     0.301002  20.07  0.002290224    1.817    0.450
        61 -12.3192     46.1023    132.7853   6.6369465580e+01   4.3278403881e+01    0.4449188    0.3922913  23.25  0.002469804    1.213    0.176
        62 -12.9698    246.5543    132.8579   1.8328194908e+01   7.8889218464e+00    0.4415088    0.3327409 -34.40  0.002763775    1.199    0.166
        63 -14.7153    232.5480    127.4056   1.9122863487e+01   1.0786735502e+01     1.242633    0.6392494 -41.39  0.006457779    1.799    0.444
        64 -10.5271     10.8659    133.8982   7.8627183600e+01   4.6368525800e+01    0.1857609    0.1347833  57.10 0.0003804431    1.274    0.215
        65 -12.5669    136.8451    131.7793   3.8367322151e+01   2.7946474032e+01    0.7179473    0.3164456  37.64  0.002633822    2.334    0.571
        66 -11.0767      5.5103    128.6336   8.0084645386e+01   4.8095589988e+01    0.2874562     0.144017 -49.04  0.001307169    2.205    0.546
        67 -14.6266    105.3302    122.5852   4.4878605005e+01   3.6311597370e+01     1.928393     1.151291  33.72  0.008018625    1.726    0.421
        68 -14.9851    106.1270    105.4278   4.0357377385e+01   4.0152590635e+01     1.521081      1.47879  56.12  0.008063894    1.005    0.005
        69 -12.5681    181.0080    120.3188   2.5965135604e+01   2.1195660825e+01    0.3018881     0.242518  53.29  0.001249033    1.371    0.271
        70 -12.8676      4.9507    118.7735   7.9584052148e+01   5.0701907745e+01    0.7274157    0.4309875 -24.37  0.003519103    2.181    0.541
        71 -11.8190     42.8412     90.0922   5.9977486968e+01   5.4966955200e+01    0.3931089    0.2594751 -65.38 0.0008442108    1.472    0.321
        72 -13.1210     21.2524     86.0681   6.8958640173e+01   5.8257504704e+01    0.8202248    0.5736766   9.22  0.003000458    1.604    0.377
        73 -14.5020     18.3909    110.8667   7.3721843649e+01   5.1879895428e+01    0.9582086    0.7369833 -58.24  0.003582069    1.269    0.212
        74 -14.2808     10.9905    102.9582   7.5805596652e+01   5.4511582680e+01    0.8405637    0.7460615  67.25  0.004586917    1.107    0.097
        75 -13.8159      2.4150     97.0558   7.8789630919e+01   5.6555296670e+01      0.92275     0.412914 -78.65  0.003359636    1.972    0.493
        76 -12.5720     36.8440     92.8145   6.3185591318e+01   5.4961987995e+01     0.517108    0.3859657  -7.28  0.001578756    1.616    0.381
        77 -14.4134     23.7061     95.3179   6.9389104166e+01   5.5597560735e+01     1.482943    0.6644337  15.05  0.005959362    2.572    0.611
        78 -12.7029     29.9022     89.6695   6.5648936024e+01   5.6524965254e+01    0.4787074     0.341796  77.14  0.002015753    1.576    0.365
        79 -12.0636     78.6360    110.2069   5.0616491446e+01   4.4326820577e+01    0.3947183     0.241215 -66.01  0.001429897    1.822    0.451
        80 -13.1994     85.0551    115.0643   4.9552936057e+01   4.1967001621e+01     1.072459    0.5882481  20.86  0.003686192    2.607    0.616
        81 -11.9408     88.5060    109.5542   4.7073663185e+01   4.2687732144e+01    0.5323685    0.3345434 -69.80  0.001897699    1.984    0.496
        82 -11.8794    186.4182    116.1653   2.3987556980e+01   2.0837565721e+01    0.2216742    0.1710907  54.48 0.0007811156    1.443    0.307
        83 -12.8308    121.3810    111.9379   3.7625250904e+01   3.5452671715e+01    0.3944992    0.3110372  72.93  0.001290436    1.536    0.349
        84 -11.5936     45.9447    110.1615   6.2771457152e+01   4.9283844599e+01    0.6036279    0.2772444 -37.94  0.002090953    3.096    0.677
        85 -10.5125     42.7062    107.3118   6.3525176405e+01   5.0436888962e+01    0.2444809    0.1234518  37.06 0.0003170889    1.926    0.481
        86 -11.9489    176.9527    110.6046   2.4413373215e+01   2.3736425663e+01    0.3732698    0.2483446 -21.59  0.001741485    1.727    0.421
        87 -11.8930     62.7437    110.4422   5.6420168260e+01   4.6879745290e+01    0.8621719    0.3481809 -67.48  0.002867391    2.935    0.659
        88 -11.0839     64.5331    101.5331   5.3734475055e+01   4.8901535794e+01    0.3248638    0.2709156  33.86  0.001079106    1.209    0.173
        89 -12.1168     62.3393     98.6795   5.3901847146e+01   4.9980952467e+01    0.6102769     0.313766  50.24  0.002170691    2.218    0.549
        90 -13.1223    223.4436    128.1214   2.0581119270e+01   1.2164548588e+01      0.69819    0.4155651 -52.22  0.003526965    2.157    0.536
        91 -13.0213    134.9935    102.6792   3.1572407102e+01   3.4441520500e+01    0.9460403    0.3643314  49.04  0.002774684    2.619    0.618
        92 -13.4803    120.6177    102.2852   3.5274286278e+01   3.7733635984e+01    0.6954103    0.3548315  44.95    0.0026739    1.929    0.482
        93 -12.0621     49.1184     93.1196   5.7969039355e+01   5.3359568325e+01    0.7991754    0.5146049 -48.20  0.002919999    1.551    0.355
        94 -10.9008     48.5161    100.9987   5.9954092733e+01   5.1377877629e+01    0.2918244    0.2543475  -1.34  0.001038652    1.296    0.228
        95 -12.4244     52.2585     98.0349   5.7786594640e+01   5.1646363532e+01    0.8115656    0.4017846  12.27  0.002749879    3.271    0.694
        96 -13.4855    248.3367     95.2021   1.0451369559e+01   1.2676285491e+01    0.8570229    0.2798098 -43.59  0.003659524    2.756    0.637
        97 -12.6431    163.7174     97.5695   2.3700109749e+01   2.8945078679e+01    0.3891024    0.3157499  44.11  0.000859773    1.279    0.218
        98 -13.2762    137.3928     95.2566   2.8928999097e+01   3.5402485376e+01    0.5063888    0.4259223  80.02  0.001292668    1.356    0.263
        99 -13.4665     32.4776    112.0925   6.8353839487e+01   5.0290723430e+01    0.7204363    0.3842604 -56.33  0.003190127    1.788    0.441
       100 -13.0847     28.4731    121.9892   7.1223599691e+01   4.8042492226e+01    0.5402005    0.3589566 -58.30  0.002616691    1.477    0.323
       101 -11.0101     59.0114    125.0078   6.0614472171e+01   4.3627339776e+01    0.1843157    0.1660148 -77.49 0.0004802902    1.097    0.089
       102 -14.0018    214.3183     77.1978   1.0406723728e+01   2.1358806252e+01    0.9816584    0.8213017 -76.91  0.006023276    1.316    0.240
       103 -13.6858    188.7776     83.9666   1.5660838896e+01   2.5697026623e+01    0.7004097    0.5578198  41.98  0.002409759    1.404    0.288
       104 -14.7032    198.4783     70.2095   1.0735852883e+01   2.5686279910e+01     2.429009    0.9012159  45.06  0.008631264    3.720    0.731
       105 -14.2189    165.3480     70.9875   1.6071283127e+01   3.3173899543e+01     1.390053    0.9169128  70.52  0.006463052    1.676    0.403
       106 -14.2878    160.5050     80.8869   1.9785489044e+01   3.2659877430e+01      1.55497    0.6780545  38.68  0.003218145    3.383    0.704
       107 -14.3688    169.4823     76.9915   1.7026479833e+01   3.1204740804e+01     0.889464    0.6018564  42.79  0.003019749    1.655    0.396
       108 -11.0592     34.9205     86.5994   6.2749033306e+01   5.6809830539e+01    0.2594724    0.1846767 -51.84  0.001292089    1.342    0.255
       109 -12.2153    132.3308     85.9935   2.7508013944e+01   3.8427586711e+01    0.2266399     0.206139 -43.65 0.0007630991    1.109    0.098
       110 -12.2805    176.8446    121.1666   2.6965016771e+01   2.1878885640e+01    0.2858451    0.2144217  36.31  0.001136451    1.391    0.281
       111 -13.3399    242.0071     83.5071   8.6544116715e+00   1.5300583558e+01    0.4233807    0.2403826  58.40  0.002388722    2.131    0.531
       112 -13.7415    237.9186     79.8363   8.2921379680e+00   1.6512130138e+01    0.4565416    0.3429722  73.30  0.002443471    1.643    0.391
       113 -11.7701    209.3315    249.3680   4.3996504432e+01  -2.1361445179e+00    0.1763966   0.09850809   2.69  0.001127257    1.680    0.405
       114 -14.6473    170.1739    241.8826   5.0069252896e+01   3.3453790886e+00     1.055927    0.6271179  20.11  0.006607312    1.363    0.266
       115 -13.8577     74.7735     73.5948   4.1773738036e+01   5.3918342892e+01      1.58968    0.8408167  20.05  0.005035064    3.582    0.721
       116 -13.6954     87.4044     65.2387   3.4104994225e+01   5.3109305230e+01    0.8331935    0.5860693 -15.87  0.002202161    1.996    0.499
       117 -13.1806     55.0709     81.1306   5.2338826015e+01   5.5558954707e+01    0.6583023    0.4632142 -28.68  0.002693855    1.694    0.410
       118 -13.9578     61.1410     76.0582   4.8204190547e+01   5.5825004902e+01    0.9370038    0.5864606 -41.28  0.001768832    1.680    0.405
       119 -11.9626    114.1201     80.0413   3.0562918190e+01   4.3932311472e+01    0.4967261    0.3477625 -48.97  0.002226169    1.471    0.320
       120 -13.0116    135.3855     79.1547   2.4703570514e+01   3.9014781778e+01    0.8283798    0.3895532  53.71  0.002810137    2.122    0.529
       121 -11.4680     42.6669     79.3150   5.7449824424e+01   5.7770625297e+01    0.2438329    0.2014221 -63.26 0.0008805323    1.181    0.153
       122 -11.3719     41.7689     75.9919   5.6995974763e+01   5.8729175878e+01     0.351709      0.25192 -69.20    0.0013583    1.442    0.307
       123 -13.2822     25.2486    217.2974   7.9527559223e+01   2.5587820327e+01      1.12579    0.1727449  42.14  0.004332325    3.226    0.690
       124 -14.2114      6.5415     63.3834   7.2466322194e+01   6.5129360582e+01    0.8240058    0.5561094  12.88   0.00447422    1.618    0.382
       125 -11.4411     27.5152     76.3511   6.4027219591e+01   6.0242621899e+01    0.3147129    0.2043145  67.72  0.001366114    1.935    0.483
       126 -12.5775    242.1073     71.2045   5.9820415338e+00   1.6900498325e+01    0.4238352    0.2269206 -58.68  0.002177718    2.171    0.539
       127 -11.9664     43.4274     64.7779   5.2902157425e+01   6.1279309993e+01    0.3610116    0.1428814 -58.39  0.001320523    2.512    0.602
       128 -12.5651     39.5090     67.9830   5.5853785119e+01   6.1019399648e+01    0.7439622    0.2491637  32.40  0.002633019    2.874    0.652
       129 -13.2064    134.5305     65.6390   2.0659110942e+01   4.1687725887e+01    0.7183443    0.6109585  47.85  0.002537101    1.197    0.164
       130 -12.4020    100.6234     64.1515   2.9276684673e+01   5.0304532991e+01    0.4713739    0.3729199 -10.29  0.002198566    1.606    0.377
       131 -13.1528     79.1100     60.4460   3.5409873758e+01   5.5898790836e+01    0.7816108    0.5444001 -55.09  0.003576157    1.588    0.370
       132 -12.5973     83.2859     54.4976   3.1538670029e+01   5.6179656080e+01    0.8891896    0.4687658 -19.69  0.002701006    4.123    0.757
       133 -13.8591    177.9648     57.0263   1.0082302562e+01   3.2302401603e+01    0.8794923    0.5615487 -48.12  0.002542317    1.480    0.324
       134 -12.2638     39.0858     59.9139   5.3565632061e+01   6.3033454843e+01    0.4686159    0.2712256  60.99  0.001845118    2.784    0.641
       135 -12.3282     34.3755     60.7870   5.6357238739e+01   6.3416184644e+01    0.3700607    0.2422574 -40.62  0.001706826    1.511    0.338
       136 -12.5874     35.5193     54.8797   5.3806845050e+01   6.4686660416e+01    0.4011556    0.2951472 -18.93  0.001009911    1.512    0.339
       137 -12.1428     24.7704     59.4814   6.1273523957e+01   6.4775226019e+01    0.4514799    0.2570474 -49.32  0.001692405    1.602    0.376
       138 -14.7939    119.6113     54.4628   2.0434890896e+01   4.7389092911e+01     1.214486    0.6975273  49.39  0.001904914    1.702    0.412
       139 -12.8968    136.0959     50.7071   1.5373522908e+01   4.3756681775e+01    0.7003016    0.5741165 -25.44  0.001966297    1.344    0.256
       140 -13.1627    248.2871     52.3484   1.3701521295e+00   1.8153893724e+01     0.666112    0.3190701 -31.42  0.003573544    1.746    0.427
       141 -10.7307     47.8027     56.8028   4.7965893859e+01   6.2508696058e+01     0.200654    0.1727163  65.15  0.001028767    1.376    0.273
       142 -11.4966     17.4690     55.1376   6.4326407156e+01   6.6489832066e+01    0.3344026      0.22536 -72.49  0.001732945    1.503    0.335
       143 -12.0903    230.7725     54.9540   3.4400759536e+00   2.1102146300e+01    0.3418252    0.1944154  74.67  0.001851692    2.077    0.519
       144 -10.5646     23.5284     49.9616   5.9148225500e+01   6.7203059133e+01    0.2004304    0.1265842 -58.78 0.0004566631    1.490    0.329
       145 -12.4938    154.5445     46.5104   1.0586842430e+01   3.9625269210e+01    0.4821022    0.2650703  61.69  0.001987798    1.760    0.432
       146 -13.1717    158.3176     43.1250   8.9236693964e+00   3.9136554472e+01    0.5512378    0.4792489  59.89   0.00198828    1.188    0.158
       147 -11.4688    201.7581     46.5865   4.3029147975e+00   2.8233543691e+01    0.1798421    0.1211164 -88.88 0.0007186459    1.622    0.383
       148 -11.5177     38.7702     46.2285   4.8759568971e+01   6.6221616629e+01    0.2017922     0.158001 -17.48  0.001064647    1.356    0.262
       149 -11.1413     29.8570     45.9252   5.3885461753e+01   6.7454824589e+01    0.2294919    0.1749627 -29.96  0.001239843    1.292    0.226
       150 -13.3499      6.3061     43.1073   6.8257268889e+01   7.0166625970e+01    0.9282689    0.5036184  10.83  0.004637824    1.967    0.491
       151 -14.4609     26.1791    226.7047   7.9749633994e+01   2.3635562473e+01     1.149516    0.4214451 -62.03  0.005497608    3.273    0.694
       152 -13.3922    147.5715    238.6718   5.4111579766e+01   6.6667778546e+00    0.5086186    0.3284855  60.54  0.002680028    2.903    0.656
       153 -14.3658     67.0169    222.6239   7.0128307399e+01   1.9900124400e+01    0.8668568    0.6121338  29.88  0.005312753    1.239    0.193
       154 -14.1957     57.5561    202.0634   7.0680628375e+01   2.5210181015e+01     1.321019    0.5578675 -70.95  0.005962163    2.659    0.624
       155 -14.1253     20.9659    224.5576   8.0823388992e+01   2.4560917646e+01    0.5898416    0.4752671  64.10  0.004228709    1.140    0.123
       156 -13.5623    237.4229    231.2667   3.6821415017e+01  -3.1741133871e+00    0.5039084    0.3881039 -34.05  0.003860914    1.882    0.469
       157 -13.8496     95.4092    218.3952   6.3097318590e+01   1.7036744227e+01    0.6340705    0.2618877  30.26  0.002855589    2.036    0.509
       158 -14.1510     64.0601    214.5195   7.0150340486e+01   2.1848144221e+01    0.5124807    0.3906471  24.36  0.002503476    1.292    0.226
       159 -10.5375      5.4979    219.4870   8.4099847989e+01   2.6965526555e+01    0.1175323   0.08854343  52.71 7.394762e-05    1.013    0.013
       160 -12.5141     85.6098    215.6006   6.5104718369e+01   1.8878199897e+01    0.2647418    0.1944047  47.18  0.001531261    1.199    0.166
       161 -12.9569    110.1663     41.9316   1.8161471318e+01   5.1833418379e+01    0.5844033    0.2491825  55.57 0.0009462352    2.159    0.537
       162 -13.3614    113.4838     37.8196   1.5728123303e+01   5.1589067847e+01    0.5157501    0.3433207  62.73  0.001676762    1.423    0.297
       163 -11.8929    181.5069    215.5053   4.4157764635e+01   5.4906542574e+00    0.1227542   0.09658587  10.79 0.0001675589    1.001    0.001
       164 -13.0977    131.4676     33.2681   1.0189817780e+01   4.7476003582e+01    0.5042789    0.4347394   8.86  0.001631763    1.412    0.292
       165 -10.3107    169.6439     42.7147   7.1444425966e+00   3.6338196332e+01    0.1419951    0.1062617  36.64  0.000569853    1.671    0.402
       166 -12.5490     36.5048     34.2822   4.4863404451e+01   6.9077165189e+01    0.5568659     0.265792  16.19   0.00194571    3.580    0.721
       167 -13.0582     46.2884     33.1835   3.8639778633e+01   6.7706635174e+01    0.6022657    0.4186611 -21.97  0.003009464    1.623    0.384
       168 -13.5629     59.4760    212.5418   7.1090172728e+01   2.2803442030e+01    0.5129315     0.326897 -11.13  0.002061058    2.774    0.640
       169 -12.4433     40.7019     40.3029   4.5148976037e+01   6.7207443175e+01    0.5320373    0.2927149  31.78  0.002427163    1.823    0.451
       170 -13.0603     32.8119     40.0693   4.9740596234e+01   6.8384695113e+01    0.4040598    0.3209077  10.45 0.0007472301    1.277    0.217
       171 -13.3137     74.6094     36.8822   2.7281262930e+01   6.1323880644e+01    0.7896047    0.3692704  53.93  0.002196394    2.163    0.538
       172 -12.8234     46.3229    209.6664   7.4064104889e+01   2.4928485970e+01     0.481162   0.08050318  42.69  0.001660034    3.594    0.722
       173 -11.6551    136.5952    210.8804   5.2764996120e+01   1.2556134948e+01    0.2123434    0.1682236 -70.57  0.001136428    1.822    0.451
       174 -11.4854     98.2617     26.9938   1.5095745375e+01   5.7040269157e+01    0.2817658    0.1986353  61.49 0.0009269719    1.317    0.241
       175 -12.5674     30.8408     25.2713   4.3936758101e+01   7.1679623188e+01    0.4419305    0.2622964  18.27   0.00154924    1.895    0.472
       176 -11.7977     36.0547     23.1023   3.9323653644e+01   7.1283955554e+01    0.3409297    0.2111134 -31.77  0.001707983    1.662    0.398
       177 -13.7389     16.2696    197.2036   8.0743244113e+01   3.0663995257e+01    0.8397062    0.3182722 -53.69  0.003521985    3.622    0.724
       178 -12.7730     48.3372     19.9128   3.0319255702e+01   6.9619282564e+01    0.7750415    0.2369608  47.45  0.002700028    3.182    0.686
       179 -12.6784    104.7110     36.0669   1.7237997506e+01   5.4117269987e+01    0.4995444    0.1893945 -26.18  0.001633835    3.360    0.702
       180 -11.0959    151.6790    206.0202   4.8770795994e+01   1.1162436237e+01    0.2721471     0.145592  11.58  0.001169818    2.653    0.623
       181 -11.9628     40.5120    210.9901   7.5563063109e+01   2.5297762279e+01     0.188576    0.1452701 -34.41  0.001139925    1.828    0.453
       182 -14.1880     40.7086    196.1874   7.4496717193e+01   2.8434842069e+01    0.8913155    0.4081655  52.01  0.004230283    1.924    0.480
       183 -14.8990     30.2043    168.9403   7.5288614519e+01   3.5851385919e+01     1.567904      1.04351 -34.73  0.004214075    2.071    0.517
       184 -10.6888    123.9455     11.4743   3.3330650679e+00   5.1990675701e+01    0.2222197    0.1284957  72.25  0.001021886    1.561    0.359
       185 -15.3708      8.3285    183.2653   8.2150530734e+01   3.4464479911e+01     1.244988     1.062258  75.17  0.008385301    1.116    0.104
       186 -15.4872     15.5936    175.0719   7.9808410945e+01   3.5752953630e+01     2.422127    0.9230161  55.58   0.01051005    2.342    0.573
       187 -11.5459    212.8926    199.6931   3.5880156106e+01   3.4933430913e+00    0.2132359    0.1381557 -16.14  0.001327921    1.402    0.286
       188 -12.4302    180.3249    196.9480   4.1425810950e+01   8.3960201269e+00    0.2458379    0.2120264 -44.78  0.001595014    1.514    0.339
       189 -12.9407    140.4808     21.2042   4.4045152573e+00   4.6546088835e+01      0.66072    0.3456057  69.90  0.001357067    1.761    0.432
       190 -13.4498    164.4545    194.4173   4.4223441341e+01   1.1164562779e+01    0.5895071      0.38349 -60.74  0.002948568    2.513    0.602
