#   1 NUMBER                 Running object number                                     
#   2 MAG_AUTO               Kron-like elliptical aperture magnitude                    [mag]
#   3 X_IMAGE                Object position along x                                    [pixel]
#   4 Y_IMAGE                Object position along y                                    [pixel]
#   5 X_WORLD                Barycenter position along world x axis                     [deg]
#   6 Y_WORLD                Barycenter position along world y axis                     [deg]
#   7 A_WORLD                Profile RMS along major axis (world units)                 [deg]
#   8 B_WORLD                Profile RMS along minor axis (world units)                 [deg]
#   9 THETA_WORLD            Position angle (CCW/world-x)                               [deg]
#  10 FWHM_WORLD             FWHM assuming a gaussian core                              [deg]
#  11 ELONGATION             A_IMAGE/B_IMAGE                                           
#  12 ELLIPTICITY            1 - B_IMAGE/A_IMAGE                                       
         1 -12.1909    125.5512     28.2079   3.6755108095e+01   5.0219888651e+01    0.6743488    0.5670771 -29.94   0.00363554    1.172    0.147
         2 -10.6939    109.4271     41.9975   4.5894211694e+01   5.2312233707e+01     1.194964    0.4255289 -33.13  0.004096023    2.711    0.631
         3 -12.5130    119.8481     37.3904   4.1580997534e+01   5.0428979446e+01     1.147882    0.4887249 -47.23  0.004032616    2.634    0.620
         4 -11.4548    240.2773     32.5070   2.5099565088e+01   2.3313924953e+01    0.3940773    0.2017752 -30.55  0.002160513    1.521    0.343
         5 -12.4019    104.6050     12.9866   3.4231253975e+01   5.7342112853e+01    0.6649352    0.4271409 -29.20  0.003232579    1.539    0.350
         6 -11.1646    106.0849      2.4479   2.8989488012e+01   5.7939938629e+01     0.549368    0.3745606 -80.70  0.001747612    1.637    0.389
         7 -11.4584    115.0101      2.6284   2.7699349175e+01   5.5606631488e+01    0.5534834    0.2871986  74.91   0.00245645    1.898    0.473
         8 -11.7309    106.0527     20.6155   3.7454236119e+01   5.6121213875e+01    0.5021191    0.3769293 -48.78    0.0015299    1.388    0.280
         9 -12.3221     20.1153     21.8591   7.5029399982e+01   7.3528630692e+01    0.5891993    0.2874871 -47.19  0.002037369    1.795    0.443
        10 -12.2066     48.6140     13.0093   5.1985368270e+01   7.0480365597e+01    0.6585231    0.3166525  51.21  0.002389483    2.165    0.538
        11 -12.0438     27.2327     27.9416   7.3355845273e+01   7.1365455686e+01    0.6070402    0.5254887  15.73  0.001811275    1.219    0.180
        12 -11.5692     35.8483     18.8519   6.2728687814e+01   7.1870085172e+01    0.7589613    0.4671804 -38.39  0.003867104    1.517    0.341
        13 -10.5508    148.0456     15.9754   2.8638921273e+01   4.5834088342e+01    0.5881126    0.2734052  35.31  0.002160517    3.182    0.686
        14 -11.7746    145.5119     24.1499   3.1940763105e+01   4.5604334739e+01     1.019875     0.338039  46.04  0.003260483    3.811    0.738
        15 -11.4870    122.5093      5.9040   2.8052391172e+01   5.3378394939e+01    0.5845203     0.377177 -37.48  0.001426189    1.517    0.341
        16 -10.6374    118.6581     16.2447   3.3058625829e+01   5.3380356870e+01     1.404993          nan  56.31  0.002855445    8.470    0.882
        17 -10.0694    121.3210     11.7769   3.0715011801e+01   5.3145970247e+01      1.05082    0.2031167  68.76  0.002919058    4.678    0.786
        18 -12.1888    135.8601     22.4192   3.2727641939e+01   4.8266617000e+01     1.192954    0.5792005  69.24  0.004983283    2.085    0.520
        19 -10.7764    127.4093     16.5158   3.1719519213e+01   5.1087932770e+01    0.4839355    0.2267484  47.70    0.0019606    2.260    0.557
        20 -11.3949    134.7272     14.9622   3.0011401014e+01   4.9355505672e+01    0.7327685    0.3113379  62.13  0.002975426    2.208    0.547
        21 -10.9284    156.9657     20.4986   2.9151812970e+01   4.3110221017e+01    0.3961622    0.3764203 -21.17  0.002383467    1.104    0.094
        22 -12.0825    160.0071     29.8045   3.1933575069e+01   4.1310908974e+01    0.4992693    0.4822368  20.43 0.0004281381    1.139    0.122
        23 -10.4132     88.6709      7.5722   3.4975269761e+01   6.1930118161e+01    0.3772282    0.2431661  18.96  0.001479607    1.846    0.458
        24 -10.8864     90.9046     21.3689   4.1490046692e+01   5.9810246256e+01    0.4749362    0.2988419 -26.19  0.001968042    1.593    0.372
        25 -11.9057     86.3676     14.6610   3.9292654369e+01   6.1743067820e+01     1.002549    0.6080873 -33.92  0.003551814    1.632    0.387
        26 -11.0845    179.0072     20.8445   2.6893304383e+01   3.7674413986e+01    0.5362544    0.2591425  39.86  0.002172619    2.906    0.656
        27 -12.0357    244.0366     13.8169   2.0458962099e+01   2.4449054465e+01    0.3844943    0.1229325 -35.40  0.001838799    2.109    0.526
        28 -13.2453    163.9721     18.9783   2.7837414578e+01   4.1523543785e+01    0.4598816    0.3121083  39.46  0.001326245    1.748    0.428
        29 -11.8881     67.7750     18.0209   4.6991102446e+01   6.5697229190e+01    0.5557466    0.4780169  68.68  0.002508671    1.306    0.234
        30 -10.2968     14.0363      8.6305   7.1597427314e+01   7.6894921526e+01    0.3104836     0.234428 -22.28 0.0008426381    1.243    0.196
        31 -11.8535     22.7392     11.2884   6.6498226651e+01   7.5252898889e+01    0.4790008    0.3394676  -0.12  0.001918284    1.625    0.384
        32 -11.7758    192.2415      8.6232   2.2144668432e+01   3.5761844473e+01     0.743884    0.3741837  -1.77  0.002967242    2.902    0.655
        33 -12.0383    228.4433     15.9193   2.1805046952e+01   2.7277935095e+01    0.3589605     0.249194  85.54  0.000466855    1.614    0.380
        34 -10.8974    225.3096     12.6978   2.1179231240e+01   2.8215806108e+01    0.2457483    0.1682335 -43.59 0.0007104859    1.177    0.151
        35 -12.2606    238.5009     16.0785   2.1280312535e+01   2.5287897794e+01    0.3614108    0.2541405  62.44  0.002329194    1.737    0.424
        36 -11.5948    211.9079      9.4263   2.1108517948e+01   3.1319204908e+01    0.5990092    0.3247071   2.86  0.002727859    2.837    0.648
        37 -10.6203    228.0481      3.4063   1.8726193575e+01   2.8502027782e+01    0.3073571    0.1681324 -14.56  0.001653197    1.935    0.483
        38 -10.8617    218.7841      3.8102   1.9270199757e+01   3.0366534203e+01    0.2989782     0.239924 -44.95  0.001179631    1.011    0.011
        39 -11.1822    223.6340      2.3854   1.8675848670e+01   2.9487141283e+01    0.2637117    0.2194586 -71.64 0.0009523978    1.200    0.166
        40  -9.9926      5.2154      9.7264   8.0351552848e+01   7.7600708109e+01    0.2877481    0.1453213 -43.94 0.0007825847    1.682    0.406
        41 -12.1546    245.7866      5.5010   1.8449335723e+01   2.4876085331e+01    0.5989988    0.4014302 -45.97  0.004001322    1.166    0.142
        42 -11.0331    232.9742      7.5033   1.9497045519e+01   2.7157322439e+01    0.2493419    0.1886777 -70.03  0.001092646    1.306    0.235
        43 -12.1183    234.5948      3.2485   1.8396078117e+01   2.7215506707e+01    0.6692224    0.2541157 -58.09  0.003191952    2.492    0.599
        44 -10.7318    169.3149      9.4456   2.4183872521e+01   4.1134879806e+01    0.4171376    0.1918937  58.75   0.00184416    2.228    0.551
        45 -10.3558    163.6083      7.0031   2.3885144141e+01   4.2761790182e+01    0.5788897    0.2659725  -5.67   0.00226503    2.965    0.663
        46 -11.0165    145.4679      9.5354   2.6594127968e+01   4.7113096008e+01    0.2544834    0.2197049  33.67 0.0005256799    1.289    0.224
        47  -9.9677     65.4959     10.3391   4.3249762088e+01   6.7205496429e+01    0.2830181    0.1989871  69.19 0.0007232858    1.629    0.386
        48 -10.1291     62.8058      6.8479   4.2011814510e+01   6.8225086064e+01    0.3051317    0.2018454 -17.45   0.00155235    1.538    0.350
        49  -9.4181      1.0000      7.8396   8.3351630093e+01   7.8340400933e+01    0.1999091   0.06226493 -59.77 0.0007886622    2.848    0.649
        50 -11.4787    184.4169      5.8632   2.1878386606e+01   3.7827867396e+01    0.4552324    0.2562816 -55.61  0.002302504    1.664    0.399
        51  -9.7455    157.5013      7.4706   2.4605723423e+01   4.4245310200e+01     0.133876    0.1268128 -63.13 -1.33858e-05    1.035    0.034
        52  -9.7703     77.9788      7.4773   3.7635944594e+01   6.4579346695e+01    0.2619044    0.1837647  87.41   0.00112657    1.762    0.432
        53 -11.2163     74.8588      3.5324   3.6189507015e+01   6.5727300267e+01    0.6271881    0.3129205  61.45  0.002808271    1.900    0.474
        54 -11.0695    176.8466      5.8284   2.2421028205e+01   3.9630794518e+01    0.3591433    0.2087715 -85.72 0.0007821275    1.807    0.446
        55 -11.5700    206.4831      3.3000   1.9777681846e+01   3.3040534168e+01    0.4593331    0.3209305 -78.16  0.002761032    1.429    0.300
        56 -10.4445    137.6980      4.3436   2.5517401064e+01   4.9568066574e+01    0.2475083    0.2072432 -49.70 0.0004628146    1.152    0.132
        57 -12.1618    132.8873      2.7555   2.5443963373e+01   5.0944357993e+01    0.9892011    0.3248087  77.16  0.003475351    3.125    0.680
        58 -10.2688     22.1901      4.4986   6.1788972073e+01   7.6501323688e+01    0.2404365    0.1678769 -45.93  0.001353887    1.538    0.350
        59  -9.4732     57.8401      4.1872   4.2074387133e+01   6.9643086712e+01    0.1729605    0.1379862  20.59 0.0009696129    1.244    0.196
        60 -10.4002    157.8694      2.5120   2.2868497844e+01   4.4577120054e+01    0.3535371    0.2004243  53.63  0.001701127    1.873    0.466
        61 -11.3842      2.4105      1.8461   7.7840956240e+01   7.9444349975e+01    0.3285742    0.1929811   7.43  0.001779239    1.947    0.486
        62  -9.7337    152.4850      1.4399   2.2966214789e+01   4.6021127240e+01    0.2567641    0.1283142  79.25 0.0005959941    1.989    0.497
        63 -10.3550     82.1410      1.3231   3.3069724780e+01   6.4135316198e+01    0.2198944    0.1203584  65.12 0.0003207902    1.744    0.427
        64 -12.2535     16.1944     14.3079   7.3598018382e+01   7.5533014045e+01    0.8641054    0.4761733 -19.32  0.003112475    2.530    0.605
        65 -10.3205     41.5140      3.8932   4.9076358134e+01   7.3146101306e+01    0.3595135    0.2220032  -0.44  0.001715663    2.045    0.511
        66 -10.9730     10.1458    127.9425   1.0320263975e+02   4.7665277063e+01    0.5113879    0.2712939 -61.86  0.002549286    1.802    0.445
        67 -10.3003     22.8700    126.9795   9.8959876065e+01   4.6913739719e+01    0.1973256    0.1829159  53.09 0.0002639591    1.136    0.119
        68  -8.6660     95.2590    126.2666   7.6002257785e+01   3.7706254073e+01    0.1355843    0.1117188 -18.64 0.0001776941    1.452    0.311
        69 -10.0657      2.1534    126.0719   1.0566611017e+02   4.8659649381e+01    0.2312209    0.1628453  55.72  0.000726447    1.308    0.235
        70 -12.6693    103.8919    122.4606   7.2730891717e+01   3.7082355609e+01     0.324508     0.310177  17.79 0.0004231849    1.082    0.076
        71  -9.1756     84.8581    123.3302   7.8448311212e+01   4.0101755112e+01    0.1975597    0.1353727  22.10 0.0004229037    1.725    0.420
        72  -9.9274     49.7615    123.0120   8.9535052713e+01   4.5147827554e+01    0.2391736    0.1874165   2.96 0.0008195937    1.612    0.380
        73  -9.5785     56.2895    122.0167   8.7219610718e+01   4.4583061762e+01    0.1968478    0.1750323 -83.36 0.0004098911    1.063    0.059
        74  -9.9713     48.7137    112.1716   8.8089607397e+01   4.8033725223e+01    0.4370511    0.2151517 -57.30  0.001886021    1.875    0.467
        75 -10.0413     44.9840    120.2378   9.0701823382e+01   4.6414931688e+01    0.2279827     0.196126  82.03 0.0007202773    1.103    0.093
        76 -10.2423     43.9327    116.6996   9.0510064679e+01   4.7439452606e+01    0.3203062    0.2866908  46.63  0.001571429    1.149    0.130
        77 -10.3381      7.0328    114.6911   1.0321736051e+02   5.1243467828e+01    0.4108793    0.2192294 -70.82  0.001554282    1.637    0.389
        78 -12.2332      2.4538    111.9075   1.0461895666e+02   5.2235414580e+01    0.4934936    0.2494632 -83.13 0.0005915611    1.708    0.414
        79 -11.2386      4.2387    104.9078   1.0341520035e+02   5.3938336241e+01    0.4319163    0.3077511  25.18  0.002305154    1.562    0.360
        80  -9.5953     79.1089    114.7063   7.8402884077e+01   4.3089278622e+01    0.2537515    0.1993618 -71.09  0.001291615    1.308    0.235
        81  -9.0586     67.9764    114.9949   8.2064129262e+01   4.4725572764e+01    0.2934113    0.1879261  83.93   0.00125225    2.143    0.533
        82  -9.8400     66.1319    110.9378   8.1847042648e+01   4.6004398806e+01     0.269893    0.2175103  24.89 0.0006870069    1.370    0.270
        83 -11.8752      9.3580     97.3853   1.0071476271e+02   5.5587790807e+01    0.5306665    0.4362161  54.32 0.0008597086    1.241    0.194
        84 -12.2577      7.3704     89.2607   1.0060719024e+02   5.7840925292e+01    0.7912074    0.4446724  31.07  0.004001961    1.897    0.473
        85 -11.6014     42.2683     85.3747   8.5158636349e+01   5.5721698190e+01    0.8841042    0.4705124  22.17  0.003763471    2.223    0.550
        86 -11.0142     35.1020     92.2527   8.9554088794e+01   5.4754063157e+01     1.350602    0.6013777 -78.52  0.005108967    2.592    0.614
        87 -11.5684     27.4935     85.5513   9.1448429738e+01   5.7271073457e+01     0.729622    0.5167776  13.88  0.001792376    1.666    0.400
        88 -12.6439     25.3332    107.0532   9.5762370595e+01   5.1833986385e+01      1.35357    0.8567451 -37.82  0.006680182    1.877    0.467
        89 -11.3814     21.5298    114.4640   9.8070509618e+01   5.0234994441e+01    0.4519723    0.2853118  -5.38  0.001488004    2.210    0.548
        90 -11.3513     28.2678    113.1584   9.5507302743e+01   4.9978989644e+01    0.5468618    0.3144802   9.51  0.002528106    2.275    0.560
        91 -11.8786     22.4674     94.3432   9.5047789246e+01   5.5413764616e+01    0.3419491    0.3151266 -38.44 0.0004855899    1.201    0.167
        92 -11.9446     18.2256     90.5987   9.6229999251e+01   5.6743499539e+01    0.4257742    0.2920979 -82.95 0.0004761203    1.333    0.250
        93  -9.1379     85.6981    113.3371   7.6030515916e+01   4.2338639777e+01    0.1518347    0.1140788  78.78 0.0007037017    1.665    0.399
        94  -9.6106     93.6798    112.3514   7.3363566950e+01   4.1198260283e+01    0.2357393    0.1766279  78.19  0.001098425    1.731    0.422
        95  -9.8364    170.6522    110.3674   5.3983160004e+01   2.6594096965e+01    0.2769949    0.1666627 -32.99 0.0008135735    1.564    0.361
        96  -9.4536    120.2964    109.3560   6.5118895720e+01   3.6879468101e+01    0.1534014    0.1167831 -10.42 0.0007033771    1.697    0.411
        97 -10.2370    102.5374    108.4635   6.9798276126e+01   4.0483361239e+01    0.4043202    0.2452404 -29.15  0.001268012    2.226    0.551
        98 -11.2244     79.7532    108.0998   7.6711635401e+01   4.4582391435e+01    0.5597327    0.3154369  31.26 0.0007657676    1.948    0.487
        99 -10.6973     15.6700    109.3121   9.9609390636e+01   5.2035539528e+01    0.3735138    0.1797165  47.79  0.001702085    2.087    0.521
       100  -9.7092    143.3292    106.0396   5.8606174950e+01   3.2906589658e+01    0.2548732    0.2126353  87.49  0.001158522    1.557    0.358
       101 -10.6835     51.4965     99.2946   8.4596404754e+01   5.0982432751e+01    0.8007116    0.3096704 -44.77  0.002778146    3.019    0.669
       102 -10.2023     86.7073    104.1399   7.3524575282e+01   4.4348775387e+01    0.4239629      0.19376  44.49  0.001622666    2.274    0.560
       103 -10.2036    145.6302    100.4032   5.6584464698e+01   3.3503465788e+01    0.3352516    0.2347522 -24.40 0.0009056936    1.554    0.357
       104 -11.9585     17.5086    101.1239   9.7958896497e+01   5.4033986980e+01    0.4298619    0.3779944 -84.06 0.0009755627    1.009    0.009
       105 -10.3209     80.8123     98.1923   7.3933917510e+01   4.6787958003e+01    0.2195553    0.2034334  86.64 0.0005926343    1.117    0.104
       106 -10.5519     83.0540     93.1614   7.1847362321e+01   4.7589935303e+01    0.3040842    0.2146063  37.10 0.0002598778    1.489    0.328
       107 -10.8754     77.9192     92.6122   7.3438948403e+01   4.8622497069e+01    0.4804985    0.4172451 -27.54  0.002342226    1.262    0.208
       108 -11.3384     68.8896     95.7807   7.7426228277e+01   4.9348033075e+01    0.4507571    0.3293142  16.00 0.0007690803    1.709    0.415
       109 -11.2807    125.8360     94.7465   5.9734420838e+01   3.8782321397e+01    0.2896205    0.2685302 -33.52 0.0002217654    1.047    0.044
       110 -10.2579    121.7693     93.9671   6.0560822424e+01   3.9796572820e+01    0.6606469     0.242367 -50.57   0.00210333    3.137    0.681
       111 -10.4924     42.8892     94.6271   8.6919905864e+01   5.3259378039e+01     0.340596    0.3178366  68.55  0.001467861    1.098    0.089
       112 -11.2615     98.4343     91.1213   6.6347675199e+01   4.5168211298e+01     0.282101    0.2444858  45.89 5.973746e-05    1.194    0.163
       113 -11.7748     89.3396     89.8164   6.8836717200e+01   4.7214696176e+01    0.4505584    0.3116392 -37.87 0.0004293799    1.515    0.340
       114 -10.0905     49.1769     91.1198   8.3687761683e+01   5.3377782389e+01    0.3202916    0.2045614  37.69  0.001525122    1.636    0.389
       115 -10.1450    104.0515     87.8789   6.3704579115e+01   4.4756157543e+01     0.336266    0.2117041 -40.78  0.001078763    1.571    0.363
       116 -10.0127     66.2571     88.6855   7.6547133187e+01   5.1511378570e+01     0.362623    0.2349001 -14.13  0.001437424    2.628    0.619
       117  -8.9851    111.2877     87.6463   6.1549195551e+01   4.3309992916e+01    0.1552004     0.119925 -77.86 0.0005470196    1.671    0.402
       118 -10.8560    113.0220     83.1726   5.9700216688e+01   4.3874210234e+01     0.578517     0.424469  86.49  0.002540819    1.990    0.498
       119 -10.5672     80.2737     83.9130   7.0152337085e+01   5.0260554631e+01    0.4770874    0.3718695 -49.87  0.002382876    1.225    0.184
       120 -11.1123     74.8789     78.4777   7.0419938755e+01   5.2501626521e+01    0.6237835    0.5186672  59.02   0.00298203    1.324    0.245
       121 -10.6717    143.2366     84.4415   5.2594659095e+01   3.6991577368e+01    0.2652451    0.2382996 -36.05  0.000425751    1.055    0.052
       122  -9.3914    165.4968     83.9525   4.7937217189e+01   3.2156289163e+01    0.2310654    0.1336977 -35.62  0.001030584    1.587    0.370
       123 -10.1075     66.9486     81.6848   7.4336595387e+01   5.3104138398e+01    0.3869259    0.3109047  20.45  0.001967096    1.431    0.301
       124 -11.6565     53.3286     76.6096   7.8284386640e+01   5.6461957047e+01    0.6039731    0.5743905  81.03  0.003468275    1.100    0.091
       125 -10.9180     58.2835     77.8861   7.6621149434e+01   5.5407141767e+01    0.3755418    0.2915577 -63.20 0.0007813385    1.248    0.199
       126 -11.6021     14.0753     74.7483   9.5526807164e+01   6.1213994772e+01    0.6556584    0.3629529 -83.14  0.003085498    1.757    0.431
       127 -10.2249     13.9662     67.3986   9.4219489716e+01   6.3136063120e+01    0.3740723    0.1958237  18.29  0.001494656    2.178    0.541
       128 -10.1396    233.5016     77.5055   3.6466208570e+01   1.9369179642e+01    0.1279864    0.1032744 -29.19  0.000222565    1.007    0.007
       129  -9.4898    126.8857     76.8745   5.4084696015e+01   4.2066956058e+01    0.2240653    0.2034812   8.00 0.0003238838    1.205    0.170
       130 -10.5095     95.0319     76.5176   6.2913771693e+01   4.9057182615e+01    0.5634142    0.2870464  42.96  0.001593389    2.053    0.513
       131 -11.8558     85.5976     73.3248   6.4963072976e+01   5.1651613738e+01     1.086802    0.4670977  39.91  0.003965397    2.512    0.602
       132 -11.3418     79.2986     67.7936   6.5280031469e+01   5.4099285742e+01     1.024889    0.5889963 -70.21  0.003591949    3.111    0.679
       133 -12.3562     75.0883     53.5437   6.1468173205e+01   5.7954673798e+01     0.844117    0.6541324  -9.13  0.001412194    1.609    0.379
       134 -11.3133     72.9198     48.1444   6.0051016601e+01   5.9476588257e+01    0.4326421    0.2691864 -54.06  0.001390789    1.780    0.438
       135 -11.4726    186.6104     70.8513   4.0731148316e+01   2.9586717374e+01    0.7048108      0.42994 -33.15  0.003450289    1.448    0.309
       136  -8.9146    112.5098     75.5172   5.7400870747e+01   4.5539118676e+01    0.1520833    0.1462184 -47.62 0.0002897907    1.017    0.017
       137  -9.9672    103.7114     74.7149   5.9655261541e+01   4.7614860480e+01    0.3183467    0.2546494  79.64  0.001526112    1.562    0.360
       138 -10.4467     24.5903     74.0050   9.0420526830e+01   6.0551862127e+01    0.3225984    0.2450655 -61.37  0.001114718    1.163    0.140
       139 -10.1859     29.6330     72.2688   8.7656711581e+01   6.0510327220e+01    0.2843793    0.1787813  37.29  0.001273954    1.713    0.416
       140 -11.4453     40.7842     71.7216   8.2362711738e+01   5.9380887540e+01    0.5564396    0.3437764 -70.36   0.00258078    1.656    0.396
       141 -11.1379     34.7360     71.8696   8.5175586087e+01   6.0062879112e+01    0.5624506    0.2544886  36.25   0.00235489    2.312    0.568
       142 -11.0633      2.0667     71.6439   1.0080381069e+02   6.2740671005e+01    0.3785513    0.1978091 -71.40  0.001371112    1.583    0.368
       143  -9.1592    154.0018     72.4936   4.6755987319e+01   3.6641634632e+01    0.2086777    0.1181969  32.53    0.0007597    2.459    0.593
       144 -11.2695    122.8932     68.9191   5.2472284856e+01   4.4467763619e+01    0.4940313    0.3345119  41.31  0.001452128    1.595    0.373
       145  -9.5580     46.3621     70.0771   7.9383799879e+01   5.9060740185e+01    0.2479291    0.1719872  50.72 0.0006646976    1.639    0.390
       146 -10.9452    219.8048     66.6707   3.5343099774e+01   2.3307305284e+01    0.4065596    0.2478531  68.26  0.001960607    2.047    0.511
       147 -10.9459     59.0235     64.2822   7.1996527736e+01   5.8542447308e+01    0.5614215    0.2620595 -53.61  0.002226026    2.042    0.510
       148 -12.4524      6.4554     62.1468   9.7104526297e+01   6.4978381778e+01    0.7358748     0.477801 -15.21  0.002780478    1.846    0.458
       149  -9.2081    192.4875     65.5208   3.8417886298e+01   2.9074676274e+01     0.140053    0.1218389 -38.72 0.0002884017    1.039    0.038
       150  -9.9967     97.3155     63.8691   5.7826373986e+01   5.1200744069e+01    0.3708718    0.2639939  -3.82  0.001181824    2.093    0.522
       151 -10.9619     91.2999     62.6746   5.9302785057e+01   5.2737122482e+01    0.4746963    0.3561905  89.57  0.001822856    1.898    0.473
       152 -10.3533     87.6808     56.6044   5.8197896159e+01   5.4726249573e+01    0.6146984    0.2262058 -35.64  0.001977269    3.070    0.674
       153 -10.2225     91.6735     57.1516   5.7094640355e+01   5.3756288095e+01    0.3401628    0.2679366  48.97 0.0006759472    1.317    0.241
       154  -9.4299     52.1671     65.6439   7.5422170297e+01   5.9303926484e+01    0.1955069    0.1397108  18.31 0.0008951256    1.680    0.405
       155  -9.8316    105.9184     63.8571   5.5256159370e+01   4.9296443802e+01    0.2380773    0.2117015  10.41  0.001230899    1.258    0.205
       156  -9.6919     51.1842     56.3199   7.2610848290e+01   6.1643931332e+01    0.3200356    0.2649294 -21.73 0.0008107821    1.312    0.238
       157 -11.4316     41.0420     57.0978   7.7735896300e+01   6.2941818145e+01    0.7100881    0.2308656  35.58  0.002522675    3.161    0.684
       158 -11.4658     43.4269     62.3375   7.8333284927e+01   6.1356562548e+01    0.3236725    0.2379067 -58.61 0.0005359859    1.265    0.209
       159 -10.7556     51.5983     61.5404   7.4292719164e+01   6.0364676001e+01    0.3868725     0.246799  49.36  0.001790248    1.811    0.448
       160 -10.8703     46.6656     59.1442   7.5733887135e+01   6.1666545958e+01    0.3810146    0.2768608 -68.55 0.0009086141    1.480    0.324
       161 -10.0423    158.4066     62.9291   4.2978040886e+01   3.7155956177e+01    0.4651659    0.1624067  48.39  0.001592654    3.111    0.679
       162 -11.3508    234.7132     60.9661   3.2394987058e+01   2.1174564335e+01     0.325222    0.3059648  62.72  0.001610805    1.306    0.234
       163 -10.3263     81.8686     60.0377   6.1527777580e+01   5.5245496248e+01    0.5765491    0.3741127  77.12  0.002088045    2.771    0.639
       164 -10.0050    174.0887    246.8028   7.7608717283e+01   5.5116915314e+00    0.2495999    0.1106338  24.91  0.001469414    1.879    0.468
       165 -11.7708    117.2218     55.3074   4.9093813154e+01   4.8234530896e+01     1.460255     0.712328 -60.21  0.004462196    3.919    0.745
       166 -11.8747    126.6724    242.0061   8.5636085899e+01   1.1595993348e+01    0.3204866    0.2308208  43.56  0.001944992    1.371    0.270
       167 -12.0448    117.8255     44.0830   4.4680421476e+01   4.9930674311e+01    0.6642894    0.5558122 -49.40  0.003147751    1.198    0.165
       168 -11.2674     67.6997    240.8919   9.7015760909e+01   1.8395377774e+01    0.3075412    0.1704427  17.23  0.001586804    2.072    0.517
       169  -9.4856    113.7506     60.9165   5.2036835707e+01   4.8055362338e+01    0.3075433    0.1803587 -41.25  0.001310221    1.638    0.390
       170 -11.5484     26.0207     57.5674   8.5589294124e+01   6.4605921966e+01    0.7609544    0.7136176  77.91  0.004055912    1.162    0.140
       171 -10.6885     31.9209     52.8565   8.0967226802e+01   6.5116120268e+01     0.654898    0.2652399  18.53  0.002320418    3.585    0.721
       172 -10.3252    106.4987     58.6496   5.3186617360e+01   5.0147646530e+01    0.3335311    0.2316582 -69.15  0.001169904    1.963    0.491
       173  -9.4499    135.6521     58.0880   4.5825181551e+01   4.3346267106e+01    0.2232617    0.1385344 -20.24 0.0009376276    1.880    0.468
       174 -10.1411    156.6977     53.9095   4.0408748886e+01   3.8924454304e+01    0.6863726    0.3429169 -56.55  0.002563772    2.668    0.625
       175  -9.4397    125.4717     56.4578   4.7519641604e+01   4.6065047007e+01    0.1490428    0.1445566 -25.05 8.330522e-05    1.034    0.033
       176  -9.7657     67.0684     54.7549   6.5101080708e+01   5.9255887399e+01    0.2599535    0.2039444 -67.57  0.001072083    1.486    0.327
       177 -10.1604      7.9858     54.6676   9.4786805319e+01   6.6807534909e+01    0.2795442    0.2252356  64.89   0.00164474    1.379    0.275
       178 -11.4796     60.7667     47.8020   6.4889422178e+01   6.1888837220e+01    0.9049206    0.3756545 -43.18  0.003281156    2.298    0.565
       179  -9.7798     58.0691     42.0000   6.3518852617e+01   6.3573294165e+01    0.3192228    0.1331732  45.34  0.001210287    2.575    0.612
       180 -10.8678    245.7333     51.8393   2.9256296659e+01   2.0219025644e+01    0.3042356    0.1231843 -47.71  0.001429056    2.352    0.575
       181 -10.6318     51.6799     48.3026   6.9229021012e+01   6.3362735509e+01    0.7190945    0.4777523   2.73  0.003123515    2.324    0.570
       182 -11.5394     45.4830     48.4617   7.2305015564e+01   6.4309810180e+01    0.5961723    0.3813676 -46.44  0.002899135    1.438    0.305
       183 -11.3476     44.1789     43.9904   7.1103561643e+01   6.5501266780e+01    0.4087867    0.3171041  26.38 0.0008157029    1.396    0.284
       184 -10.8197     39.4831     44.0027   7.3567983755e+01   6.6194898123e+01    0.3630388    0.2778152   7.61  0.001090333    1.532    0.347
       185 -10.6896    145.8073     48.2238   4.0429588672e+01   4.2401662503e+01    0.6842582    0.2750559 -20.31  0.002158263    3.544    0.718
       186 -10.3081    240.2017     51.0677   2.9532836499e+01   2.1310506343e+01     0.187021    0.1504581 -13.97 0.0008498318    1.256    0.204
       187  -9.8228    171.1436     49.0274   3.6594960761e+01   3.6172995959e+01    0.3756021    0.2249615  -6.26  0.001581012    2.320    0.569
       188  -9.8012    175.2451     48.5983   3.5884292525e+01   3.5267493277e+01    0.2911445    0.1979536  58.62   0.00142763    1.577    0.366
       189 -10.1428    201.5257     48.9721   3.2735247728e+01   2.9299885859e+01    0.2526194    0.1879852  -8.85 0.0008705393    1.484    0.326
       190 -10.2192    200.1568     45.1559   3.1832189971e+01   3.0066065343e+01    0.4710554    0.2204385  85.83  0.001840779    3.383    0.704
       191 -11.4214     20.8013     46.0076   8.4930577570e+01   6.7965824352e+01     0.409522    0.2724753 -55.69 0.0008476001    1.304    0.233
       192 -10.3353     26.3610     42.9648   8.0544730080e+01   6.8112423830e+01    0.2717445    0.2306558  25.17 0.0009475198    1.294    0.227
       193 -10.2464     22.7185     37.3190   8.0555028920e+01   6.9827832263e+01    0.5178958    0.2646437  44.50   0.00230761    2.436    0.589
       194  -9.6415      2.0863     49.0774   9.7058606322e+01   6.8550878799e+01    0.2154142    0.1794532  26.26  0.001022907    1.389    0.280
       195  -9.9100     13.0663     47.3039   8.9975674894e+01   6.8313228070e+01    0.3149011    0.1744301 -49.14  0.001553402    1.578    0.366
       196  -9.1636     89.9800     47.2229   5.3639250005e+01   5.5999304152e+01    0.2024825    0.1938026  40.45  0.001115186    1.072    0.067
       197 -10.1621    133.9693     45.7209   4.1800564134e+01   4.5691605728e+01    0.3036638    0.2089484  65.84 0.0003123648    1.538    0.350
       198 -10.1469    138.5371     44.3224   4.0407056921e+01   4.4763458326e+01    0.3850762    0.2460648  24.10   0.00153157    2.228    0.551
       199 -10.8125    155.8920     42.3105   3.6722657352e+01   4.0752253388e+01    0.3275754    0.2820683 -31.91 0.0008378324    1.108    0.097
       200 -10.3116     31.8206     44.3412   7.7919061246e+01   6.7143986210e+01     0.389773    0.1806119  22.98  0.001596015    2.630    0.620
       201 -10.4281     34.6760     41.6808   7.5227894823e+01   6.7382423745e+01    0.3677311     0.184249  31.07  0.001625019    2.169    0.539
       202  -9.7295      5.4649     42.6582   9.3458616796e+01   6.9978354829e+01    0.3405547    0.1203876 -72.95  0.001320746    2.664    0.625
       203 -11.1028      4.6706     35.9536   9.2120082548e+01   7.1670990000e+01    0.3636209    0.3203683 -16.83  0.001139957    1.211    0.174
       204 -10.0256     11.0535     30.7594   8.5806293012e+01   7.2458560734e+01    0.3065282    0.2035201 -34.56  0.001055722    1.450    0.310
       205  -9.5201      6.6179     30.5927   8.8974154776e+01   7.2831375052e+01    0.3135378    0.1536485  -6.04   0.00137443    2.754    0.637
       206 -10.4892     92.8214     41.3255   5.0226825032e+01   5.6379395108e+01    0.4740137    0.2689735  50.11  0.002049319    1.780    0.438
       207  -9.6981     17.8584     41.6650   8.5252312605e+01   6.9289407620e+01    0.2129566    0.1554016 -22.39   0.00116286    1.483    0.326
       208  -9.8587     86.0082     30.6522   4.7448562357e+01   5.9679461302e+01    0.3656251    0.2312031  21.63 0.0006718872    2.218    0.549
       209 -11.3223     78.3586     37.1610   5.3095433493e+01   6.0361622509e+01    0.5532073    0.3256333 -61.00  0.001396475    2.608    0.617
       210 -10.2226     79.9761     32.6881   5.0397881872e+01   6.0747579246e+01    0.7179407    0.5700178 -27.43  0.003752816    1.246    0.198
       211 -10.0010    231.2910     38.1212   2.7119212889e+01   2.4438598927e+01    0.3162327    0.1458486 -25.35  0.001548289    1.859    0.462
       212  -9.7723    183.4836     38.0308   3.1645391963e+01   3.4687133628e+01    0.1919934     0.174635 -64.47 0.0003126758    1.093    0.085
       213  -9.8742    133.0676     37.1649   3.8813854295e+01   4.7138138835e+01    0.3506486    0.2078823 -71.40  0.001395996    2.417    0.586
       214 -10.3295     67.8451     32.3998   5.4722844177e+01   6.3442869415e+01     0.543987    0.4330131 -72.76  0.002296519    1.666    0.400
       215 -11.3575     48.4260     30.6268   6.2539072521e+01   6.7541541438e+01    0.7355813    0.3130366  36.01  0.002869039    2.670    0.625
       216 -10.3606     43.0205     28.0418   6.3987028327e+01   6.8970368783e+01    0.2021396    0.1856918 -20.78  0.001203706    1.008    0.008
       217 -11.3122     60.7504     36.4268   5.9689017201e+01   6.4152560123e+01    0.4427911    0.3241397 -23.85  0.001304367    1.456    0.313
       218 -12.1861     57.6904     30.5294   5.8057271321e+01   6.5830873935e+01    0.4962341    0.3768997 -26.62  0.001330669    1.309    0.236
       219  -9.0308    206.4612     37.4492   2.9077097416e+01   2.9607921330e+01    0.1317423    0.1133574 -39.25 0.0003816819    1.013    0.013
       220 -10.1665    176.6238     35.6599   3.1732979173e+01   3.6582559747e+01    0.3148651    0.1891341 -44.57 0.0007875068    1.527    0.345
       221 -10.2152    152.9373     36.2145   3.5111440594e+01   4.2280519931e+01    0.2375787    0.2288824  13.21 0.0004786538    1.125    0.111
       222  -9.5764     94.1225     35.8444   4.7415800558e+01   5.6964000031e+01    0.2255202    0.1932736 -70.21 0.0006438995    1.326    0.246
       223 -11.3357    146.9609    237.7057   8.1369233077e+01   9.7823036309e+00    0.3886699    0.1962801  34.24  0.002374095    1.592    0.372
       224 -11.7813    164.3024     27.6830   3.0682144218e+01   4.0496107007e+01    0.3183385    0.2755938 -57.51 0.0004333941    1.097    0.088
       225  -9.8575    167.5170    238.4747   7.7740003822e+01   7.2560864950e+00    0.1088399     0.081986  16.24  0.000208393    1.008    0.008
       226  -9.5393    199.4488    234.7917   7.1802632625e+01   4.0129124274e+00    0.1369585   0.08291375 -15.37 0.0008825454    1.616    0.381
       227  -9.2140     15.3825    233.8013   1.0704420775e+02   2.4589043307e+01    0.1276474   0.08904381 -72.90 0.0009430368    1.710    0.415
       228 -10.1121    247.0026    231.2474   6.3993144926e+01  -6.8821644360e-01    0.1230041    0.0658941  24.64 0.0006781624    1.578    0.366
       229 -11.6786    107.3533     31.2930   4.1902102721e+01   5.4412758941e+01    0.6439145    0.3771608  10.41  0.002377505    2.968    0.663
       230 -12.1245    113.5112     25.1892   3.7884329278e+01   5.3667867790e+01    0.6934461    0.3725763  56.70  0.001961594    1.803    0.445
       231  -9.6808    169.9098     33.2528   3.1796886944e+01   3.8478689868e+01    0.2275292    0.1457354  39.67  0.001075581    1.893    0.472
       232  -9.5502    138.3361     33.2964   3.6424150636e+01   4.6320769216e+01    0.1497763    0.1084629  30.52 0.0005233648    1.650    0.394
       233  -8.7755    148.3015     32.6559   3.4578147002e+01   4.3887870671e+01     0.156075   0.09981237 -56.90 0.0007038387    1.680    0.405
       234  -9.4085    230.0282     30.6949   2.5375176231e+01   2.5480149774e+01    0.1608039     0.144338 -50.90  0.000353618    1.125    0.111
       235 -10.1348     98.7808     29.4503   4.3231028767e+01   5.6790257039e+01    0.5445257    0.2698154 -53.30  0.002015809    2.709    0.631
       236 -10.0399     47.0493     19.2563   5.6753358748e+01   6.9813937215e+01    0.3115651    0.2356933 -25.20  0.001701386    1.278    0.218
       237  -9.8204    233.2442    226.9835   6.5389865162e+01   1.1394218337e+00    0.1242332   0.07131938 -23.81 0.0008807508    1.586    0.369
       238  -9.3275     75.4668    224.5228   9.4215084148e+01   2.0245913398e+01    0.1141785   0.09154799  41.16 0.0002515483    1.008    0.008
       239  -9.6868     22.4895    223.5132   1.0523839148e+02   2.5784111739e+01    0.1114759   0.08176584  51.34 0.0001105168    1.040    0.038
       240  -9.1398    152.5531    219.4801   7.8066690278e+01   1.1589414276e+01    0.1150855   0.09212994  16.17 7.665697e-05    1.028    0.027
       241 -10.4588    197.9317     29.4060   2.7640232301e+01   3.2381574871e+01    0.2748216    0.2443031  66.06  0.001407393    1.267    0.210
       242 -11.0429    188.9854     27.7672   2.8012486487e+01   3.4593640210e+01    0.3738603    0.3014485   1.46   0.00158175    1.448    0.310
       243 -11.3782    183.3826     25.4656   2.7876259643e+01   3.6148526033e+01    0.4679676    0.3170576  52.96  0.002477502    1.648    0.393
       244 -10.5231    176.4291     30.5213   3.0163040558e+01   3.7231986491e+01    0.2454322     0.110463  56.01  0.001034352    2.331    0.571
       245 -10.1144    164.7183    212.0120   7.4742496112e+01   1.1073452981e+01    0.1976065    0.1407176  25.67 0.0005866993    1.179    0.152
       246  -9.8290    152.9876    207.4985   7.6346645724e+01   1.3271996123e+01    0.1973433    0.1739618 -68.67  0.001205848    1.658    0.397
       247  -8.9824     61.4944    206.5020   9.5768782230e+01   2.5053038925e+01     0.118961   0.09804367  47.50  0.000810649    1.010    0.010
       248  -8.8369     78.4739    203.5787   9.1680817221e+01   2.3637393955e+01    0.1199908    0.1013877  40.86 0.0001108083    1.016    0.016
       249  -9.8090    139.3458    198.6793   7.7826540395e+01   1.6500615820e+01    0.1196317    0.0902283  57.59 0.0007049561    1.732    0.423
       250  -9.8746    233.9116    196.5320   6.0581462276e+01   4.3087298186e+00    0.2112512    0.1202279 -14.21  0.001072211    1.555    0.357
       251  -9.7291    170.7654    190.9737   7.0397768552e+01   1.3290707996e+01    0.2675714    0.1389749  12.93  0.001196206    2.801    0.643
       252  -9.1650     16.4914    191.4871   1.0517911803e+02   3.2499256713e+01    0.1169824   0.09442462  58.64 0.0008104675    1.011    0.011
       253 -11.9882      4.5004    184.4051   1.0772798953e+02   3.4942702872e+01    0.5539956    0.3423214  69.28  0.003028271    1.365    0.267
       254 -10.9023    150.0329     27.2754   3.2420541945e+01   4.4100386999e+01     0.538271    0.1925897  54.31  0.001977056    2.767    0.639
       255  -8.9037     86.4771    185.5045   8.7849255796e+01   2.6124360361e+01     0.126029    0.1123895  42.79 0.0008102315    1.004    0.004
       256  -9.6590    214.0171     24.3260   2.4916155153e+01   2.9417955948e+01    0.1809194    0.1567176 -56.73  0.001177621    1.100    0.091
       257  -9.7071    216.5086     20.9386   2.3845467654e+01   2.9236844713e+01    0.1923825     0.148452  -6.07 0.0005274327    1.470    0.320
       258  -9.7052    168.7006     23.8658   2.8919749558e+01   3.9842305520e+01    0.2402093     0.183818  55.33 0.0009497616    1.409    0.290
       259  -9.0915    239.5361    184.5107   5.7724515944e+01   4.9961677829e+00    0.1121742   0.08296128  -4.93  5.10159e-05    1.004    0.004
       260 -10.0229     51.9545    173.5411   9.5134882264e+01   3.2866938584e+01    0.4236473     0.188973  89.47  0.001718671    3.164    0.684
       261  -9.4120     28.0353    175.6880   1.0146617199e+02   3.4847948469e+01    0.1723031    0.1436676  47.41 0.0007251208    1.105    0.095
       262  -9.8976     39.2454    173.4311   9.8415377777e+01   3.4253382491e+01    0.1847128   0.09611025  41.16 0.0009510416    1.655    0.396
       263  -9.2827    223.7886     22.3570   2.3714427258e+01   2.7588221777e+01    0.1528699    0.1121994  65.14 0.0004114529    1.594    0.373
       264 -11.7438    245.9785     19.4629   2.1674889962e+01   2.3552005200e+01    0.2969162    0.1420611 -38.09 0.0007066774    1.543    0.352
       265  -9.1715    170.6382    171.7289   6.7125268623e+01   1.6267676820e+01    0.1312141   0.08889055   5.44 0.0005582112    1.653    0.395
       266  -9.7270     35.5139    169.4389   9.9065862013e+01   3.5520512732e+01    0.1268337    0.1068549  61.50 0.0001041699    1.023    0.022
       267 -10.1289    230.1834     26.6966   2.4372263883e+01   2.5863684842e+01    0.2188905    0.1339162 -37.42 0.0006180737    1.290    0.225
       268 -11.7893      9.3407    167.1317   1.0579901084e+02   3.8347296336e+01    0.3296984    0.3102677 -61.80  0.001462578    1.298    0.229
       269  -9.7248     74.3934     19.7331   4.5620960081e+01   6.3957914991e+01    0.2445081    0.1889036  51.67  0.000557229    1.290    0.225
       270 -10.8571     14.1142    159.5937   1.0412272675e+02   3.9697292457e+01     0.261946    0.1894845 -86.72 0.0006684592    1.271    0.214
       271  -9.3667    198.2650    167.9888   6.1341683364e+01   1.2664279884e+01    0.1737759    0.1387428 -13.09 0.0005186835    1.087    0.080
       272  -9.3340    194.5542     19.4537   2.5094897277e+01   3.4192509441e+01    0.1822488    0.1195326 -83.17 0.0006935386    1.649    0.393
       273 -10.5479    186.6046     15.0110   2.4446318743e+01   3.6467091302e+01    0.2388209    0.2062997 -82.73 0.0005610713    1.168    0.144
       274  -9.2660    187.4734    167.5364   6.3178316876e+01   1.4345556962e+01    0.1273985    0.1047754  -0.38 5.021517e-05    1.051    0.049
       275 -10.0128     18.8031    164.8879   1.0317726437e+02   3.8092503707e+01    0.2547389     0.179147  -3.81  0.001456368    1.984    0.496
       276 -10.1466    204.9688    163.1480   5.9281104674e+01   1.2357187152e+01    0.2067987    0.1552685 -20.22 0.0005851205    1.168    0.144
       277 -10.0817     39.4321    162.2150   9.7393729008e+01   3.6769084723e+01    0.3821924    0.1598772  54.88  0.001640726    2.446    0.591
       278  -9.4037     74.2850     13.3880   4.2112014267e+01   6.4800906842e+01    0.1849597    0.1349848  72.90 0.0007674237    1.565    0.361
       279  -9.7371     28.2894    160.9760   1.0033860110e+02   3.8149795172e+01    0.1829939    0.1550183  75.03  0.001175436    1.045    0.043
       280 -10.5040      9.3559    155.6326   1.0520665079e+02   4.0988921201e+01    0.2571293    0.1299738 -75.10   0.00133082    1.834    0.455
       281 -10.2228    104.9096    154.4163   7.8750848967e+01   2.9903295345e+01     0.330638    0.2551271   0.14  0.001742751    1.626    0.385
       282 -10.2490     31.2313    152.8404   9.8841104386e+01   3.9782721106e+01    0.4094013    0.2205765  60.11  0.002023117    1.819    0.450
       283 -10.0193     59.7257     23.7683   5.3476465398e+01   6.6571612574e+01    0.2291184    0.1768763 -22.37 0.0004639853    1.289    0.224
       284 -11.9573     22.3561    149.5191   1.0111962118e+02   4.1388157394e+01    0.6410416    0.3418176 -33.63     0.002469    2.960    0.662
       285 -10.1288     13.9411     23.2992   8.0383908943e+01   7.3889475860e+01    0.2104493    0.1638702 -45.33 0.0005833281    1.113    0.101
       286 -11.3555      3.3763    152.7542   1.0672202141e+02   4.2093819160e+01    0.5416217    0.3907545 -34.08  0.003252844    1.853    0.460
       287 -10.6014      3.0874    147.4836   1.0655069708e+02   4.3360489065e+01    0.3843803    0.2398044  26.66  0.002043444    1.663    0.399
       288 -11.6940      2.0023    141.2921   1.0655778392e+02   4.4919140252e+01    0.3924998    0.2360775 -84.85  0.001632691    1.463    0.316
       289 -10.9237      5.6907    142.3571   1.0552265575e+02   4.4415254337e+01    0.4768154    0.1747949  64.57  0.001971049    2.730    0.634
       290  -9.4854    141.7243    152.4306   6.9541051680e+01   2.4272886798e+01    0.2630158    0.1252861  42.40   0.00113838    2.086    0.521
       291 -10.3468     64.5225    150.1563   8.9004638194e+01   3.6673021365e+01    0.4503175    0.1962045  13.84  0.001369058    5.059    0.802
       292 -11.3976     48.0045    146.7138   9.3336060232e+01   3.9495268412e+01    0.5061666    0.4032187 -10.94  0.002840096    1.650    0.394
       293 -10.7751     16.1521    147.9224   1.0280285490e+02   4.2290833989e+01    0.2860448    0.2113776  53.16 0.0006495805    1.217    0.179
       294  -8.9002    239.7000    146.6660   5.0728849052e+01   9.5130803098e+00    0.1221633   0.07625027  -2.07 0.0007033491    1.653    0.395
       295  -9.4454     74.2029    145.8656   8.5624085551e+01   3.6378556051e+01     0.182494    0.1604811 -30.80 0.0005500015    1.311    0.237
       296 -11.1508     33.2742    144.5133   9.7461777845e+01   4.1589214484e+01    0.3669011    0.2442241  54.13 0.0007782647    1.407    0.289
       297 -11.8295     12.7684    137.4102   1.0307100435e+02   4.5115457580e+01    0.6668909    0.4324854  84.91  0.003429095    1.382    0.276
       298  -9.6637    217.1328    138.8028   5.2449128897e+01   1.3904272947e+01    0.1788394    0.1561401 -22.55 0.0005452563    1.183    0.155
       299 -10.0081     40.5285    138.1144   9.4560915572e+01   4.2416349501e+01    0.2703718    0.1817235  62.74  0.001395303    1.477    0.323
       300  -9.5935     79.2797    137.9758   8.2869517440e+01   3.7498344433e+01    0.2019242     0.180507 -73.49  0.001063134    1.115    0.103
       301  -9.9872     32.0775    137.6851   9.7126316455e+01   4.3384027476e+01    0.2714198    0.2227717  30.09 0.0008733994    1.299    0.230
       302 -11.3215     22.3397    136.0559   9.9996227559e+01   4.4679882419e+01    0.5039079    0.4328926  44.01  0.002005304    1.182    0.154
       303 -10.9886     30.0922    132.9513   9.7246276378e+01   4.4754503018e+01    0.3825768    0.2832824 -50.10   0.00127676    1.479    0.324
       304  -9.2457     47.4779    135.0001   9.2011178032e+01   4.2416014844e+01    0.2078338    0.1283758 -73.02 0.0009978022    1.562    0.360
       305  -9.8060     73.4881    133.5258   8.3804211487e+01   3.9398520378e+01    0.2962837    0.1351232 -60.86  0.001208352    2.160    0.537
       306 -10.0928     39.4075    133.3694   9.4337132393e+01   4.3714232498e+01    0.2173152    0.2000598  26.96 0.0005457825    1.211    0.174
       307  -9.4507     62.7504    131.2769   8.6699935704e+01   4.1435189002e+01    0.2298744   0.09486818 -52.87 0.0008936176    2.388    0.581
       308  -8.8776    103.7133    130.7265   7.4566911603e+01   3.5262832612e+01    0.1383758     0.112249 -11.84 0.0001602229    1.508    0.337
       309  -9.5163     93.3029    129.6245   7.7254513239e+01   3.7258501432e+01    0.2321747    0.1684788  70.00  0.001105367    1.716    0.417
