#   1 NUMBER                 Running object number                                     
#   2 MAG_AUTO               Kron-like elliptical aperture magnitude                    [mag]
#   3 X_IMAGE                Object position along x                                    [pixel]
#   4 Y_IMAGE                Object position along y                                    [pixel]
#   5 X_WORLD                Barycenter position along world x axis                     [deg]
#   6 Y_WORLD                Barycenter position along world y axis                     [deg]
#   7 A_WORLD                Profile RMS along major axis (world units)                 [deg]
#   8 B_WORLD                Profile RMS along minor axis (world units)                 [deg]
#   9 THETA_WORLD            Position angle (CCW/world-x)                               [deg]
#  10 FWHM_WORLD             FWHM assuming a gaussian core                              [deg]
#  11 ELONGATION             A_IMAGE/B_IMAGE                                           
#  12 ELLIPTICITY            1 - B_IMAGE/A_IMAGE                                       
         1 -14.8691      7.0746    132.8667   1.1368818516e+02   4.6641092357e+01     4.818587     1.084461 -74.09   0.01530235    3.963    0.748
         2 -14.6413     10.9872    202.5384   1.1886850179e+02   2.9157841920e+01     1.584088     1.085105 -63.90  0.009681754    1.470    0.320
         3 -13.1679     22.2582     46.9322   8.9788602183e+01   6.5500557330e+01     1.517677    0.5704586  27.24  0.006933547    2.708    0.631
         4 -13.0874    218.8681     41.2680   3.6334795270e+01   2.6751338072e+01     1.069597    0.8793689 -22.93  0.006778297    1.579    0.367
         5 -13.5819    234.4782     31.1061   3.2748116437e+01   2.4858039140e+01    0.8327338    0.6594802  71.17  0.005725018    1.381    0.276
         6 -11.9994     56.7489     32.7056   6.8450269780e+01   6.3433312250e+01    0.6797821    0.5615724 -25.13  0.004308338    1.265    0.210
         7 -11.6184    232.8443     15.7321   2.9823468134e+01   2.7007292566e+01    0.4886456    0.3068919 -58.73  0.002813589    1.303    0.233
         8 -12.2762    136.6782      8.7705   3.8341276274e+01   4.9141534015e+01    0.4782252    0.3299999 -37.24  0.002826951    1.624    0.384
         9 -10.5702    158.0175     15.4839   3.7214302603e+01   4.3504540940e+01    0.4196481    0.2085104 -69.44  0.001791693    2.834    0.647
        10 -10.7912      2.6370      2.4346   8.1900435427e+01   7.4473237444e+01    0.2002104    0.1464942 -18.29  0.001486252    1.147    0.128
        11 -10.6450     15.0652    235.2952   1.2006228705e+02   2.1517847731e+01    0.2475077    0.1186162  46.26 0.0008832323    1.730    0.422
        12 -10.9723     43.8425    250.4052   1.1532640895e+02   1.5308945935e+01    0.5025538     0.153333  32.95  0.002156877    2.933    0.659
        13  -9.9647     38.4947    249.5112   1.1632489333e+02   1.6102586176e+01    0.2064988    0.1889209 -89.39 0.0009517737    1.260    0.207
        14  -9.7467     32.9847    249.9872   1.1743835037e+02   1.6624932238e+01     0.200518    0.1061775  62.02  0.001129058    1.668    0.400
        15 -10.2433      2.7221    250.1500   1.2314454440e+02   1.9686848247e+01    0.2006204    0.1416203  44.46  0.001432945    1.331    0.249
        16 -11.8388     86.5024    230.9582   1.0444669091e+02   1.3845656261e+01    0.5896906    0.3829506  19.52  0.003009324    1.850    0.459
        17 -11.9404     85.9267    223.7575   1.0373662363e+02   1.5474778804e+01    0.7943055    0.4986368  61.33  0.001711636    1.731    0.422
        18 -10.7985     20.1185    240.8891   1.1939358942e+02   1.9845097207e+01    0.3936563    0.1972238 -85.55   0.00194288    1.885    0.470
        19 -10.5096     69.5459    226.9438   1.0782740782e+02   1.7024481370e+01     0.622211    0.2529185  53.63   0.00252308    2.682    0.627
        20 -11.8642     65.4750    219.6405   1.0798652819e+02   1.9178022727e+01    0.8219413    0.4219279  60.02  0.003727555    2.159    0.537
        21 -10.6052     61.7859    214.5820   1.0830387612e+02   2.0804893884e+01    0.2956747     0.226027  36.50 0.0009304681    1.298    0.230
        22 -12.2483     45.2985    214.4797   1.1209772021e+02   2.2851026452e+01    0.8911498    0.3994908  63.00  0.003361037    2.618    0.618
        23 -12.3461     30.5037    205.3019   1.1467143477e+02   2.6622884252e+01     1.192557    0.6756408  70.92  0.006125608    1.765    0.433
        24 -12.8913     35.6897    195.3361   1.1254950187e+02   2.8449469190e+01     1.625179    0.6599669  66.21  0.005853832    3.554    0.719
        25  -9.2755     60.7921    249.5878   1.1183192118e+02   1.3424187033e+01    0.1682975   0.09363062  45.27 0.0003238752    1.490    0.329
        26  -9.1191     14.5235    247.5029   1.2083585767e+02   1.9067727267e+01    0.1160057   0.08737214  67.01  3.58764e-05    1.013    0.013
        27 -11.3475     53.8228    204.1052   1.0907013724e+02   2.4253563437e+01    0.5237947     0.329781 -77.30  0.001649075    1.554    0.356
        28  -9.7134     49.6947    200.3058   1.0966126973e+02   2.5661415475e+01    0.2427859    0.1956134  53.26 0.0007864633    1.170    0.145
        29 -11.3814     41.0179    179.8022   1.0958289261e+02   3.1708053163e+01     0.270715    0.2491695 -51.77 0.0005036024    1.216    0.178
        30 -11.5093     49.1331    173.2010   1.0662609154e+02   3.2460519393e+01    0.2641478    0.2535424 -58.79 0.0004647413    1.143    0.125
        31 -13.5476     21.1939    137.9200   1.1002221426e+02   4.4342317943e+01     1.564119    0.5785018 -67.73  0.006377895    2.215    0.549
        32 -10.4439     62.4943    163.1642   1.0148941423e+02   3.3387193739e+01    0.2419551    0.2359414  77.06 0.0003140675    1.075    0.069
        33 -13.0556     47.8317    159.3236   1.0510041770e+02   3.6187112933e+01    0.6505741     0.405423 -29.22  0.002512505    2.192    0.544
        34 -11.7105     71.2348    156.4420   9.7867480781e+01   3.3941048364e+01    0.5086059    0.4387258 -23.57  0.001421963    1.322    0.244
        35 -11.9498     67.8616    143.4610   9.6533862958e+01   3.7787024952e+01    0.7617978    0.4525004  62.18  0.002769266    2.321    0.569
        36 -10.1772    100.5271    144.5034   8.6963473209e+01   3.2373313272e+01    0.3259453    0.1555349  35.20  0.001211553    2.167    0.539
        37 -10.3262     88.2998    143.7055   9.0395114630e+01   3.4638723332e+01    0.2934602    0.2670276 -24.83 0.0008678784    1.161    0.139
        38 -11.1908     75.7159    141.3880   9.3728299981e+01   3.7194727740e+01    0.3123021    0.2507887 -55.16 0.0005108168    1.170    0.145
        39 -13.2343     16.1306    188.6726   1.1665448385e+02   3.1987223070e+01    0.9417607    0.5080913  51.70  0.003447706    1.779    0.438
        40  -9.9267     92.1671    140.1437   8.8486475955e+01   3.4907206593e+01    0.2405975     0.203191 -27.41 0.0005294021    1.275    0.216
        41 -10.6799    102.4936    138.9863   8.5176761865e+01   3.3409547664e+01    0.3255979    0.2464025  36.65  0.001525948    1.360    0.265
        42 -11.3569    242.1004    137.4946   5.3926828164e+01   6.8306013487e+00    0.2314766    0.1689729 -51.16  0.001097185    1.338    0.252
        43 -11.8580    102.6295    131.5907   8.3438243156e+01   3.5222086089e+01    0.9531224    0.4577971  30.10  0.002631776    2.425    0.588
        44 -10.3443     89.6173    127.7898   8.6497562890e+01   3.8450373630e+01    0.2696318    0.2621131 -20.10 0.0003220408    1.040    0.038
        45 -10.2766    114.2318    124.2949   7.8274693645e+01   3.4804769084e+01    0.5767137    0.2855359  21.46  0.001683095    3.952    0.747
        46 -11.7854     22.1271    121.8894   1.0743326502e+02   4.8369743482e+01    0.4696722    0.3145361 -68.86  0.001928063    1.296    0.228
        47 -10.1532    102.3444    119.5767   8.0596810581e+01   3.8202797346e+01    0.2646539    0.2390629 -52.66 0.0003951136    1.097    0.089
        48 -10.9856     41.1431    118.0223   1.0034168553e+02   4.7618589179e+01    0.4022795    0.2601368 -62.01  0.001907093    1.381    0.276
        49 -11.1390     31.1761    111.6520   1.0259177158e+02   5.0196828318e+01    0.4901769    0.2352056 -74.45  0.002008258    2.344    0.573
        50 -10.1730     61.3406    107.7925   9.1092169315e+01   4.7750983696e+01    0.2563556    0.2248316  10.37  0.001402705    1.210    0.173
        51 -13.3600    244.3853     98.8808   4.5623352675e+01   1.3024939662e+01    0.8965332    0.6488491 -55.05  0.005327449    1.235    0.190
        52  -9.9402     62.3038     98.8671   8.8518391835e+01   4.9766338413e+01    0.2364275    0.1901058 -74.15  0.001175658    1.482    0.325
        53 -11.6952     40.6217    104.9959   9.7865401663e+01   5.0934149063e+01    0.4731769    0.3918594 -43.49  0.002344412    1.075    0.070
        54 -12.6322     40.5633     82.4729   9.2457895747e+01   5.6275535087e+01     1.427147    0.6759797 -51.85  0.006400323    1.840    0.456
        55 -11.3332     34.5291     70.4848   9.1616153861e+01   5.9555245027e+01    0.5307943    0.4238137 -63.06  0.003102872    1.435    0.303
        56 -10.7359     16.5897     82.5115   1.0221096153e+02   5.8395913755e+01    0.3830092     0.279325 -22.38  0.001769165    1.355    0.262
        57 -10.9543    144.1239     69.3467   5.5165065440e+01   3.9632532328e+01    0.3660313    0.2944747  28.26  0.001875537    1.427    0.299
        58 -12.9171     20.3171     53.8297   9.2996264247e+01   6.4328081923e+01     0.970987    0.6525171  26.66  0.005004299    1.660    0.398
        59  -9.0914     59.4971    245.9973   1.1179652352e+02   1.4306736665e+01    0.1733987   0.08872844  74.61 0.0008093503    2.441    0.590
        60 -12.5603     10.1065     57.9623   9.9051142372e+01   6.4233258686e+01    0.6225286    0.5426576 -54.08  0.003129869    1.247    0.198
        61 -12.9518      3.7807     55.0617   1.0127726808e+02   6.5205584708e+01     1.011471    0.3889378 -58.82  0.003949599    2.154    0.536
        62 -13.1660     17.4441     42.3519   9.0594472797e+01   6.6783164586e+01    0.9636154    0.5623228  -4.82  0.004086651    1.774    0.436
        63 -11.1694     61.9207     52.5671   7.4190011568e+01   5.9448569243e+01    0.7664571    0.3132443  41.81  0.003153007    2.553    0.608
        64 -11.7888     52.5098     48.8443   7.6639122045e+01   6.1540431784e+01    0.7748945    0.3645641  34.54  0.003564875    2.095    0.523
        65  -9.9471     30.3309    242.7437   1.1749254390e+02   1.8384000603e+01    0.2871038     0.166804  73.41  0.001476382    1.590    0.371
        66 -12.0328    109.3353    240.7300   1.0052229096e+02   8.5716960963e+00    0.4208528    0.2959298 -55.65  0.001786034    1.601    0.376
        67 -10.9031     90.0012     36.1977   5.8144740044e+01   5.6739555289e+01    0.2588501    0.2060181 -33.94   0.00149811    1.382    0.277
        68 -11.9041     34.8806     33.8368   7.8632363740e+01   6.6434403685e+01    0.5920243    0.4499632 -37.45   0.00308579    1.391    0.281
        69 -13.8511    115.8919    232.3075   9.7979120799e+01   9.2768695841e+00     1.489465    0.9077438  56.03  0.006202059    1.890    0.471
        70 -13.7343    131.5204    231.3694   9.4334002119e+01   7.0890051026e+00    0.9926175     0.791143  34.83  0.004781981    1.125    0.111
        71 -11.4844    102.2107    241.5318   1.0218448182e+02   9.4443385236e+00    0.3280545    0.2080942  44.03  0.001512137    1.387    0.279
        72 -12.6114     34.5396    232.0232   1.1589214448e+02   2.0175523952e+01    0.5770114    0.4161319  66.55  0.001971333    1.177    0.150
