#   1 NUMBER                 Running object number                                     
#   2 MAG_AUTO               Kron-like elliptical aperture magnitude                    [mag]
#   3 X_IMAGE                Object position along x                                    [pixel]
#   4 Y_IMAGE                Object position along y                                    [pixel]
#   5 X_WORLD                Barycenter position along world x axis                     [deg]
#   6 Y_WORLD                Barycenter position along world y axis                     [deg]
#   7 A_WORLD                Profile RMS along major axis (world units)                 [deg]
#   8 B_WORLD                Profile RMS along minor axis (world units)                 [deg]
#   9 THETA_WORLD            Position angle (CCW/world-x)                               [deg]
#  10 FWHM_WORLD             FWHM assuming a gaussian core                              [deg]
#  11 ELONGATION             A_IMAGE/B_IMAGE                                           
#  12 ELLIPTICITY            1 - B_IMAGE/A_IMAGE                                       
         1 -15.2342     94.6655     77.0370   2.4295724369e+01   4.9327088958e+01     3.417362     2.004279  27.61   0.01298951    2.547    0.607
         2 -12.9967    143.7997     23.2856   3.5557022275e+02   4.6461348071e+01     1.913383    0.3063927  66.34  0.005742011    4.748    0.789
         3 -13.1781    189.4957     40.1591   3.5511163687e+02   3.4064362571e+01     1.332177     1.036587  23.72  0.007758534    2.077    0.518
         4 -14.3386    168.0637     45.3273   3.5887528635e+02   3.7996315237e+01     2.697234      1.94951 -16.40   0.01444513    1.871    0.466
         5 -14.3432    135.3682     36.0465   8.5705903792e-01   4.6887718494e+01     2.274864    0.9404175  68.83   0.00920226    2.414    0.586
         6 -13.0499    246.3426     38.6068   3.5031504244e+02   2.3677360389e+01    0.8011052    0.3432581 -50.08  0.004681794    1.706    0.414
         7 -13.0261    248.7510     30.8066   3.4865160005e+02   2.4193598209e+01    0.8447719    0.2045115 -34.55  0.003780193    3.070    0.674
         8 -12.3105    231.4344     31.8215   3.4987612816e+02   2.7017281679e+01    0.7855283    0.5184581 -30.74  0.005177231    1.548    0.354
         9 -13.3920    203.2774     61.4544   3.5877130266e+02   2.8380471791e+01     1.388492    0.6908548 -28.06  0.006550781    2.306    0.566
        10 -11.7204     14.1400     27.5307   4.4891944233e+01   7.3652732097e+01    0.5351301    0.4317636 -78.42  0.003146316    1.628    0.386
        11 -12.1020    110.5385     14.3687   3.5738691460e+02   5.5597305756e+01      0.84267    0.5630097  31.98  0.004284733    1.992    0.498
        12 -11.5995    244.6276      8.8016   3.4457685522e+02   2.7274445869e+01    0.3314849     0.179947 -65.19  0.002260051    1.490    0.329
        13  -9.6077     80.6770      4.6829   3.5911527075e+02   6.3915017856e+01    0.1378574   0.08820461  40.58 0.0007043221    1.667    0.400
        14 -11.5182     89.8393      2.4520   3.5614893577e+02   6.1860559323e+01    0.3156356    0.2042703 -73.25   0.00165251    1.698    0.411
        15 -12.6770    134.4792    230.6008   4.4724882712e+01   8.9444093703e+00     0.880905    0.3025057  36.35  0.003790711    2.667    0.625
        16 -10.9488    248.7841    249.1589   2.6787471766e+01  -4.8378520555e+00    0.2565904    0.1547925  23.99  0.002011471    1.821    0.451
        17 -10.6540    241.2998    250.0690   2.8004590092e+01  -4.3679503113e+00    0.2272804    0.1134374  34.18  0.001484545    2.768    0.639
        18 -10.5677    234.1866    250.4228   2.9121147276e+01  -3.8482334896e+00     0.264376    0.1103477  26.83  0.001550119    2.351    0.575
        19 -10.6313    230.1316    247.1742   2.9302527147e+01  -3.1352876341e+00    0.1744369    0.1257538 -31.74 0.0007870381    1.523    0.343
        20 -10.8312    227.4902    250.5435   3.0169626927e+01  -3.3196593585e+00    0.2690303   0.08388211  22.49  0.001202897    3.147    0.682
        21 -12.4053    212.3318    249.7889   3.2499573044e+01  -1.9412435955e+00    0.6047275    0.2132752  30.87  0.003308727    2.812    0.644
        22 -10.9553    148.1942    237.4247   4.2711444346e+01   6.2373407662e+00    0.4681258    0.3886783  71.80  0.003020947    2.025    0.506
        23 -12.9635    171.7899    241.1220   3.8527902018e+01   3.1237733413e+00    0.8611133    0.4290037  32.26  0.004929774    1.926    0.481
        24 -13.5770    189.6211    240.6883   3.5172226690e+01   1.3767666500e+00    0.7878965    0.4781778  23.14  0.005223101    1.494    0.331
        25 -12.5830    154.7407    238.6587   4.1540477934e+01   5.3185789895e+00    0.6687245    0.3329948 -30.09  0.003525408    2.213    0.548
        26 -12.6080    212.8073    243.4702   3.1562190571e+01  -1.1839684601e+00    0.4004659    0.3266207  43.93  0.002943279    2.275    0.560
        27 -14.2155    197.2026    236.4237   3.3236754505e+01   1.2221237885e+00     1.343041    0.6506761  37.18   0.00755243    2.538    0.606
        28 -11.2132    184.8348    249.7559   3.7246730374e+01   5.9333157011e-01    0.2847961    0.1420437  28.25  0.001730768    1.831    0.454
        29 -11.4864    170.5988    250.2536   3.9941260987e+01   1.9227051856e+00    0.3917537    0.1361235  24.24  0.001900816    2.541    0.606
        30 -11.4516    140.7485    241.9175   4.4813160778e+01   6.3357078729e+00    0.3107777    0.2840157  38.05  0.001879244    1.377    0.274
        31 -10.1338    134.3622    250.2429   4.7124932725e+01   5.6963823277e+00    0.2428667    0.1456469  13.73 0.0008989711    1.484    0.326
        32 -10.9343    136.9815    246.0180   4.6089651299e+01   6.0874427331e+00    0.3003249    0.2010439   4.64   0.00172289    1.400    0.286
        33 -10.9256      9.4699    247.3174   7.4666367657e+01   1.8868185392e+01    0.4413886    0.1829784 -83.20  0.002282106    2.649    0.623
        34 -10.8400     81.4835    238.3990   5.7566594638e+01   1.3602809496e+01    0.2848528    0.1982764  15.56  0.001358607    1.355    0.262
        35 -11.4342    211.5255    235.8313   3.0708124119e+01  -7.1649268690e-02    0.1916819    0.1362568  18.06  0.001045322    1.374    0.272
        36 -10.1465     42.3745    235.8154   6.6597110081e+01   1.8211825856e+01    0.1604495    0.1091518 -60.67 0.0009491035    1.731    0.422
        37 -10.8251    234.7419    234.5484   2.6836075587e+01  -1.9878035148e+00    0.2474335    0.1730437  45.36  0.001621033    3.086    0.676
        38 -10.6734    204.3297    229.9027   3.1073629255e+01   1.4235616154e+00    0.2024414    0.1725615 -16.81 0.0009247208    1.312    0.238
        39 -11.3494    249.1262    231.7197   2.4313383050e+01  -2.8459054427e+00    0.2210449    0.1971825 -56.52  0.001746182    2.534    0.605
        40 -10.2485     85.6427    232.3791   5.6024371063e+01   1.4299162004e+01    0.2556919    0.2005207 -53.28  0.001597223    1.471    0.320
        41 -10.1072     77.9647    232.6684   5.7870952408e+01   1.5105630386e+01    0.2271689    0.1676113 -26.12  0.001200519    1.650    0.394
        42 -10.9337    135.5252    236.1990   4.5205760325e+01   7.8658927251e+00      0.42493    0.3134363  -4.12  0.002696443    1.304    0.233
        43 -13.6675    188.2687    228.1612   3.3658154827e+01   3.3109294550e+00    0.7098813    0.6184836 -47.01  0.005183357    1.639    0.390
        44 -10.8302     38.4405    228.8073   6.7117001495e+01   2.0047983588e+01    0.4035707    0.2188866 -28.03  0.001797476    3.151    0.683
        45 -10.4651    242.6270    228.7490   2.4827398509e+01  -1.9456465748e+00    0.1461116     0.115619  25.92  0.001179891    1.774    0.436
        46  -9.9788    152.8599    228.1346   4.0522331669e+01   7.2291296847e+00    0.1801787    0.1527233  25.91  0.001222891    1.252    0.201
        47 -10.9082    145.2742    225.2821   4.1715918385e+01   8.5949440894e+00     0.316094    0.1773298 -35.96  0.001712454    1.844    0.458
        48 -10.0731    215.7940    226.2009   2.8614766075e+01   8.1283017413e-01    0.1399004    0.1229135  75.23 0.0008099247    2.749    0.636
        49 -11.3802     88.6922    240.9094   5.6134249155e+01   1.2333343415e+01    0.2689857    0.1755495  -9.58  0.000983919    1.945    0.486
        50 -11.5588    167.3195    219.7317   3.6412682872e+01   6.9387818966e+00    0.4260045    0.3343403  81.75  0.002384759    2.743    0.635
        51  -9.7149     68.5477    221.7458   5.9160421765e+01   1.8389854746e+01    0.1682837    0.1234464  83.41 0.0009517677    1.608    0.378
        52 -12.1131    125.3382    220.2920   4.5409769479e+01   1.1894940002e+01    0.4034016     0.251902  -6.25  0.002047832    1.984    0.496
        53 -11.1479    115.3082    223.8577   4.8149654948e+01   1.2449519869e+01    0.5005288    0.2381901 -60.02  0.002359054    2.560    0.609
        54 -10.9172    194.6824    215.9247   3.0687057626e+01   4.4475171201e+00    0.2121118      0.15704  24.70  0.001065745    1.405    0.288
        55 -10.8968     13.2668    216.0191   7.2674761490e+01   2.5111738943e+01    0.1794664    0.1504894  66.07   0.00116588    1.103    0.094
        56 -10.4668     42.1558    213.7370   6.5196242228e+01   2.2964903073e+01    0.2996478    0.2127167  76.80  0.001699051    1.470    0.320
        57 -11.1163    172.4345    213.1298   3.4422023464e+01   7.4212090761e+00    0.3035857    0.2656046  30.59  0.001701311    1.379    0.275
        58  -9.3300    119.3055    214.3194   4.6005216015e+01   1.3783992882e+01    0.1331801    0.0931624 -13.59 0.0003372828    1.633    0.388
        59 -12.3137     85.7389    206.5857   5.3246384883e+01   1.9618175229e+01     1.058846     0.681456  79.99  0.005078501    2.205    0.547
        60 -12.2433    116.2702    193.9695   4.3869293361e+01   1.8320472222e+01    0.5373733    0.4281306 -87.38  0.002764126    1.680    0.405
        61 -11.7783     98.6018    209.8577   5.0403248921e+01   1.7305777172e+01    0.9655167    0.6709647  55.51  0.005142289    1.662    0.398
        62 -11.4924    105.2691    209.6143   4.8735211997e+01   1.6509919921e+01    0.4673029    0.3360851  10.48  0.002271757    1.418    0.295
        63 -13.7919    105.5891    190.4491   4.6030732648e+01   2.0560357748e+01      1.48952    0.5489829  31.49  0.005692529    2.471    0.595
        64 -13.4645     78.4507    189.9731   5.3167929512e+01   2.4311880812e+01      1.53013    0.7358743 -57.76  0.006625477    2.137    0.532
        65 -12.7996     87.4121    186.1606   5.0223636488e+01   2.4027209198e+01    0.6377135    0.5221636  58.84  0.003487557    1.294    0.227
        66 -12.8067     97.1567    181.0821   4.6859062079e+01   2.3865537251e+01    0.9263346    0.4936323  34.11  0.004105047    1.741    0.426
        67 -13.5530    100.7576    199.1022   4.8475753944e+01   1.9319817364e+01       1.3772    0.7117761  21.12  0.006076573    2.005    0.501
        68 -13.3281     89.5480    195.2368   5.0860913184e+01   2.1654205813e+01    0.7310526     0.651428  33.31  0.003587315    1.037    0.036
        69 -10.5224     77.5406    212.4265   5.5985713417e+01   1.9344555402e+01    0.2854948    0.2357568  42.92  0.001550499    1.119    0.106
        70 -12.0967    182.9825    197.0532   2.9851152362e+01   8.8083548308e+00    0.6130564    0.4612583  69.24  0.003253473    2.847    0.649
        71 -12.6264    194.3391    207.0813   2.9377395632e+01   5.8395770691e+00    0.5402819    0.3804394  55.84  0.002998313    2.819    0.645
        72 -11.0591    181.1280    205.8504   3.1619161454e+01   7.5804054685e+00    0.2219961    0.1610499 -33.62 0.0009354581    1.280    0.219
        73 -10.0792    178.5000    201.5313   3.1432508809e+01   8.6142070078e+00    0.2408123    0.1637597  35.44  0.001284191    1.614    0.380
        74 -10.3979     35.0246    202.8812   6.6304266934e+01   2.6175969233e+01    0.3289997    0.1774169  81.36  0.001540992    2.070    0.517
        75  -9.9618     26.4084    201.1868   6.8509827537e+01   2.7393118804e+01    0.1871982    0.1138918  78.26 0.0007286051    1.672    0.402
        76  -9.8334    200.6465    200.3249   2.7181674497e+01   6.1654499631e+00    0.1016701   0.09645588  88.23 0.0003842729    1.763    0.433
        77 -12.2195    126.6221    194.3719   4.1428083465e+01   1.6804958747e+01    0.5851014    0.4296896 -20.32  0.002854112    1.491    0.329
        78 -10.3697    141.3657    197.5204   3.8515442795e+01   1.4159089774e+01    0.2606328    0.2160085  -6.33  0.001439727    1.150    0.131
        79 -10.6713    227.6560    191.9327   2.1399432509e+01   4.4048603504e+00     0.395079    0.1465238 -35.06  0.001993223    2.227    0.551
        80 -10.6760     13.6514    193.4515   7.1547778967e+01   3.0362260464e+01    0.3969603    0.1380034 -61.50  0.001576717    2.975    0.664
        81 -10.7876    248.8831    192.6416   1.8438946868e+01   2.1274351075e+00    0.2754756    0.1267864 -40.72  0.001648327    1.888    0.470
        82 -11.8535    131.8512    183.9511   3.8521558774e+01   1.8215582035e+01    0.5537712    0.2981358 -35.94  0.002473745    2.059    0.514
        83 -10.0922      6.7207    190.0464   7.3297802217e+01   3.1738216529e+01    0.1901567    0.1584343  74.97 0.0008684343    1.100    0.091
        84 -10.3500    145.0043    187.8999   3.6147504117e+01   1.5532040023e+01    0.3396835    0.2244568 -77.47  0.001497077    2.896    0.655
        85 -10.1489    151.4131    185.3312   3.4299180598e+01   1.5126756747e+01    0.2765687    0.1866055  60.60  0.001312117    2.438    0.590
        86 -11.2837     12.3233    183.3341   7.1399641667e+01   3.2977607149e+01    0.4395155    0.2076672  78.19  0.001927121    2.152    0.535
        87 -11.0614    114.3448    181.0486   4.2351163548e+01   2.1394822397e+01     0.339435    0.2014433  30.48   0.00158903    1.614    0.381
        88  -9.6187    193.2564    183.9747   2.5751559033e+01   9.6933248293e+00    0.1637714   0.09338778 -40.05 0.0008907217    1.569    0.363
        89 -11.3215    118.7630    177.2640   4.0610600971e+01   2.1579236982e+01    0.2889697    0.2495279 -51.52  0.001624269    1.204    0.169
        90 -11.3003     69.6979    177.6996   5.4076794985e+01   2.8412654542e+01    0.2834871    0.2350932  38.69  0.001323434    1.129    0.115
        91 -12.3860     61.7889    173.7514   5.5904984197e+01   3.0406208795e+01     1.079704    0.6944614 -42.12  0.005022111    1.794    0.443
        92 -13.0181     79.7729    172.5047   5.0446760105e+01   2.8361234675e+01    0.6538508    0.5140296  45.05  0.003404411    1.230    0.187
        93 -10.6555     20.9207    189.6183   6.9313751096e+01   3.0693207362e+01    0.2687132    0.1876372  80.00  0.001303605    1.381    0.276
        94 -10.9308    167.8601    182.6125   3.0366210521e+01   1.3328618226e+01    0.3730667    0.2660288   9.64  0.002100649    1.482    0.325
        95  -9.8996    108.4945    170.4658   4.2128916545e+01   2.4666127486e+01    0.1433095    0.1377077  10.71 0.0008096499    1.010    0.010
        96 -11.7041    129.1567    167.7885   3.6368189217e+01   2.2068076492e+01    0.4685515    0.2431109  29.54  0.002005332    2.002    0.501
        97 -10.5473     88.6981    165.3667   4.6776025344e+01   2.8857123278e+01    0.3374134    0.1912861 -31.54  0.001316891    2.462    0.594
        98 -11.3420    172.1952    163.6863   2.6049647507e+01   1.6217675757e+01    0.4518058    0.3839332 -16.82   0.00275843    1.095    0.087
        99 -11.7204    214.1033    160.8187   1.8102326393e+01   1.0769993466e+01    0.4449811    0.3364504 -18.46  0.002911974    1.205    0.170
       100 -12.1775     87.3754    157.9332   4.5935521725e+01   3.0905740959e+01    0.3501408    0.3312177  15.16   0.00190004    1.084    0.077
       101 -11.5545     93.0003    152.2715   4.3279382119e+01   3.1457064092e+01     0.303179    0.2769008  25.41  0.001347878    1.104    0.095
       102 -10.5767    249.8163    150.7935   1.1291661017e+01   7.8311927194e+00    0.2613646   0.06481951 -35.01  0.001019713    3.534    0.717
       103 -10.4082    123.5210    150.6649   3.4528554438e+01   2.6810434482e+01    0.2721932    0.2427272  16.41  0.001250663    1.157    0.136
       104 -13.1113    180.6957    131.9200   1.8027467794e+01   2.0795952160e+01    0.9244838    0.5403391  62.30   0.00413443    2.708    0.631
       105 -13.2218    170.8001    123.6267   1.8059995861e+01   2.4085197181e+01      1.37366     1.089235 -31.40  0.007683186    1.223    0.182
       106 -12.6307    185.2192    115.5451   1.3677755212e+01   2.2988334722e+01     1.039607    0.6312099 -33.38  0.005232933    1.593    0.372
       107 -13.0416    184.1999    126.0542   1.6149032956e+01   2.1272201573e+01    0.8655524    0.6285219  68.61  0.004623839    1.918    0.479
       108 -11.4777     56.2172    168.1194   5.6896362170e+01   3.2538974223e+01    0.6082833    0.5161998 -31.75  0.003263221    1.345    0.256
       109 -10.1376    240.6678    140.3317   1.0568137058e+01   1.0471502941e+01    0.1115729   0.07904059 -56.36  0.000705214    1.725    0.420
       110 -10.8855     92.8611    146.4434   4.2239177801e+01   3.2939389191e+01    0.3169781    0.1857522 -40.90  0.001082068    1.908    0.476
       111 -10.7051     49.0876    137.5444   5.5071657520e+01   4.1627733201e+01     0.349568    0.2162477 -73.31  0.001268662    1.623    0.384
       112 -12.4862    151.2855    128.8480   2.3218986007e+01   2.6618689261e+01     0.546849    0.4776512 -43.07  0.003062342    1.067    0.063
       113 -10.9839     96.8839    132.8579   3.8292292257e+01   3.5671090833e+01    0.2444645    0.2150751 -20.43  0.001239017    1.268    0.212
       114 -10.2874     80.3923    132.2104   4.3362673301e+01   3.8602769986e+01    0.2205473    0.1485377 -73.77  0.000947859    1.671    0.402
       115 -10.3906     91.3910    127.2424   3.8776736832e+01   3.8035746201e+01      0.22884    0.1488128 -68.42 0.0009625938    1.729    0.422
       116 -11.2306     39.2703    132.6165   5.7901292169e+01   4.4133339419e+01    0.3456716    0.2744568 -71.31  0.001752031    1.212    0.175
       117 -10.5391    209.9949    118.7737   1.0519534341e+01   1.8244984506e+01    0.2428497    0.1454247 -28.69  0.001287704    1.673    0.402
       118 -12.9779    128.3360    107.0158   2.3352520967e+01   3.5721223284e+01     1.327032    0.7318901 -49.75  0.005570489    1.761    0.432
       119 -12.2760     78.6404    105.0823   3.7831655299e+01   4.5899763206e+01    0.4936442    0.3906218  15.11   0.00233192    1.496    0.332
       120 -12.5612     74.7263    101.6556   3.8369857114e+01   4.7456441025e+01    0.6197358    0.3995086  32.81  0.002698892    1.612    0.380
       121 -11.8545     80.0805    110.4209   3.8646982493e+01   4.4290862894e+01    0.4804335    0.3381772  21.48   0.00212408    1.669    0.401
       122 -11.3832    211.7818    101.3502   6.6176466201e+00   2.0769105763e+01    0.3589715    0.2765186 -39.51  0.002273345    1.085    0.078
       123 -12.4998    200.5296     96.2615   7.0310588791e+00   2.3544462205e+01     1.046346    0.4693499 -44.48  0.004892844    1.863    0.463
       124 -13.6498    192.4134    134.1060   1.6435739455e+01   1.8461085475e+01     1.614969    0.7251855 -38.05  0.007302395    1.977    0.494
       125 -13.7198     97.7969     97.2296   2.9314204133e+01   4.4165741332e+01     1.149383    0.7816434  33.30   0.00511302    1.629    0.386
       126 -12.6595     35.2335     88.5753   5.1679656547e+01   5.6726124149e+01    0.8170038    0.6664778  47.04  0.003875791    1.284    0.221
       127 -11.7824     35.8075     81.6599   4.9760449752e+01   5.8481501549e+01    0.4878896    0.2994809 -35.44  0.002143804    1.824    0.452
       128 -12.6986    133.2567     59.6609   8.7303213326e+00   4.3823601551e+01     0.916631    0.5650519 -19.74  0.003866767    2.442    0.591
       129 -14.7783     72.7196     78.3441   3.2467381768e+01   5.3493025767e+01     1.899602    0.9922946  52.32  0.007336802    2.202    0.546
       130 -13.4768    132.6028     73.9239   1.3181560139e+01   4.1466532660e+01     2.222902    0.8285753 -31.36  0.006532276    4.283    0.767
       131 -13.8391    120.7782     71.4980   1.5199696807e+01   4.4615209667e+01     1.431395    0.9159067  41.67  0.006465112    1.777    0.437
       132 -14.3281    113.2390     83.1730   2.0708691364e+01   4.3997804637e+01     2.536057     1.109824  48.20  0.009458291    2.314    0.568
       133 -10.2407     17.1446    248.4532   7.3004400249e+01   1.8004300293e+01    0.2613288    0.1840098 -20.66  0.001600284    2.056    0.514
       134 -11.5268     50.7261     85.5594   4.3808041184e+01   5.5467691574e+01    0.4164223    0.2746836 -66.46  0.001720321    1.587    0.370
       135 -11.6299     20.0182     85.3309   5.8414536476e+01   5.9118647144e+01    0.3802433    0.2836877 -45.13  0.001957037    1.300    0.231
       136 -11.9751     46.1474     81.5261   4.4791844773e+01   5.7159977290e+01    0.3313985    0.2978605  14.73  0.001782165    1.158    0.136
       137 -13.2754    157.5144    244.3946   4.1723978973e+01   4.1327402230e+00     1.029151    0.5733123  14.73  0.006016219    1.620    0.383
       138 -10.1276     31.6781    247.6485   6.9713590739e+01   1.6872396466e+01      0.17466    0.1331038 -18.14 0.0007101856    1.759    0.431
       139 -11.1352     94.4881    245.3790   5.5243626224e+01   1.0877460018e+01    0.3722372    0.1977734 -37.06  0.001914282    2.404    0.584
       140 -10.0753     82.0236    246.5107   5.8161816306e+01   1.2026566806e+01    0.2179315    0.1598504 -35.23 0.0009644607    1.640    0.390
       141 -12.6975     51.5813     72.4460   3.9585008881e+01   5.8590108887e+01    0.5237516    0.4076885  12.54  0.002598168    1.454    0.312
       142 -12.2743     43.9140     70.3518   4.2603775159e+01   6.0261956241e+01    0.4284802    0.3611577   3.47  0.002264801    1.284    0.221
       143 -12.1314     53.2566     54.4442   3.2454665748e+01   6.2386048827e+01    0.5480676    0.1904172 -46.61  0.001913162    2.903    0.656
       144 -13.2031     31.0794     61.4956   4.6591370739e+01   6.4122895846e+01    0.8977151    0.5601886 -25.00  0.004051739    1.948    0.487
       145 -13.3195     65.2715     54.7181   2.7164376834e+01   6.0070830189e+01    0.9930359     0.555791 -53.10  0.004267636    1.968    0.492
       146 -12.5062     81.0682     56.7597   2.1845649245e+01   5.6385389815e+01    0.5488074    0.3582232 -63.24  0.002421806    1.937    0.484
       147 -13.5514     74.1250     57.5945   2.4718264258e+01   5.7696647812e+01     1.351184    0.5695195 -48.40    0.0050325    2.498    0.600
       148 -12.2347     43.2491     48.5039   3.5149172671e+01   6.5340842081e+01    0.4309572    0.3047051  80.01  0.001933126    2.364    0.577
       149 -10.9886      4.4259     88.6089   6.6706130772e+01   5.9272446885e+01    0.4007522    0.2630148 -83.49   0.00188946    1.456    0.313
       150 -11.8709     24.8154     47.8658   4.5711191109e+01   6.8064252809e+01     0.726027    0.3925516  41.25  0.003308741    2.015    0.504
       151 -11.7771    237.5098    243.7639   2.7709552572e+01  -3.3332940899e+00    0.2697773    0.2120568 -14.80  0.001883367    1.329    0.247
       152  -9.5935    114.0000    246.0287   5.0987847890e+01   8.6113864047e+00    0.1753843   0.06958389 -57.42 0.0002827819    3.028    0.670
       153 -14.3477    234.8022     67.1979   3.5692667447e+02   2.1942397867e+01     1.344198     1.028563  82.32  0.009501516    1.546    0.353
       154 -11.2181    222.3998    244.4500   3.0142336494e+01  -2.1518817689e+00    0.3536396    0.1395822  34.90  0.001949793    3.152    0.683
       155 -12.0582     29.4863     34.0659   3.6916352185e+01   7.0404656710e+01    0.6283391    0.3882678  29.56  0.003187408    1.572    0.364
       156 -10.8960    105.8809     33.6741   5.7357133168e+00   5.4404292242e+01    0.3128799    0.2607954 -89.45   0.00174982    1.179    0.152
       157 -10.2999    245.7636    243.6010   2.6465890024e+01  -3.9726103923e+00    0.1563196    0.1054246  16.37  0.001268051    1.505    0.335
       158  -9.9239     58.7481    243.5939   6.3270909914e+01   1.5025660856e+01     0.185326   0.08768366  35.02 0.0009511287    1.638    0.390
       159 -11.0143     20.9811     18.4790   3.4669208954e+01   7.4544675137e+01    0.2556612     0.169651 -27.65  0.001392971    1.594    0.373
       160 -11.4956    227.5938    237.7800   2.8394364510e+01  -1.7723065108e+00    0.2488897     0.201242  30.32  0.001967555    1.867    0.464
       161  -9.9784    132.4834    240.8479   4.6419449124e+01   7.4294702764e+00    0.3926885    0.2155796   6.31  0.002015978    2.069    0.517
       162 -13.4186    151.7862     48.3304   2.0141611888e+00   4.1269555918e+01     1.111937    0.6524434 -77.93  0.005019085    2.122    0.529
       163 -11.3580    130.3157    235.9019   4.6285563264e+01   8.5109751103e+00    0.4227363     0.265363 -16.61  0.002348706    1.852    0.460
