#   1 NUMBER                 Running object number                                     
#   2 MAG_AUTO               Kron-like elliptical aperture magnitude                    [mag]
#   3 X_IMAGE                Object position along x                                    [pixel]
#   4 Y_IMAGE                Object position along y                                    [pixel]
#   5 X_WORLD                Barycenter position along world x axis                     [deg]
#   6 Y_WORLD                Barycenter position along world y axis                     [deg]
#   7 A_WORLD                Profile RMS along major axis (world units)                 [deg]
#   8 B_WORLD                Profile RMS along minor axis (world units)                 [deg]
#   9 THETA_WORLD            Position angle (CCW/world-x)                               [deg]
#  10 FWHM_WORLD             FWHM assuming a gaussian core                              [deg]
#  11 ELONGATION             A_IMAGE/B_IMAGE                                           
#  12 ELLIPTICITY            1 - B_IMAGE/A_IMAGE                                       
         1  99.0000    214.2108     15.3764   3.0713750244e+01   3.0909171659e+01     1.309704    0.5531207  52.66  0.005080499    3.000    0.667
         2 -14.4130    178.8895     73.4520   4.8740207931e+01   3.0946264454e+01     9.530671     3.856692 -57.71   0.02837623    4.590    0.782
         3 -11.4977    249.7753     24.8402   2.9853685545e+01   2.2815384014e+01    0.8817896    0.2415927 -35.00  0.003788217    3.516    0.716
         4 -13.6671    226.4225     88.1161   4.5014834555e+01   1.8459321345e+01     4.574049     1.653424 -57.31  0.002718117    5.493    0.818
         5 -13.5513    225.1138     69.8464   4.1229125673e+01   2.1575881382e+01     3.659935     1.454926 -58.51   0.01131688    3.524    0.716
         6 -13.3199    238.4194     63.8787   3.8472001594e+01   1.9849139642e+01     1.493887    0.8411461 -50.35  0.008289038    1.500    0.333
         7 -14.3705    238.6033     48.3878   3.5313703408e+01   2.1969178604e+01     4.199396     1.551402  64.46   0.01980825    2.798    0.643
         8 -12.0443    221.1968     37.9547   3.4831740350e+01   2.6805612050e+01     1.334111    0.4533846 -54.18  0.005428392    3.097    0.677
         9  -9.4171    227.8836     14.3959   2.9444150910e+01   2.8224543311e+01    0.2577029     0.146061 -34.71 0.0008210305    1.850    0.459
        10  -8.3701    171.9056     12.1301   3.4054085852e+01   4.0523755392e+01    0.1786144    0.1396094 -70.19 0.0004452958    1.212    0.175
        11  -8.8441    164.1862     10.8972   3.4632556338e+01   4.2410871818e+01    0.2945968    0.1937968  18.83  0.001562409    2.426    0.588
        12 -10.2460    208.5413      8.8794   2.9812889921e+01   3.2780259982e+01    0.2438388    0.1875619 -30.04  0.001648832    1.580    0.367
        13  -9.9995    120.3474      9.2120   4.0536107497e+01   5.2716955790e+01    0.3526192    0.2984215 -25.99  0.001206824    1.381    0.276
        14  -9.3237    119.5558      4.5157   3.9146780407e+01   5.3280333759e+01    0.2177643    0.1619062  59.76 0.0006885628    1.116    0.104
        15  -7.6588    234.2449      9.3483   2.8018613181e+01   2.7513191670e+01   0.09059818   0.08705137  38.07 0.0006929752    1.577    0.366
        16  -8.6757    233.4288      5.5128   2.7345044845e+01   2.8074888167e+01    0.2400038    0.1193472 -34.51  0.001095081    2.076    0.518
        17  -9.8687    224.7178      5.1550   2.7854904768e+01   2.9833729188e+01     0.334305    0.2220975 -11.95  0.001288171    2.607    0.616
        18 -10.8899    248.7931      4.1067   2.6154782066e+01   2.5304317381e+01    0.2585488    0.2192711   5.51  0.001453696    2.142    0.533
        19  -9.5168    183.9996      4.9826   3.1081021811e+01   3.8479515277e+01    0.2976021    0.1823476 -72.38  0.001025879    1.569    0.363
        20  -8.8406    129.1007      5.1531   3.7787126641e+01   5.1036192443e+01    0.1870739    0.1446725  51.54 0.0003847771    1.190    0.159
        21  -8.3092     79.9678      3.7982   4.7370872637e+01   6.2034105621e+01    0.1969971    0.1605363  -5.72  0.001050667    1.350    0.259
        22  -8.0715    171.7937      2.5816   3.1695546481e+01   4.1431820023e+01    0.1709378   0.09751532  88.56 0.0009336553    1.636    0.389
        23  -8.3795    143.1204      1.8782   3.4811478963e+01   4.8058645906e+01    0.1809839    0.1458672 -75.77  0.000544624    1.257    0.204
        24  -7.8034    180.4570    182.4090   7.3888587045e+01   9.3505470620e+00    0.1419227    0.1327205  -7.95 8.120183e-05    1.060    0.057
        25  -9.0921    136.6820    250.0212   9.4962308764e+01   3.2513808474e+00    0.1948535    0.1632745  47.69  0.001150823    1.260    0.207
        26  -8.4638    207.4789    179.4712   6.7751925691e+01   5.3713954233e+00    0.1404188    0.1212077 -17.37 0.0008095874    1.010    0.010
        27  -9.9251    238.0963    175.3713   6.1391748185e+01   1.3602940167e+00    0.3476096    0.2787113 -84.26  0.001306519    2.303    0.566
        28  -8.7379    202.0240    175.0465   6.7926801653e+01   7.1082142544e+00    0.2171877    0.2009868 -25.52   0.00128731    1.116    0.104
        29  -9.6395    227.7652    170.0277   6.2110164869e+01   3.8522426845e+00    0.3525432    0.1978927 -49.68  0.001678891    1.944    0.486
        30 -10.2751    230.4982    167.4599   6.1121723548e+01   3.8808422238e+00    0.5980009    0.1919366 -45.39  0.002185935    3.032    0.670
        31 -11.4997     11.7379    159.4710   1.1443314634e+02   3.9792960105e+01     1.233298    0.3073032 -61.20  0.004613734    2.942    0.660
        32  -8.5128    186.4918    168.0169   6.9641818773e+01   1.1190867785e+01    0.2587248    0.2290023 -42.92 0.0004978906    1.158    0.136
        33  -8.3160    186.4550    164.5647   6.8919819823e+01   1.1895535393e+01     0.209191    0.1936302  52.24 0.0006983082    1.263    0.208
        34 -12.5696     27.2147    159.0322   1.1010614443e+02   3.8613763411e+01    0.8207086    0.7317274 -48.56  0.001345336    1.194    0.163
        35 -12.4043     39.7190    153.6469   1.0580943792e+02   3.8773587052e+01     1.055094    0.8703357 -54.26  0.002920941    1.161    0.138
        36 -10.1727    243.1302    165.2938   5.8587977323e+01   2.3363744840e+00    0.3106521     0.182115  44.94  0.001641954    2.113    0.527
        37  -9.4046    185.7731    240.9589   8.3293660737e+01  -2.2266834733e+00    0.2633978    0.2411109  66.33  0.001362745    1.674    0.403
        38  -9.0905    113.3310    242.0272   9.9000863010e+01   8.1207880610e+00    0.2985508    0.1296147  51.26  0.001192211    2.819    0.645
        39  -9.8161     69.8826    145.1639   9.5328433080e+01   3.7278981597e+01     0.401447    0.3579829  68.26  0.001346347    1.207    0.171
        40 -10.1750     66.4886    143.9857   9.6145466704e+01   3.8053081620e+01    0.6142211     0.381179 -75.74  0.001849473    1.865    0.464
        41  -9.3035    223.5546    145.2601   5.7750549524e+01   9.0097532542e+00    0.2543681    0.2339272 -67.10 0.0007386661    1.283    0.221
        42 -13.2220    244.3129    132.6919   5.1877024777e+01   7.7363000733e+00     2.190942     1.079066 -38.70  0.005408628    1.690    0.408
        43  -8.6966    133.6003    143.9996   7.6761843442e+01   2.6565984987e+01    0.4340606    0.1468008 -58.45  0.000952873    6.289    0.841
        44  -8.8672    179.0560    149.4965   6.7205053575e+01   1.6378358745e+01    0.2153939    0.1488755  40.27  0.000413997    1.526    0.345
        45  -9.6607    192.4408    143.9986   6.3205459649e+01   1.4921067652e+01    0.3008833    0.2258291  35.87 0.0005823067    1.444    0.307
        46  -8.6957    147.4881    143.9780   7.3224919846e+01   2.3819118624e+01    0.2351335     0.150901 -47.98 0.0006027222    1.533    0.348
        47  -9.4519    183.0226    142.0246   6.4680148238e+01   1.7145799871e+01    0.2305537    0.1824798 -73.53 0.0005476811    1.653    0.395
        48 -10.4424    179.6683    136.3434   6.4078006216e+01   1.8976046423e+01    0.4269822    0.2678939 -42.50  0.001505612    1.497    0.332
        49  -9.5625    175.5686    131.7002   6.3859855685e+01   2.0762120788e+01    0.3459783    0.2528501 -66.40 0.0009952099    1.722    0.419
        50 -10.1753    190.7345    136.8766   6.1939886755e+01   1.6670932384e+01    0.4502934    0.2609447 -63.52  0.001712412    2.739    0.635
        51  -9.5875    209.3975    136.4233   5.8318424328e+01   1.3187453886e+01    0.2746778    0.2491829 -56.33 0.0006938406    1.164    0.141
        52  -8.0511    172.4929    136.5043   6.5652792335e+01   2.0391108337e+01    0.1515784    0.1436587 -38.71  0.000810442    1.031    0.030
        53  -8.6999    135.0374    241.3474   9.4132911890e+01   5.0679563446e+00     0.192335    0.1477422  29.17 0.0004945752    1.141    0.124
        54  -9.3403    140.4588    132.4063   7.2241450946e+01   2.7853437029e+01    0.3629203    0.2530121 -70.22  0.001092748    1.963    0.491
        55 -10.5171    223.8594    129.2836   5.4304548874e+01   1.1852669291e+01    0.3913353    0.2745785 -60.31  0.001595396    1.639    0.390
        56  -8.7225    196.9213    128.1631   5.8756096879e+01   1.7162626252e+01    0.2678776     0.195712 -42.53 0.0008127562    1.252    0.201
        57  -8.7681    160.3658    128.5330   6.6469354877e+01   2.4574941089e+01    0.3474286    0.1856405 -37.11  0.001366941    1.920    0.479
        58  -9.5533    202.0211    125.8346   5.7283894935e+01   1.6604607566e+01    0.3447224    0.2528884 -73.10  0.001667614    1.835    0.455
        59  -8.1027    135.6106    126.1810   7.1956039456e+01   3.0252222676e+01    0.2323258    0.1436763 -35.92 0.0009509783    1.706    0.414
        60  -9.4706    175.0186    124.4523   6.2249267331e+01   2.2359829940e+01    0.4242216    0.2687013  71.00  0.001680192    2.515    0.602
        61  -8.5862    178.1543    122.3047   6.1078591782e+01   2.2138908751e+01    0.3273647    0.2368541 -70.39   0.00148695    1.820    0.451
        62  -7.9022    205.7614    122.3610   5.5829528622e+01   1.6526557495e+01    0.1767405    0.1344825  38.61 0.0005236363    1.494    0.331
        63 -10.3149    206.1152    235.2493   7.8297031106e+01  -4.0945292517e+00    0.2087152    0.1722855  -9.69 0.0002045638    1.091    0.083
        64  -8.9864    168.4028    116.2918   6.1665833482e+01   2.5415890565e+01    0.2914579    0.1422988 -38.73 0.0006934504    2.026    0.507
        65 -10.0744    162.4485    114.3665   6.2486921965e+01   2.7088964635e+01    0.4010312    0.2878954 -58.34 0.0007794932    1.540    0.350
        66  -7.8273     66.3132    115.9224   9.0331176957e+01   4.5186435176e+01    0.1997612    0.1731296 -42.63 0.0003619366    1.070    0.065
        67  -9.2521    135.8219    109.7486   6.7661920016e+01   3.3813014197e+01    0.6812754    0.3688364 -32.34  0.002590992    2.176    0.540
        68  -9.7143    200.7628    116.2424   5.5314783751e+01   1.8662556278e+01    0.3061801    0.2443796  38.78  0.001492301    1.415    0.293
        69 -10.0191    205.7763    109.9664   5.3005148791e+01   1.8808356319e+01    0.4080982    0.2934473  30.18  0.002049574    1.805    0.446
        70 -10.0443    122.9292    103.6868   6.9449094660e+01   3.7846611501e+01    0.5441273    0.4965965  70.28  0.002587511    1.220    0.180
        71  -9.4190    120.2267     97.0901   6.8351174956e+01   3.9804277419e+01    0.4126447    0.2085486 -52.67  0.001160248    2.291    0.563
        72  -9.0827    151.4831    102.1705   6.1815609724e+01   3.1953497557e+01    0.2901958    0.2429457  39.31 0.0007006443    1.238    0.193
        73  -7.7770     81.7414    101.3340   8.1406057197e+01   4.6267882789e+01    0.2345583    0.1815203 -54.85 0.0004013552    1.335    0.251
        74 -10.3721     84.9537     98.0877   7.9432570854e+01   4.6452147276e+01    0.2392817    0.2180932  -3.02   0.00129026    1.082    0.076
        75 -10.4510    165.5527     96.2435   5.7168563471e+01   2.9963889513e+01     1.015423    0.4266195  41.27  0.003562875    2.864    0.651
        76  -9.1132    136.8288     98.0839   6.4241113659e+01   3.6013244609e+01       0.2613    0.2131526  51.52 0.0006542476    1.250    0.200
        77  -9.6093    145.6160     92.5191   6.0569925308e+01   3.5152704347e+01    0.3071764    0.2738331 -59.16 0.0007375859    1.163    0.141
        78 -12.6002    249.0065     84.4287   4.1477382691e+01   1.4821507850e+01     1.341365    0.5882987 -43.00  0.003130564    1.844    0.458
        79  -8.0953    137.1265     92.0967   6.2498195382e+01   3.7133723933e+01    0.2037285      0.17683 -70.47 0.0004327575    1.297    0.229
        80  -8.2220    130.4470    235.9978   9.4396638068e+01   6.7622875455e+00    0.1674631    0.1173209  85.31 0.0003904696    2.365    0.577
        81 -10.9120    162.2948     87.4566   5.5528093430e+01   3.2320235928e+01    0.3431613    0.2806745 -33.37 0.0007879541    1.260    0.207
        82  -9.2885    208.1476     85.1623   4.6921814210e+01   2.2632372244e+01    0.3090699    0.1903263 -57.63 0.0006299536    1.675    0.403
        83 -11.0104    206.0210     71.2450   4.4013011541e+01   2.5312276964e+01     1.616528    0.4521383 -52.97  0.003998995    6.932    0.856
        84 -10.4865    200.8722     79.5401   4.6699439544e+01   2.5095017907e+01    0.3290423    0.2727911  44.84  0.001096704    1.398    0.285
        85 -10.6158    207.1126     77.1056   4.5214400101e+01   2.4158498888e+01    0.4070196    0.2475982  51.08   0.00149977    1.825    0.452
        86  -8.9573    152.2962     80.1231   5.5636078698e+01   3.5914815102e+01    0.2845485     0.134852 -31.77  0.001071282    2.441    0.590
        87 -10.4391    140.3666     78.2589   5.7775534069e+01   3.8978974553e+01    0.4914368    0.2898447 -46.08  0.001655753    1.759    0.432
        88  -9.1063    126.5015     77.4849   6.0936872463e+01   4.2250919788e+01    0.1474013     0.142014  25.65 -1.601374e-05    1.022    0.022
        89  -8.6089    196.2951     75.1064   4.6338444594e+01   2.6802212356e+01    0.3688903    0.1361526 -44.31  0.001425095    2.501    0.600
        90 -11.5543    150.8997     70.6857   5.3289677113e+01   3.7847558151e+01    0.5993438    0.4394414 -53.46  0.001033805    1.448    0.309
        91  -9.6478    134.1162     78.1709   5.9237228349e+01   4.0416065339e+01     0.221177    0.1946159  24.90            0    1.208    0.172
        92  -9.3399    198.3106     69.7018   4.4746604094e+01   2.7214771500e+01    0.3376359    0.1949757 -51.32  0.001169372    1.668    0.401
        93  -8.1859    192.9913     69.0426   4.5375285175e+01   2.8485638382e+01    0.2206943    0.1504961 -70.10 0.0008165749    1.641    0.391
        94  -9.2675    189.4092     65.7193   4.5104518402e+01   2.9794684924e+01     0.266435    0.1949283 -77.31 0.0007669578    1.487    0.327
        95  -9.3193    173.2779    235.0069   8.4928510838e+01   5.5608126926e-01    0.2432418    0.1660012  27.92 0.0002742407    1.312    0.238
        96 -10.3947    144.9829     69.1981   5.4122716443e+01   3.9465388644e+01      0.37592    0.2457937  14.76  0.001480303    2.610    0.617
        97  -8.0612    123.3975    235.1776   9.5857473771e+01   7.9755314063e+00    0.1679226    0.1306643 -74.02 0.0003251392    1.616    0.381
        98  -9.1289    218.5131    158.6237   6.1425596513e+01   7.4164777879e+00    0.2612244    0.2213455 -64.31  0.001133759    1.483    0.326
        99  -9.3124    135.4901     61.9850   5.4097517916e+01   4.2825188876e+01    0.2151101    0.1425966 -34.32  0.001032053    1.591    0.371
       100 -10.5670    144.1951     59.3211   5.1419181586e+01   4.1212939748e+01    0.3561316    0.3001654 -73.32  0.001074919    1.308    0.235
       101  -9.7956    143.4927     50.8472   4.9071816082e+01   4.2618599356e+01    0.3142874    0.2099045  33.63  0.001520351    1.798    0.444
       102 -10.1824    139.0759     54.8391   5.1166013930e+01   4.3078200660e+01    0.3059099    0.2658415 -42.54 0.0005199081    1.210    0.174
       103  -9.7228    137.8520     49.1295   4.9704237693e+01   4.4180596017e+01    0.3431184    0.2117755 -40.20 0.0008388546    1.707    0.414
       104  -7.8150     72.6108     58.4645   7.1237520130e+01   5.6559551841e+01    0.1370915    0.1229551  -1.79 9.050831e-05    1.029    0.028
       105  -9.7134    124.8064     55.2414   5.4500923578e+01   4.6317222824e+01    0.3047564    0.2341402 -70.51  0.001025151    1.672    0.402
       106  -9.6241    151.7934     54.9272   4.8637422004e+01   4.0085963257e+01    0.2459321    0.1944397  60.12 0.0006482513    1.197    0.165
       107  -8.3121    135.2963     55.2899   5.2115589641e+01   4.3891958613e+01    0.1398552    0.1060585  26.07  0.000199009    1.555    0.357
       108  -8.1450    185.2779     54.3555   4.2906453747e+01   3.2402394851e+01    0.1274948    0.1055689  20.24 0.0007010007    1.654    0.395
       109  -9.9995    176.9778     50.7847   4.3233283138e+01   3.4800318914e+01    0.6078737    0.3274065 -49.43  0.002869277    1.882    0.469
       110  -8.1034    122.3083     49.2975   5.3201197409e+01   4.7754350916e+01    0.1417703    0.1027578  26.00 0.0002815021    1.593    0.372
       111  -8.9940    174.9900    230.4250   8.3823594289e+01   1.1039702036e+00    0.2254647    0.1827008 -27.85 0.0001463893    1.240    0.194
       112  -9.3415    102.6531     44.4558   5.6601676950e+01   5.2811238445e+01    0.3407898    0.2108204 -41.57 0.0009813732    1.809    0.447
       113  -8.0240    172.5185     43.0980   4.1912122379e+01   3.6865473545e+01    0.1815679    0.1287434 -37.53 0.0004148426    1.469    0.319
       114  -9.8924    118.6917     42.3470   5.1795132790e+01   4.9529876781e+01    0.2510087    0.2117658  38.18 0.0003300794    1.134    0.118
       115  -9.3160    104.4145     37.1139   5.3555186037e+01   5.3401339612e+01    0.2593696    0.1631591 -45.69 0.0009473016    1.906    0.475
       116 -10.1065    123.1876     36.2873   4.8797016215e+01   4.9269896633e+01    0.2603298    0.1809228  11.71  0.001100722    1.927    0.481
       117  -9.0946    160.7953     34.2992   4.1330615995e+01   4.0700814826e+01    0.2106099    0.1666223 -54.29 0.0004848315    1.295    0.228
       118  -9.0978    198.7269     35.7905   3.6714285836e+01   3.1863523974e+01     0.219617     0.172591 -54.51 0.0005094023    1.186    0.157
       119  -8.5100    199.9687     30.0226   3.5254301839e+01   3.2292240276e+01    0.1806096    0.1500016 -71.83 0.0003500013    1.047    0.045
       120  -9.9722    131.8182     29.2526   4.4801212701e+01   4.8090013090e+01    0.2298979    0.2187372 -48.47 0.0005170712    1.163    0.140
       121  -9.7508    192.6315    155.4881   6.5695652898e+01   1.2590957091e+01    0.4580031    0.3264449 -55.30  0.001644803    1.576    0.365
       122  -9.3897    179.2454     23.5900   3.6057652340e+01   3.7661206121e+01    0.4155711    0.3011612  89.94  0.002492209    1.274    0.215
       123 -10.0805    132.1928     23.7667   4.3027023890e+01   4.8597219021e+01    0.3089237    0.1816377  54.22  0.001604558    1.487    0.328
       124  -7.3438    242.2992     22.3003   2.9914043735e+01   2.4518472105e+01   0.09483891   0.08733806  50.74 0.0004491256    1.580    0.367
       125  -8.7131    227.5359     18.5494   3.0293347597e+01   2.7834234269e+01    0.2737655    0.1331562 -55.08  0.001526563    1.777    0.437
       126  -8.5412     84.8065    227.5821   1.0366000362e+02   1.5148253579e+01    0.1902899    0.1081183  44.14  0.000466563    1.588    0.370
       127  -9.1243    130.4391     18.9920   4.1857380499e+01   4.9490489733e+01    0.2039774    0.1529332  62.30 0.0004714043    1.154    0.133
       128  -9.8003    173.4977    152.3204   6.9045406936e+01   1.6861580681e+01     0.295463    0.2565388 -36.89 0.0005461864    1.090    0.083
       129  -7.9962    189.6818     15.0066   3.2863128108e+01   3.6231786285e+01    0.1673194    0.1368477 -75.65 0.0005699349    1.065    0.061
       130  -8.3211    203.9399    152.4831   6.2823210670e+01   1.1117288769e+01    0.2042288    0.1424012  40.82 0.0006062886    1.573    0.364
       131  -9.2958    175.9428    225.8090   8.2855540390e+01   1.7800784438e+00    0.2114379    0.1791512 -23.67 0.0003628599    1.170    0.146
       132 -10.0913    142.7484    219.0868   8.9066346462e+01   8.1946555290e+00    0.2586775     0.229294 -35.90 0.0004474054    1.190    0.159
       133  -8.5216    224.5780    218.5677   7.1892023150e+01  -3.9172650490e+00    0.2214916    0.1915219  75.37 0.0007782022    2.268    0.559
       134  -8.2667     94.5373    213.4726   9.9590144828e+01   1.6854596206e+01    0.1364404    0.1289358  46.31 6.389094e-05    1.028    0.027
       135  -7.8323    210.8143    209.0180   7.2775909265e+01  -4.3544422828e-01    0.1703741    0.1472763  48.21 0.0005983887    1.601    0.375
       136  -8.6642    186.9319    208.4190   7.7486558552e+01   3.2611599431e+00    0.3370253     0.224715  72.44  0.001214532    4.556    0.780
       137  -8.7464    165.7417    205.0611   8.1459359007e+01   7.2909086609e+00    0.2202618    0.1853491  23.11 0.0003597771    1.123    0.110
       138  -9.7336    194.2103    197.0521   7.3852918824e+01   4.2253827020e+00    0.4758208    0.2432739 -58.51  0.001733942    3.624    0.724
       139 -10.7425     55.3798    149.9763   1.0058491404e+02   3.7945278033e+01    0.5698703    0.5088181   5.86  0.003205324    1.268    0.212
       140  -9.6467     26.6059    198.9151   1.1432393744e+02   2.8788831904e+01    0.2484508    0.2013322 -61.43 0.0003136504    1.297    0.229
       141  -8.0207    174.2202    189.0867   7.6572030111e+01   9.0754677738e+00    0.2283186    0.1757785 -79.23  0.001076475    2.098    0.523
       142  -9.4699    214.9973    188.0370   6.8002758387e+01   2.6177905853e+00    0.1974314    0.1725778 -73.52  0.001138638    1.724    0.420
       143  -8.6271    242.3168    183.2985   6.2212985878e+01  -5.7787023476e-01    0.2039612    0.1924021  -8.01 0.0005335998    1.284    0.221
       144  -8.3321    116.9790    148.3547   8.2215178958e+01   2.8702613927e+01     0.203444    0.1910157  30.45 0.0002637211    1.082    0.075
       145  -8.6967     29.4818    183.2094   1.1215248725e+02   3.2313321081e+01    0.1976924    0.1776845  43.34 0.0003441552    1.210    0.174
