#   1 NUMBER                 Running object number                                     
#   2 MAG_AUTO               Kron-like elliptical aperture magnitude                    [mag]
#   3 X_IMAGE                Object position along x                                    [pixel]
#   4 Y_IMAGE                Object position along y                                    [pixel]
#   5 X_WORLD                Barycenter position along world x axis                     [deg]
#   6 Y_WORLD                Barycenter position along world y axis                     [deg]
#   7 A_WORLD                Profile RMS along major axis (world units)                 [deg]
#   8 B_WORLD                Profile RMS along minor axis (world units)                 [deg]
#   9 THETA_WORLD            Position angle (CCW/world-x)                               [deg]
#  10 FWHM_WORLD             FWHM assuming a gaussian core                              [deg]
#  11 ELONGATION             A_IMAGE/B_IMAGE                                           
#  12 ELLIPTICITY            1 - B_IMAGE/A_IMAGE                                       
         1 -12.6230     56.3389    128.1871   1.0369265873e+02   4.3187631486e+01     2.605554      0.82613 -73.37  0.005226939    9.557    0.895
         2 -13.7962    217.7299     33.3573   4.0150661689e+01   2.7081688817e+01     1.192356    0.7340178  63.40  0.005821692    1.610    0.379
         3 -13.9097    224.1980     26.8237   3.7991217411e+01   2.6431895099e+01     1.671827     0.931464  38.81  0.001487026    3.106    0.678
         4 -13.5302    242.7201      9.7636   3.2792147475e+01   2.4400774686e+01    0.7260528    0.5016474 -64.13  0.002610935    1.180    0.152
         5 -11.0095      2.3922      4.9727   9.1602869101e+01   7.3992296333e+01    0.4085529   0.08004285 -47.69  0.001626877    4.205    0.762
         6 -15.2003     33.2539    198.3845   1.1848583444e+02   2.8894367689e+01     2.804829     1.572691  79.71   0.01206248    1.718    0.418
         7 -13.1094     30.4945    247.8531   1.2241922733e+02   1.9034740923e+01    0.9057178    0.6185976  38.38  0.006277638    1.500    0.333
         8 -15.1286     85.3818    242.4769   1.1150546455e+02   1.3086834596e+01     6.326064     2.640191  34.50    0.0296392    2.248    0.555
         9 -10.8440     61.2227    234.6521   1.1565069703e+02   1.7875902423e+01    0.3041493    0.1892909  72.37 0.0009559579    1.537    0.350
        10 -10.2259    192.4650    193.2827   8.1394283911e+01   4.6658396279e+00    0.4705083    0.2388043 -58.70  0.001669636    3.874    0.742
        11 -11.8026     53.1496    181.1398   1.1220430126e+02   3.0563820778e+01    0.4115582    0.2875004 -34.93  0.001782475    2.036    0.509
        12 -11.6292     59.4539    175.0815   1.0991728698e+02   3.1210804219e+01     0.288074    0.2564977 -37.88 0.0006233923    1.381    0.276
        13  -8.5436     82.2914    181.7035   1.0508689795e+02   2.6447602493e+01    0.1433855   0.09889835  69.09 0.0002636432    1.558    0.358
        14  -9.7879    176.6332    222.7782   8.9881599206e+01   2.2438163567e+00    0.1667913    0.1270965 -53.95 0.0006161666    1.673    0.402
        15 -11.1249     70.6673    165.0141   1.0564486506e+02   3.2140973438e+01    0.2692255    0.2424443 -77.18 0.0004012905    1.064    0.060
        16 -13.1502     56.7650    161.5825   1.0883653395e+02   3.4829469090e+01     0.521839    0.3207939 -44.19  0.001492376    1.908    0.476
        17 -11.7492     34.5207    158.7477   1.1433898946e+02   3.8045496600e+01    0.6507495    0.2524532  60.83  0.002316098    3.791    0.736
        18  -9.8720    123.2093    151.7398   8.9221966934e+01   2.6564598306e+01    0.2831179    0.2204369 -80.62 0.0009641487    1.552    0.356
        19 -11.8840     22.7790    147.4258   1.1617516523e+02   4.1904209461e+01    0.3734591    0.2056913  60.99  0.001877733    1.980    0.495
        20  -9.5879    134.1855    147.8782   8.5542797362e+01   2.5307126204e+01    0.3427758    0.1210514 -54.90  0.001020144    3.402    0.706
        21 -10.6197     93.8580    144.1538   9.5671482481e+01   3.3706417394e+01    0.3367566     0.307506  40.56 0.0008286936    1.127    0.113
        22  -9.5614     97.1530    140.8658   9.4074855030e+01   3.3951445285e+01     0.243566    0.1862011 -18.40 0.0004872629    1.728    0.421
        23 -11.9666     81.7996    142.4328   9.8771879975e+01   3.6079889387e+01    0.3310797    0.2687226 -61.80 0.0005553277    1.176    0.150
        24  -9.9638    157.3016    131.9388   7.6089541148e+01   2.4025804335e+01    0.3997616    0.2904359 -11.51  0.001468071    1.890    0.471
        25 -10.5652    106.5028    131.5914   8.9405818134e+01   3.4530905261e+01    0.3739074    0.3469544 -77.12  0.001012197    1.101    0.092
        26 -11.5332     66.7922    127.8139   1.0041631967e+02   4.1915642602e+01    0.6135694    0.3503618  86.83   0.00226675    3.064    0.674
        27 -10.2084     93.8717    128.2913   9.2335459470e+01   3.7592712503e+01    0.3259758     0.267824 -14.13  0.001610682    1.482    0.325
        28  -9.9297    114.6846    125.3318   8.5618274335e+01   3.4461128488e+01    0.3196079    0.2285526 -11.02 0.0009516107    2.068    0.516
        29 -10.3454     49.1742    122.8610   1.0495523342e+02   4.5362696224e+01    0.2115107     0.177046  80.79  0.000601386    1.271    0.213
        30  -9.5888    104.9181    120.0736   8.7159322622e+01   3.7581274705e+01    0.2216234    0.2148286 -33.77  0.000306003    1.036    0.034
        31  -8.9765    168.0154    112.9945   6.8860930085e+01   2.5621035070e+01    0.2523537    0.1946528 -82.40   0.00112482    1.720    0.419
        32  -9.7345    205.0181    110.5155   6.0752454498e+01   1.7754114514e+01    0.3457819    0.2305914  36.03  0.001487149    1.761    0.432
        33 -12.7355     77.8849    158.0155   1.0261688942e+02   3.2816400179e+01     1.351986    0.7136919  61.49  0.001208163    2.547    0.607
        34 -10.3663     48.9051    224.5848   1.1731188818e+02   2.1456699278e+01    0.2402206    0.1511502 -62.51 0.0009604494    1.747    0.428
        35  -9.2827     24.8945     82.7179   1.0546038483e+02   5.7326066474e+01     0.166393    0.1519813 -45.42 0.0003255531    1.094    0.086
        36 -14.5046      9.0167    207.6275   1.2418851823e+02   2.9296408797e+01     1.829666     1.015509 -80.03  0.004922202    1.548    0.354
        37 -10.8980     13.4230     60.2521   1.0493413339e+02   6.3094053906e+01    0.2156342     0.182435 -52.49 0.0005473809    1.132    0.116
        38  -8.9490     78.3609     50.2906   7.4841544278e+01   5.7157477548e+01    0.1452714     0.100916   6.80 0.0004304914    1.695    0.410
        39 -12.8989     68.2114    144.1016   1.0297828588e+02   3.7656706592e+01     0.806567     0.555083  76.78  0.002633727    1.741    0.426
        40 -11.9908    201.4248     47.1745   4.5485493828e+01   2.9053671412e+01    0.5580096    0.3726123 -54.25  0.002870191    1.458    0.314
        41 -15.5461      7.0814    238.0161   1.2609292512e+02   2.3340614766e+01     13.83949     1.022435 -77.73   0.03451888   11.674    0.914
        42 -12.2322    151.1225    228.9590   9.6167730443e+01   5.3816159910e+00    0.6097312    0.1827635  33.97  0.002108111    3.340    0.701
        43  -9.9438     95.0187     42.3121   6.6261776326e+01   5.5206362339e+01    0.3004057    0.1867262 -41.53   0.00130505    1.773    0.436
        44 -12.7253     22.5718    209.1128   1.2154647123e+02   2.7668754511e+01    0.3465453     0.287708 -51.70 0.0007963462    1.608    0.378
        45  -9.5214    127.4811     35.0410   5.4914108613e+01   4.8899210980e+01     0.251735    0.1927854  81.95 0.0007744446    1.534    0.348
        46 -11.5015     56.9116    238.6680   1.1683046037e+02   1.7642631569e+01     0.342761    0.1645005 -80.03  0.001475933    2.264    0.558
        47  -9.8957    189.5079     15.0657   3.8780450782e+01   3.5906802275e+01    0.1834046    0.1286038 -32.12 0.0007266753    1.571    0.364
