#   1 NUMBER                 Running object number                                     
#   2 MAG_AUTO               Kron-like elliptical aperture magnitude                    [mag]
#   3 X_IMAGE                Object position along x                                    [pixel]
#   4 Y_IMAGE                Object position along y                                    [pixel]
#   5 X_WORLD                Barycenter position along world x axis                     [deg]
#   6 Y_WORLD                Barycenter position along world y axis                     [deg]
#   7 A_WORLD                Profile RMS along major axis (world units)                 [deg]
#   8 B_WORLD                Profile RMS along minor axis (world units)                 [deg]
#   9 THETA_WORLD            Position angle (CCW/world-x)                               [deg]
#  10 FWHM_WORLD             FWHM assuming a gaussian core                              [deg]
#  11 ELONGATION             A_IMAGE/B_IMAGE                                           
#  12 ELLIPTICITY            1 - B_IMAGE/A_IMAGE                                       
         1 -14.4000    163.2077     54.4424   7.2625391957e+01   3.7393235127e+01     1.819236     1.432257  31.90  0.006094315    1.508    0.337
         2 -14.2605    176.7365     39.5339   6.6067717252e+01   3.6049509346e+01      1.05945    0.8784231  64.49  0.003284274    1.150    0.130
         3 -13.6739    181.2232     32.4487   6.3467355130e+01   3.5821159033e+01    0.7845587    0.5151542  54.33  0.001416081    1.525    0.344
         4 -14.7361    195.3942      7.9065   5.5447707006e+01   3.5060044753e+01     1.273669    0.9380667  63.87  0.004281669    1.341    0.254
         5 -12.8414    225.7047      2.6046   5.1745869508e+01   2.8537138597e+01     1.349839    0.2749065  77.29  0.004344876    4.994    0.800
         6 -10.0559    120.9650      6.4709   6.4975476252e+01   5.3679316847e+01    0.1865034    0.1062799 -85.73 0.0008094565    2.508    0.601
         7 -10.8304     11.4713    206.1428   1.4314818439e+02   3.0070058196e+01    0.2545738    0.1942388  40.47  0.001760304    1.431    0.301
         8 -13.3691    247.4338    245.8478   9.9551306731e+01  -1.1423472101e+01    0.7870259    0.4768807 -19.72  0.005108772    1.527    0.345
         9 -10.6786    165.8955    172.9452   1.0236480390e+02   1.3588142891e+01    0.2637958    0.2296296  62.73 0.0004603709    1.283    0.221
        10 -10.7790      3.0378    176.5152   1.4312127406e+02   3.7393094959e+01    0.1191463    0.1043665 -88.76 0.0008470447    1.190    0.160
        11 -10.5258    200.7969    168.5823   9.3994516096e+01   7.5878799182e+00    0.2622807    0.2395454  87.32 0.0007759954    1.412    0.292
        12 -10.9277    204.8456    166.6889   9.2791758899e+01   7.1628058639e+00    0.3393034    0.3291552 -35.20  0.001493835    1.153    0.133
        13 -11.5498    230.1880    166.6164   8.8035091844e+01   2.5407828003e+00    0.3287054    0.1676705 -49.32  0.001413272    2.389    0.581
        14 -11.8852    189.3357    155.1999   9.3466900569e+01   1.2405653540e+01    0.5079857    0.4648123 -47.46  0.001691737    1.148    0.129
        15 -11.9875    193.5247    165.9586   9.4921096154e+01   9.4887822847e+00     0.352424     0.322451 -36.97 0.0007497275    1.128    0.114
        16 -11.3193    190.2605    161.1399   9.4568571966e+01   1.1061241387e+01     0.384388    0.2938528  65.09  0.001382496    1.681    0.405
        17 -11.3231    204.6936    176.5291   9.4858605683e+01   5.4116676277e+00    0.4303379    0.3066778 -47.91  0.001525146    1.560    0.359
        18 -11.8484    113.8302    161.0514   1.1274407283e+02   2.6464193461e+01    0.4184876    0.3180521 -88.88  0.001393584    1.583    0.368
        19 -10.3919    172.3604    188.9771   1.0407737385e+02   9.1516344186e+00    0.1954954     0.184529 -33.63  0.001127224    1.140    0.122
        20 -11.5020    120.3049    157.5740   1.1035905555e+02   2.6055554501e+01    0.4506175      0.24361 -44.27  0.001803446    2.005    0.501
        21 -10.5587    130.2215    157.5542   1.0778972157e+02   2.4114762597e+01    0.2896736    0.2321085  75.04 0.0007162612    1.456    0.313
        22 -12.4320    134.0152    145.9731   1.0431971180e+02   2.6013281205e+01     1.416198    0.3569708 -54.57  0.003192746    6.039    0.834
        23 -10.5990    154.0041    153.8036   1.0108667481e+02   2.0075690534e+01    0.2986791    0.2099722 -77.42 0.0008798607    2.110    0.526
        24 -10.6715    151.3547    150.6980   1.0103730020e+02   2.1313925128e+01     0.265821    0.2175982  69.89 0.0009419381    1.411    0.291
        25 -11.4902    164.6750    152.5360   9.8296788264e+01   1.8098877043e+01    0.3598185    0.2754831  68.34  0.001078708    1.616    0.381
        26 -12.2367    193.3298    195.3512   1.0084966243e+02   4.1303609071e+00     1.215164     0.676132 -64.68  0.003999888    4.939    0.798
        27 -10.7003    174.4621    148.8893   9.5261054358e+01   1.6783922887e+01    0.3132655    0.2678662  82.74 0.0008213699    1.434    0.303
        28 -12.3377    145.1507    146.2237   1.0155496650e+02   2.3620824183e+01    0.6079144    0.4263041  65.92  0.002612297    1.782    0.439
        29 -12.1413    204.4528    199.6580   9.9422743748e+01   1.4517389642e+00    0.5247101    0.2439942  38.76  0.002339607    2.035    0.509
        30 -12.9333    101.9252    137.3974   1.1115595772e+02   3.4380916846e+01    0.4084576     0.334427 -49.20 0.0005555584    1.229    0.186
        31 -12.2179    106.0252    130.8701   1.0851864148e+02   3.5193101185e+01    0.4568099    0.3747469 -71.27  0.001231874    1.297    0.229
        32 -11.4959    106.4801    124.5833   1.0690802502e+02   3.6613500140e+01     0.305073     0.256306 -24.73 0.0004907319    1.365    0.267
        33 -12.4466    135.6649    126.8714   9.9389489281e+01   3.0033952123e+01     1.410924    0.3424144 -51.27  0.003330981    5.215    0.808
        34 -11.5452    118.0212    128.8662   1.0464812802e+02   3.3300873430e+01    0.3538238    0.3061028  -5.09  0.000638078    1.385    0.278
        35 -11.0290    160.9021    128.1451   9.3447458979e+01   2.4126916476e+01    0.4408084    0.3341736 -76.36  0.001948321    1.726    0.421
        36 -10.9278    122.2888    122.7176   1.0195521091e+02   3.3852763672e+01    0.4888009    0.2788829 -21.27  0.001495814    3.756    0.734
        37 -10.8255    112.9101    118.6589   1.0358266041e+02   3.6735893840e+01    0.4105081    0.2926873 -70.46  0.001536008    1.719    0.418
        38 -11.2254    167.9962    112.8589   8.7954947012e+01   2.5677978410e+01    0.4468616    0.3194813 -70.29   0.00190364    1.819    0.450
        39 -10.8065    134.6078    106.1004   9.4245782160e+01   3.4872609646e+01    0.6221163    0.1479231 -46.26  0.001586064    4.359    0.771
        40 -10.8113    205.4261    110.3281   7.9847694290e+01   1.7540771876e+01    0.3379861    0.2421795  39.68  0.001027332    1.564    0.360
        41  -9.9436     73.0551    183.9810   1.2700687998e+02   2.7779991363e+01    0.1964784    0.1781846  80.40  0.000424785    1.054    0.051
        42 -10.4641     75.0167     99.4552   1.1049438866e+02   4.8174852113e+01    0.2218266    0.1444128  35.56  0.001033491    1.607    0.378
        43  -9.9274    149.6726     81.0276   8.3329427198e+01   3.6332993684e+01    0.2203799    0.1956216 -43.00 0.0007987314    1.151    0.131
        44 -10.9061     85.2793     77.0297   1.0046505585e+02   5.1361559608e+01    0.2396596    0.2065632  33.90 0.0005347411    1.169    0.145
        45 -10.3393    176.3832     74.5444   7.5900618841e+01   3.0841791703e+01     0.300402    0.1970032 -82.07 0.0007062714    2.112    0.527
        46 -10.6027    101.8972     71.9715   9.3377487382e+01   4.9094184565e+01    0.3607758    0.2170955  54.44  0.001548905    1.858    0.462
        47 -11.3356    167.4438    231.6189   1.1241057701e+02   2.3761104459e+00    0.3657649    0.2399098 -21.62  0.001128652    2.004    0.501
        48 -17.8302     62.4426    235.7394   1.3487989816e+02   1.8000324735e+01     9.306919     7.159948 -88.63    0.0590073    1.282    0.220
        49  -8.9832    219.2827    224.2927   1.0098952188e+02  -4.7418760842e+00    0.1252588   0.08354029   3.38 0.0001703213    1.535    0.348
        50 -10.5238     13.5616     59.8871   1.2414040456e+02   6.3949487107e+01    0.1864622    0.1703675   7.40 0.0004015373    1.273    0.214
        51  -9.8874    118.3412     23.9571   7.1835670685e+01   5.2622303634e+01    0.1792161    0.1705771  35.52 0.0003869288    1.086    0.079
        52 -19.1291     42.2735    101.3600   1.2237759009e+02   5.2085237643e+01     16.68166      1.01401 -61.72   0.02684683   14.416    0.931
        53 -10.6386    168.9551    177.6775   1.0262961493e+02   1.2025834385e+01    0.3362815    0.2364286 -74.73   0.00146294    2.257    0.557
