#   1 NUMBER                 Running object number                                     
#   2 MAG_AUTO               Kron-like elliptical aperture magnitude                    [mag]
#   3 X_IMAGE                Object position along x                                    [pixel]
#   4 Y_IMAGE                Object position along y                                    [pixel]
#   5 X_WORLD                Barycenter position along world x axis                     [deg]
#   6 Y_WORLD                Barycenter position along world y axis                     [deg]
#   7 A_WORLD                Profile RMS along major axis (world units)                 [deg]
#   8 B_WORLD                Profile RMS along minor axis (world units)                 [deg]
#   9 THETA_WORLD            Position angle (CCW/world-x)                               [deg]
#  10 FWHM_WORLD             FWHM assuming a gaussian core                              [deg]
#  11 ELONGATION             A_IMAGE/B_IMAGE                                           
#  12 ELLIPTICITY            1 - B_IMAGE/A_IMAGE                                       
         1 -13.3307    224.2021      6.9009   3.4436443512e+01   2.9105393660e+01     1.170795    0.8543033  57.22  0.004869348    1.522    0.343
         2 -14.3166    197.0837     37.7953   4.4880314379e+01   3.1795824448e+01     2.809146     1.686615  23.01   0.01193068    2.838    0.648
         3 -10.0053     74.7271     12.9932   6.1026861387e+01   6.2517553168e+01    0.3134903    0.1730036  68.15  0.001301849    3.551    0.718
         4 -10.9615     62.2305      6.1073   6.1905782596e+01   6.5504941089e+01    0.2989902    0.1417979  29.55  0.001456021    2.077    0.519
         5  -9.6717    189.4564     14.6850   3.9610683338e+01   3.6214128383e+01    0.2330475     0.164711 -53.09 0.0007484927    1.402    0.287
         6  -8.6142    158.2143    234.8074   9.8043172826e+01   4.1058532112e+00    0.1861241   0.09181377 -35.91 0.0008752165    2.517    0.603
         7 -10.7844    140.2275    248.5585   1.0340823310e+02   4.5981782615e+00      0.42204    0.2200975 -55.33  0.002265074    2.380    0.580
         8 -10.8693    120.2367    245.6729   1.0689027930e+02   7.9909530468e+00    0.3318404    0.1746591  49.40  0.001272364    1.771    0.435
         9  -9.7973    125.6052    249.4420   1.0630484203e+02   6.5881002467e+00     0.331585    0.2130226  84.43  0.001752282    2.607    0.616
        10 -10.3978    125.0000    244.5032   1.0583447661e+02   7.4960991138e+00    0.3187341    0.1531846 -50.50  0.001649131    2.412    0.585
        11 -10.1910    107.0943    250.3916   1.0991127971e+02   9.0598078324e+00    0.3383887    0.1361663  36.87   0.00164907    2.159    0.537
        12 -19.4342     12.5877    164.8172   1.2103287888e+02   3.8074430897e+01     18.72746     4.170824 -77.31   0.06125616    4.478    0.777
        13 -12.3513    108.2457    203.2115   1.0386559698e+02   1.7796825442e+01    0.9396041    0.5320204 -34.28 0.0006353106    2.668    0.625
        14 -10.0479     94.2845    204.5627   1.0710521364e+02   1.9604076386e+01    0.4849396    0.2838165 -30.19  0.002068253    3.130    0.681
        15  -9.3616     87.4320    204.1964   1.0854813347e+02   2.0665177109e+01    0.3293909    0.2249601 -78.89  0.001813011    1.562    0.360
        16 -10.0159     75.6633    203.3082   1.1098797301e+02   2.2475715524e+01    0.2435827    0.1356632  49.45 0.0008349699    1.704    0.413
        17 -10.3729    112.3270    205.9059   1.0336001626e+02   1.6610814742e+01    0.2717863    0.2378636 -72.30 0.0006841886    1.196    0.164
        18  -9.6374    168.1930    233.1776   9.5837123937e+01   2.8303516307e+00    0.2731262    0.1749446  45.32    0.0010765    1.567    0.362
        19 -10.1982    120.1005    194.3616   9.9884479467e+01   1.7776706778e+01    0.2440248    0.2158716 -74.81 0.0004482227    1.197    0.165
        20 -10.5508    149.5752    187.9408   9.2162494851e+01   1.4103624177e+01    0.3997994    0.3112918 -75.51  0.001937983    1.721    0.419
        21 -15.3210     72.1865    150.2272   1.0426064990e+02   3.5261046513e+01     5.892041     3.099197  89.75   0.01086972    3.757    0.734
        22 -11.3570    114.6178    183.7960   9.9408327791e+01   2.0947360296e+01    0.4440026    0.2572654 -31.45  0.001845438    2.537    0.606
        23  -9.1820     92.6561    184.8798   1.0471290196e+02   2.4140500130e+01    0.2582946    0.1839077  46.30 0.0007412516    1.379    0.275
        24 -10.6122    167.4275    221.7184   9.4198725581e+01   4.8316477419e+00    0.2370061    0.1500942  17.71  0.001206376    1.785    0.440
        25 -10.7136     98.9694    180.9708   1.0262580781e+02   2.4067522807e+01    0.3738146    0.2829078  13.65  0.001396477    1.707    0.414
        26  -9.6240    143.4921    178.9390   9.1845564017e+01   1.7038288482e+01    0.2148705     0.141054 -47.97 0.0004341281    1.546    0.353
        27 -10.1074    188.6821    176.8305   8.1544143019e+01   9.2366069558e+00    0.3981527    0.3432859 -58.87  0.001973824    1.458    0.314
        28 -10.2603     84.0952    174.3960   1.0516187270e+02   2.7800824314e+01    0.3119018    0.1858462 -59.39 0.0009155218    1.591    0.372
        29  -8.7673    194.4730    171.9131   7.9324908548e+01   9.0964915478e+00    0.2162199    0.1342898 -38.26 0.0006225331    1.548    0.354
        30 -10.2312    137.9019    169.6496   9.1335184141e+01   2.0034748368e+01    0.3535045     0.298986  32.21 0.0008772972    1.189    0.159
        31 -11.6389    174.6766    210.7833   9.0901329127e+01   5.5261044523e+00     0.726722     0.198067  34.61  0.002339144    3.933    0.746
        32 -10.2521    240.1669    169.8031   7.0280631137e+01   1.5172397437e+00    0.1918141    0.1401679  -6.35 0.0006558077    1.311    0.237
        33  -8.8138    149.0652    176.5558   9.0112486666e+01   1.6535182132e+01    0.2155857    0.1849808 -44.22 0.0003772537    1.180    0.152
        34 -11.5438    184.2985    211.0428   8.9000092465e+01   3.9035411717e+00    0.5092491    0.4134529 -36.90   0.00305526    1.324    0.245
        35  -8.9540    187.5365    162.5376   7.8730518520e+01   1.2162739713e+01    0.2727135    0.1328332 -50.68 0.0009052912    2.478    0.596
        36 -11.6847     93.3030    151.7425   9.8952237892e+01   3.1804432969e+01    0.7042478    0.5708112 -19.54  0.003474177    1.514    0.339
        37 -11.0738    133.9039    145.8293   8.7254890777e+01   2.6089400439e+01     1.291209    0.3402431 -53.87   0.00307276    5.533    0.819
        38  -9.0524    187.2951    151.3197   7.6260211270e+01   1.4391204529e+01    0.1533081    0.1126275  -4.25 0.0003782802    1.612    0.379
        39  -9.1864    112.8892    150.9101   9.3690345691e+01   2.8758470339e+01    0.2346154    0.1814766  79.67  0.000662944    1.658    0.397
        40  -9.3652    174.6307    149.2022   7.8481720429e+01   1.7326230195e+01    0.2817273    0.2185241  42.92    0.0011663    1.355    0.262
        41  -9.6073    143.6081    145.4271   8.4775132399e+01   2.4302203302e+01    0.3131294    0.1377734 -58.29 0.0009612057    3.423    0.708
        42 -10.7444    105.3814    138.1682   9.2944154188e+01   3.3079310070e+01    0.5853139    0.3308576 -31.73  0.002272442    2.346    0.574
        43 -10.5469    105.9974    130.8584   9.1122690058e+01   3.4713269947e+01    0.4140157    0.3247651 -56.75  0.001244929    1.242    0.195
        44  -8.2959    224.2950    206.6747   8.0491694074e+01  -1.7442635291e+00    0.1104555    0.1055362 -59.85  0.000245645    1.623    0.384
        45 -11.6608     93.3159    137.6901   9.6127749763e+01   3.5200232050e+01    0.2928619    0.2568987 -36.00 0.0005296124    1.162    0.139
        46 -10.6707    135.9195    130.0156   8.3001800496e+01   2.9266516993e+01     0.799371    0.1855343 -48.40   0.00202929    4.461    0.776
        47 -11.3461    114.1708    128.9434   8.8441842616e+01   3.3696811603e+01    0.6977558    0.6204765  77.17  0.003465124    1.307    0.235
        48 -11.0574    119.5633    122.8430   8.5482218453e+01   3.4100884541e+01    0.5661105    0.3657019  -8.42  0.002110021    2.683    0.627
        49  -9.3138    160.9000    128.7935   7.6639924622e+01   2.4387819698e+01    0.2962019    0.2384404 -53.69  0.001429962    1.321    0.243
        50  -8.3438     96.8513    128.8942   9.3210682399e+01   3.6746348968e+01    0.1921526      0.16932 -83.94  0.001004948    1.259    0.206
        51 -10.4007    100.9769    125.0139   9.1144554294e+01   3.6975646100e+01     0.307602    0.2493203 -20.04 0.0007255539    1.394    0.283
        52 -10.2417    135.2385    120.0842   8.0649697399e+01   3.1618644528e+01    0.6427282    0.1522285 -44.95  0.001693536    4.026    0.752
        53  -9.8104    134.6803    107.1483   7.7305761029e+01   3.4554748254e+01    0.3719631    0.1497138 -48.77  0.001227529    2.623    0.619
        54  -9.4224    109.1374    118.3078   8.7197872988e+01   3.7102763478e+01    0.2479122    0.1951356 -36.67 0.0003536403    1.230    0.187
        55  -8.5519    114.3112    118.6598   8.5849678393e+01   3.6060173410e+01    0.1555292    0.1237697 -87.46 0.0007045527    1.694    0.410
        56 -10.0489    231.2689    113.7109   5.9167503830e+01   1.2551984653e+01     0.267331     0.252165 -28.37 0.0007265762    1.096    0.087
        57  -9.0188    167.5204    112.6655   7.0947061485e+01   2.6289382842e+01    0.3042642    0.2429547  88.59   0.00139931    1.737    0.424
        58 -11.8399    118.2730    109.6248   8.2367542611e+01   3.7350902040e+01     0.777679    0.5773228  77.76  0.003035208    2.049    0.512
        59  -9.5647    205.4455    110.2728   6.2703298174e+01   1.8462934792e+01    0.2997223    0.2313691  31.60 0.0008412413    1.456    0.313
        60  -9.5873     66.7406    104.4249   9.6449109600e+01   4.7189369657e+01    0.2541109    0.1377262  36.13  0.001133723    2.057    0.514
        61  -9.1736     63.9479     99.3250   9.6087881219e+01   4.8769324098e+01    0.1909775    0.1844283  -9.54 0.0009090828    1.138    0.122
        62 -11.9854    196.4989    204.6322   8.5411634661e+01   2.9792568918e+00     0.737375    0.2794475  31.69  0.002843866    2.848    0.649
        63 -11.1797    192.9890    195.0419   8.4302082317e+01   5.1951617464e+00     1.116042    0.6005359 -60.27  0.003917543    4.310    0.768
        64  -8.7880    184.5060     77.0546   5.7674139820e+01   2.9008955506e+01    0.2284667    0.1419972 -33.05 0.0005768039    1.551    0.355
        65 -11.4604    201.7066    199.5712   8.3437466767e+01   2.9650313958e+00    0.4348204    0.2102472  33.68  0.001971888    2.018    0.504
        66 -10.0764    116.5085    249.0045   1.0798300429e+02   7.9659385884e+00    0.2362144    0.1402687  50.00   0.00103359    1.523    0.343
        67 -12.7185    181.3996     51.6682   5.1009345807e+01   3.3674573702e+01    0.7599564    0.6855873  -5.75 0.0007976893    1.212    0.175
        68  -8.0122    168.3362    248.2419   9.8008204587e+01   4.9352495671e-01    0.1193296   0.08119609  14.55 0.0001497932    1.549    0.355
        69  -9.8946    106.9591    242.4910   1.0908330651e+02   1.0440308340e+01    0.1841987    0.1012588  40.47 0.0005763726    1.552    0.356
        70 -10.0104    142.6894    237.9889   1.0155046941e+02   5.9541142311e+00     0.164136    0.1551107  40.54 0.0005029876    1.111    0.100
