#   1 NUMBER                 Running object number                                     
#   2 MAG_AUTO               Kron-like elliptical aperture magnitude                    [mag]
#   3 X_IMAGE                Object position along x                                    [pixel]
#   4 Y_IMAGE                Object position along y                                    [pixel]
#   5 X_WORLD                Barycenter position along world x axis                     [deg]
#   6 Y_WORLD                Barycenter position along world y axis                     [deg]
#   7 A_WORLD                Profile RMS along major axis (world units)                 [deg]
#   8 B_WORLD                Profile RMS along minor axis (world units)                 [deg]
#   9 THETA_WORLD            Position angle (CCW/world-x)                               [deg]
#  10 FWHM_WORLD             FWHM assuming a gaussian core                              [deg]
#  11 ELONGATION             A_IMAGE/B_IMAGE                                           
#  12 ELLIPTICITY            1 - B_IMAGE/A_IMAGE                                       
         1 -14.0895    168.0822     35.9431   2.9006589723e+02   6.3822418959e+00   0.06840871   0.03968231 -45.72  0.004782856    1.755    0.430
         2 -13.0620    183.0448      4.7921   2.8970898773e+02   6.6548243684e+00   0.04273707   0.03208242  25.20  0.004797673    1.368    0.269
         3 -11.4007     13.6735    243.8344   2.9306198226e+02   4.8694585234e+00   0.01073079  0.005655674 -57.51 0.0008362868    1.796    0.443
         4 -19.8171     63.2788    167.8930   2.9204706649e+02   5.4628578814e+00    0.9934036    0.2351461 -64.56   0.05971499    4.610    0.783
         5 -11.5574    157.5691    192.5998   2.9111975028e+02   4.6331114717e+00   0.01227197   0.01086862  73.24 0.0005736408    1.207    0.171
         6 -12.2489    209.2904    180.6370   2.9046006304e+02   4.4722427476e+00    0.0334703   0.02079762 -24.94  0.003162396    2.132    0.531
         7 -12.0469    197.9350    175.6290   2.9055940544e+02   4.5958440499e+00    0.0213339   0.01603965 -75.55  0.001268072    1.409    0.290
         8 -11.4791    168.9789    234.7094   2.9124018335e+02   4.0803381853e+00   0.01262482  0.009482366 -61.57 0.0004277537    1.300    0.231
         9  -9.6348    185.4901    174.5587   2.9069463204e+02   4.6802265630e+00  0.006451483  0.006364383 -87.16 0.0001875177    1.020    0.020
        10 -13.0711    137.1564    171.3744   2.9122593424e+02   4.9964660781e+00   0.02924483   0.01727751  37.25  0.002922481    1.688    0.407
        11  -9.9435    176.3332    234.3125   2.9115418220e+02   4.0424401129e+00  0.006967946   0.00487416 -27.86 0.0007044775    1.680    0.405
        12  -9.5650    123.6336    166.2980   2.9134977647e+02   5.1332628612e+00  0.007046975  0.004819803  59.88 0.0007032031    1.726    0.421
        13 -11.2807    105.1515    159.8563   2.9152206090e+02   5.3144348788e+00   0.01300532   0.01007485 -47.79 0.0003733188    1.276    0.217
        14 -13.5120    109.5668    152.7687   2.9142960025e+02   5.3709170210e+00   0.03407332   0.03007579  -0.85  0.004127323    1.217    0.179
        15  -9.6370     25.8455    232.1672   2.9285441027e+02   4.9345463102e+00  0.008290576  0.006881057 -34.59 0.0004358787    1.261    0.207
        16 -11.7300    203.7887    167.7866   2.9044609723e+02   4.6525912651e+00   0.02261868   0.01948573  30.03  0.002074922    1.179    0.152
        17 -11.7948    134.4394    148.7352   2.9112218455e+02   5.2739198178e+00   0.02129131   0.01160901 -73.23  0.001936459    2.107    0.525
        18 -12.3598    133.7713    143.7564   2.9110016104e+02   5.3353406684e+00   0.02855607   0.01662746 -85.43  0.002544276    2.374    0.579
        19  -9.7967    175.1682    149.3638   2.9066206288e+02   5.0311530156e+00  0.009615768  0.005672129  38.94 0.0004036156    1.703    0.413
        20 -10.9373    185.0193    229.2830   2.9102551613e+02   4.0503859267e+00  0.008978114   0.00867717  24.43 0.0005717796    1.056    0.053
        21 -10.6474     10.8531    214.7119   2.9292197167e+02   5.2226391219e+00    0.0176369  0.008230076 -37.48  0.001407391    2.784    0.641
        22 -12.1071    115.7507    138.8535   2.9127633754e+02   5.4961159471e+00   0.02223839    0.0108462 -52.38  0.002024409    1.950    0.487
        23 -12.2625    106.0483    138.6793   2.9138589395e+02   5.5541420911e+00   0.02095003   0.01258241  42.73  0.001297663    1.717    0.418
        24 -12.6484    159.9865    236.0415   2.9135037839e+02   4.1168748013e+00   0.02383043   0.01495261  22.74  0.002421496    1.681    0.405
        25 -11.1388      6.5749    140.0185   2.9252838373e+02   6.1114082261e+00   0.01254275   0.00981029  25.80 0.0001588637    1.309    0.236
        26  -9.4678    151.2996    135.2775   2.9084997147e+02   5.3320348122e+00  0.006617537  0.004908974 -27.32 0.0002087106    1.538    0.350
        27 -12.3980    105.6648    130.4399   2.9134123748e+02   5.6516202856e+00   0.02515087   0.01647228  56.68  0.001913567    1.789    0.441
        28 -11.6399    119.9646    129.4920   2.9117258373e+02   5.5800098395e+00   0.01427666   0.01251652  36.08 0.0007961033    1.156    0.135
        29 -11.9707     20.6174    127.6851   2.9229496518e+02   6.1733861559e+00   0.01978314   0.01108951 -58.44    0.0019258    1.700    0.412
        30 -11.3814    125.3083    127.0651   2.9109722524e+02   5.5771970595e+00   0.01973572   0.01125076  78.72  0.001607315    2.956    0.662
        31 -11.1695    109.0321    125.5450   2.9127371334e+02   5.6887725760e+00   0.01251172   0.01169909 -27.49 0.0006303801    1.097    0.088
        32 -11.5995    135.7672    122.8865   2.9095313284e+02   5.5650586393e+00   0.02399713   0.01160117 -75.46  0.001949579    2.703    0.630
        33 -11.8773    164.5103    205.4870   2.9111737581e+02   4.4440025794e+00   0.01917215   0.01267127 -68.87 0.0006312352    1.556    0.357
        34 -10.9341    114.0019    118.8979   2.9117747598e+02   5.7369180155e+00  0.009825077  0.009708898 -58.44 0.0004654622    1.008    0.008
        35  -9.9870    170.4168    205.2940   2.9104902081e+02   4.4120989906e+00   0.00919093  0.006340575 -79.02 0.0009431756    1.631    0.387
        36 -10.9519    170.1644    115.9590   2.9051993549e+02   5.4461472459e+00   0.02196058   0.01256643  67.44  0.001870299    2.667    0.625
        37  -9.0323     30.4236    205.5299   2.9264464933e+02   5.2164528880e+00  0.006707211  0.006045057 -35.68  0.000118927    1.131    0.116
        38 -13.0941    193.2026    193.0130   2.9071673515e+02   4.4223084170e+00    0.0455988   0.02624751 -85.86   0.00378204    2.454    0.593
        39 -10.2987     20.9771    236.1385   2.9293333313e+02   4.9165629528e+00  0.008284065  0.007232803 -46.93 0.0003777215    1.133    0.118
        40 -12.9538    136.8344    197.9424   2.9138754502e+02   4.6911093132e+00   0.03032768   0.01724321  39.10  0.002189534    1.766    0.434
        41 -10.2362    205.5254    110.2259   2.9008309160e+02   5.3075521653e+00   0.01223092  0.009276406  25.92 0.0008556205    1.350    0.259
        42 -10.8026    169.8793    196.1072   2.9100050652e+02   4.5214126131e+00   0.01018402  0.008757795  75.17 0.0006824983    1.265    0.210
        43 -13.0441    155.9879     51.8877   2.9029906842e+02   6.2682661045e+00   0.02549038   0.02109227  40.59  0.001087135    1.228    0.186
        44 -11.1009    150.5161    248.9662   2.9153482016e+02   4.0221187400e+00   0.01241215  0.009424606  -3.67  0.001351697    1.556    0.357
        45 -12.0040    171.6082     28.9055   2.8998362231e+02   6.4430133651e+00   0.02146358   0.01392978 -40.91  0.001211156    1.633    0.388
        46 -11.1137    180.0707    192.7035   2.9086429265e+02   4.5018372397e+00   0.01667896  0.009386908  52.34  0.001010348    2.107    0.525
