#   1 NUMBER                 Running object number                                     
#   2 MAG_AUTO               Kron-like elliptical aperture magnitude                    [mag]
#   3 X_IMAGE                Object position along x                                    [pixel]
#   4 Y_IMAGE                Object position along y                                    [pixel]
#   5 X_WORLD                Barycenter position along world x axis                     [deg]
#   6 Y_WORLD                Barycenter position along world y axis                     [deg]
#   7 A_WORLD                Profile RMS along major axis (world units)                 [deg]
#   8 B_WORLD                Profile RMS along minor axis (world units)                 [deg]
#   9 THETA_WORLD            Position angle (CCW/world-x)                               [deg]
#  10 FWHM_WORLD             FWHM assuming a gaussian core                              [deg]
#  11 ELONGATION             A_IMAGE/B_IMAGE                                           
#  12 ELLIPTICITY            1 - B_IMAGE/A_IMAGE                                       
         1  -8.3745     38.7900     17.3472   9.5951154766e+01   6.9078259824e+01    0.3564484    0.1256016 -35.98   0.00160052    2.741    0.635
         2  -7.8304    119.5445     11.0294   6.6889359724e+01   5.3627631368e+01    0.1836721   0.09648725 -50.18 0.0008083755    2.512    0.602
         3  -8.6404     55.7983     10.1395   8.4811694295e+01   6.7298910530e+01    0.1708762    0.1577306   3.77 0.0006451011    1.262    0.208
         4  -7.9638     47.4483     10.2042   8.8359193054e+01   6.8684963103e+01    0.1554505     0.106708 -35.24 0.0009402043    1.693    0.409
         5  -8.3890     28.1106     10.1590   9.7756956036e+01   7.1443947413e+01    0.1451749    0.1273286 -10.99 0.0005852036    1.317    0.241
         6  -8.2324     90.9928      9.0223   7.2686696380e+01   6.0426179566e+01    0.1910537    0.1548494 -72.01 0.0007881005    1.705    0.414
         7  -7.7785    101.4740      8.4477   6.9821666279e+01   5.8121987794e+01    0.1310499    0.1124715  49.05 7.683209e-05    1.031    0.030
         8  -8.6423     33.4546      5.0114   9.2226673938e+01   7.1382380164e+01    0.2662757    0.1706594 -47.84  0.001354602    2.639    0.621
         9  -7.7803     44.5374      3.4460   8.6116323394e+01   6.9891501059e+01    0.1191554   0.09475899  14.21 8.582455e-05    1.026    0.025
        10  -8.5228     79.0400      3.8778   7.3779679590e+01   6.3433923444e+01    0.2542076    0.1479527 -41.53  0.001323075    2.261    0.558
        11  -8.4250     62.3714      1.6314   7.8083058248e+01   6.6941552678e+01      0.19618    0.1356499  57.98  0.000633242    1.620    0.383
        12  -7.3627    147.2820      1.3157   5.9070334866e+01   4.7596774163e+01    0.1316813   0.08703228  43.79 0.0002189996    1.577    0.366
        13  -7.5912     39.4514      1.4826   8.7368267620e+01   7.0894242452e+01    0.1166017   0.09342856  11.08 5.942014e-05    1.062    0.058
        14  -8.2770     67.5035    245.0691   1.3464836133e+02   1.5515451981e+01    0.1634669    0.1107424 -80.99 0.0006447626    1.553    0.356
        15  -9.8804    248.8003    244.2125   9.9052622774e+01  -1.1402149426e+01    0.5724205    0.1892485 -38.03  0.002690654    3.306    0.698
        16  -9.2582    211.2209    247.1281   1.0623099231e+02  -6.7032560409e+00    0.3147439    0.1867538 -51.11  0.001500053    2.770    0.639
        17  -8.6730      9.6480    244.8253   1.4547029963e+02   2.2431169352e+01    0.1552779   0.07629294  81.70 0.0007990709    1.734    0.423
        18  -9.0348    201.9045    243.1656   1.0736783530e+02  -4.8050941751e+00    0.2458274    0.1693393 -48.35 0.0009252957    2.008    0.502
        19  -8.5795    169.4513    243.3283   1.1374201806e+02   1.8207838925e-01    0.2376161    0.1845487  67.95 0.0005726878    1.864    0.463
        20  -8.8455     77.8025    243.3039   1.3244608902e+02   1.4424429566e+01     0.233787    0.1338837  72.30  0.001250557    1.917    0.478
        21  -7.7414     34.6732    244.3189   1.4090346583e+02   1.9800944154e+01    0.1259534   0.06192437  62.15 0.0007046452    1.680    0.405
        22  -9.4676    183.3564    240.3883   1.1053909772e+02  -1.5648728281e+00    0.4616866    0.2920887  63.31  0.001857492    3.146    0.682
        23  -9.5862    160.3316    240.5537   1.1518428175e+02   2.0796243205e+00    0.3928573    0.2705297 -84.07  0.001598463    2.886    0.653
        24  -7.9041     49.5819    242.7731   1.3796945397e+02   1.8294088073e+01    0.1621639   0.09430041  83.43 0.0009481127    1.685    0.407
        25  -7.6964    153.6661    242.3437   1.1679317219e+02   2.8636104091e+00    0.1290085   0.09139549  61.28 0.0007050296    1.761    0.432
        26  -8.7147    147.0033    240.5312   1.1790934855e+02   4.2392604327e+00    0.3791788     0.208903  61.31  0.001656354    2.861    0.650
        27  -8.2961     88.0455    242.2995   1.3027953934e+02   1.3140870806e+01    0.1776316    0.1351811  57.43 0.0007024962    1.081    0.075
        28  -8.1620    214.2154    241.2628   1.0474892154e+02  -6.3526637280e+00    0.1638584   0.09406135 -46.34 0.0008773665    2.397    0.583
        29  -9.1650    240.9849    239.3558   9.9606553640e+01  -9.8088666417e+00    0.3151066    0.1246212 -21.72  0.001338401    3.500    0.714
        30  -9.1294    194.1889    239.3984   1.0826407335e+02  -3.1015623352e+00    0.2338508    0.1695904 -25.88 0.0007773456    1.499    0.333
        31  -8.5420    135.6231    239.1066   1.2007320932e+02   6.3263427405e+00    0.2263916    0.1493275  48.43 0.0006594248    1.351    0.260
        32  -8.4781    129.1748    238.7171   1.2136543184e+02   7.4362048432e+00      0.21414    0.1353909  53.57  0.001016619    1.533    0.348
        33  -7.9760     41.0000    239.0165   1.3936500425e+02   2.0077741445e+01    0.1757969   0.06012769 -74.32 0.0008041278    2.954    0.661
        34  -9.0266      2.5246    238.2962   1.4644780822e+02   2.4378924740e+01    0.2388473    0.1436051 -69.24  0.001612958    1.824    0.452
        35  -9.0927    230.8317    237.0863   1.0102994867e+02  -8.1509945453e+00    0.2207146    0.2019473 -82.08 0.0009696344    2.124    0.529
        36  -8.1484    209.1656    238.2187   1.0520740268e+02  -5.1972330378e+00    0.1497077    0.1422233  16.71 0.0006722542    1.378    0.274
        37  -9.2867    247.9427    234.9817   9.7675330662e+01  -1.0175521165e+01    0.2685399    0.2113956 -43.20  0.001421763    1.914    0.477
        38  -9.2217    246.3887    229.4716   9.7011140804e+01  -9.2785792415e+00     0.257866    0.1769288 -33.52  0.000742819    1.584    0.369
        39  -8.2520     25.2047    236.3912   1.4221179379e+02   2.2412376583e+01    0.2324638   0.07177683  89.50 0.0008690282    4.433    0.774
        40  -9.9742    214.6047    232.5903   1.0326475080e+02  -5.2190144251e+00    0.5075423    0.3661964 -63.57  0.002473001    2.884    0.653
        41  -9.3643    203.2670    233.8137   1.0561908508e+02  -3.6840826681e+00    0.4072988    0.2047926 -38.85  0.001360785    2.201    0.546
        42  -9.7138    175.6877    233.3865   1.1099978073e+02   7.4083911123e-01     0.445966    0.2654315 -60.21  0.002153492    2.752    0.637
        43  -8.2348    170.1566    235.7236   1.1247798116e+02   1.2656680563e+00    0.2100725    0.1524302 -64.76 0.0009269812    2.070    0.517
        44  -9.4086    109.0643    234.6423   1.2508752696e+02   1.1389039436e+01    0.5197008    0.2130609  51.65  0.002157781    2.429    0.588
        45  -7.9520     58.9495    237.0000   1.3568702787e+02   1.8214761826e+01    0.1943646   0.05902142  36.06 0.0007338425    2.900    0.655
        46  -7.8518    153.2743    235.6433   1.1593206133e+02   4.0384559660e+00     0.124968    0.0959624  66.07 0.0006191049    1.649    0.393
        47  -8.3218    122.7485    234.3109   1.2215403425e+02   9.2677200177e+00    0.2143055     0.159772 -88.57 0.0009205249    1.708    0.414
        48  -8.5319     99.5346    234.5103   1.2708208640e+02   1.2895448212e+01     0.286511    0.1516384  63.70 0.0009739457    2.270    0.560
        49  -9.1461     78.7268    234.7149   1.3145258428e+02   1.5947089773e+01    0.2817047    0.1666658  61.76 0.0009885121    1.584    0.369
        50  -9.3117      8.2619    235.0009   1.4527511813e+02   2.4457084317e+01    0.1617925    0.1138015  73.95  0.001169156    1.063    0.059
        51  -8.1544     70.6479    234.3255   1.3308296864e+02   1.7162585038e+01    0.2455694   0.09409358  42.43  0.001135171    2.076    0.518
        52  -8.5917     67.4835    231.5110   1.3347995239e+02   1.8159384394e+01    0.2907752    0.1680759  80.50  0.001254457    1.896    0.472
        53  -8.5048    194.3579    232.4750   1.0713251565e+02  -2.1048589353e+00    0.2081985    0.1516553 -38.78 0.0006512017    1.580    0.367
        54  -8.8190    140.4970    230.3428   1.1785997672e+02   7.0740799457e+00    0.4992854     0.203236  55.07    0.0016842    4.031    0.752
        55  -8.3062    132.7720    233.0091   1.1986316829e+02   7.8716379318e+00     0.203398    0.1595864  58.41 0.0009971847    1.288    0.223
        56  -8.3435     92.8210    232.0459   1.2822743654e+02   1.4395027119e+01    0.3589678     0.170411  64.68  0.001448462    2.893    0.654
        57  -9.3800    186.4932    230.7060   1.0840482065e+02  -5.8398958195e-01    0.3140504    0.2475784 -77.27  0.001326857    2.236    0.553
        58  -8.0353    157.6102    231.7684   1.1446769072e+02   3.9781208212e+00    0.1577753    0.1288289 -65.50 0.0004152152    1.604    0.377
        59  -8.7975    236.1296    230.8786   9.9045776440e+01  -8.0720897988e+00    0.1989702    0.1669958 -10.54 0.0007189972    1.219    0.180
        60  -8.8478      1.7787    230.9471   1.4627123645e+02   2.5879234934e+01    0.2101507    0.1048889  72.13 0.0008553375    1.585    0.369
        61  -9.8793    149.6351    226.1655   1.1531418752e+02   6.2879609480e+00    0.6116518    0.3780201 -86.49  0.002376265    4.030    0.752
        62  -7.9175    229.9697    229.0209   9.9834353948e+01  -6.9617996277e+00    0.1581475    0.1538713  63.03 0.0007023631    1.686    0.407
        63  -8.9177    162.6650    228.0487   1.1285414717e+02   3.7674255807e+00    0.3864833    0.2257298  57.51  0.001464273    2.361    0.576
        64  -8.9771    127.8892    227.3014   1.2013625893e+02   9.7265797428e+00    0.3124196    0.2025898  64.12  0.001067333    1.858    0.462
        65  -8.3086    119.9078    227.6296   1.2190116748e+02   1.0978322920e+01    0.2401793    0.1690183  87.03 0.0008895611    1.876    0.467
        66  -8.1207    223.5077    226.7234   1.0062235840e+02  -5.7126771407e+00    0.2270588    0.1100871 -30.32 0.0009374111    2.133    0.531
        67  -8.3207     49.2510    226.8875   1.3684036739e+02   2.1494800428e+01    0.2620274    0.1388707  67.78  0.001392119    1.798    0.444
        68  -8.8103    205.9041    225.6238   1.0375494733e+02  -2.8880638844e+00     0.269381    0.1705423 -42.52  0.001081134    1.845    0.458
        69  -8.4112    200.0364    226.3255   1.0501163074e+02  -2.0721020351e+00    0.1774547    0.1465738  22.36  0.000456816    1.063    0.060
        70  -8.9280     94.4451    224.4720   1.2703188400e+02   1.5650355093e+01    0.4140239    0.1974985  63.74  0.001683684    2.861    0.650
        71  -8.8531    216.3899    223.6391   1.0141924715e+02  -4.2108028999e+00    0.2440515    0.2128518 -50.70 0.0008878038    1.650    0.394
        72  -8.8431    180.7410    224.4558   1.0855540906e+02   1.3510052836e+00    0.2963883    0.2061133  53.93  0.001076626    1.763    0.433
        73  -8.8295    104.8062    223.6497   1.2467630140e+02   1.4192790050e+01    0.3728601    0.2215407 -85.68  0.001585895    2.390    0.582
        74  -8.8739    173.4426    223.4694   1.0989436010e+02   2.7326957108e+00    0.2618223    0.1927847  73.38 0.0007943467    2.271    0.560
        75  -7.9373    113.9906    224.0365   1.2271887501e+02   1.2637320328e+01    0.2099608    0.1413703  64.92 0.0006005433    1.628    0.386
        76  -8.0472     59.9673    223.9789   1.3437125887e+02   2.0710577810e+01    0.2165105    0.1173936  63.70  0.001121568    1.755    0.430
        77  -9.3921    192.4814    221.4261   1.0568191304e+02  -9.5743854280e-02    0.3091191    0.2579095 -88.43  0.001071042    2.028    0.507
        78  -9.3234    160.3590    221.2561   1.1228290588e+02   5.3344746480e+00    0.5372361    0.2508227  54.62  0.001752565    3.179    0.685
        79  -9.1453    239.0818    221.6731   9.6939661625e+01  -7.2550047220e+00    0.1996475    0.1859506 -42.26 0.0009004962    1.636    0.389
        80  -9.2300    225.6307    221.9226   9.9404850559e+01  -5.3502962653e+00    0.2391694    0.1858479  46.84   0.00103854    1.697    0.411
        81  -9.1195      7.5526    222.2618   1.4479654766e+02   2.7069044273e+01    0.2521837   0.08565989  46.63  0.001307172    2.226    0.551
        82  -9.0839    120.4966    219.3620   1.2066558772e+02   1.2482844321e+01    0.4645074    0.2400247  62.47  0.001863168    2.828    0.646
        83  -8.8789     82.8424    220.7445   1.2914039682e+02   1.8165748936e+01    0.3091908    0.1536536  62.17  0.001380796    2.276    0.561
        84  -8.3844     73.0736    221.0390   1.3129448660e+02   1.9521437183e+01    0.2177751    0.1271108  66.17 0.0008937903    1.727    0.421
        85  -8.2627     27.5891    220.7634   1.4079160663e+02   2.5314789254e+01     0.212329   0.09614906 -72.52  0.001101727    2.074    0.518
        86  -8.0883    202.7147    220.1723   1.0344553386e+02  -1.5568305503e+00    0.1785685    0.1619311 -40.50 0.0008060375    1.396    0.284
        87  -8.7485    248.7502    218.2418   9.4656485111e+01  -8.1310235781e+00    0.3376973    0.2239528  59.04  0.001623533    3.717    0.731
        88  -8.2327    210.1776    219.1878   1.0183011031e+02  -2.5912251451e+00    0.1912288    0.1527948   5.23 0.0005564028    1.110    0.099
        89  -9.3669    132.8968    216.0639   1.1744875529e+02   1.1027374457e+01     0.480165    0.2979178  75.63  0.002043435    2.769    0.639
        90  -8.4728     62.0129    217.2911   1.3331875017e+02   2.1840811765e+01    0.2701894    0.1423586  62.34  0.001076851    1.855    0.461
        91  -8.8489     51.4079    217.2115   1.3558911626e+02   2.3244881257e+01    0.2971331     0.184044  84.80 0.0009732274    1.561    0.359
        92  -7.8951    179.2953    217.6527   1.0772668140e+02   2.7232228661e+00    0.1262004    0.1053377  70.16 0.0007032548    1.673    0.402
        93  -8.6652    169.3262    216.2341   1.0957251037e+02   4.6761219227e+00    0.2677652    0.2260697 -87.40 0.0007155979    1.685    0.407
        94  -8.6758    142.9291    216.5468   1.1531021819e+02   9.2026701246e+00    0.2413994    0.1913145 -87.08  0.001022067    1.668    0.400
        95  -7.8184    112.0121    217.5014   1.2229696201e+02   1.4260139460e+01    0.2040215   0.09306554  54.90 0.0008098871    2.488    0.598
        96  -8.0595     18.7834    217.0115   1.4231888467e+02   2.7036252625e+01    0.1514353   0.08024852 -82.56 0.0006648902    1.673    0.402
        97  -8.5969    232.4106    214.9752   9.6946754095e+01  -5.3642081736e+00    0.2238146    0.1995274 -62.70  0.001011806    1.851    0.460
        98  -8.3471    154.3426    215.0611   1.1258821565e+02   7.4933113525e+00    0.1799198      0.17676 -59.46 0.0008458086    1.181    0.153
        99  -8.8581     93.4877    214.3604   1.2604223881e+02   1.7880165376e+01    0.4020557    0.1918249  57.55  0.001547111    2.324    0.570
       100  -9.4773     74.0347    212.7232   1.3021220730e+02   2.1145818159e+01     0.738575    0.2429697  56.36   0.00239255    4.219    0.763
       101  -7.8396     41.3353    215.6365   1.3759308838e+02   2.4821507308e+01    0.1393111   0.07135563  64.85 0.0007035413    1.822    0.451
       102  -9.5192    214.2012    212.4404   9.9869867531e+01  -2.1996675139e+00    0.3731341    0.2749847  58.04  0.001709431    2.090    0.521
       103  -8.5149    185.3398    214.1267   1.0588233381e+02   2.2898273178e+00    0.1782716    0.1648725 -15.97 0.0006655724    1.171    0.146
       104  -8.3001    224.7970    212.5660   9.7904378982e+01  -3.8708471227e+00    0.1890371    0.1401659 -32.25 0.0005616965    1.392    0.282
       105  -8.7972    161.6230    212.5687   1.1060835983e+02   6.6748486267e+00    0.2449054    0.2191761  52.93 0.0006996951    1.202    0.168
       106  -8.0329    106.4644    212.9465   1.2293501762e+02   1.6102383120e+01    0.1833516    0.1341531 -69.99 0.0006405981    1.515    0.340
       107  -7.6230    242.6753    212.2635   9.4640299218e+01  -6.4705985590e+00     0.102305   0.09752098  38.09 0.0003937419    1.562    0.360
       108  -9.0246    204.2890    210.9887   1.0152686056e+02  -3.7003962008e-01    0.2780723    0.2201785 -48.96 0.0008485052    1.603    0.376
       109  -9.3123    175.6526    210.2040   1.0721812364e+02   4.6371623569e+00    0.3882304    0.2813343  80.63  0.001425051    2.588    0.614
       110  -9.3365      5.9951    208.4920   1.4438851850e+02   3.0080489560e+01    0.4173951    0.1246824  73.54  0.001508208    4.417    0.774
       111  -8.4645    192.4595    210.7734   1.0384614764e+02   1.6414087698e+00    0.2314301    0.1928571 -72.31  0.001303679    1.831    0.454
       112  -8.8042    148.1422    210.6853   1.1324184749e+02   9.4051916417e+00    0.2814414    0.2116706  78.64  0.001431375    1.863    0.463
       113  -8.8562    116.1661    210.2116   1.2035610285e+02   1.5056069717e+01     0.332599    0.2172538  77.51  0.001090013    2.098    0.523
       114  -8.5348     32.6740    210.7499   1.3904418562e+02   2.6875278149e+01    0.2513958    0.1128431  76.77  0.001009596    2.422    0.587
       115  -9.1417    236.7541    208.7064   9.5038768437e+01  -5.1069662961e+00    0.2975711    0.2384882 -54.15  0.001147252    1.926    0.481
       116  -8.5434     85.7245    209.7142   1.2723393888e+02   2.0065883452e+01    0.3589605    0.1694891  62.11  0.001441389    2.685    0.628
       117  -9.7892    124.3814    206.3382   1.1791052528e+02   1.4447350079e+01    0.3657219    0.2301694  68.13  0.001645845    2.134    0.531
       118  -9.2358    246.4068    207.3033   9.3095484751e+01  -6.3092538686e+00    0.2498429    0.1826643 -30.77 0.0006023822    1.355    0.262
       119  -9.4809    250.0806    202.0602   9.1506339232e+01  -6.0948698469e+00    0.3803852    0.1729631 -32.61  0.001648868    2.013    0.503
       120  -8.0391    156.6597    208.3280   1.1098106166e+02   8.3399251492e+00    0.2076236    0.1589699  67.97  0.001073966    1.684    0.406
       121  -8.2533    139.1750    207.9197   1.1479755930e+02   1.1530322466e+01    0.2631803    0.1956954  75.18 0.0009142555    1.758    0.431
       122  -9.2312     99.3663    206.1448   1.2364942362e+02   1.8694740653e+01    0.3861276    0.2393552  80.05  0.001332343    2.148    0.535
       123  -8.4986     56.6749    205.6314   1.3336670907e+02   2.5081481929e+01    0.3444154    0.1459726  60.62   0.00142945    2.641    0.621
       124  -9.3460    194.8225    203.7326   1.0210239976e+02   2.4204925540e+00    0.3985978    0.2829764  59.77  0.001966547    2.026    0.507
       125  -9.5144    192.4585    197.4915   1.0143039887e+02   3.9097582850e+00    0.4891444    0.3955201 -87.97   0.00169807    2.039    0.510
       126  -8.9844    183.9459    204.0756   1.0439898034e+02   4.2596934563e+00    0.3156653    0.2524816  76.45 0.0009775786    1.928    0.481
       127  -8.8138    131.3616    204.0815   1.1596248508e+02   1.3686495762e+01    0.3282872    0.2238971  81.61 0.0009688585    2.175    0.540
       128  -8.1710    109.2244    205.2802   1.2124795975e+02   1.7257337103e+01    0.1945682    0.1480385  70.76 0.0007064909    1.391    0.281
       129  -8.5489     24.8109    205.5632   1.4033081708e+02   2.8858250269e+01    0.1684221   0.08969063  49.22 0.0005743356    1.612    0.380
       130  -9.6744    164.0845    203.1443   1.0847093438e+02   7.9821630139e+00    0.4651409    0.2669001  53.90  0.001415851    2.084    0.520
       131  -8.4488    211.0975    202.1745   9.8593728409e+01  -7.9951184461e-02    0.2166904    0.1744232 -66.19 0.0005775177    1.977    0.494
       132  -8.1159     41.3341    203.0019   1.3654688714e+02   2.7577184039e+01    0.2134986   0.08197375  81.96 0.0007052221    4.390    0.772
       133  -8.1049     17.2460    203.2518   1.4177047441e+02   3.0135709524e+01    0.1947447   0.07960986  87.55  0.000722014    2.437    0.590
       134  -9.2424    243.0640    200.7225   9.2460085360e+01  -4.8842275029e+00    0.3208089    0.1661763 -35.59 0.0009915368    1.826    0.452
       135  -8.0014    222.0412    201.9544   9.6474331567e+01  -1.8301128208e+00    0.1797275    0.1653392 -84.91 0.0007774482    1.704    0.413
       136  -8.8367    140.6054    201.1775   1.1337895158e+02   1.2623486442e+01    0.3869758    0.2537085  73.03  0.001161848    2.371    0.578
       137  -8.7682     80.0590    201.6521   1.2756325681e+02   2.2688763280e+01    0.3155172    0.1785549  72.21  0.001415099    2.173    0.540
       138  -8.3393     48.3854    202.2312   1.3490341651e+02   2.6895244581e+01    0.1832476    0.1057892  89.43 0.0006722169    1.725    0.420
       139  -9.2052    236.9213    198.7723   9.3172148681e+01  -3.6736827489e+00    0.2996381    0.1844679 -41.91  0.001024018    1.779    0.438
       140  -9.4608    149.6523    198.7580   1.1091441013e+02   1.1462041491e+01    0.4444476    0.3089291  84.88   0.00156966    2.414    0.586
       141  -9.0128    124.0279    199.4334   1.1692469574e+02   1.5950524825e+01    0.3294929    0.2292546  72.86  0.001413974    1.828    0.453
       142  -9.2787    113.1564    198.7184   1.1936688703e+02   1.7998568444e+01    0.4840374    0.2787359  68.84  0.001956269    2.550    0.608
       143  -9.1737     88.7605    198.7145   1.2514301622e+02   2.2013702726e+01    0.4319254    0.2555541  82.29  0.001618107    2.262    0.558
       144  -8.5771    177.0215    199.0416   1.0494554790e+02   6.4008806583e+00    0.2106672    0.1962997  36.72 0.0005077112    1.124    0.111
       145  -8.6456    132.9918    196.0004   1.1427439780e+02   1.5068952458e+01    0.2465805    0.1858319 -76.62 0.0006151876    1.644    0.392
       146  -8.3269    202.3081    197.7162   9.9483630844e+01   2.1462195069e+00    0.2262455    0.1598256 -48.43  0.000595935    1.685    0.406
       147  -9.3204     61.3964    197.0128   1.3138917183e+02   2.6391003206e+01    0.4380991    0.2205385  70.93  0.001667965    2.455    0.593
       148  -8.5303     12.5534    197.1691   1.4236962700e+02   3.1923304110e+01    0.2906094     0.112841  80.46  0.001275229    2.745    0.636
       149  -8.6752    215.8242    195.6059   9.6451110145e+01   1.9669705925e-01    0.2376357    0.1700838 -52.51 0.0007316015    1.860    0.462
       150  -9.1652    185.3141    194.7354   1.0239401192e+02   5.6816588389e+00    0.3025183    0.2429261 -55.48  0.000770829    1.529    0.346
       151  -9.4358    245.7459    193.8064   9.0699516957e+01  -4.2696407996e+00    0.3041978     0.259712  87.38  0.001273375    2.237    0.553
       152  -8.6570    224.4739    194.3407   9.4585829314e+01  -1.0275750761e+00    0.2794304    0.1947134 -49.05  0.001142814    1.813    0.448
       153  -8.9257    160.9026    194.2228   1.0758319897e+02   1.0278631757e+01    0.2983976    0.2494907 -81.39 0.0007945731    1.564    0.361
       154  -8.9526     43.6465    193.2776   1.3513824867e+02   2.9500031162e+01    0.4079349    0.1843156  70.41  0.001705634    2.709    0.631
       155  -8.0212    230.8413    194.3498   9.3423405582e+01  -2.0532545022e+00    0.1749142    0.1507934 -22.64 0.0008920142    1.175    0.149
       156  -8.8053     77.1117    193.9561   1.2730467306e+02   2.4865984674e+01    0.2527243    0.1889318  70.77 0.0006207859    1.281    0.220
       157  -7.9405    205.2348    191.9251   9.7800910031e+01   2.6213321728e+00    0.1672618    0.1105565 -38.37 0.0003676775    1.542    0.352
       158  -8.2326    198.9720    191.9688   9.9059024043e+01   3.7183374817e+00    0.1951645     0.173637  87.14 0.0005549616    1.610    0.379
       159  -8.5157    179.0173    191.7473   1.0316361466e+02   7.3846272760e+00    0.2311924    0.1849848 -61.70 0.0006246803    1.592    0.372
       160  -8.4311    172.3350    191.9437   1.0464268340e+02   8.5884673197e+00     0.249139    0.1941994  62.25 0.0007483259    1.590    0.371
       161  -9.2925    139.4992    190.6525   1.1183806348e+02   1.4996868020e+01     0.401731    0.2849769  85.77  0.001217855    2.101    0.524
       162  -8.6576      6.6651    190.8218   1.4323090890e+02   3.3863568956e+01    0.2949989     0.104393  80.16  0.001205996    3.172    0.685
       163 -10.4345     92.0351    188.7337   1.2297397703e+02   2.3756775027e+01     0.983795    0.2809778  47.99  0.003075327    3.684    0.729
       164  -8.3253    148.4727    189.4266   1.0953318403e+02   1.3572395730e+01    0.2414133    0.1894339  75.97 0.0007124998    1.634    0.388
       165  -9.0293    129.4044    188.8979   1.1391949585e+02   1.7236700104e+01    0.3433698    0.2419846  82.22  0.001136776    1.982    0.496
       166  -8.4927    237.1920    188.5251   9.1172202294e+01  -2.1575596962e+00    0.2336278    0.1599391 -31.09 0.0005767102    1.350    0.259
       167  -8.8589    216.6662    188.2710   9.4877059673e+01   1.2595951980e+00    0.2453628    0.2210403 -81.80 0.0008577184    1.644    0.392
       168  -8.8657    191.6106    187.7129   9.9738829783e+01   5.8050835338e+00    0.3428319    0.2557959  80.67  0.001462912    2.416    0.586
       169  -9.4122    155.9861    187.4336   1.0744302782e+02   1.2558094996e+01    0.3948935    0.2346243 -57.73  0.001148298    2.057    0.514
       170  -9.8998    120.8977    186.6728   1.1558808446e+02   1.9273609390e+01    0.5884817    0.3188971 -75.22  0.002154889    3.096    0.677
       171  -8.7614     34.2819    188.1081   1.3683149500e+02   3.1763426076e+01    0.3350621    0.1570551  73.72  0.001192653    2.414    0.586
       172  -8.0207    230.6753    187.5474   9.2143046539e+01  -9.6012101039e-01    0.2047896    0.1537094 -51.17 0.0008003725    1.732    0.423
       173  -9.1848     54.7361    186.9532   1.3186178616e+02   2.9592977307e+01     0.449145    0.2225854  69.48  0.001693094    2.470    0.595
       174  -8.9995    164.9529    186.5700   1.0525634647e+02   1.1024291768e+01    0.3311453     0.244264 -62.50  0.001144334    1.701    0.412
       175  -9.2392    109.5597    186.0045   1.1824767043e+02   2.1437547975e+01    0.4155952    0.2861122  85.20  0.001438053    1.875    0.467
       176  -8.6254    249.2564    185.5788   8.8533118162e+01  -3.5739502664e+00    0.2347358    0.1974076 -54.89  0.001035508    1.696    0.410
       177  -8.7420    182.9141    185.0824   1.0104959095e+02   7.9066732309e+00    0.2682973    0.1929028 -47.11 0.0007461504    1.518    0.341
       178  -8.9432    210.1930    184.5079   9.5381028149e+01   3.0199667949e+00    0.2358907    0.1797332 -31.33 0.0004401972    1.281    0.219
       179  -9.1977    202.7838    184.5969   9.6857258287e+01   4.3278108064e+00    0.2915472    0.1969433 -47.24 0.0008884848    1.659    0.397
       180  -9.0308     66.7040    184.4725   1.2864382784e+02   2.8570385956e+01    0.3598539    0.2134713  69.94  0.001127965    1.874    0.466
       181  -8.3997    224.1951    183.6859   9.2567342138e+01   7.3692304575e-01    0.2195373    0.1667853 -39.43 0.0006010047    1.370    0.270
       182  -8.9386    174.2338    183.6313   1.0263821287e+02   9.8298672393e+00    0.2826056     0.233661  88.29 0.0007696581    1.689    0.408
       183  -7.8487    197.2746    183.6864   9.7786283493e+01   5.4927943770e+00    0.1284502    0.1141812 -86.29 0.0002741062    1.560    0.359
       184  -9.0111     44.5281    182.4644   1.3384797543e+02   3.1910663577e+01    0.3690582    0.2006026  65.26  0.001187671    1.900    0.474
       185  -7.8611      1.7753    183.6144   1.4385136819e+02   3.5886796570e+01    0.1578418   0.08993766  47.17 0.0009426702    1.632    0.387
       186  -8.9930    240.7601    181.2968   8.9141963305e+01  -1.6006976034e+00    0.2933875    0.1556893 -47.52  0.001371683    2.300    0.565
       187  -7.8840     83.3893    182.1922   1.2417786703e+02   2.6647255360e+01    0.1959064    0.1280831 -82.21 0.0006108966    1.688    0.408
       188  -9.2635    147.4304    180.4859   1.0811847695e+02   1.5640380042e+01    0.3442598    0.2667357  80.01  0.001005739    1.705    0.414
       189  -8.7287    137.9506    179.5418   1.1019587038e+02   1.7666173537e+01     0.412992    0.2581922  68.39  0.001647227    2.415    0.586
       190  -9.3932     25.8061    179.2089   1.3803294159e+02   3.4725662002e+01    0.5891539    0.2268195  76.85  0.002127366    3.787    0.736
       191  -9.5537    191.5332    178.5477   9.7937706759e+01   7.5033574677e+00    0.3119626    0.2577806  53.80 0.0006428011    1.382    0.277
       192  -8.2700    169.2694    178.4814   1.0271957121e+02   1.1803441073e+01    0.2363223    0.1834214 -73.61 0.0005938609    1.767    0.434
       193  -9.2086     35.9531    176.9165   1.3536954879e+02   3.4202015835e+01     0.562641    0.2307366  79.09  0.001986083    3.792    0.736
       194  -9.4898    248.3526    176.4359   8.6900825667e+01  -2.0457229010e+00    0.4396151    0.2492825 -47.93  0.002126619    2.140    0.533
       195  -8.5232    250.5293    172.8546   8.5834367509e+01  -1.8342306745e+00    0.1885261    0.1418866 -40.06 0.0005057654    1.363    0.266
       196  -8.5939    217.7486    177.4423   9.2521689384e+01   2.8949241616e+00    0.2552437    0.1713587 -51.59 0.0007845708    1.841    0.457
       197  -9.0024    205.1736    177.8787   9.5037678710e+01   5.0826602419e+00    0.2454052      0.22556 -47.46 0.0007469082    1.262    0.208
       198  -8.7368    129.1542    177.5387   1.1196233888e+02   1.9780200479e+01    0.3168413    0.2280111  87.75 0.0009902299    1.908    0.476
       199  -8.6050    231.0787    176.9155   8.9970374197e+01   6.8390816029e-01    0.2284304    0.1724827 -35.70  0.000687242    1.286    0.222
       200  -9.1654    183.1572    175.9735   9.9180896432e+01   9.5942918898e+00    0.3786104    0.2267536 -43.77 0.0005579027    1.728    0.421
       201  -9.3868    104.7018    175.0919   1.1765842473e+02   2.4801065373e+01    0.5924551    0.3062345  64.44  0.002073365    3.074    0.675
       202  -8.1391     97.5940    177.3110   1.1983814411e+02   2.5499071692e+01    0.2347302    0.1819408  12.47 0.0008604457    1.713    0.416
       203  -9.2602     89.0485    176.7327   1.2192916813e+02   2.7044186150e+01    0.3178618    0.2261687 -86.08  0.001007733    1.547    0.354
       204 -10.0145     57.3107    173.3653   1.2960799438e+02   3.2494700247e+01    0.8425631    0.3795149  78.52  0.002700847    4.311    0.768
       205  -8.9971     12.9711    176.6732   1.4084693009e+02   3.6524919792e+01    0.3151358    0.1403107  72.52  0.001468496    2.333    0.571
       206  -7.6419    211.5102    176.4704   9.3514179890e+01   4.1772375600e+00    0.1388855    0.1258006  -2.39  0.000634955    1.014    0.013
       207  -9.3669    158.7618    174.8975   1.0438872036e+02   1.4599246015e+01    0.4320609    0.3125383 -88.19  0.001478817    2.210    0.547
       208  -9.5824     81.5348    154.6990   1.2031858946e+02   3.3600038311e+01    0.5257494    0.3236999  70.25  0.001531879    2.118    0.528
       209  -8.3325     79.2428    158.5463   1.2160710901e+02   3.3006589918e+01    0.2839728    0.1969236  22.85  0.001153371    1.758    0.431
       210 -10.6474     76.1476    171.4024   1.2445840523e+02   3.0331188703e+01     1.072837    0.4536756 -80.42  0.003196314    4.563    0.781
       211  -8.5080    224.3071    174.5424   9.0716103490e+01   2.2360179842e+00    0.2322571     0.151158 -44.28 0.0007135226    1.620    0.383
       212  -7.8567    241.4964    174.4908   8.7667781478e+01  -6.4879685453e-01    0.1304885    0.1133648 -15.37 7.385107e-06    1.052    0.049
       213  -8.6402    194.0305    172.9740   9.6283411143e+01   8.0677433594e+00    0.2379296    0.1716138   2.41  0.001133712    1.715    0.417
       214  -9.4272    175.7273    172.2872   1.0003710834e+02   1.1770470289e+01    0.3552904    0.2454888 -46.32  0.001185683    1.520    0.342
       215  -8.1997    143.0765    172.8527   1.0768352841e+02   1.8130691077e+01    0.2328578    0.1950661  67.96 0.0005309437    1.324    0.245
       216  -8.7023    134.7712    171.9059   1.0952097733e+02   1.9961789140e+01    0.2710657    0.2097238 -81.43 0.0007659932    1.607    0.378
       217  -9.7019    121.5287    170.5553   1.1256789698e+02   2.2800703978e+01    0.4686638     0.331574 -86.94  0.001138568    1.893    0.472
       218  -9.1876     44.9902    170.9250   1.3246461088e+02   3.4612680227e+01    0.4051073    0.2156858  87.68  0.001225875    2.099    0.524
       219  -8.5697    205.8142    170.5046   9.3398581570e+01   6.2864195028e+00     0.267672    0.1779754 -53.45 0.0008372089    1.845    0.458
       220  -8.5133    198.4250    170.3837   9.4848786555e+01   7.7085238183e+00    0.2307186    0.2251333  80.18 0.0006822021    1.224    0.183
       221  -9.1657     74.7900    160.3862   1.2312476145e+02   3.3228807779e+01    0.2978928     0.224421  -2.03   0.00126884    1.981    0.495
       222  -8.1859    237.0823    169.5124   8.7422348357e+01   8.8037676160e-01    0.1965376    0.1623029 -25.27 0.0005943757    1.090    0.083
       223  -8.7416    230.0174    169.3215   8.8621024634e+01   2.1181542013e+00    0.4089247    0.1734552 -43.46  0.001697736    2.386    0.581
       224  -9.2225    167.3333    168.8704   1.0120257124e+02   1.4136592782e+01     0.384214    0.2785632  72.32  0.001068907    1.986    0.497
       225  -8.9833    149.9593    169.1784   1.0530234020e+02   1.7563694077e+01    0.4294991    0.2748422 -54.76  0.001621559    1.718    0.418
       226  -8.7965    244.2539    168.7606   8.6052904624e+01  -1.8798548659e-01    0.2545667    0.1875732 -34.59 0.0006905558    1.249    0.199
       227  -8.3507    218.8329    168.3434   9.0455712001e+01   4.2674844947e+00    0.2270394    0.1756959 -41.32 0.0005607297    1.315    0.240
       228  -8.9631    111.7813    167.5883   1.1451151940e+02   2.5299063191e+01    0.4316579    0.2704135  81.49  0.001542486    2.568    0.611
       229  -8.5448     88.7770    168.6813   1.2071933963e+02   2.9017586328e+01    0.2726904    0.1771278  84.61  0.001197352    1.964    0.491
       230  -8.9520    191.9526    166.6505   9.5392679280e+01   9.6657413806e+00    0.2742287    0.2067116 -47.56 0.0006569578    1.412    0.292
       231  -8.8351    185.0412    166.6066   9.6836618506e+01   1.1041147588e+01    0.2732742    0.2029731 -57.62 0.0007195264    1.613    0.380
       232 -10.0424    136.9177    164.4563   1.0751742668e+02   2.1209532071e+01    0.6897767    0.4052543  60.88  0.002473104    2.250    0.555
       233 -10.0731     95.0743    162.5400   1.1800098286e+02   2.9457580227e+01    0.9410166    0.5649422 -88.47  0.002779448    2.502    0.600
       234  -9.2107     20.7088    166.1533   1.3810309767e+02   3.8301617669e+01    0.3810994     0.161791  58.66  0.001513851    2.519    0.603
       235  -8.2365    233.7563    164.9944   8.7074464648e+01   2.1909933267e+00    0.1942324    0.1523556 -29.39 0.0005376051    1.154    0.133
       236  -8.8273    159.4004    164.3494   1.0207993628e+02   1.6688741991e+01    0.3239762    0.2562549 -72.19 0.0008240744    1.583    0.368
       237  -9.2292     33.6872    163.5245   1.3453980028e+02   3.7661009203e+01    0.5605814    0.1909626  52.74  0.002092504    3.354    0.702
       238 -10.0439    245.4706    163.2483   8.4734485977e+01   4.9243128480e-01    0.2812099    0.2140104 -28.24 0.0005948951    1.150    0.130
       239  -8.2670    239.9500    164.1669   8.5842507081e+01   1.2674740161e+00    0.1910369    0.1686811 -43.40 0.0005209947    1.274    0.215
       240  -8.6755    212.9164    163.5628   9.0568781358e+01   6.2015008671e+00    0.2645667    0.1929951 -42.64 0.0006107677    1.381    0.276
       241  -8.3242     57.8073    163.8483   1.2822465829e+02   3.4750996431e+01    0.4124263     0.181794  22.93  0.001557018    3.218    0.689
       242  -8.7435     60.5066    160.1771   1.2698134695e+02   3.5300050723e+01    0.3262473    0.1972213  80.38  0.001078977    1.989    0.497
       243  -8.5223    204.9755    162.8158   9.1946209891e+01   7.8479719307e+00    0.2492356    0.1962897 -39.70 0.0005629232    1.260    0.207
       244  -9.3742      3.3492    162.4075   1.4206348191e+02   4.0630107883e+01    0.3798908    0.1629075  56.10  0.001664963    2.304    0.566
       245  -9.1394    177.4504    160.6837   9.7211623801e+01   1.3750632508e+01    0.3142412    0.2489705 -66.51 0.0009458052    1.573    0.364
       246  -8.8609    151.7639    161.2396   1.0322786766e+02   1.8919757082e+01    0.3224911    0.2403264 -72.01 0.0009859606    1.723    0.420
       247  -7.7054    166.2844    160.7189   9.9719114486e+01   1.6040343221e+01    0.2002709     0.171453  -2.11  0.001007414    1.308    0.235
       248  -9.3582    167.6729    157.4357   9.8690843435e+01   1.6438682340e+01    0.4054664    0.2989101 -75.83   0.00118811    1.942    0.485
       249  -9.8130    250.1373    157.8857   8.2885443026e+01   5.7908921976e-01    0.3513452     0.164133 -36.11 0.0007856451    1.875    0.467
       250  -8.6993    227.4779    159.2616   8.6983533753e+01   4.2697500184e+00    0.2683369    0.2011012 -61.79 0.0009949332    1.834    0.455
       251  -8.1829    236.9603    158.9384   8.5269814974e+01   2.6412287064e+00    0.1969933    0.1616229 -62.97 0.0006236396    1.627    0.385
       252  -8.4554    128.1889    158.9469   1.0859705659e+02   2.4196356476e+01    0.2993705    0.2238973  85.37  0.001072777    1.752    0.429
       253  -9.7309    105.7226    157.9362   1.1429626532e+02   2.8700389141e+01    0.4952358    0.3404609  83.87  0.001148084    1.957    0.489
       254  -8.4458    196.5139    158.0732   9.2616607249e+01   1.0397789558e+01     0.222492    0.2051862 -81.81 0.0007166248    1.316    0.240
       255  -8.6051    188.3190    157.7102   9.4230748124e+01   1.2121615654e+01    0.2880063    0.1799553 -39.35 0.0005813823    1.594    0.373
       256  -8.5899    218.0211    156.5718   8.8123396339e+01   6.4870250935e+00    0.2678507    0.1828698 -50.11 0.0007475344    1.623    0.384
       257  -8.4148    212.8687    157.0807   8.9195110792e+01   7.3760398762e+00    0.2134303     0.189495 -68.22 0.0006381408    1.400    0.286
       258  -8.9248    157.5239    156.0586   1.0074381318e+02   1.8849644800e+01    0.3090993    0.2472552 -76.01 0.0009680791    1.567    0.362
       259  -9.5436    119.4819    155.3214   1.1011734961e+02   2.6745043265e+01    0.5058759    0.3166995 -78.90  0.001647503    2.427    0.588
       260  -9.3525     49.8101    155.3528   1.2922565169e+02   3.7855228911e+01    0.4124158    0.2212972  61.57  0.001617589    2.167    0.538
       261  -9.6897    242.6318    154.8700   8.3477129675e+01   2.3312485135e+00    0.2364116    0.1780343 -54.08 0.0003553591    1.596    0.373
       262  -7.9857    204.5487    155.4832   9.0449718529e+01   9.2885737110e+00    0.1438871    0.1352164 -14.65  0.000119677    1.018    0.018
       263  -8.5730    144.7070    155.0552   1.0361964065e+02   2.1737489707e+01    0.2672248    0.2075192  58.24 0.0006805966    1.373    0.271
       264  -9.6466    132.7406    152.9086   1.0616520202e+02   2.4678223730e+01     0.489324    0.3448267  75.96  0.001304102    1.977    0.494
       265  -9.1333    133.4873    148.4935   1.0501456694e+02   2.5542068017e+01    0.3366342    0.2730188 -34.82  0.001215204    1.347    0.257
       266  -9.4982     67.9566    153.7727   1.2395072316e+02   3.5864221114e+01    0.4502035    0.2743916  72.30  0.001417251    2.067    0.516
       267  -8.9908    151.7957    152.6260   1.0135828253e+02   2.0797135698e+01    0.2561924    0.1870792 -52.76 0.0008797201    1.438    0.305
       268  -9.2565     20.0583    152.5548   1.3695369600e+02   4.1630849682e+01    0.2527278    0.1490909  84.60  0.000898788    1.627    0.385
       269  -8.2845      8.6996    153.4373   1.4000580689e+02   4.2345572531e+01    0.2127612    0.1098448  32.74  0.001140775    2.090    0.522
       270  -9.5836     29.3136    150.6613   1.3425400222e+02   4.1242289804e+01    0.4734149     0.216262  68.33  0.001907218    2.925    0.658
       271  -8.9762      2.9450    150.9657   1.4127392359e+02   4.3352540080e+01    0.3203698    0.1460055 -78.60  0.001580182    1.783    0.439
       272  -9.6797    248.7504    149.4433   8.1366564372e+01   2.1690098870e+00     0.326305    0.1901064 -37.27 0.0007650817    1.503    0.334
       273  -9.0734    247.0284    143.8147   8.0460790440e+01   3.3837284595e+00     0.273975    0.1671139 -32.53 0.0005028771    1.458    0.314
       274  -8.3351    250.4730    140.9592   7.9329752095e+01   3.2508445492e+00    0.1882228    0.1558099 -31.05 0.0005471177    1.041    0.040
       275  -9.7641    242.5061    150.0394   8.2488850779e+01   3.1488857096e+00    0.3707238    0.2740081  57.52  0.001765333    1.738    0.424
       276  -8.3883    237.2363    150.4045   8.3432990610e+01   4.0194583829e+00    0.1629061    0.1326103  55.85 0.0003083495    1.504    0.335
       277  -8.9056    189.4946    150.2035   9.2323212550e+01   1.3353307370e+01    0.3187235    0.2225503 -62.33 0.0007725959    1.866    0.464
       278  -8.1972    182.3942    151.2373   9.4057595425e+01   1.4630066291e+01    0.2114094    0.1407803 -52.59 0.0005581621    1.656    0.396
       279  -8.7612    162.8138    150.5242   9.8277582966e+01   1.8921145765e+01    0.3515171    0.2131563 -56.40  0.001181425    1.927    0.481
       280  -8.6940     98.3374    150.7402   1.1491785886e+02   3.1768007585e+01    0.3267285    0.2303333  76.27  0.001192113    1.779    0.438
       281  -8.3255    212.8958    150.0445   8.7660519621e+01   8.6478887069e+00    0.2092834    0.1886028 -58.20 0.0004659097    1.259    0.206
       282  -9.9426     39.8251    147.7385   1.3097330098e+02   4.0888544383e+01    0.6191837    0.3308524  75.90  0.002364935    2.384    0.581
       283  -8.5035    198.8206    149.0733   9.0167779054e+01   1.1649005588e+01    0.2212193    0.1963907 -64.47 0.0006022472    1.299    0.230
       284  -9.9707     89.3132    145.8039   1.1649115800e+02   3.4536927990e+01    0.9002547    0.4618921 -71.80   0.00332647    2.562    0.610
       285  -9.9005    233.8118    146.9930   8.3280583629e+01   5.2167205089e+00    0.4258541    0.2039373 -29.21  0.001781882    2.215    0.549
       286  -8.9121     77.9755    147.2453   1.2000002476e+02   3.6006836780e+01    0.2710935    0.1943113  85.03  0.000702642    1.617    0.382
       287 -10.3300     54.7092    144.3383   1.2622221403e+02   3.9997756865e+01     0.902531    0.4601986  77.80  0.003071197    3.339    0.701
       288  -8.8627     56.7668    135.5821   1.2417169059e+02   4.1931347952e+01    0.3268148    0.1863956  12.44  0.001357611    2.679    0.627
       289  -8.3398    223.3203    146.9660   8.5087241493e+01   7.1834951448e+00    0.2030365     0.163195 -34.69 0.0004614225    1.150    0.130
       290 -10.2610    148.9959    144.9707   1.0031973428e+02   2.3081407104e+01    0.5796645    0.4019838 -89.48  0.001536644    2.362    0.577
       291  -9.8994    139.0655    145.0417   1.0281704097e+02   2.5172462327e+01    0.5192524    0.3376752 -68.46  0.001332827    2.050    0.512
       292 -11.0359     68.6932    140.0856   1.2140574648e+02   3.9180775788e+01     1.104045    0.5580555 -70.22  0.004111781    2.137    0.532
       293  -9.4102     13.5931    146.4508   1.3806783083e+02   4.3644432703e+01    0.4066622    0.1641756  52.77  0.001406692    2.712    0.631
       294  -8.1723    206.5121    146.1492   8.8008279802e+01   1.0637035978e+01    0.2203262    0.1376971 -38.79 0.0008152412    1.530    0.346
       295  -8.2683    175.2557    146.1846   9.4469264267e+01   1.7171936189e+01    0.2099447    0.1800195 -73.29  0.000625884    1.379    0.275
       296  -9.8072    240.3631    145.2188   8.1819229705e+01   4.3298513764e+00    0.6298829    0.1735969 -36.39  0.002115717    3.370    0.703
       297 -10.4233    242.6754    143.3252   8.1045162563e+01   4.2325719430e+00    0.6266254    0.2172542 -37.92  0.002426562    2.546    0.607
       298  -9.9412    125.1216    142.2918   1.0582761918e+02   2.8695320193e+01     0.729879    0.4361335 -67.69  0.002154665    2.244    0.554
       299  -8.9175    165.6582    144.0741   9.6149127600e+01   1.9682578882e+01    0.3184717    0.2177905  61.29 0.0006589962    1.745    0.427
       300 -10.3593    106.8111    144.2889   1.1125442496e+02   3.1799144207e+01    0.8565716    0.5467722  86.31   0.00234744    2.584    0.613
       301  -9.3917      2.5404    141.7544   1.4059856141e+02   4.5568901256e+01    0.3800636    0.1804494  75.05  0.001828841    2.256    0.557
       302  -8.5002    181.9834    141.8020   9.1994578440e+01   1.6619458507e+01    0.2642853    0.1958894 -59.27 0.0006208078    1.561    0.360
       303  -9.3093    139.8932    137.7707   1.0092859109e+02   2.6648282356e+01    0.4651479    0.3154183  -7.68  0.001740423    2.589    0.614
       304  -9.7895     23.3609    138.2988   1.3445225416e+02   4.4825832345e+01    0.5019725    0.2472107  68.12  0.002124751    2.569    0.611
       305  -8.4589    218.6042    138.7777   8.4119180602e+01   9.5631671752e+00     0.272118    0.2042446 -62.30 0.0008013941    1.651    0.394
       306  -8.8951    172.2358    138.6014   9.3378484274e+01   1.9397327645e+01    0.3181507    0.2386013 -73.23 0.0009649454    1.776    0.437
       307  -8.3516    207.3755    137.9902   8.6002200034e+01   1.1984153647e+01    0.2441399    0.2039387 -82.04  0.000727463    1.541    0.351
       308  -8.7172    197.4668    137.5481   8.7816129015e+01   1.4143081642e+01    0.3011452    0.2360083 -66.00 0.0008547581    1.558    0.358
       309  -8.7494    162.3331    136.6248   9.5170701814e+01   2.1996835574e+01    0.3378546    0.2824097   6.05  0.001621389    1.428    0.300
       310  -8.8740    150.9292    135.9733   9.7741478663e+01   2.4652924236e+01    0.3692001    0.2588221  22.52  0.001557638    1.823    0.452
       311 -10.4428     83.3089    133.1777   1.1570958137e+02   3.8661961082e+01    0.6670385    0.4133915 -62.88   0.00143184    1.613    0.380
       312  -9.3717     39.0299    136.1864   1.2958644599e+02   4.3847830337e+01    0.3362366    0.2082492  78.06 0.0009226169    1.876    0.467
       313  -9.1882    250.6596    129.8349   7.6954796038e+01   5.0317533113e+00    0.4906814    0.1098874 -37.07   0.00148868    3.936    0.746
       314  -8.9215    248.3685    135.3212   7.8461108340e+01   4.5417308253e+00    0.3058757     0.173742 -40.62 0.0007199629    1.548    0.354
       315  -8.5529    246.9541    130.4968   7.7647030069e+01   5.5904045413e+00    0.2530669    0.1631322 -48.36 0.0005720586    1.529    0.346
       316  -8.7163    179.4619    133.9890   9.0698457776e+01   1.8753604410e+01    0.3099324    0.2469267 -71.33 0.0007801586    1.539    0.350
       317  -8.4686    237.5143    133.5478   7.9768649917e+01   6.8213828182e+00    0.2507999    0.1113476 -46.70  0.001021087    2.278    0.561
       318  -9.3724    112.8549    133.1916   1.0711232474e+02   3.3310418638e+01    0.3989107    0.3018663 -75.83  0.001148895    1.562    0.360
       319 -10.2855    132.0405    131.0675   1.0137068359e+02   2.9859445232e+01    0.6242874    0.3904632 -67.22  0.001700285    2.155    0.536
       320 -10.4197     98.1348    130.1440   1.1064791012e+02   3.6842892636e+01    0.7609484    0.3049865 -55.43  0.001920311    2.516    0.603
       321  -8.8220     98.8213    120.7956   1.0826050251e+02   3.8976642992e+01    0.4019771     0.258742  -0.15  0.001423906    3.089    0.676
       322  -9.1462    143.1468    131.7083   9.8651134748e+01   2.7308583001e+01      0.32107    0.2663097 -83.98 0.0007638948    1.438    0.305
       323  -9.7176    152.9954    128.4949   9.5419662182e+01   2.5832223157e+01    0.7017952    0.3206383 -45.62  0.002253438    2.206    0.547
       324 -10.1552     12.6204    128.8427   1.3645444461e+02   4.7987135442e+01    0.5571725    0.2821015  83.33  0.002242086    2.215    0.548
       325  -8.1157    220.7485    130.0275   8.1773010450e+01   1.0704574640e+01    0.1881423    0.1141086 -38.83  0.000869807    1.519    0.342
       326  -8.3541    204.6451    130.3506   8.4755740124e+01   1.3988011875e+01    0.2225044    0.1729148 -73.53 0.0006594753    1.668    0.401
       327  -8.3529    192.8651    130.0931   8.6984548140e+01   1.6579104353e+01    0.2312003    0.2005455 -68.31 0.0005278748    1.292    0.226
       328  -9.3612    168.3828    129.5231   9.2064463335e+01   2.2148174942e+01    0.3176269    0.2541997 -73.67 0.0008272561    1.521    0.342
       329  -8.9835    161.6891    129.9868   9.3716410543e+01   2.3557255297e+01    0.2312747    0.2046124 -45.55  0.001154862    1.134    0.118
       330  -9.7589     73.1095    129.3759   1.1802322253e+02   4.1208565184e+01    0.3762555    0.2793626  77.59  0.001154608    1.605    0.377
       331  -8.1947     25.3018    129.8585   1.3280302402e+02   4.6734486351e+01    0.2217437    0.1597745   1.23  0.001212711    1.853    0.460
       332  -7.9400      1.4141    130.1919   1.3984073011e+02   4.8399756436e+01    0.1755687   0.09646884 -89.65 0.0005796634    1.644    0.392
       333  -8.0485    211.4343    129.1858   8.3230017055e+01   1.2773189945e+01    0.2091769    0.1286514 -49.78 0.0006581253    1.684    0.406
       334  -8.0959    186.2881    129.6467   8.8217271315e+01   1.8115081236e+01    0.1558358    0.1202709 -74.04 0.0004468283    1.671    0.402
       335 -10.7246     45.0175    123.7776   1.2575935640e+02   4.6291688737e+01     1.092112    0.5513769  74.66  0.003793199    3.835    0.739
       336 -10.4005     60.0432    125.1376   1.2125215038e+02   4.4116727498e+01    0.7336844    0.4290155  77.37  0.002446944    2.733    0.634
       337 -10.0791    117.8838    125.3757   1.0384065471e+02   3.4148917580e+01    0.5434412        0.383  84.97  0.001429192    2.115    0.527
       338  -8.2813    228.4869    125.4867   7.9446391421e+01   9.9545920783e+00    0.2493439    0.1169271 -47.00   0.00101611    2.126    0.530
       339  -8.8553    179.2847    124.8683   8.8527608606e+01   2.0640305187e+01    0.2833747    0.2523178  84.50 0.0006720042    1.258    0.205
       340 -10.3609     28.3124    121.6202   1.3070098550e+02   4.8499522985e+01    0.9163057     0.433173  86.80  0.003512894    3.198    0.687
       341  -7.9998    187.8227    135.8766   8.9379812431e+01   1.6541683122e+01    0.2059873    0.1784899 -66.74 0.0004009799    1.298    0.230
       342  -8.1517    188.6643    123.5462   8.6255799236e+01   1.8788969403e+01     0.277431    0.1389093 -40.65   0.00108009    1.943    0.485
       343  -9.4994    158.6868    121.7994   9.2380750480e+01   2.5980420383e+01    0.4110111    0.2949227 -75.34  0.001099333    1.931    0.482
       344  -8.8696     85.0149    122.7237   1.1292177804e+02   4.0956776320e+01    0.4172145    0.2204308  21.04  0.001504347    2.870    0.652
       345  -9.4336     71.6867    120.8402   1.1668249458e+02   4.3538657574e+01    0.4678218    0.2670943  63.88  0.001549324    2.678    0.627
       346  -7.4583    203.0000    121.9873   8.3092935239e+01   1.5913757845e+01    0.2428896   0.08139191 -39.36 0.0004038607    2.842    0.648
       347  -7.8639    195.0018    121.9950   8.4620384497e+01   1.7674554236e+01    0.2333788    0.1787262 -69.89 0.0005467394    1.607    0.378
       348  -8.7561    172.0331    121.5622   8.9278355783e+01   2.2965449253e+01    0.2859927    0.2107336 -58.14 0.0005838152    1.497    0.332
       349 -10.3409    141.5967    117.9355   9.5586407148e+01   3.0710996912e+01    0.7363933     0.359104 -49.97  0.001296509    2.153    0.536
       350 -10.1740    130.9996    118.5726   9.8526518043e+01   3.2928163738e+01    0.5710299    0.3962545 -72.22  0.001689914    1.947    0.486
       351  -8.1096    119.6254    119.6835   1.0193267340e+02   3.5112782824e+01    0.1649224    0.1269583  -1.22 0.0007031009    1.798    0.444
       352  -8.2534     15.3167    119.3431   1.3446182265e+02   5.0101042093e+01    0.1357074   0.07898533 -45.92   0.00070486    1.715    0.417
       353  -9.6338      2.8213    117.4131   1.3809110799e+02   5.1370919491e+01    0.5003102    0.2227042  78.10  0.002149285    2.928    0.659
       354  -7.3836    231.5266    117.5162   7.7166211781e+01   1.0728532764e+01    0.1418522    0.1239767 -51.59 0.0001072223    1.112    0.101
       355  -7.7406    219.3055    116.6742   7.8955126678e+01   1.3387272015e+01    0.1464383     0.108358 -67.59  0.000243513    1.647    0.393
       356  -8.2203    193.0968    115.5687   8.3422708809e+01   1.9333787968e+01    0.2633153     0.195272 -50.44 0.0006708669    1.351    0.260
       357 -10.3995    109.7299    112.5360   1.0293464374e+02   3.8803087382e+01     1.071615    0.5170674 -43.98  0.002500302    2.105    0.525
       358  -8.7920     58.9552    115.4536   1.1965375402e+02   4.6660099933e+01    0.3709359    0.2253253  -9.19  0.001477963    2.901    0.655
       359  -8.4035    166.8969    114.6910   8.8673609609e+01   2.5561716871e+01    0.2507049    0.1969216  33.01  0.000801246    1.400    0.286
       360 -10.0948     92.7010    112.6089   1.0811584907e+02   4.2056577753e+01    0.5387152    0.3394938 -68.96  0.001240484    1.999    0.500
       361  -8.8180     94.0302    104.6902   1.0564766816e+02   4.3670110252e+01    0.5396984    0.3177061  10.64  0.001792164    3.518    0.716
       362  -9.9999     78.6096    112.2341   1.1250204759e+02   4.4563149207e+01    0.6591788    0.4255456 -85.55  0.002264698    2.403    0.584
       363  -8.8948     78.3272    105.3268   1.1089477832e+02   4.6260800000e+01    0.3455418    0.2438064   9.73  0.001382393    1.876    0.467
       364 -10.1332    122.0257    112.7316   9.9457534503e+01   3.6193032993e+01       0.5048    0.3871265 -81.34  0.001150119    1.694    0.410
       365 -10.3452    119.9300    106.3648   9.8334299283e+01   3.8071043623e+01    0.7425789    0.4368491  41.73   0.00305334    1.712    0.416
       366 -10.7603    109.0891     98.9744   9.9433412936e+01   4.2001420616e+01    0.9752634    0.5492482  66.90  0.001407745    3.361    0.703
       367  -9.1523    107.6680     92.6676   9.8042095551e+01   4.3670077369e+01    0.7733412     0.340699  27.54  0.002058214    4.866    0.794
       368 -10.4092    133.7114    109.2495   9.5340020487e+01   3.4393016930e+01     0.724948    0.3208229 -50.10  0.002075885    2.417    0.586
       369  -9.7353     14.1666    111.2587   1.3372474118e+02   5.2138133413e+01    0.4419697    0.2307744  73.72  0.001636429    2.588    0.614
       370  -8.4554    185.8224    116.0992   8.4996477708e+01   2.0890399209e+01     0.235948    0.2003039 -67.40 0.0004624699    1.284    0.221
       371  -8.5731    174.7295    111.9262   8.6247204747e+01   2.4286877495e+01    0.2921624    0.2033201 -57.24 0.0006405321    1.591    0.372
       372  -8.6505    159.1121    111.8217   8.9705397865e+01   2.7975264980e+01    0.2761561    0.2232496 -47.61 0.0004930261    1.241    0.194
       373 -10.2128     66.4254    109.8001   1.1593492491e+02   4.7012787054e+01     0.645424    0.3515748 -58.87  0.002439658    1.747    0.428
       374  -8.0967    149.6456    110.1536   9.1522725251e+01   3.0538898343e+01    0.2254084    0.1488032 -32.55 0.0004694604    1.686    0.407
       375 -10.8320    248.5978    105.4376   7.1999133052e+01   9.3933453618e+00    0.5896939     0.264944 -47.55  0.002574753    2.093    0.522
       376  -9.3392    139.9843    104.7972   9.2489980334e+01   3.3917107443e+01    0.3847924    0.2948252  88.25 0.0008117195    1.727    0.421
       377 -10.5330     45.5392    102.3941   1.2144624267e+02   5.1478459790e+01    0.7565736    0.4319001  73.09  0.002948109    3.248    0.692
       378 -10.5970     22.8264    102.6231   1.2945601932e+02   5.3581443037e+01    0.7483207    0.3927251  74.37  0.003068584    3.114    0.679
       379  -8.6050    166.8555    104.4704   8.6005572242e+01   2.7634519172e+01    0.2942089    0.2090316 -58.70 0.0006974744    1.571    0.363
       380  -9.5217    150.6037    103.2045   8.9411078853e+01   3.1761586035e+01    0.5027263    0.3207679 -66.84  0.001335267    2.223    0.550
       381  -9.9342    128.5155    102.3164   9.4829447925e+01   3.7065564476e+01    0.3579154    0.2875553 -82.86 0.0009632306    1.555    0.357
       382  -8.9282      6.7317    102.7253   1.3498935567e+02   5.4644810402e+01    0.2904363    0.1552439 -88.27  0.001122448    1.988    0.497
       383  -7.9645    175.5492    102.0864   8.3514199428e+01   2.6024150123e+01    0.2356404    0.1497536 -41.96 0.0008393499    1.552    0.355
       384  -8.3106    159.8461    101.1558   8.6684075971e+01   2.9972820339e+01    0.2393296    0.2089904 -73.83 0.0005170259    1.239    0.193
       385  -9.3447     82.0033    100.1188   1.0832312873e+02   4.6869750082e+01    0.3386073    0.2665567 -83.60 0.0006433238    1.609    0.379
       386  -8.6714     43.6770    109.4570   1.2354434232e+02   4.9972371703e+01    0.2674465    0.1421651  16.43  0.001179659    2.438    0.590
       387  -9.1842     94.8853     97.0189   1.0327262815e+02   4.5258826320e+01    0.3217647    0.2653695 -74.66  0.000595326    1.434    0.303
       388 -10.1005     63.7759     95.9287   1.1347412187e+02   5.0694883682e+01    0.5767226    0.3692617 -85.27  0.001896586    2.584    0.613
       389  -8.9905     66.3167     87.1898   1.1022356537e+02   5.2327080467e+01    0.6765452     0.312552  17.71  0.002213919    3.993    0.750
       390  -8.8093    151.0254     95.9246   8.7292524719e+01   3.3135836538e+01    0.3891544    0.2675903   8.36  0.001491804    2.464    0.594
       391  -8.2584    189.1893    107.9539   8.2283582381e+01   2.1682207599e+01    0.2400778    0.1948937 -63.35  0.000616497    1.321    0.243
       392  -9.6441    138.6989     91.9236   8.9183131786e+01   3.6878154742e+01    0.4952891    0.3752351 -75.11  0.001538084    1.698    0.411
       393 -10.7575    123.9987     91.1224   9.2852960874e+01   4.0445100982e+01    0.7082638    0.6201257   5.41  0.001667207    1.298    0.230
       394  -7.6124    188.6633     93.6845   7.8729674734e+01   2.4462319932e+01    0.1529458    0.1205636  16.70 0.0007047571    1.696    0.410
       395  -8.3226    176.4673     93.4736   8.1038760408e+01   2.7439229216e+01    0.2440173    0.1872607 -75.49 0.0006552205    1.547    0.354
       396  -9.3700    173.0854     91.9603   8.1318428059e+01   2.8544207543e+01    0.3365016    0.2608565 -22.83 0.0002835369    1.495    0.331
       397  -8.9982     45.9545     92.7062   1.1911079402e+02   5.3732244311e+01    0.3710766    0.1959013   7.06  0.001511994    2.944    0.660
       398  -9.3700      5.4214     92.3962   1.3392822061e+02   5.7143728324e+01    0.3066348    0.1745802  61.69  0.001158154    2.342    0.573
       399  -8.3214    157.9226     91.6259   8.4488091719e+01   3.2308989233e+01    0.3129371    0.1970285 -56.60 0.0006228187    1.838    0.456
       400  -9.5727     34.8566     89.7557   1.2255985708e+02   5.5586578183e+01    0.4769088    0.2681926 -86.01  0.001557446    2.822    0.646
       401  -9.0441     22.9173     90.3353   1.2715670731e+02   5.6486728311e+01    0.2906722    0.2241422   4.22   0.00133295    1.509    0.337
       402 -10.0377     86.4087     86.7023   1.0306039612e+02   4.9110579540e+01    0.4934569    0.3733078  82.95  0.001314365    1.987    0.497
       403  -8.7972     86.7266     81.0304   1.0122894758e+02   5.0263746614e+01    0.2903021     0.194835   8.46  0.001208219    2.133    0.531
       404  -9.8873     48.6573     84.0850   1.1594408776e+02   5.5403398223e+01    0.6006233    0.4084195 -86.16  0.002205206    2.225    0.551
       405  -7.8469    179.3007     85.6736   7.8384195928e+01   2.8175859519e+01    0.1584413    0.1156381 -72.26 0.0003444098    1.638    0.389
       406  -9.8892    104.8818     83.3262   9.6076922817e+01   4.6214582294e+01    0.4908309    0.3475824 -70.82  0.001029455    2.018    0.504
       407  -8.9834    105.9187     77.0406   9.3781743225e+01   4.7260828811e+01    0.4076571    0.1949843  33.80  0.001463464    2.564    0.610
       408  -8.1945    157.8703     84.0687   8.2358588786e+01   3.3750820021e+01    0.2336168     0.203666 -74.29 0.0003944473    1.225    0.183
       409  -9.1607    140.9166     82.6430   8.5898214245e+01   3.8163557210e+01    0.4203237    0.2363662 -51.31   0.00106427    1.999    0.500
       410  -8.4276    229.1086     83.4564   6.9715970122e+01   1.6944597799e+01    0.1955247    0.1352764  61.63  0.001014819    1.553    0.356
       411  -9.4190      9.9904     81.2004   1.3031675115e+02   5.9471185309e+01    0.3749247    0.2043287  59.00  0.001440799    2.794    0.642
       412  -7.5785    185.2991     82.6743   7.6456782515e+01   2.7239784469e+01    0.1569964    0.1129185 -70.85 0.0007027145    1.633    0.388
       413  -8.2228    164.8384     94.1860   8.3666931078e+01   3.0131975827e+01    0.2377835    0.2051852 -74.72 0.0004120023    1.250    0.200
       414  -9.5491     24.6609     80.5924   1.2443569736e+02   5.8596894940e+01    0.4140314    0.2603187  85.71  0.001405186    2.395    0.582
       415  -8.4070    150.0492     80.5454   8.3100729269e+01   3.6329488311e+01    0.2909016    0.2114501 -57.41 0.0008757334    1.527    0.345
       416  -9.3422    119.4539     80.2627   9.0830018170e+01   4.3656610037e+01    0.3769494    0.2661295 -56.16  0.001065116    1.625    0.385
       417  -8.8781     74.5293     80.2442   1.0523456413e+02   5.2562102394e+01    0.3421368    0.2466248 -71.66 0.0009595715    1.907    0.476
       418  -8.3526    166.7349     79.7375   7.9241183138e+01   3.2341092237e+01    0.2535864    0.1881625 -36.98  0.000575394    1.385    0.278
       419  -7.9053    233.6670     79.6682   6.8235954570e+01   1.6567677475e+01    0.1316793    0.1080234  12.63 0.0007052193    1.727    0.421
       420 -10.0523     63.6366     74.4791   1.0747518314e+02   5.5499677626e+01    0.7430655    0.3337677 -61.49  0.002595311    3.458    0.711
       421  -8.7829     64.5242     63.6203   1.0361199567e+02   5.7581989413e+01    0.5327381     0.296587 -13.08  0.001969028    3.343    0.701
       422  -7.9455    184.0000     78.1050   7.5470953407e+01   2.8348530065e+01    0.2417404   0.08421821 -36.45 0.0007915228    2.867    0.651
       423  -7.6780    174.6856     78.3066   7.7262261728e+01   3.0616628594e+01    0.1572343    0.1153893 -74.81 0.0003702748    1.625    0.384
       424  -9.8078    128.3797     74.7325   8.6668477446e+01   4.2644551096e+01    0.6321519    0.3098508 -40.45  0.001797922    2.090    0.521
       425  -7.6822    157.4125     76.5089   8.0275973101e+01   3.5236433703e+01    0.1520224    0.1465005 -88.05 0.0001495903    1.020    0.020
       426  -8.6591    140.6646     75.5461   8.3819816581e+01   3.9544571372e+01    0.2610871    0.1825733 -60.23 0.0006760457    1.708    0.415
       427  -9.2576    115.5642     72.7405   8.9546974278e+01   4.5974367002e+01    0.3558322    0.2374626 -44.51  0.001013793    1.558    0.358
       428  -9.7273     82.3120     72.7020   1.0009601746e+02   5.2782604621e+01    0.4213968    0.3092807 -67.06  0.001049071    1.851    0.460
       429  -8.5964     83.9041     65.4708   9.7118236257e+01   5.3905302847e+01    0.6282078    0.3446875  11.11  0.001940788    4.511    0.778
       430  -8.2383    163.3936     73.1926   7.8058949240e+01   3.4321352869e+01    0.2191496    0.1366848 -48.62 0.0009426676    1.668    0.400
       431  -8.0073    151.2948     73.6567   8.0778322617e+01   3.7263398001e+01    0.1589654    0.1183195 -73.38  0.000590368    1.663    0.399
       432  -9.3906    105.9097     71.8375   9.2098032367e+01   4.8268787345e+01    0.3660719    0.2155039 -50.15 0.0009653122    1.905    0.475
       433  -9.4092     95.0731     71.2223   9.5303053590e+01   5.0638173837e+01    0.4451596    0.2259439 -49.33 0.0009437049    2.183    0.542
       434  -8.2629     42.5056     72.9677   1.1532828414e+02   5.8583742233e+01    0.2010965    0.1195478 -53.80 0.0005044966    1.535    0.349
       435  -7.8740    175.5025     72.4967   7.5498184196e+01   3.1407644860e+01    0.1508901    0.1422666 -86.89 0.0008106757    1.006    0.006
       436  -9.1315     29.4722     70.1308   1.1992236898e+02   6.0518093345e+01    0.5069073    0.2307883 -22.28  0.001952904    3.516    0.716
       437  -9.4096     51.3746     69.5583   1.1073961071e+02   5.8242745567e+01    0.4179329     0.239914 -65.98  0.001720209    2.423    0.587
       438  -9.0786     16.6801     70.2633   1.2532280201e+02   6.1501726653e+01    0.2566871    0.1906058  84.71 0.0009443462    1.784    0.440
       439  -9.0123    138.6343     65.9035   8.1321665917e+01   4.1738300053e+01    0.3731175    0.1774536 -40.76   0.00144086    2.164    0.538
       440  -9.1830    121.6789     65.5338   8.5498203007e+01   4.5874847831e+01    0.4544414    0.2542369 -39.65  0.001558992    1.849    0.459
       441  -7.1247    203.3318     66.7245   6.9328445632e+01   2.5509742810e+01    0.1483909    0.1029635 -72.97 0.0001930854    1.598    0.374
       442  -9.2444    110.0669     63.4930   8.8072099073e+01   4.8885568285e+01    0.4001442    0.2275451 -45.86 0.0007781326    1.911    0.477
       443  -8.8304     37.1823     64.2214   1.1499153527e+02   6.1027720098e+01    0.3023829    0.2181959 -77.44  0.001002695    1.957    0.489
       444  -9.0338    147.2826     68.4872   8.0119684671e+01   3.9158561938e+01    0.3352031     0.245029 -59.27 0.0007376193    1.555    0.357
       445  -7.6591    130.5429     64.5245   8.2861590949e+01   4.3943307774e+01     0.149999    0.1440638  66.71 7.123622e-05    1.045    0.043
       446  -7.5666    187.6618     63.3366   7.0875776290e+01   2.9864080105e+01    0.1588325    0.1058493 -70.53 0.0007051394    1.753    0.430
       447  -8.2483    158.1383     62.1156   7.5881531729e+01   3.7488044648e+01    0.2070381    0.1711582 -74.23 0.0003933242    1.307    0.235
       448  -9.5614     97.8391     59.9965   9.0579221859e+01   5.2143682766e+01    0.4649682    0.3034993 -24.56  0.001750693    1.730    0.422
       449  -9.7414     73.2621     59.5598   9.8879481029e+01   5.6928484460e+01    0.3787316    0.2532412 -53.04 0.0009392614    1.755    0.430
       450  -8.4442     89.0837     59.6555   9.3313954771e+01   5.3984174231e+01    0.2394851    0.1911045 -48.12 0.0005838821    1.384    0.277
       451  -8.5347    147.1421     59.1457   7.7276375651e+01   4.0734405967e+01    0.2062101    0.1721556 -68.48 0.0004616562    1.314    0.239
       452  -9.9208     23.5557     56.6782   1.1874342882e+02   6.3879248837e+01    0.4353624    0.2916104  89.68  0.002182623    2.705    0.630
       453  -8.7648    130.8274     58.0995   8.0701571409e+01   4.4939851473e+01    0.2272318    0.1977238 -75.22 0.0005149204    1.305    0.234
       454  -9.3084      7.5354     57.1610   1.2617320563e+02   6.4887027376e+01    0.2655083    0.1898526  81.27 0.0009662989    2.034    0.508
       455  -9.6180     54.3076     55.6659   1.0494284255e+02   6.0633756074e+01    0.3432802    0.2281595 -57.33  0.001212717    1.847    0.459
       456  -8.4871    140.1623     56.1739   7.7883053474e+01   4.2947528609e+01    0.2045895     0.170253 -66.49 0.0003781961    1.343    0.255
       457  -9.1390    119.1686     55.5941   8.2840365018e+01   4.8130910207e+01    0.3202706     0.235122 -63.48 0.0009040008    1.767    0.434
       458  -8.7304     44.0520     55.3093   1.0916800086e+02   6.2050965436e+01    0.2597495     0.173437 -55.86 0.0008567279    1.656    0.396
       459  -8.6438    105.7803     53.3687   8.5807878837e+01   5.1548614893e+01     0.263401    0.2207581 -67.41 0.0007481034    1.504    0.335
       460  -9.0892    128.0188     52.8770   7.9660103839e+01   4.6445376918e+01    0.3366024    0.2297517  36.26  0.001561764    1.559    0.359
       461  -9.6804     92.3500     50.6716   8.8972179728e+01   5.4860745184e+01    0.4767071    0.2325366 -44.17  0.001493416    2.280    0.561
       462  -8.0749     74.3190     52.3413   9.5855572906e+01   5.8045816008e+01    0.1456197    0.1020725  -0.42 0.0007049576    1.716    0.417
       463  -8.5526    144.5808     48.9928   7.4633647656e+01   4.2923480206e+01    0.2162216    0.1444543 -34.45 0.0005926306    1.594    0.373
       464  -8.7831    140.1343     48.8491   7.5536138797e+01   4.4060740220e+01    0.2198961    0.1924079  89.60 0.0005481902    1.210    0.174
       465  -7.7523    163.3380     48.3345   7.0799644254e+01   3.8254023629e+01    0.1519673    0.1090612  31.67 0.0007051753    1.747    0.428
       466  -8.6932    120.8634     47.6057   7.9648943558e+01   4.8962331184e+01    0.2273671    0.1966331 -10.85 0.0005034215    1.264    0.209
       467  -8.3181    112.3516     46.9827   8.1667626870e+01   5.1052982306e+01    0.1999559    0.1784509 -28.64  0.000548751    1.188    0.158
       468  -9.3033     82.0784     46.4869   9.0841980057e+01   5.7586852741e+01    0.2689529    0.2144321 -42.08 0.0007727012    1.383    0.277
       469  -8.4265     45.0144     44.6098   1.0486665729e+02   6.3932286743e+01    0.2216735    0.1713599 -53.50 0.0005504853    1.560    0.359
       470  -9.2058     16.6838     44.8512   1.1834558451e+02   6.6792877431e+01    0.1982086    0.1751739 -88.59 0.0006834894    1.606    0.378
       471  -9.0862    132.9073     43.3857   7.5334407117e+01   4.6637370884e+01    0.3078021    0.1906952 -49.56  0.000927373    1.865    0.464
       472  -9.3726     69.5137     41.5574   9.3482006108e+01   6.0691942700e+01    0.4027331    0.2390248 -43.48  0.001796581    1.851    0.460
       473  -9.0481     58.2080     42.6396   9.8412678961e+01   6.2389636099e+01    0.2496236    0.2008153 -62.74  0.001054631    1.828    0.453
       474  -9.6258      5.1155     41.8985   1.2320655202e+02   6.8125770599e+01    0.3277957    0.1955032 -75.58  0.001684607    2.297    0.565
       475  -8.6037    105.9695     41.3352   8.1376858718e+01   5.3333145846e+01    0.2934587    0.1862665 -41.59 0.0007926395    1.745    0.427
       476  -8.6018     92.8783     42.1623   8.5589802367e+01   5.6073461705e+01    0.2015181    0.1939556  52.19 0.0007876413    1.174    0.148
       477  -7.9817    140.4684     41.5417   7.3096215093e+01   4.5003875361e+01    0.1451084    0.1330097  62.24  3.16947e-05    1.002    0.002
       478  -8.5131     36.6366     40.5818   1.0715834453e+02   6.5681908742e+01     0.229952    0.1401092 -45.53 0.0007253544    1.576    0.365
       479  -8.8059     95.3404     37.8178   8.3148899382e+01   5.6174166705e+01    0.3174651    0.1958649 -43.60   0.00118648    1.879    0.468
       480  -8.1200     80.6119     36.8243   8.7531356478e+01   5.9345103429e+01    0.1782086    0.1235294 -41.88 0.0004093777    1.637    0.389
       481  -9.5527     26.2544     35.5396   1.1025559557e+02   6.7695592577e+01    0.3012821    0.1964308 -54.88  0.001102067    1.778    0.437
       482  -7.3227    133.3035     36.3013   7.2870298731e+01   4.7485112295e+01    0.1459677    0.1027836  32.40 0.0003370892    1.591    0.371
       483  -8.5920    224.6157     34.4984   5.8914229809e+01   2.5097443163e+01    0.2493771    0.1565641 -33.24  0.001329455    1.670    0.401
       484  -8.6700    111.8378     34.7345   7.7355327796e+01   5.2876915165e+01    0.2423949    0.1710216 -59.98 0.0005340064    1.905    0.475
       485  -7.8818     88.5136     34.5129   8.3972830045e+01   5.8074126954e+01    0.1361507    0.1233451  25.67 5.363372e-05    1.038    0.037
       486  -8.9930     48.5433     33.5442   9.8810006514e+01   6.5317192443e+01    0.2215008    0.2123188 -24.47 0.0007008206    1.352    0.260
       487  -8.1712    119.2180     33.2160   7.4974940230e+01   5.1320837161e+01    0.1859625    0.1616063 -66.74 0.0005048795    1.345    0.257
       488  -8.6452     60.7705     32.8871   9.3322325239e+01   6.3519961397e+01    0.2079942    0.1734623 -46.52 0.0005429514    1.522    0.343
       489  -8.8630     72.2469     31.4861   8.8292263343e+01   6.1698038645e+01    0.2242394    0.2045413 -57.35 0.0006401868    1.480    0.324
       490  -8.1032    125.9330     35.6920   7.4286014264e+01   4.9380313661e+01    0.1988177    0.1656213  59.05 0.0003218685    1.107    0.097
       491  -9.0845     12.9253     30.4566   1.1525868337e+02   6.9767090208e+01    0.2629671    0.1543754 -56.03 0.0009572732    1.808    0.447
       492  -8.1109     41.9793     30.0136   1.0028508514e+02   6.6785574182e+01    0.1515161    0.1241876  -9.08 0.0004182265    1.021    0.020
       493  -8.3476    101.4208     29.2449   7.8051814617e+01   5.5957435307e+01    0.1816605     0.126405 -40.44 0.0008536682    1.638    0.390
       494  -8.9909     81.3974     27.4124   8.3370699821e+01   6.0465052201e+01     0.268752    0.2165208 -49.38 0.0007749908    1.601    0.375
       495  -8.7081      3.7330     27.8580   1.1936269894e+02   7.0855707958e+01    0.1906016    0.1467526 -65.18 0.0009274195    1.628    0.386
       496  -7.8348    109.7830     27.0306   7.5006440862e+01   5.4303950859e+01    0.1732951    0.1128102 -26.38 0.0008454715    1.685    0.407
       497  -9.0024     91.8298     26.4637   7.9694288074e+01   5.8407209001e+01    0.2743971    0.1854381 -39.07 0.0008957318    1.693    0.409
       498  -8.1148    104.4957     22.9755   7.4797162305e+01   5.5989989544e+01    0.1865371    0.1342942 -23.42 0.0005127329    1.524    0.344
       499  -8.1012     34.7529     23.5532   1.0088232050e+02   6.8716901276e+01    0.1571601    0.1074273  37.05 0.0009465315    1.684    0.406
       500  -9.0634     63.5806     21.1755   8.7007464697e+01   6.4638837107e+01    0.2655456    0.2077852 -47.43 0.0009033725    1.742    0.426
       501  -8.8756     48.3229     21.7557   9.3626911607e+01   6.7091327204e+01    0.2071454    0.1937987 -45.72 0.0006079014    1.543    0.352
       502  -8.4818    120.5344     21.0347   7.0295966170e+01   5.2408222155e+01     0.190119    0.1363068 -26.03 0.0007097134    1.561    0.359
       503  -8.4746     19.7481     21.5763   1.0786113119e+02   7.0688738380e+01    0.1435185    0.1015069  26.95 0.0005083731    1.566    0.362
       504  -8.8250     74.0170     19.5433   8.2456878184e+01   6.2883153124e+01    0.2281209    0.1715261 -40.90 0.0007771764    1.634    0.388
       505  -8.2356     87.9554     17.9290   7.7304677952e+01   6.0208886268e+01    0.1848946    0.1586311 -68.66 0.0004956987    1.593    0.372
       506  -9.0373    175.6702    247.6378   1.1312888471e+02  -1.4466218379e+00    0.2938526    0.2497669 -78.26  0.001205605    1.827    0.453
       507  -7.9653    112.7231     16.9691   7.0522815418e+01   5.4699784011e+01    0.1780349    0.1669827  32.78 0.0004050357    1.097    0.088
       508  -8.4535     29.9845     16.0441   9.9746320860e+01   7.0406353430e+01     0.153875    0.1483557 -49.47 0.0006825554    1.681    0.405
       509  -7.9643      7.6191     15.8274   1.1226969262e+02   7.2659599069e+01    0.1446102   0.09674108 -52.12 0.0004803777    1.715    0.417
       510  -7.9411     17.2103     14.4196   1.0596690024e+02   7.2048210581e+01    0.1420839   0.09774495  29.67  0.000637882    1.663    0.399
       511  -8.8279    156.2001    248.2799   1.1709150553e+02   1.5095256487e+00    0.2327419    0.1841191  63.73 0.0007681972    1.572    0.364
       512  -7.6778     83.5001     11.4433   7.5833392664e+01   6.1814126487e+01    0.1293449    0.1098982  35.48 8.708754e-05    1.025    0.025
       513  -8.7855    132.2517    248.1373   1.2191049772e+02   5.3211650354e+00    0.2649423    0.1465412  59.71 0.0006259006    2.294    0.564
       514  -8.2717    113.0405    248.7116   1.2587363638e+02   8.2166893523e+00    0.2082344    0.1507178  88.54  0.001245604    1.722    0.419
       515  -9.0897    103.9605    247.2733   1.2755595388e+02   9.8562860688e+00    0.3838751    0.2192792 -88.30   0.00188687    2.676    0.626
       516  -8.3646     93.7036    249.1800   1.2981451647e+02   1.1044221413e+01    0.1936727     0.130386  69.43 0.0009579883    1.520    0.342
       517  -9.6270    242.5637    246.2565   1.0045595245e+02  -1.0854020548e+01    0.3696227    0.2281624 -14.43  0.002366681    1.518    0.341
       518  -9.0045    232.6395    247.2938   1.0236271918e+02  -9.6842574511e+00    0.1790483    0.1519855  11.19  0.000569756    1.256    0.204
       519  -8.4279    218.5264    247.1940   1.0489249437e+02  -7.7461478665e+00    0.2767245     0.111141 -37.52  0.001364667    2.745    0.636
       520 -10.0537    224.0803    243.9308   1.0336215883e+02  -8.1001895122e+00    0.4112348    0.2466733 -38.93  0.002153451    1.969    0.492
       521  -9.1006    147.0156    246.0723   1.1864976779e+02   3.3209883966e+00    0.3053509    0.2081045  68.29  0.001642696    2.101    0.524
       522  -9.0735    120.2534    245.5501   1.2404534521e+02   7.6506044244e+00    0.3575107    0.2035173  65.63  0.001725172    2.388    0.581
