#   1 NUMBER                 Running object number                                     
#   2 MAG_AUTO               Kron-like elliptical aperture magnitude                    [mag]
#   3 X_IMAGE                Object position along x                                    [pixel]
#   4 Y_IMAGE                Object position along y                                    [pixel]
#   5 X_WORLD                Barycenter position along world x axis                     [deg]
#   6 Y_WORLD                Barycenter position along world y axis                     [deg]
#   7 A_WORLD                Profile RMS along major axis (world units)                 [deg]
#   8 B_WORLD                Profile RMS along minor axis (world units)                 [deg]
#   9 THETA_WORLD            Position angle (CCW/world-x)                               [deg]
#  10 FWHM_WORLD             FWHM assuming a gaussian core                              [deg]
#  11 ELONGATION             A_IMAGE/B_IMAGE                                           
#  12 ELLIPTICITY            1 - B_IMAGE/A_IMAGE                                       
         1 -12.0299     43.7421     20.5292   1.1059557251e+02   6.8533865141e+01    0.7119189    0.3817063  15.72  0.003073282    2.745    0.636
         2 -10.8244     39.3203     16.4734   1.1083788018e+02   6.9897326663e+01    0.3328882    0.1698133 -38.03   0.00161108    1.717    0.418
         3 -12.0811    216.6970     16.5325   6.7908381688e+01   2.9116572333e+01    0.3668601    0.3230863  87.21  0.001144663    1.214    0.176
         4 -12.0229     43.7091      8.2940   1.0381445981e+02   7.0663556051e+01    0.3210111    0.2826927   2.48  0.001216535    1.117    0.105
         5 -13.3679    185.9623      6.0672   6.7673506230e+01   3.7485184965e+01    0.8049235    0.5190203 -60.22  0.003980048    1.688    0.408
         6 -11.5641     58.5298      7.8657   9.6393359831e+01   6.8193342772e+01    0.4590858    0.2916584  45.84   0.00239518    1.679    0.404
         7 -10.3230      2.4828    239.5199   1.5403116666e+02   2.6363043559e+01   0.09265441   0.06390139  56.33 8.882723e-05    1.008    0.008
         8 -12.3243    220.4997    247.9428   1.1746782855e+02   7.2585058234e-01    0.3515136    0.3160329  21.87  0.003085395    1.690    0.408
         9 -12.2840     29.8392    233.7292   1.4922940203e+02   2.4937957405e+01    0.5238082    0.1539282  56.93  0.002804929    2.880    0.653
        10 -10.9636     12.8201    227.3024   1.5196066318e+02   2.7427202011e+01    0.1571371   0.09713355  67.24 0.0004785453    1.288    0.224
        11 -10.3180    103.7223    225.0012   1.3513122354e+02   1.8321777317e+01    0.1416811    0.1270651  48.82 0.0007159915    1.145    0.127
        12 -11.2399     95.6992    224.5977   1.3660725077e+02   1.9363726805e+01    0.2726321    0.1697703  56.13  0.001823429    1.560    0.359
        13 -11.3668    149.5275    221.8051   1.2621588029e+02   1.2798179026e+01    0.3436454    0.1995309 -40.15  0.002168244    2.127    0.530
        14 -10.1358    173.8734    221.2950   1.2173170284e+02   9.5391032780e+00    0.1935237    0.1213547 -24.15  0.001243112    1.908    0.476
        15 -11.6968    226.4288    220.5930   1.1271738353e+02   2.5744291990e+00    0.2315125    0.1191227 -19.07  0.001434691    2.031    0.508
        16 -10.7047    211.1598    217.9856   1.1482285084e+02   4.8498505961e+00    0.1976093    0.1509896 -25.23  0.001372041    1.542    0.352
        17  -9.4778    107.6602    216.3499   1.3353626190e+02   1.9136124399e+01     0.117049   0.07198523  58.47 0.0007044849    1.795    0.443
        18 -10.3944    218.2732    211.6760   1.1268989304e+02   4.5684460883e+00    0.1844134    0.1372849  -1.34  0.001098271    1.186    0.157
        19 -10.8398    232.7502    210.9946   1.1023755656e+02   2.7113710251e+00    0.1311397   0.08154321 -19.52 0.0008801762    1.566    0.361
        20 -10.7184    116.0035    210.0099   1.3122983270e+02   1.9028415537e+01    0.1836898    0.1218414  59.59  0.001140719    1.721    0.419
        21 -11.0017    185.7963    203.0594   1.1698353176e+02   1.0135665510e+01     0.259636    0.1550111 -46.86  0.001503821    2.346    0.574
        22 -11.1197      4.4047    198.8432   1.5259203244e+02   3.2905134078e+01    0.2860653     0.098624  54.32  0.001654541    2.160    0.537
        23 -10.9394    236.7753    197.9760   1.0748725360e+02   3.5075160153e+00    0.1422937   0.08064947 -22.36  0.000883249    1.690    0.408
        24 -10.1306    177.6030    197.8087   1.1768204155e+02   1.2024225823e+01    0.1480502    0.1136161 -47.06 0.0009571351    1.749    0.428
        25 -10.1289    133.2269    195.2896   1.2596766803e+02   1.8950425168e+01    0.1617919    0.1004361 -65.33 0.0008211049    2.351    0.575
        26 -10.0676    215.3389    193.8526   1.1031609950e+02   6.9655104995e+00     0.205467   0.09837266 -39.22  0.001078496    2.583    0.613
        27 -10.7165    159.0072    187.7547   1.1969243082e+02   1.6263412500e+01    0.2795808    0.1291758  41.61 0.0009469895    1.938    0.484
        28 -10.2046    193.0439    188.5173   1.1334220109e+02   1.0932669713e+01     0.159701   0.09896065  54.66 0.0008096618    2.553    0.608
        29 -12.2316    159.5044    191.9923   1.2024705222e+02   1.5557911670e+01     0.538967    0.4085162  89.54    0.0030137    2.571    0.611
        30 -10.3376    109.3082    185.9889   1.2973796544e+02   2.3914225369e+01    0.1763704   0.09748541 -86.57 0.0007032703    4.149    0.759
        31 -10.7340    183.1896    182.9020   1.1422085541e+02   1.3209818934e+01    0.2708273    0.1583467 -25.80  0.001482363    1.893    0.472
        32 -10.3125    210.5495    182.7068   1.0922475939e+02   9.0112491451e+00    0.2176163    0.1077534 -25.94   0.00113739    2.096    0.523
        33 -10.2179    224.0000    183.0179   1.0698899375e+02   6.9628563938e+00    0.1800226   0.06143294 -31.46 0.0008029687    2.946    0.661
        34 -11.2569     38.0021    176.2332   1.4449789062e+02   3.4286362057e+01    0.2002838    0.1289967 -62.57  0.001286373    1.671    0.402
        35 -10.0890    224.6207    172.1646   1.0491146666e+02   8.1549899589e+00    0.1734049   0.09873146 -15.34 0.0009496643    1.744    0.427
        36 -11.7483    120.7570    167.5515   1.2461335302e+02   2.5547204436e+01    0.3427424    0.1095011 -52.75  0.001318763    3.476    0.712
        37 -10.0728    218.0000    175.9705   1.0673141705e+02   8.7056001461e+00    0.1893851   0.06356364 -32.38 0.0008108235    3.001    0.667
        38 -10.7401     98.8123    166.0149   1.2941503078e+02   2.9079792199e+01    0.2067963    0.1386582  76.86  0.001081904    2.010    0.502
        39 -11.8555    105.9779    157.1398   1.2640992132e+02   2.9768541775e+01     0.585874    0.3871453 -80.68   0.00297041    2.113    0.527
        40 -11.0118    167.0411    156.7963   1.1268600814e+02   1.9794339034e+01    0.2305987    0.1781364 -54.48  0.001294821    1.690    0.408
        41 -10.2148      6.7723    155.9540   1.5038312379e+02   4.1011484620e+01    0.1440734   0.07723727 -83.32 0.0004919094    1.623    0.384
        42 -10.1434    218.2939    156.6565   1.0299039622e+02   1.1093620541e+01    0.1111351    0.1011867 -49.55 0.0006578866    1.661    0.398
        43 -10.9477    189.8377    149.7422   1.0674356114e+02   1.6906247581e+01    0.3876776    0.1775863 -42.94  0.001692638    2.525    0.604
        44  -9.6634     40.3314    151.7278   1.4194889867e+02   3.9108146720e+01    0.1247964   0.07509375  60.08 0.0005361642    1.591    0.371
        45 -10.9352     28.6614    156.5077   1.4521607956e+02   3.9170680161e+01    0.2751305    0.1179274  66.46  0.001308095    2.547    0.607
        46 -11.9305    234.0096    147.7584   9.8586112026e+01   9.6510744950e+00    0.2785169     0.166867 -33.21  0.001173773    1.694    0.410
        47 -11.6333    107.8115    146.0271   1.2413426442e+02   3.1704624111e+01    0.5232304    0.2373295  60.59  0.001521023    5.679    0.824
        48 -10.2109    223.7619    146.0015   9.9892917605e+01   1.1564968036e+01    0.1729749   0.09647149 -26.87 0.0008959054    1.667    0.400
        49 -10.3063     56.3235    146.6514   1.3734772518e+02   3.8531040590e+01    0.1346847    0.0825955  65.62 0.0007049225    1.746    0.427
        50 -10.3861    148.4937    145.0086   1.1434679183e+02   2.5054998449e+01    0.1841578    0.1228188 -69.67 0.0008104698    2.606    0.616
        51 -10.2102    181.4091    141.2172   1.0660377345e+02   1.9729547544e+01    0.1859934    0.1249097 -44.30 0.0009492435    1.711    0.415
        52 -11.1020    244.4973    137.0014   9.4716117283e+01   9.2519680022e+00    0.1693676   0.09288366 -43.84 0.0008104891    2.550    0.608
        53 -11.1475     82.8278    130.8862   1.2801203101e+02   3.8644019325e+01    0.3929974    0.1808511 -66.62   0.00163198    2.504    0.601
        54 -10.6094    131.0040    129.7063   1.1525429167e+02   3.1058300555e+01    0.3721373     0.181093 -61.27  0.001311596    3.492    0.714
        55 -11.9516     98.6000    127.9929   1.2321299780e+02   3.6915994251e+01     0.540568    0.3090195 -81.29  0.002041448    3.346    0.701
        56 -10.5252    249.3332    123.6727   9.1137633625e+01   1.0048532863e+01     0.117966   0.09383243 -45.99 0.0007051603    1.716    0.417
        57 -11.3289     27.1365    121.0571   1.4248432044e+02   4.7157001517e+01    0.4567842    0.1689329  76.03  0.001452426    5.208    0.808
        58 -11.9862     37.7576    121.2335   1.3940262417e+02   4.6179472876e+01    0.2145796    0.1864247  84.00 0.0002862347    1.041    0.040
        59 -11.5221    192.9207    118.3880   9.9189117971e+01   2.1108346238e+01    0.5095426    0.3830155 -56.33  0.002602336    1.863    0.463
        60 -10.9222     82.5588    115.8326   1.2532162448e+02   4.2041606677e+01    0.2500823    0.1907842  46.23 0.0002271348    1.337    0.252
        61 -10.6215     78.1168    111.7933   1.2582948539e+02   4.3601881748e+01    0.4495551    0.2502001 -88.25  0.001623156    3.564    0.719
        62 -11.7029    140.9915    115.5039   1.0959566896e+02   3.1937233600e+01    0.6934693    0.2321505 -39.73  0.002337552    3.111    0.679
        63 -10.7549    108.0044    111.9298   1.1725943987e+02   3.8803046841e+01    0.5264677    0.1781853 -57.34  0.001566501    4.226    0.763
        64 -10.4178    174.2902    111.4669   1.0116159971e+02   2.5962310835e+01    0.2444691    0.1711293 -52.02 0.0009503601    1.781    0.439
        65 -11.3748    159.6558    110.6358   1.0407765084e+02   2.9101210082e+01      0.53312    0.1847178 -43.08  0.001822643    3.008    0.668
        66 -11.7430     14.3395    110.0884   1.4520273380e+02   5.0665913958e+01    0.5785189    0.2858523  87.96   0.00292863    1.952    0.488
        67  -9.6691     59.3206    109.6573   1.3115651957e+02   4.6579308113e+01    0.1405087   0.09640947  71.45 0.0007049983    1.723    0.420
        68 -12.7426    139.5950    104.6124   1.0720845295e+02   3.4302840273e+01    0.5120124    0.3524577  60.87  0.002347748    1.848    0.459
        69 -12.1818    150.3619    102.6279   1.0412002197e+02   3.2465130309e+01    0.4435688    0.2657089 -56.49    0.0018182    2.311    0.567
        70 -12.1875     44.1403    100.9852   1.3451886109e+02   5.0328846601e+01    0.6036486     0.315277  80.55  0.002471062    2.928    0.658
        71 -11.7123    127.8824    101.3620   1.0931409933e+02   3.7284187730e+01     0.422699    0.2161906 -50.81  0.001692974    2.157    0.536
        72 -11.7153    107.2115     98.0684   1.1409708087e+02   4.1907154264e+01    0.4527453     0.295633 -66.49  0.001992104    2.020    0.505
        73 -10.3992     81.6758    100.3467   1.2229764888e+02   4.5690136542e+01    0.1455463    0.1084002  78.30 0.0007049877    1.743    0.426
        74 -10.8273     19.6806     97.7959   1.4217625957e+02   5.3207876190e+01    0.3093148    0.1281216  84.24  0.001209275    3.220    0.689
        75 -10.8314     62.7889     95.7807   1.2735665410e+02   4.9409010232e+01    0.3264548    0.1686601 -87.48  0.001063301    4.266    0.766
        76 -13.1705    170.1519     90.7719   9.6552685946e+01   3.0293875904e+01    0.5170667    0.4111742  83.82 0.0008638913    1.810    0.447
        77 -10.3738    173.4482     86.5057   9.4688639973e+01   3.0263686946e+01     0.242007    0.2091667 -21.04  0.000518745    1.093    0.085
        78 -11.0700    123.8193     90.9929   1.0756712673e+02   4.0170996704e+01     0.246546    0.1760999 -69.88  0.001083098    2.022    0.505
        79 -10.5845    151.0000     88.9664   1.0021540381e+02   3.4809135422e+01    0.2523274   0.08315361 -37.00 0.0008055341    2.964    0.663
        80 -11.6003     42.0513     87.7077   1.3286151155e+02   5.3722899565e+01    0.3530697    0.2099005 -12.83  0.001593164    2.693    0.629
        81 -11.2264     86.0612     86.8753   1.1757248869e+02   4.8040665771e+01    0.3095404    0.2166367  81.69  0.001363501    2.269    0.559
        82 -11.4862     46.8027     82.1739   1.3001385116e+02   5.4548782971e+01    0.6098363    0.3503506 -85.11  0.002552115    2.328    0.570
        83 -10.9750    104.2860     83.4255   1.1093299669e+02   4.5558497449e+01     0.266436    0.1833731 -64.49  0.001196829    1.844    0.458
        84 -10.5995    140.5198     82.9982   1.0095754745e+02   3.8183716082e+01    0.2398911    0.1447111 -37.45  0.001039653    1.615    0.381
        85 -11.4551    249.5891     80.3009   8.1088567076e+01   1.5179081067e+01    0.2628566    0.1009309 -29.72 0.0009650928    2.119    0.528
        86 -10.7634     24.4897     80.9965   1.3808663440e+02   5.6898267707e+01    0.1874956   0.09670082  81.59 0.0008104879    2.573    0.611
        87 -11.4170     82.0576     72.7785   1.1488399420e+02   5.1829018751e+01    0.4315913    0.2399723 -68.41  0.001588578    3.004    0.667
        88 -11.0387     62.2595     70.9128   1.2144998321e+02   5.5283780029e+01    0.4805576   0.08268306 -51.28  0.001325922    4.517    0.779
        89 -11.3849    223.6488     71.1909   8.2113580823e+01   2.1448706627e+01    0.2665439    0.2449648 -49.39 0.0004599763    1.233    0.189
        90 -11.0261    219.0047     66.4847   8.1493488819e+01   2.3030959958e+01     0.375884     0.233306 -31.01  0.001878005    1.435    0.303
        91 -10.4065    115.5083     72.0286   1.0414041118e+02   4.5635112933e+01    0.2179896    0.1273256 -60.45 0.0008102637    2.595    0.615
        92 -10.7050     51.4102     69.7331   1.2528256703e+02   5.6963888369e+01    0.2708452    0.1261045 -63.03  0.001132903    2.134    0.531
        93 -10.9882    250.0000     68.9837   7.8291878175e+01   1.6411581313e+01    0.2231053   0.06325977 -25.71 0.0008053604    2.963    0.662
        94 -10.2015    194.6925     68.3539   8.5638023324e+01   2.8188681925e+01    0.1502185    0.1068697 -55.37 0.0007042513    1.719    0.418
        95 -13.6791     27.8352     59.9309   1.3255486252e+02   6.1694354068e+01    0.7582234     0.630164  47.00  0.004323587    1.408    0.290
        96 -12.2716    231.9649     60.4909   7.8246036480e+01   2.1010848507e+01    0.3666959    0.2660619  59.45  0.002050678    1.574    0.365
        97 -11.8873     40.3447     51.9571   1.2483443543e+02   6.2351756386e+01     0.385095    0.1788519 -42.53  0.001703552    2.025    0.506
        98 -12.0330     20.6213     50.5852   1.3356538184e+02   6.4468467295e+01    0.5237755    0.1563095 -64.71  0.002030759    2.737    0.635
        99 -11.4002    232.5459     52.1383   7.5992251728e+01   2.1857757469e+01    0.3066969    0.1683929  70.75  0.001451356    2.293    0.564
       100  -9.6508    215.5648     47.5719   7.6751794436e+01   2.6094394017e+01    0.1370694    0.1239607 -22.07 4.611843e-05    1.007    0.007
       101 -11.3094     82.4446     44.6244   1.0483131112e+02   5.7560530536e+01    0.2989704    0.2415981 -30.97 0.0009223847    1.150    0.130
       102  -9.9874    157.0310     44.7873   8.4881918119e+01   4.0522114624e+01    0.1959046    0.1215571  59.19 0.0004235135    1.668    0.401
       103 -11.0779    140.4534     43.4944   8.7820369952e+01   4.4807296551e+01    0.1505166    0.1426275  -1.17 6.151243e-05    1.004    0.004
       104 -10.7063      5.4425     42.6227   1.3916078676e+02   6.7248186506e+01    0.2682372    0.1695742  73.47   0.00147338    1.985    0.496
       105 -11.3553     69.8753     41.8125   1.0845625411e+02   6.0369522172e+01     0.270022    0.1874405 -65.91  0.001245539    2.106    0.525
       106 -11.4216     42.9372     39.1374   1.1922283182e+02   6.4895221050e+01    0.2826492     0.250762  19.50 0.0009109613    1.253    0.202
       107 -10.7381    119.4709     33.6995   8.8968630244e+01   5.1333793277e+01    0.2728997    0.2059015 -44.34 0.0008046446    1.427    0.299
       108 -10.6809    110.9396     30.8308   8.9997454959e+01   5.3773269524e+01    0.2311359    0.1895645  13.58 0.0005862996    1.246    0.197
       109 -11.4580    105.6776     30.5665   9.1340881799e+01   5.5035129616e+01     0.469618    0.3038924  40.24  0.001730277    1.555    0.357
       110 -10.4193    101.3532     29.6944   9.2211806213e+01   5.6151037113e+01    0.4236309    0.1466543 -28.26   0.00141081    2.998    0.666
       111  -9.6442    152.4843     30.4699   8.0656402180e+01   4.3535291046e+01    0.1465379    0.1413186   5.22 8.498599e-05    1.005    0.005
       112 -10.3071     81.9536    248.0464   1.4091579450e+02   1.7548297806e+01    0.1784791    0.1130028 -10.95  0.000961418    4.153    0.759
       113  -9.7814    119.4944    247.5120   1.3432433037e+02   1.3271773413e+01    0.1044367   0.07703318  38.08 4.328645e-05    1.018    0.018
       114  -9.6586      5.2859     22.2858   1.3387963057e+02   7.1913588986e+01    0.1268633   0.07041246 -40.87 0.0002641834    1.528    0.346
       115 -10.4604    239.4292     21.0257   6.7212392722e+01   2.3645331371e+01     0.194312    0.1740547  42.61 0.0006282451    1.266    0.210
       116 -10.6359     22.2991    247.3286   1.5100125418e+02   2.3558302908e+01   0.07364835   0.07081387 -16.43 0.0003578302    1.639    0.390
       117 -12.2454     24.3913    241.2991   1.5044891414e+02   2.4269062794e+01    0.3814267    0.1018981  58.28  0.002010667    3.169    0.684
       118 -11.3136      8.3595    240.5943   1.5309419126e+02   2.5731718819e+01    0.1643209     0.126647  29.99  0.001176623    1.497    0.332
