#   1 NUMBER                 Running object number                                     
#   2 MAG_AUTO               Kron-like elliptical aperture magnitude                    [mag]
#   3 X_IMAGE                Object position along x                                    [pixel]
#   4 Y_IMAGE                Object position along y                                    [pixel]
#   5 X_WORLD                Barycenter position along world x axis                     [deg]
#   6 Y_WORLD                Barycenter position along world y axis                     [deg]
#   7 A_WORLD                Profile RMS along major axis (world units)                 [deg]
#   8 B_WORLD                Profile RMS along minor axis (world units)                 [deg]
#   9 THETA_WORLD            Position angle (CCW/world-x)                               [deg]
#  10 FWHM_WORLD             FWHM assuming a gaussian core                              [deg]
#  11 ELONGATION             A_IMAGE/B_IMAGE                                           
#  12 ELLIPTICITY            1 - B_IMAGE/A_IMAGE                                       
         1 -16.2123    139.6436    111.8043   1.0825070244e+02   3.2568159474e+01     4.567602      3.54793 -80.44   0.02165026    1.706    0.414
         2 -15.1527    139.3592     70.8693   9.6747193570e+01   4.0544941662e+01     2.608793     1.888747  27.82   0.01156983    1.662    0.398
         3 -15.8456     30.3113     91.1386   1.3912792665e+02   5.5502910723e+01     3.882204     2.414434  83.11   0.02010602    1.654    0.395
         4 -14.5323     68.3172     44.7288   1.1054383770e+02   6.1534464254e+01     1.943255     1.510874  12.54  0.009987406    1.527    0.345
         5 -12.7073    126.2921     44.4937   9.0800231525e+01   4.8454970814e+01     1.074937    0.7689859 -60.56  0.004805354    1.669    0.401
         6 -12.2463    105.0676    144.4355   1.2413900652e+02   3.2591872009e+01     0.690249    0.5628477 -59.76  0.003867954    1.341    0.254
         7 -11.3440    107.6238    208.8639   1.3224855030e+02   1.9985421049e+01    0.3507349    0.2408622  51.48  0.002226293    1.240    0.194
         8 -11.2198    192.7043    207.0103   1.1516498674e+02   7.1422983211e+00    0.2780193    0.1493186 -23.09   0.00152283    2.363    0.577
         9 -11.9477     59.9498    162.8350   1.3853167607e+02   3.5402114741e+01    0.8018565    0.4300373 -58.50  0.004138035    2.082    0.520
        10 -15.3008     71.6545    194.7635   1.3871120430e+02   2.7478986942e+01     2.666569     1.543408  50.96   0.01563334    1.387    0.279
        11 -11.5205    123.2596    208.0357   1.2888790351e+02   1.7793921479e+01    0.5241653     0.265991 -41.81   0.00269956    2.818    0.645
        12 -11.9318    115.2402    195.5677   1.2910340776e+02   2.1078246931e+01    0.7553607     0.574028  -8.64  0.004407563    2.004    0.501
        13 -11.7304    152.3805    198.5901   1.2167003638e+02   1.4676163188e+01    0.2852916     0.234602 -45.22  0.001890742    1.535    0.349
        14 -12.3862    195.0927    191.5710   1.1231147441e+02   8.6971918206e+00    0.6527207     0.245833  38.02   0.00299958    2.201    0.546
        15 -12.7080    205.6779    186.0141   1.0946919944e+02   7.6927938092e+00    0.5477799    0.3703587  24.76  0.003371376    1.241    0.194
        16 -13.3576     95.5797    190.7603   1.3291130006e+02   2.4900999502e+01     1.170578     0.778785 -86.27  0.006738906    1.878    0.468
        17 -12.7876    141.6812    186.0564   1.2208509558e+02   1.8408083694e+01    0.8884872    0.4626643 -55.62   0.00435966    2.548    0.608
        18 -12.7198      8.2778    187.6586   1.5243847077e+02   3.5672031160e+01     0.532535    0.3763698  26.14   0.00379357    1.604    0.377
        19 -10.9501    122.3285    186.6705   1.2639809166e+02   2.1497942959e+01    0.2938911    0.2357187  83.85  0.001800372    1.540    0.351
        20 -11.1259    121.5954    182.7839   1.2602942357e+02   2.2302205953e+01    0.3994929    0.2762407  31.43  0.002014685    1.352    0.261
        21 -11.3822     31.4928    203.7320   1.4808607699e+02   3.0470853067e+01    0.2795896     0.163009  58.90   0.00184728    1.311    0.237
        22 -12.5815    167.3951    176.4620   1.1515946441e+02   1.5508816876e+01     1.204208    0.4324324 -44.20  0.004932223    3.314    0.698
        23 -11.0574    162.0061    166.7883   1.1459956258e+02   1.8008584217e+01    0.5001901    0.2685032 -36.86  0.002390727    2.187    0.543
        24 -10.8594    130.6851    184.5283   1.2425168558e+02   2.0500077538e+01    0.3283159    0.2231868  50.22  0.001858155    1.346    0.257
        25 -11.1933    104.5243    183.1634   1.2997014985e+02   2.4954562347e+01    0.3889215    0.2918623  85.67  0.002310133    1.583    0.368
        26 -12.4008    194.6599    175.8307   1.0971109568e+02   1.0855145620e+01     0.573683     0.357558 -14.01  0.003062072    1.941    0.485
        27 -12.1106     19.4304    176.7090   1.4951299077e+02   3.6867000297e+01    0.3553234    0.1825052 -89.59  0.002081997    1.812    0.448
        28 -10.3835    131.7035    179.2102   1.2324923958e+02   2.1250987800e+01    0.2923447    0.2249257  -5.58  0.001638363    1.792    0.442
        29 -11.2375    100.3360    175.4696   1.2997038796e+02   2.7063988667e+01    0.4028664    0.1963415  55.29  0.001815852    2.172    0.540
        30 -12.1365     26.2577    170.0086   1.4754920957e+02   3.7609023926e+01    0.4661414    0.2450474  53.14   0.00271274    1.514    0.339
        31 -12.1384    145.9166    168.7050   1.1841633618e+02   2.0600929648e+01     1.019392    0.4405759  31.62  0.004036637    2.567    0.610
        32 -12.8152    153.8335    159.3645   1.1502261764e+02   2.0765922231e+01    0.7989147    0.5604447  14.22  0.004041778    1.764    0.433
        33 -10.3969    117.0064    169.9440   1.2524114756e+02   2.5421610271e+01    0.3134949     0.193407 -59.52  0.001617299    1.922    0.480
        34 -11.9313    101.6030    166.8840   1.2850789926e+02   2.8549071872e+01    0.6092013    0.4890627 -71.98  0.003633689    1.402    0.287
        35 -11.1892    124.9222    167.8660   1.2306122887e+02   2.4461397118e+01    0.5682546    0.2817431  25.76  0.002255338    2.777    0.640
        36 -11.7297    175.4956    164.3719   1.1136609315e+02   1.5924951908e+01    0.6452483    0.3688502 -38.49  0.003246757    1.968    0.492
        37 -11.8475    173.2224    155.3488   1.1012268243e+02   1.7775037029e+01    0.3751054    0.2923193 -10.93  0.002098011    1.441    0.306
        38 -12.0274    183.7576    160.4380   1.0897478933e+02   1.5008055856e+01    0.5267822    0.3555928  49.69  0.002817988    1.545    0.353
        39 -13.0218    180.8129    152.4516   1.0800698972e+02   1.6790042278e+01    0.5489084      0.47866 -32.35  0.003310628    1.275    0.216
        40 -11.6536    175.4043    201.7838   1.1759922914e+02   1.0516354597e+01    0.3056645    0.2423353  -2.05  0.002036075    1.365    0.268
        41 -11.0487     49.4014    166.6206   1.4157190456e+02   3.5875031599e+01       0.3817    0.2271451 -59.06    0.0021288    1.930    0.482
        42 -11.7537    209.8664    163.7878   1.0472468516e+02   9.8530581673e+00    0.3018738    0.2632847  30.54  0.001976171    1.202    0.168
        43 -13.3351    201.8852    158.4567   1.0514075167e+02   1.1987356191e+01     1.752359    0.8684298  22.56  0.007236909    2.797    0.642
        44 -11.0827     26.8059    162.5408   1.4697800464e+02   3.9132891151e+01    0.3289132    0.1935574  36.95  0.001959712    1.532    0.347
        45 -10.0161    113.2368    159.7800   1.2458868408e+02   2.8032453689e+01    0.1849922    0.1596212  15.57  0.001070302    1.347    0.258
        46 -11.4442     12.8933    159.2110   1.5029917432e+02   4.1073230694e+01    0.2614088    0.1486021  67.66  0.001577997    1.443    0.307
        47 -10.5014    141.7299    157.8553   1.1747142766e+02   2.3290766511e+01    0.3145881    0.2549153 -22.67  0.001571997    1.489    0.328
        48 -10.7881    145.9861    155.0168   1.1597976853e+02   2.3008960127e+01    0.3079252    0.2651937  36.65  0.001478401    1.025    0.025
        49 -10.3224     92.1076    158.3157   1.2968591100e+02   3.1804314893e+01    0.3502827    0.1345293  41.90  0.001437804    2.194    0.544
        50 -13.0743     19.9849    154.2615   1.4823722647e+02   4.1542384679e+01    0.6574367    0.4445681  65.10  0.004211072    1.205    0.170
        51 -13.2647     10.8949    144.6611   1.5013126136e+02   4.4396693925e+01    0.8460584    0.7583114   8.52  0.006137239    1.473    0.321
        52 -10.1095     50.9878    155.7433   1.4017572513e+02   3.8037439280e+01    0.1857616     0.149741  53.49  0.001170973    1.081    0.075
        53 -12.7212    188.8805    154.4867   1.0681712919e+02   1.4952326575e+01     0.380781    0.3197944  28.24   0.00229801    1.048    0.046
        54 -10.8602    126.6063    150.6571   1.1976116518e+02   2.7453870766e+01    0.3314942    0.2618381 -53.50  0.001823178    1.428    0.300
        55 -10.4507     89.5548    163.7001   1.3107075710e+02   3.1080511124e+01    0.3017758    0.1793592  66.95  0.001456662    1.964    0.491
        56 -11.5954    161.7175    148.0906   1.1113418150e+02   2.1205507138e+01    0.3344835     0.299546  63.34  0.001581315    1.274    0.215
        57 -11.4400    138.5537    144.8584   1.1578363134e+02   2.6317218990e+01     0.632452    0.4967331 -26.30   0.00335677    1.535    0.348
        58 -12.8975    116.4677    145.6343   1.2139071853e+02   3.0316579915e+01    0.8685481    0.7571013   9.98  0.004898052    1.362    0.266
        59 -12.0044    198.7532    143.8498   1.0277848095e+02   1.4662684807e+01    0.3197617    0.2388295 -70.55  0.001573764    2.418    0.586
        60 -14.7340    185.5208    111.9117   9.8090166843e+01   2.2348318153e+01     1.586665     1.288414  20.22  0.008420237    1.277    0.217
        61 -14.2526    187.3972    130.0927   1.0197538183e+02   1.9022243752e+01     1.078942    0.7943687 -21.87  0.005682406    1.432    0.302
        62 -10.9007     53.6453    142.6682   1.3808020361e+02   4.0648309260e+01    0.3239976    0.2236773  60.58  0.001828369    1.312    0.238
        63 -12.2210     11.9524    228.5860   1.5282402616e+02   2.8015491253e+01    0.4401349    0.1744994  59.77  0.002787922    1.807    0.447
        64 -11.1520     71.8465    134.7549   1.3180612161e+02   4.0050592741e+01    0.4498288    0.3527727  70.49  0.002538683    1.222    0.182
        65 -10.9009    111.5548    130.8567   1.1989045541e+02   3.4322504032e+01    0.2804573    0.2360769   7.50  0.001473608    1.488    0.328
        66 -11.3812    206.4917    228.7003   1.1587078940e+02   2.6967087702e+00     0.265765    0.1728161   1.96  0.001810927    1.588    0.370
        67 -10.4444     52.7245    133.9103   1.3731599453e+02   4.2781269817e+01    0.3155871    0.1668056 -69.56  0.001537265    1.840    0.457
        68 -10.8421    199.0885    121.6703   9.7847036678e+01   1.7915777342e+01    0.3261827    0.2235155  -2.44  0.001582412    1.769    0.435
        69 -11.5697     99.4709    116.4892   1.2034487003e+02   3.9725833637e+01    0.4835868    0.4255626  43.68  0.002647097    1.105    0.095
        70 -10.9925     65.8010    117.5322   1.3092528571e+02   4.4951083871e+01    0.4666976    0.2225492 -62.03  0.002032756    2.040    0.510
        71 -12.2746      6.5846    118.1524   1.4996051308e+02   5.0741519834e+01    0.5379128    0.2767243  36.25  0.002995319    1.854    0.461
        72 -12.3476      6.9502    110.8038   1.4939728062e+02   5.2446152457e+01    0.6222603     0.299868  35.80  0.003331704    1.992    0.498
        73 -11.1087    209.0045    117.8684   9.5209955166e+01   1.6437667258e+01    0.3772301    0.2405632  20.14  0.001787756    1.885    0.469
        74 -10.3871     87.2375    116.9733   1.2411831204e+02   4.1768181874e+01    0.3267177    0.2635547  11.08  0.001677361    1.599    0.375
        75 -10.9423    139.4800    225.6600   1.2766993762e+02   1.2761578475e+01    0.2492027    0.1576527 -56.62  0.001582124    2.222    0.550
        76 -12.7216    168.5537     99.6556   9.8426127336e+01   2.8264813951e+01    0.7059643    0.5732618 -17.55  0.003566969    1.342    0.255
        77 -12.8686    169.8448     90.7647   9.5758803182e+01   2.9495446062e+01    0.9055392    0.7385628  84.36  0.004459365    1.500    0.333
        78 -13.2971     47.5249     82.9128   1.3093773687e+02   5.5758104289e+01     1.140648    0.7041233 -85.28  0.005406894    1.846    0.458
        79 -13.0086    209.5218     96.4635   8.9972159547e+01   1.9434994141e+01    0.5964916    0.5085636  33.90  0.003385174    1.174    0.148
        80 -10.8336    105.9103    136.7475   1.2254550974e+02   3.4085972878e+01    0.3292201    0.2523987  62.76  0.001626553    1.327    0.246
        81 -11.8875     78.1668     87.3551   1.2041389081e+02   5.0257059636e+01    0.7813293      0.56291 -37.77  0.003792558    1.584    0.369
        82 -13.6585    181.6133    139.2977   1.0513652336e+02   1.8723819587e+01    0.8169682    0.6322546  65.76  0.004288403    1.677    0.404
        83 -12.0894    113.6740     74.9055   1.0505531679e+02   4.5924771477e+01    0.7045234    0.5270885  45.88  0.003331038    1.310    0.237
        84 -11.7529    103.6925     85.1977   1.1125139303e+02   4.5912455368e+01    0.8954549    0.3216877 -42.68  0.002903743    3.054    0.673
        85 -13.7918    102.7585     72.3988   1.0764830843e+02   4.8865481643e+01      1.92849     1.416042 -71.71   0.00873341    1.726    0.421
        86 -10.8856     90.6470     84.0655   1.1519514350e+02   4.8768005890e+01    0.3050848    0.2243017  52.26  0.001468626    1.383    0.277
        87 -10.9383     85.3749    109.1846   1.2309457097e+02   4.3896571058e+01    0.4495606    0.3391359 -68.47  0.002294443    1.365    0.267
        88 -10.2192    106.5015    109.8940   1.1680345780e+02   3.9875065194e+01    0.2412771    0.2138455  10.63 0.0009127809    1.332    0.249
        89 -10.8829    202.4093     83.8647   8.7893923478e+01   2.2868270531e+01    0.3404731    0.3125782 -61.08  0.001929977    1.192    0.161
        90 -12.3660    196.2901     80.9882   8.8134822153e+01   2.4725476808e+01    0.7953471    0.4212855  31.14  0.003014528    2.674    0.626
        91 -12.3720     55.2394     76.8700   1.2646277770e+02   5.6257880164e+01    0.4433727    0.3786533  51.17  0.002525762    1.212    0.175
        92 -11.0401    129.5574    137.4304   1.1651420508e+02   2.9517675244e+01     0.388142    0.3165222  37.00  0.002086394    1.155    0.134
        93 -11.8594     63.6455    109.3858   1.3021176011e+02   4.7208304911e+01    0.7474253    0.3266433  41.66  0.003117244    2.167    0.538
        94 -13.8630    170.4380     63.2725   8.7612376186e+01   3.3857055713e+01     1.755459    0.7795102  73.19  0.005285262    3.770    0.735
        95 -12.0542     56.8803     67.1900   1.2321980735e+02   5.8347736534e+01    0.4724733    0.2937085  56.51  0.002173303    1.968    0.492
        96 -11.1250     94.5410     88.0412   1.1499798297e+02   4.7118324202e+01    0.6242362    0.3386219 -51.71  0.002597942    1.865    0.464
        97 -13.4930     76.7223     58.3181   1.1219242556e+02   5.7126765244e+01     1.212323     0.861986  46.92  0.005942741    1.454    0.312
        98 -10.5609    132.1948    215.4704   1.2793317169e+02   1.5303916935e+01    0.2577955    0.1721706  38.11  0.001633874    1.139    0.122
        99 -13.6306     52.2628     48.1717   1.1923627731e+02   6.3381751159e+01      1.05887    0.6974507 -32.47    0.0052098    1.687    0.407
       100 -12.3363    128.8377     55.8791   9.4347414745e+01   4.5885284673e+01    0.5432554    0.3817902  56.09    0.0024608    1.389    0.280
       101 -12.7525      5.5564     50.3658   1.4397343567e+02   6.7089209488e+01    0.8898602    0.3650782 -47.03  0.004238856    2.232    0.552
       102 -12.8567     84.8062     50.7129   1.0624166211e+02   5.7140038434e+01     1.020066    0.6250498 -58.02  0.004356762    1.980    0.495
       103 -13.0281    149.4991    209.0690   1.2367916452e+02   1.3593083081e+01     1.018312    0.4737084  44.31  0.005245969    1.790    0.441
