#   1 NUMBER                 Running object number                                     
#   2 MAG_AUTO               Kron-like elliptical aperture magnitude                    [mag]
#   3 X_IMAGE                Object position along x                                    [pixel]
#   4 Y_IMAGE                Object position along y                                    [pixel]
#   5 X_WORLD                Barycenter position along world x axis                     [deg]
#   6 Y_WORLD                Barycenter position along world y axis                     [deg]
#   7 A_WORLD                Profile RMS along major axis (world units)                 [deg]
#   8 B_WORLD                Profile RMS along minor axis (world units)                 [deg]
#   9 THETA_WORLD            Position angle (CCW/world-x)                               [deg]
#  10 FWHM_WORLD             FWHM assuming a gaussian core                              [deg]
#  11 ELONGATION             A_IMAGE/B_IMAGE                                           
#  12 ELLIPTICITY            1 - B_IMAGE/A_IMAGE                                       
         1 -16.8346    225.8027     87.0024   4.9152438790e+01   1.7568383191e+01     5.324744     4.427494 -42.34   0.03113941    1.119    0.107
         2  -9.7652     40.8287     14.1670   7.0196749963e+01   6.8540715050e+01    0.1657119      0.11561   7.44 0.0002497521    1.299    0.230
         3 -10.0552    147.3145    239.6437   9.5662028872e+01   3.4637903954e+00    0.1290282   0.09515438  64.41 0.0007044641    1.743    0.426
         4  -9.9175     72.5142    228.5112   1.1016749373e+02   1.6957170555e+01    0.1309454    0.1060516  63.20  0.000809977    1.046    0.044
         5 -11.2684    162.8891    225.5706   9.0302004351e+01   3.4577434725e+00    0.3297069    0.2564243  18.16  0.001710529    1.250    0.200
         6 -10.3650     99.5955    225.8327   1.0401821869e+02   1.3562351531e+01    0.2263215    0.1391287  43.69  0.000821198    1.421    0.296
         7 -10.2098    183.7602    223.5974   8.5673291331e+01   4.5059912902e-01    0.1875844    0.1128097  42.92 0.0009529524    1.683    0.406
         8 -10.6387    148.8649    222.7215   9.2834420096e+01   6.2714182401e+00    0.2487984    0.1663186 -62.31  0.001270454    1.912    0.477
         9 -10.9746    126.0631    220.9298   9.7539069173e+01   1.0365175270e+01     0.208423     0.184939  50.38  0.000579225    1.057    0.054
        10 -10.3482    143.9639    216.7998   9.2973958929e+01   8.2158102124e+00    0.2315004    0.2033592 -48.57  0.001132975    1.255    0.203
        11 -10.0466    199.4852    215.4913   8.1133416114e+01  -6.7174554691e-01    0.1315629     0.114162   5.55 0.0001456764    1.018    0.018
        12  -9.9729    186.3266    214.6984   8.3630079351e+01   1.5613311962e+00    0.1247067    0.1062888  66.03 0.0003496954    1.640    0.390
        13  -9.8013    177.3176    210.6377   8.4777951195e+01   3.7655974676e+00    0.1318403    0.1094822  76.63 0.0003669187    1.767    0.434
        14 -11.4678    186.1454    204.4829   8.1843431381e+01   3.4003817923e+00    0.2830202    0.2464623  62.14  0.001181237    1.495    0.331
        15 -12.1551    165.0077    201.9145   8.5856129363e+01   7.5095443180e+00    0.6259476    0.3560948 -54.55  0.002789404    2.093    0.522
        16 -11.5613    162.4729    193.7264   8.4920211419e+01   9.5786612358e+00    0.3990485    0.3027614 -83.24  0.001623404    2.004    0.501
        17 -10.7180    149.3277    198.4837   8.8723791290e+01   1.0958127210e+01    0.3120034    0.2142611  84.18  0.001322598    2.585    0.613
        18 -10.8040     88.7300    198.7761   1.0298361090e+02   2.1120520732e+01    0.2894594    0.1638603  89.33   0.00117812    2.590    0.614
        19 -11.3377    177.4421    197.8489   8.2440888687e+01   6.1196360509e+00    0.2697759    0.2281364  67.11   0.00147674    1.549    0.354
        20 -11.3309    124.8444    197.6437   9.4229933284e+01   1.5438524934e+01    0.3737943    0.2374059  46.84  0.001776636    1.516    0.340
        21 -10.6954    113.1824    198.0809   9.7054468492e+01   1.7332127927e+01    0.2937017    0.1683702  59.46  0.001241719    2.133    0.531
        22  -9.7825    193.6597    196.3221   7.8788014791e+01   3.6088743892e+00     0.130776    0.1125045  80.55 0.0007050562    1.721    0.419
        23 -11.5496    172.6461    196.0502   8.3131008175e+01   7.3066744611e+00    0.2382743    0.1921431  45.10 0.0008280074    1.292    0.226
        24 -10.5878    172.9956    191.4963   8.2198483285e+01   8.1333735211e+00    0.2636006    0.2087601 -67.35  0.001279273    1.652    0.395
        25 -10.8556    139.0035    189.5449   8.9506669301e+01   1.4696074525e+01    0.2823699    0.2126736 -74.87  0.001373777    1.668    0.401
        26 -10.4157    129.4853    188.5383   9.1579344199e+01   1.6628754564e+01    0.2547426     0.144264 -66.56 0.0009295936    2.308    0.567
        27 -10.5498    165.3961    186.0199   8.2813025310e+01   1.0610129086e+01    0.4040758    0.2482234 -63.26  0.001704825    2.307    0.567
        28 -10.3252    156.0378    187.0463   8.5110695599e+01   1.2118724532e+01     0.229806    0.1837009  81.94  0.000921308    1.706    0.414
        29 -11.3580    120.5723    185.4169   9.3182223258e+01   1.8916453687e+01    0.4685197    0.1865674 -61.61   0.00156995    3.222    0.690
        30 -11.6302     95.1628    186.6523   9.9647892651e+01   2.2934802975e+01    0.3715829    0.2652467  84.22  0.001805561    1.639    0.390
        31 -11.7866     15.2340    186.0111   1.1896306109e+02   3.3301818318e+01    0.2952069    0.2266461 -51.28 0.0007980441    1.567    0.362
        32 -10.7983    108.9063    185.4168   9.6044965396e+01   2.0943187891e+01    0.2904666    0.1963074  88.74  0.001285898    1.999    0.500
        33 -10.6382    203.9981    184.3450   7.4395056841e+01   4.0172881644e+00    0.2442806    0.1998056 -61.28   0.00107756    1.604    0.377
        34 -10.7460    174.4924    183.3415   8.0294008538e+01   9.4791893309e+00    0.3037668    0.2383941 -86.36   0.00136328    1.937    0.484
        35 -11.4276    147.8458    180.5250   8.5751462029e+01   1.5028529949e+01    0.3452728    0.2256402 -60.27  0.001551443    1.779    0.438
        36 -10.7351    137.9836    178.7752   8.7752332987e+01   1.7255457988e+01    0.2753469     0.199861 -69.70  0.001282766    1.669    0.401
        37 -11.2564     77.9594    176.3536   1.0242755660e+02   2.8097938802e+01    0.3933936    0.2004107  56.35  0.001591393    2.281    0.562
        38 -10.4433    183.0959    175.7346   7.6920196838e+01   9.4040300029e+00    0.2522961    0.2020594 -53.08  0.001222615    1.376    0.273
        39 -10.5618    177.2467    170.9169   7.7177025840e+01   1.1475713627e+01    0.3360212    0.2373706 -66.46    0.0012802    1.956    0.489
        40  -9.8613    142.2975    172.6362   8.5520987423e+01   1.7816997292e+01    0.1545641     0.119932  84.26 0.0007032769    1.719    0.418
        41 -10.5306    134.8375    171.7265   8.7149699565e+01   1.9438092211e+01    0.2904616    0.2038433 -84.50  0.001233831    2.087    0.521
        42 -10.2627    206.3445    169.4011   7.0896663540e+01   6.3605366583e+00    0.2690564    0.2096306 -78.58  0.001322842    2.041    0.510
        43 -10.5881    168.3284    169.2540   7.8789798356e+01   1.3534147909e+01    0.3599639    0.2502461 -84.67  0.001446901    2.619    0.618
        44 -10.2214    149.8564    169.5738   8.3102012665e+01   1.7046872120e+01     0.284478    0.2025126  87.03  0.001185501    2.253    0.556
        45 -11.5398    121.7616    169.0843   8.9889587920e+01   2.2494878058e+01    0.4571205    0.3123313  87.81  0.001902254    2.179    0.541
        46  -9.7532     88.6391    168.3314   9.8351119099e+01   2.8422602890e+01    0.1607819     0.107853  70.38 0.0007040172    1.803    0.445
        47 -10.5876    192.4828    165.1012   7.2746888608e+01   9.7433532384e+00    0.3895626    0.1375039 -43.23  0.001359073    2.722    0.633
        48 -11.5393    139.3672    164.6887   8.4621876913e+01   2.0178772736e+01    0.4947762    0.3223498 -71.84  0.002024219    2.148    0.534
        49 -10.7940    213.4794    163.9729   6.8403955130e+01   6.0867963429e+00    0.2529134    0.2058974  65.40  0.001337593    1.662    0.398
        50 -10.3339    159.7005    164.1397   7.9669892532e+01   1.6312889027e+01    0.2447098    0.1953751 -69.62  0.001112874    1.513    0.339
        51 -10.6549     79.3356    163.2387   9.9981001545e+01   3.1147836810e+01    0.3986563    0.2129591  86.85  0.001326827    3.514    0.715
        52 -11.6797    205.8259    161.8401   6.9404624641e+01   7.8768215297e+00    0.4739717    0.2422507 -53.49  0.001880943    2.489    0.598
        53 -11.6954    204.7271    154.8694   6.8116192934e+01   9.4098170694e+00    0.3951294    0.2043455 -37.57  0.001689967    1.824    0.452
        54 -10.8729    177.8749    160.4930   7.4825639652e+01   1.3496190718e+01    0.3694831    0.2958984 -83.76  0.001585559    1.738    0.425
        55 -10.6266    151.8353    160.7507   8.0786248759e+01   1.8615856343e+01    0.2951845    0.2069074 -76.65  0.001235433    2.093    0.522
        56 -10.6261     92.7705    160.1820   9.5807193905e+01   2.9770492218e+01    0.2651082    0.1543217  73.08 0.0009553011    2.824    0.646
        57 -11.3628    196.8336    157.2083   7.0170716677e+01   1.0462866465e+01    0.4487872    0.2887646 -59.14  0.001864914    2.013    0.503
        58 -10.1847    128.4873    158.9983   8.6158137360e+01   2.3604593063e+01    0.2390384    0.1517171 -54.06  0.001028347    1.594    0.373
        59 -10.6623    188.5308    157.3495   7.1887816214e+01   1.2044332457e+01    0.2688721    0.2112648 -59.46  0.001341866    1.467    0.318
        60 -11.1702    168.0264    157.2789   7.6293211670e+01   1.6132169263e+01    0.3896488    0.2458246 -61.03  0.001620715    2.014    0.503
        61 -10.7314    105.3284    157.6499   9.1941403467e+01   2.8235092285e+01    0.3403133    0.2464225  76.67  0.001519841    1.745    0.427
        62 -10.4945    157.6183    155.8864   7.8369517791e+01   1.8532783765e+01    0.3022428     0.192864 -60.47  0.001109643    1.882    0.469
        63 -11.0421    119.3383    155.1356   8.7715697789e+01   2.6271973828e+01    0.4048794    0.2644568 -75.59  0.001646667    2.076    0.518
        64 -10.4720    144.8148    154.7275   8.1171556506e+01   2.1375638437e+01    0.2935247    0.2076274 -78.27  0.001033937    2.025    0.506
        65 -10.6721     81.3758    154.0271   9.7816600507e+01   3.3152244938e+01     0.364942    0.2113344 -87.23  0.001376104    2.611    0.617
        66 -10.2704     49.4935    154.9908   1.0688441067e+02   3.7321235775e+01    0.2077417    0.1104055  84.92 0.0008106061    2.582    0.613
        67 -11.4183    133.2590    152.4022   8.3539642758e+01   2.4221032026e+01     0.496407     0.310636 -68.71  0.001965085    2.140    0.533
        68 -10.3378     67.6406    153.3288   1.0154552045e+02   3.5371391890e+01    0.2408272    0.1635097  73.12   0.00111702    1.737    0.424
        69 -12.4867    190.4697    149.7630   6.9811968685e+01   1.3185696693e+01    0.5740732    0.3423039 -53.63   0.00192421    1.885    0.469
        70 -10.2488    162.6973    150.5987   7.6016574332e+01   1.8655215256e+01    0.2701228    0.1908861 -65.48  0.001173363    1.771    0.435
        71 -10.2029     98.4205    150.1700   9.2335171904e+01   3.1302083570e+01    0.3612711    0.1505392 -64.91  0.001144391    3.150    0.683
        72 -12.2575    200.2620    148.0967   6.7489868465e+01   1.1579418985e+01    0.5346508    0.2842371 -48.88  0.002102943    1.932    0.482
        73 -12.1830    196.5259    143.2589   6.7134606154e+01   1.3269801172e+01    0.3635822    0.3105016  25.32  0.000870207    1.266    0.210
        74 -10.1316    142.5946    148.8349   8.0410391185e+01   2.3171124869e+01    0.2259287    0.1477173 -59.78 0.0009100508    1.713    0.416
        75 -12.1894    149.0167    143.5618   7.7634642539e+01   2.3048003170e+01    0.8188055    0.4177335 -58.02  0.002939024    2.432    0.589
        76 -11.5339    106.7064    143.8378   8.8720408197e+01   3.1384403263e+01    0.7143587     0.386167 -69.49  0.002560421    2.582    0.613
        77 -10.9958     55.4352    144.7928   1.0361606384e+02   3.9185635475e+01    0.3781634    0.2127706  83.04  0.001494406    2.591    0.614
        78 -11.4377    165.9153    143.4733   7.3654198753e+01   1.9532500542e+01    0.4374081    0.2266798 -52.42  0.001671859    2.089    0.521
        79 -11.5500    124.6675    141.9744   8.3442860709e+01   2.8391408799e+01    0.6549599    0.3398932 -64.15  0.002272354    2.651    0.623
        80 -11.0180     87.8095    143.1366   9.3906651000e+01   3.4867121560e+01     0.401412     0.207415 -68.59  0.001504002    2.324    0.570
        81 -11.0690    182.2815    141.3232   6.9586328428e+01   1.6569430206e+01    0.3879443    0.2594524 -59.55  0.001701632    1.785    0.440
        82 -12.1910    198.0267    136.5452   6.5309860011e+01   1.4288971204e+01    0.6943658    0.2278641 -46.11  0.002255818    3.021    0.669
        83 -11.4349    172.2981    137.7191   7.0885904677e+01   1.9416924474e+01    0.4750164    0.2577147 -59.39  0.001731109    2.514    0.602
        84 -10.5195    138.5093    137.9505   7.8924888305e+01   2.6516846001e+01    0.2464147    0.1538049 -49.88   0.00102742    1.588    0.370
        85 -10.2393     23.3481    138.6557   1.1205877779e+02   4.4184284673e+01    0.1424969   0.08845317  68.88  0.000704344    1.803    0.445
        86 -11.2569    187.9799    135.0266   6.6945009726e+01   1.6666781953e+01    0.3756898    0.2066544 -49.07  0.001385192    1.832    0.454
        87 -11.1507    162.7284    135.7581   7.2563264756e+01   2.1876552199e+01    0.3273022    0.2118617 -52.93  0.001218354    1.607    0.378
        88 -11.3145    179.6079    133.3736   6.8284973052e+01   1.8771929938e+01    0.4470887    0.2789462 -52.57  0.001434552    1.684    0.406
        89 -11.6617    131.8637    129.8595   7.8688119345e+01   2.9773986259e+01    0.7495338    0.3378274 -55.29  0.002551198    2.533    0.605
        90 -10.6122    112.4627    132.8074   8.4637058014e+01   3.2989125382e+01     0.319749    0.2273568 -77.17  0.001141582    1.815    0.449
        91 -11.3286    143.1110    130.6349   7.6008538019e+01   2.7218281941e+01    0.5491553    0.2782882 -50.53  0.002067188    2.004    0.501
        92 -11.4873     83.1239    130.6573   9.2666907634e+01   3.8773583189e+01     0.551331    0.2748216 -67.17  0.002025041    2.435    0.589
        93 -11.0738    165.5112    249.5046   9.3359649091e+01  -9.6230169094e-01    0.1255338    0.1043969  26.55 -3.461056e-05    1.017    0.017
        94 -11.8532    193.1991    129.5152   6.4611341968e+01   1.6675426053e+01    0.4486983     0.251486 -46.13  0.001501809    1.705    0.414
        95 -11.8947    168.8930    128.8322   6.9503889807e+01   2.2029579423e+01    0.5095476    0.3295369 -51.10  0.001841743    1.570    0.363
        96 -11.6248    108.6241    111.8811   8.0522321514e+01   3.8713712963e+01    0.8374318    0.3242575 -53.41  0.002722265    2.799    0.643
        97 -11.5167    167.6419    112.2902   6.5635753254e+01   2.5759073383e+01    0.4513398    0.1768559 -42.72  0.001541014    2.455    0.593
        98 -12.4099    174.5740    110.2242   6.3634557134e+01   2.4607899394e+01    0.6345903    0.2980072 -45.53  0.002399493    2.062    0.515
        99 -11.4398     92.0913    110.0737   8.5017753366e+01   4.2272677823e+01    0.8767661    0.2700002 -53.79  0.002617272    3.395    0.705
       100 -11.0140     78.2374    111.2058   8.9685031357e+01   4.4368401589e+01    0.5885556    0.2809194 -69.79  0.001847712    3.661    0.727
       101 -11.8123    159.2265    110.8366   6.7126637639e+01   2.7968585715e+01    0.4903086     0.268852 -44.55  0.001965325    1.774    0.436
       102 -11.6507    122.0229    110.6992   7.6417547306e+01   3.6236488826e+01    0.5073689    0.2376923 -44.18  0.001860106    2.104    0.525
       103 -10.6794     66.3799    110.5653   9.3401912218e+01   4.6337941098e+01    0.2885304    0.1357313 -70.64 0.0009546981    3.273    0.694
       104 -11.1762     14.1895    110.2515   1.1088419639e+02   5.1973860454e+01    0.3475057    0.2035062  86.03  0.001714438    2.013    0.503
       105 -11.0802    133.1592    108.7531   7.2914836080e+01   3.4267421980e+01    0.4074427    0.2259127 -50.71  0.001574834    1.855    0.461
       106 -12.2006    139.7897    103.0156   6.9658381974e+01   3.4023900704e+01    0.6596934     0.320915 -43.61  0.002481037    2.023    0.506
       107 -12.2396    166.8208    102.6011   6.3289509499e+01   2.7904343247e+01    0.5423542    0.2643372 -39.18  0.002070573    2.029    0.507
       108 -11.4807     22.7811    102.3349   1.0662081161e+02   5.3256448461e+01    0.6300769    0.3126906  71.88  0.002218785    4.338    0.769
       109 -12.3800    150.0986    100.5249   6.6476390808e+01   3.2188225289e+01    0.8676262    0.3083535 -44.95  0.002800544    2.785    0.641
       110 -12.1003    128.6326    100.5867   7.1856072633e+01   3.7031727676e+01    0.6105298    0.3160414 -42.37  0.002370531    1.917    0.478
       111 -11.4909     44.8602    101.7674   9.8727934781e+01   5.1256779577e+01    0.4497604    0.2593272  74.02  0.001682932    3.490    0.714
       112 -12.4363    175.6433    100.6205   6.0941251466e+01   2.6256356736e+01    0.4589325     0.288877 -41.03  0.001452456    1.530    0.346
       113 -11.7788    159.8831     99.7772   6.4043699677e+01   3.0074304916e+01     0.515875    0.2228766 -42.94  0.001855489    2.248    0.555
       114 -12.2107    108.0538     96.5191   7.6456695981e+01   4.2293628065e+01    0.7937676    0.3976207 -52.70  0.003008897    2.162    0.538
       115 -10.9109     81.3837     98.0647   8.5237279549e+01   4.6953862906e+01    0.5063224    0.1380203 -51.16  0.001506785    3.515    0.715
       116 -13.3979    176.6264     91.8323   5.8444766580e+01   2.7698537545e+01     1.009266      0.39169 -52.84  0.003117138    3.454    0.710
       117 -11.0324     94.8236     94.7111   7.9963305544e+01   4.5296778643e+01    0.6308427    0.1724247 -42.56  0.001782952    3.852    0.740
       118 -11.2034     63.3981     95.8939   9.0768929356e+01   5.0276963101e+01    0.3729931    0.2369156 -88.00  0.001449226    2.975    0.664
       119 -11.6150    152.7594    128.0388   7.3015644932e+01   2.5716731735e+01    0.6273363    0.3035966 -52.36  0.002268099    2.239    0.553
       120 -12.2809    164.9108     92.7621   6.1062449779e+01   3.0271495178e+01    0.4525965    0.2560192 -37.35  0.001807084    1.780    0.438
       121 -11.6807    138.6522     90.4000   6.6389198666e+01   3.6875063290e+01     0.562492    0.2999798 -40.31    0.0022426    1.875    0.467
       122 -11.6016    157.9587     90.6943   6.1986061373e+01   3.2305367101e+01    0.3619853    0.2268814 -39.94  0.001403943    1.579    0.367
       123 -12.2624    124.9201     88.0608   6.9232817653e+01   4.0462061018e+01    0.8425071    0.3916485 -35.51  0.003052485    2.382    0.580
       124 -10.9380     34.7487     89.6407   9.9625951020e+01   5.5214975217e+01    0.3812261    0.1879517 -79.08  0.001372795    3.614    0.723
       125 -11.6981    151.0788     88.0409   6.2774630515e+01   3.4437265590e+01    0.3777963    0.2254673 -39.94   0.00160247    1.668    0.400
       126 -11.5510    164.0637     86.3641   5.9491796516e+01   3.1679303555e+01     0.306496    0.2192473 -46.20   0.00114789    1.371    0.271
       127 -10.8557     85.9907     86.0290   8.0252752816e+01   4.8828448395e+01    0.3281106    0.2090993 -70.51  0.001308921    2.521    0.603
       128 -12.0274    158.3167     82.0232   5.9487170104e+01   3.3849086653e+01    0.4175909    0.3055801 -17.61  0.001906489    1.740    0.425
       129 -11.5648    104.2730     81.1464   7.2982083840e+01   4.6300877663e+01    0.6510249    0.2541905 -45.60  0.002289548    2.587    0.613
       130 -10.5337     48.0160     84.1708   9.3240145773e+01   5.5012316404e+01     0.222523    0.1545883  59.53   0.00108608    2.069    0.517
       131 -12.0250    170.7406     82.4491   5.7078377896e+01   3.0807319496e+01    0.2943749     0.251819 -20.57  0.001129835    1.330    0.248
       132 -11.7801    140.8113     81.6345   6.3311972413e+01   3.8073036583e+01    0.4471126    0.2791497 -37.19  0.001950677    1.634    0.388
       133 -10.8727     24.8405     81.0053   1.0140568646e+02   5.8116314791e+01     0.296758    0.1686089 -87.65  0.001244176    3.075    0.675
       134 -11.5028    150.0886     79.1319   6.0446053023e+01   3.6341780492e+01     0.379921    0.2301423 -35.94  0.001639511    1.700    0.412
       135 -10.7627    119.1288     78.9563   6.8040673337e+01   4.3548529943e+01      0.37986    0.2201161 -40.38  0.001614158    1.733    0.423
       136 -14.8309    185.4922    104.6485   6.0037803836e+01   2.3231018346e+01     1.570185    0.8418672 -45.96  0.006516635    1.784    0.439
       137 -12.3906    174.9769     77.3720   5.4896113615e+01   3.0694745797e+01    0.4420516    0.2167218 -40.11  0.001401143    1.971    0.493
       138 -10.3165     72.7207    128.7568   9.5424536300e+01   4.0879499628e+01    0.3063692    0.1807645 -82.49  0.001177735    2.497    0.599
       139 -10.9518    157.4304     75.2026   5.7737373867e+01   3.5286878022e+01    0.3342169     0.236735 -26.18  0.001175636    1.616    0.381
       140 -11.9712    127.9604     72.6535   6.3754618150e+01   4.2727921454e+01     0.653137    0.3190925 -34.49  0.002537516    2.192    0.544
       141 -11.3202    140.3377     73.7233   6.1068870799e+01   3.9638598159e+01    0.4174945    0.2450434 -31.32  0.001760039    1.877    0.467
       142 -12.3524    163.1560     71.1519   5.5430038867e+01   3.4605957656e+01    0.5417886    0.2138352 -35.14  0.001930383    2.637    0.621
       143 -12.3315    180.2265    123.5951   6.5799720373e+01   2.0645671062e+01    0.7038157    0.3507974 -38.45  0.002741586    1.976    0.494
       144 -10.4702    115.6627     71.5045   6.6645810605e+01   4.5720481383e+01    0.2722716    0.1386084 -39.16  0.001094484    1.989    0.497
       145 -11.7227    170.5344     70.1510   5.3746052324e+01   3.2992187606e+01    0.3350396    0.2123441 -25.51  0.001196151    1.895    0.472
       146 -11.3243    117.5083    124.2478   8.1166131683e+01   3.4037792614e+01    0.5726524    0.3198552 -61.00  0.002166464    2.142    0.533
       147 -12.2521    167.3935     77.1193   5.6269635700e+01   3.2554437223e+01    0.4618223    0.2875312 -19.41   0.00188903    2.277    0.561
       148 -11.9376     98.4727    125.7691   8.6981722871e+01   3.7333296077e+01    0.9162511    0.3470907 -59.65  0.002798141    3.293    0.696
       149 -11.5866    156.9785     68.5817   5.5926237319e+01   3.6535740937e+01    0.2793327    0.2175453 -14.93  0.001146676    1.589    0.371
       150 -11.8858    147.1972     66.0183   5.7215178180e+01   3.9331188574e+01    0.5108265    0.2776683 -23.59  0.001984433    2.474    0.596
       151 -10.5935     94.5723     69.5105   7.2228725833e+01   5.0541204998e+01    0.5665219    0.1689723 -50.16  0.001497633    5.181    0.807
       152 -11.0269    151.2133     72.4450   5.8253437543e+01   3.7265928546e+01    0.2863618    0.2124575 -36.98  0.001277327    1.376    0.273
       153 -11.4966    188.8905    123.6637   6.4064342757e+01   1.8753921984e+01    0.4702373    0.2616123 -53.83  0.001449063    1.999    0.500
       154 -10.8816    109.8914     61.5196   6.4975610087e+01   4.8765502901e+01    0.4175608    0.1946956 -28.17  0.001543632    2.692    0.629
       155 -11.9446    186.0986    115.3416   6.2587517736e+01   2.1012402538e+01    0.5370846    0.2393423 -46.38  0.001445294    2.179    0.541
       156 -10.4367     73.3738     59.5706   7.5969622053e+01   5.6349794498e+01    0.2654017    0.1210871 -54.09 0.0009561788    3.253    0.693
       157 -11.3202    138.6332     64.6200   5.8689685466e+01   4.1620556357e+01    0.4340614    0.1842941 -31.90  0.001564461    2.667    0.625
       158 -10.4331    186.4122    129.2650   6.5901612103e+01   1.8161589591e+01    0.2824163    0.1822446 -49.33 0.0009650073    1.534    0.348
       159 -10.8420     58.7636    123.4462   9.8693215858e+01   4.4187089307e+01    0.3639644    0.1990047 -80.89  0.001393043    2.623    0.619
       160 -10.6186    130.5113     55.9847   5.7849345052e+01   4.4952325750e+01     0.221327    0.1451734 -32.73  0.001036742    1.609    0.378
       161 -11.2276     43.4104    122.1625   1.0335285280e+02   4.6371925552e+01    0.5543414    0.2801636 -88.30  0.001979944    3.341    0.701
       162 -10.7793    121.5736     64.4736   6.2798682233e+01   4.5639434540e+01    0.4181746     0.144477 -37.12  0.001409174    2.976    0.664
       163 -10.9532     29.4896    123.8291   1.0806821702e+02   4.7362902205e+01    0.3204359    0.1508811  70.68  0.001083102    4.139    0.758
       164 -11.6303    172.5598    120.4647   6.6642480164e+01   2.2974335767e+01    0.4381399    0.2888448 -47.60  0.001504624    1.478    0.323
       165 -10.1532     31.3004     51.6649   9.0282709542e+01   6.3731820923e+01    0.1131378    0.1015544  84.82 0.0004117377    1.657    0.396
       166 -10.1089     92.3275     50.6594   6.6369840907e+01   5.4288286723e+01    0.1374868     0.113321 -79.61 0.0007051483    1.736    0.424
       167 -12.2325    158.5271    120.1331   6.9680640136e+01   2.6163627555e+01    0.5256746    0.2892778 -50.27  0.002074679    1.860    0.462
       168 -12.3974    141.5935    117.1422   7.2983808858e+01   3.0566832413e+01    0.9003117    0.3328458 -49.00  0.002868324    2.800    0.643
       169 -10.1577    130.3016     46.3456   5.4770527998e+01   4.6446313432e+01    0.1470415     0.107056  23.45 0.0003351303    1.684    0.406
       170 -11.6824    130.4822    117.3201   7.5887649456e+01   3.2940664986e+01    0.5921817    0.2909222 -54.96  0.002114261    2.309    0.567
       171 -10.4803      3.4990    118.0095   1.1538537290e+02   5.0767115092e+01    0.1866723   0.09023485  80.73 0.0008105981    2.605    0.616
       172 -10.3016    113.5542     41.9404   5.7257412260e+01   5.0979142176e+01    0.1921501    0.1206204   2.97 0.0008072802    2.467    0.595
       173 -10.3827      5.2451     42.2379   9.9596074884e+01   6.7721535561e+01    0.1778919   0.09377487 -68.50 0.0008938775    2.462    0.594
