#   1 NUMBER                 Running object number                                     
#   2 MAG_AUTO               Kron-like elliptical aperture magnitude                    [mag]
#   3 X_IMAGE                Object position along x                                    [pixel]
#   4 Y_IMAGE                Object position along y                                    [pixel]
#   5 X_WORLD                Barycenter position along world x axis                     [deg]
#   6 Y_WORLD                Barycenter position along world y axis                     [deg]
#   7 A_WORLD                Profile RMS along major axis (world units)                 [deg]
#   8 B_WORLD                Profile RMS along minor axis (world units)                 [deg]
#   9 THETA_WORLD            Position angle (CCW/world-x)                               [deg]
#  10 FWHM_WORLD             FWHM assuming a gaussian core                              [deg]
#  11 ELONGATION             A_IMAGE/B_IMAGE                                           
#  12 ELLIPTICITY            1 - B_IMAGE/A_IMAGE                                       
         1 -13.2576     68.7314    144.2449   1.0458147821e+02   3.7334638105e+01     2.513304     1.441677  70.41  0.005712769    2.156    0.536
         2 -12.3038    197.7988     39.1011   4.6794540298e+01   3.0875622452e+01     1.042685    0.9276601 -29.50  0.003547987    1.113    0.102
         3 -12.4116    207.7290     28.5625   4.2735077567e+01   2.9791456178e+01    0.8808112    0.7270457  12.40  0.001952086    1.498    0.333
         4  -9.7869     41.3551      9.4756   7.5412927853e+01   7.2252990931e+01    0.2382008    0.1147562 -38.08  0.001102277    1.968    0.492
         5 -11.3487    232.1848      3.7613   3.4355604670e+01   2.6860923628e+01     0.768689    0.4534909  81.99  0.004302812    1.776    0.437
         6  -8.8828     61.8420      7.6265   6.3906704474e+01   6.8708403516e+01    0.1845452    0.1283952  62.62 0.0009434025    1.722    0.419
         7  -9.4785     28.5687      2.7140   7.9121863826e+01   7.5300602024e+01    0.2489085    0.1087932 -36.91  0.001147668    2.130    0.530
         8  -9.0666     54.1642    221.9921   1.1551085696e+02   2.2896449764e+01     0.628856    0.1606847  38.57  0.001087477    2.566    0.610
         9 -11.4978     17.8928    191.8810   1.2165962210e+02   3.2339935905e+01    0.3332063    0.2176497  38.17 0.0004142348    1.369    0.269
        10 -12.7038     46.8616    202.0531   1.1578427120e+02   2.7423982407e+01     2.318848     1.359087  43.31   0.01088354    1.360    0.265
        11 -14.6829     35.3343    249.3154   1.2052635502e+02   2.0282052398e+01     8.871616     2.547341  22.96   0.02393285   11.195    0.911
        12  -9.5404     48.8604    216.3098   1.1625851409e+02   2.4507487526e+01     0.367056    0.3003369  77.43  0.001702055    1.216    0.178
        13 -15.2713      6.5719    245.3454   1.2558643866e+02   2.3597664984e+01     1.483376      1.38772 -22.89   0.01338273    1.747    0.428
        14  -9.0043    113.9932    207.2895   1.0155140699e+02   1.7884363980e+01    0.2406092    0.1471135  75.53 0.0008510009    2.705    0.630
        15 -12.1277     56.9105    189.7349   1.1258704908e+02   2.8748845480e+01     1.269469    0.7357482  65.56  0.007039521    1.691    0.408
        16  -8.7216    109.8454    201.1870   1.0172741263e+02   1.9547729954e+01    0.1572911    0.1376472   8.92 0.0003258146    1.307    0.235
        17  -9.6350    195.5020    199.4859   8.4146576983e+01   7.0638163781e+00    0.2749695    0.1869449 -57.96  0.001501575    2.743    0.635
        18  -7.7177    134.5093    197.5083   9.5922103993e+01   1.6553368132e+01    0.1272404    0.1070393  37.54 0.0008100816    1.049    0.046
        19  -8.1631    128.0000    195.0332   9.6980904119e+01   1.7965465370e+01    0.1854973   0.07384805 -53.41 0.0008039001    2.953    0.661
        20  -8.2022     71.2118    185.8134   1.0885807618e+02   2.7798111782e+01    0.1935294    0.1419094  59.51 0.0005842521    1.224    0.183
        21  -8.7418     99.6122    181.0666   1.0155578176e+02   2.4846374895e+01    0.2264302    0.1552119  45.90 0.0005944076    1.284    0.221
        22  -8.3578    150.6066    179.1436   8.9694081559e+01   1.7173222639e+01    0.2795496    0.1933416 -77.63  0.001347414    2.612    0.617
        23  -8.1349     41.4179    178.5158   1.1539497776e+02   3.2839975396e+01    0.1257794   0.09845103  63.03 0.0001722034    1.058    0.055
        24 -10.5409     70.7752    174.8900   1.0782642675e+02   3.0144975027e+01    0.4176413    0.2900251 -30.84  0.002198228    2.177    0.541
        25 -10.3379     74.9529    170.0308   1.0622854802e+02   3.0639287166e+01    0.2912989    0.2649305 -27.36 0.0007774124    1.389    0.280
        26 -10.7818     93.8504    168.0070   1.0120762938e+02   2.8389706932e+01    0.7513081    0.2285515  43.64  0.002733308    2.927    0.658
        27 -12.9558     57.8107    241.0464   1.1592308416e+02   1.9254810917e+01    0.9187632    0.3796874  58.80  0.004244764    2.322    0.569
        28 -10.8767     83.3016    161.2458   1.0297112499e+02   3.1401205628e+01    0.6710246    0.3456156  53.54 0.0004921067    2.010    0.502
        29 -12.0977     71.6691    156.1925   1.0537843719e+02   3.4162276559e+01    0.5291958     0.465041 -41.57  0.001151088    1.366    0.268
        30 -10.9651     85.1043    222.5830   1.0917658252e+02   1.9117379399e+01    0.6876509    0.2408894  42.76  0.001232119    2.150    0.535
        31  -9.8397     45.0436    144.6587   1.1140310221e+02   4.0147561896e+01    0.2291461    0.1620146  69.91 0.0007927287    1.331    0.248
        32  -8.2968     45.5080    165.4927   1.1331036222e+02   3.5259826307e+01    0.1295517    0.1066724  64.93 4.952712e-05    1.028    0.027
        33  -9.6079    103.0159    139.9049   9.4304724500e+01   3.3096169519e+01    0.4801144    0.3123455 -25.20  0.002062075    2.395    0.582
        34  -8.4471    157.8377    160.7151   8.4888547045e+01   1.9195324288e+01    0.2304233    0.1801063 -81.50 0.0006719771    1.978    0.494
        35 -10.6017     90.9777    139.4632   9.7542492771e+01   3.5174111905e+01    0.2605211    0.2461843  12.38 0.0004034449    1.195    0.163
        36 -10.6096     90.1321    154.2809   1.0017567883e+02   3.1937561298e+01    0.5768722    0.4277853 -12.79  0.002038587    2.025    0.506
        37  -9.0231    105.8598    130.8837   9.1787962113e+01   3.4643360114e+01    0.3221566    0.2704425 -89.26  0.001627565    1.320    0.242
        38  -9.7959     33.7326    131.7984   1.1338183412e+02   4.4440667704e+01     0.299039    0.2241288  31.41  0.001738876    1.419    0.295
        39  -9.5650    112.5280    129.7960   8.9738648350e+01   3.3691785001e+01    0.3022211    0.2607621   8.00 0.0009359472    1.356    0.262
        40 -10.7141     44.0497    129.3251   1.0992626158e+02   4.3988584672e+01    0.5566278    0.1784523  48.82  0.001989491    3.262    0.693
        41  -9.3383     99.4816    126.3227   9.2659766017e+01   3.6806015354e+01    0.2797188    0.2429144 -11.55  0.001095623    1.403    0.287
        42  -7.4960    112.6762    150.7349   9.3715342809e+01   2.9079786629e+01    0.1357225    0.1100422   0.47 0.0003650589    1.563    0.360
        43  -9.5063    118.4884    124.0966   8.6903257595e+01   3.3846204085e+01    0.4757534     0.208803  31.55  0.001636231    2.905    0.656
        44  -8.2495    108.3388    119.0605   8.8582190703e+01   3.6884419434e+01    0.2000915    0.1848025 -58.99 0.0002960447    1.093    0.085
        45 -11.6201     43.2240    110.3424   1.0758435687e+02   4.8841839729e+01    0.6606836    0.4411363 -68.57  0.003445418    1.367    0.268
        46 -10.1788    115.9045    109.5350   8.4205845765e+01   3.7579116678e+01    0.4147021    0.3840581  13.76  0.002195452    1.172    0.147
        47  -8.2281    205.9780    110.2777   6.4466168838e+01   1.8627394004e+01    0.1886656    0.1744666  19.52 0.0004024524    1.112    0.101
        48  -7.7186    168.6935    114.3015   7.2485665018e+01   2.5611055148e+01    0.1421514    0.1176231 -79.50 0.0003833031    1.597    0.374
        49  -9.9120    240.2720    106.9899   5.8525412176e+01   1.2652725352e+01    0.1919466    0.1512258 -24.49  0.001180746    1.073    0.068
        50  -9.0384    135.0000    106.9929   7.8456409206e+01   3.4202172879e+01    0.3580069   0.08609915 -44.46 0.0009634429    4.170    0.760
        51  -9.4634     52.8305     93.9019   1.0119985810e+02   5.1892978963e+01    0.2582098    0.2110486  55.33  0.001410847    1.272    0.214
        52  -8.2456    234.3304     86.6670   5.4625460007e+01   1.6522674275e+01    0.1356057   0.09215352 -55.21 0.0007052075    1.724    0.420
        53  -7.9195    157.5133     81.4933   6.6070490107e+01   3.4127085531e+01     0.151228     0.146768 -48.72 0.0008103714    1.026    0.025
        54  -9.3346    133.8892    145.4692   8.7439806938e+01   2.6429803650e+01    0.7596325    0.2091634 -53.51  0.002173109    4.793    0.791
        55 -10.1088     40.5172    146.8966   1.1292095199e+02   4.0101529313e+01    0.2770215    0.2210045 -64.18   0.00117456    1.315    0.240
        56  -8.3513     58.8280     67.3684   9.2135136807e+01   5.7635345761e+01    0.2931921    0.1191574  42.32  0.001097005    2.656    0.623
        57  -9.5818     48.6609    224.7259   1.1679460959e+02   2.3015934704e+01    0.2561656    0.1566106  42.37 0.0003086066    1.250    0.200
        58 -11.9054    187.0374     47.5048   5.0655047909e+01   3.2375232759e+01    0.8672989    0.7185517   8.17  0.002793792    1.440    0.306
        59 -12.5550     21.4091    241.6028   1.2280284951e+02   2.2874534746e+01    0.4029677    0.3099726 -72.30 0.0008731725    1.672    0.402
        60  -9.3581     59.7066    231.9306   1.1501146627e+02   2.0552277221e+01     0.195952    0.1626311  65.43 0.0005776238    1.177    0.150
        61  -8.8290    148.4866     44.5606   5.6141822468e+01   4.2537099536e+01    0.2485194    0.2436253 -73.11 0.0001787838    1.006    0.006
        62  -9.9332    147.0859     51.2361   5.8716916422e+01   4.1865963500e+01    0.4792462    0.3165649 -80.16  0.001238454    2.157    0.536
        63 -10.3830     45.4820    220.9838   1.1722961360e+02   2.4023970616e+01    0.3510422    0.1737388  56.14  0.001185217    1.668    0.400
        64 -16.0139      5.7999    212.4808   1.2493270484e+02   2.9379960937e+01     18.32275     1.074797 -81.57   0.02387216   12.703    0.921
        65  -8.7555     92.6089    217.2557   1.0713588340e+02   1.9071612364e+01    0.2023133    0.1467072  47.05 0.0004372228    1.126    0.112
        66  -9.0996     58.8583    220.2599   1.1443158899e+02   2.2676375377e+01    0.4295345    0.1177512  40.94  0.001984517    2.457    0.593
