#   1 NUMBER                 Running object number                                     
#   2 MAG_AUTO               Kron-like elliptical aperture magnitude                    [mag]
#   3 X_IMAGE                Object position along x                                    [pixel]
#   4 Y_IMAGE                Object position along y                                    [pixel]
#   5 X_WORLD                Barycenter position along world x axis                     [deg]
#   6 Y_WORLD                Barycenter position along world y axis                     [deg]
#   7 A_WORLD                Profile RMS along major axis (world units)                 [deg]
#   8 B_WORLD                Profile RMS along minor axis (world units)                 [deg]
#   9 THETA_WORLD            Position angle (CCW/world-x)                               [deg]
#  10 FWHM_WORLD             FWHM assuming a gaussian core                              [deg]
#  11 ELONGATION             A_IMAGE/B_IMAGE                                           
#  12 ELLIPTICITY            1 - B_IMAGE/A_IMAGE                                       
         1 -11.9359    160.1782     49.9663   7.5070102494e+01   3.8773155442e+01     1.040212    0.5143027 -43.96  0.004459247    2.182    0.542
         2 -11.6731     66.9830     21.1806   8.9308625489e+01   6.2241607907e+01    0.6429027     0.432023   7.73   0.00279369    1.465    0.317
         3 -11.0399     72.9291     17.2892   8.5798711407e+01   6.1645474408e+01    0.4007547    0.2121013  43.05  0.001691237    1.639    0.390
         4 -11.9093     76.7835     31.3104   8.9930001583e+01   5.9359288588e+01    0.8511672    0.4958319  -3.63  0.004192464    2.233    0.552
         5 -11.8391     71.1852     29.9489   9.1279202347e+01   6.0493904358e+01    0.7670404    0.4083153  -4.25  0.003189533    2.875    0.652
         6 -10.7677     30.6058     14.5749   1.0074895292e+02   6.8158671046e+01    0.5435782    0.2135143 -28.19    0.0015383    2.474    0.596
         7 -11.7135     30.0225     23.5836   1.0472962735e+02   6.7053573132e+01     0.370702    0.2351384 -23.47  0.001395746    1.333    0.250
         8 -12.0569    131.6127     20.5376   7.1974616586e+01   4.9171468162e+01     1.555588    0.4986211  66.38  0.005257091    3.666    0.727
         9 -12.7235    112.4337     22.3319   7.6712433252e+01   5.3299745021e+01     0.890853    0.5741429 -34.40  0.004334272    1.781    0.439
        10 -12.3951     93.0805      8.2462   7.6528134234e+01   5.8681652484e+01    0.5386932    0.3416156  47.03  0.002527786    1.286    0.222
        11 -13.7018    100.4745      6.2382   7.3983127315e+01   5.7333768377e+01    0.6467397    0.4847996 -37.02  0.001903256    1.659    0.397
        12 -11.9600    111.8056      7.5701   7.1888239847e+01   5.4810906655e+01    0.8577593    0.3230681  65.71  0.003499884    2.849    0.649
        13 -11.4474    148.3902     24.9255   7.0128414231e+01   4.4762358491e+01    0.7858694      0.45688  40.67  0.002567505    1.830    0.453
        14 -11.6356     50.4611      9.9823   9.0639111235e+01   6.6051238917e+01    0.4115691    0.2717058  21.02  0.002257799    1.256    0.204
        15 -11.7529     68.1778      4.4215   8.2144991852e+01   6.3701535539e+01    0.8038867    0.2739026  41.24  0.003783478    2.361    0.576
        16 -12.2648     43.6986     15.9335   9.5816886714e+01   6.6357426697e+01    0.8887538    0.4901799  47.58  0.004864107    2.563    0.610
        17 -12.5164     55.3140      2.7081   8.5726186960e+01   6.6000946079e+01    0.2912684    0.2429791  11.36 0.0002642607    1.165    0.142
        18 -10.7308     60.3964      3.2253   8.4190758562e+01   6.5129988490e+01    0.2079506    0.1702954   3.81 0.0007109367    1.178    0.151
        19 -11.1746     12.7749     24.1874   1.1275772117e+02   6.8590748516e+01    0.6171653    0.2466688 -20.86  0.002807296    3.314    0.698
        20 -11.3131    117.0419     15.2546   7.3311787452e+01   5.2984242535e+01    0.3400207    0.2469833  82.38 0.0002999482    1.701    0.412
        21 -11.3360    210.6847     13.5571   5.8824615609e+01   3.1116192281e+01    0.3713837    0.2886714 -77.54  0.001491324    1.106    0.096
        22 -10.9353    202.5985     18.8635   6.0860730345e+01   3.2404060772e+01    0.3840107    0.3391238  30.79   0.00209447    1.562    0.360
        23 -10.3074    247.5054     13.4631   5.5515057732e+01   2.2997309188e+01    0.2033763    0.1584997 -69.63 5.230596e-05    1.096    0.088
        24 -10.8404    248.3276     10.6629   5.4929932385e+01   2.3153435837e+01    0.3366627    0.1965917  64.30  0.002019585    1.764    0.433
        25 -11.3124     25.9671      4.7604   9.8486379294e+01   6.9835100197e+01    0.5250133    0.2460096 -20.80  0.003056126    2.058    0.514
        26 -11.2481      9.5851     19.1393   1.1232726650e+02   6.9577715530e+01    0.6179692    0.2558129  15.75  0.003434773    2.527    0.604
        27 -11.4282     18.8869      4.7624   1.0177089025e+02   7.0605320403e+01    0.4308204    0.2981299 -35.84  0.003115441    1.756    0.430
        28 -11.9587     19.0898     13.4318   1.0548731403e+02   6.9525113285e+01    0.5681241    0.3088827  24.52  0.003538192    1.752    0.429
        29 -11.9185     13.1658      8.4873   1.0618733129e+02   7.0710531863e+01    0.3984556    0.2814043   0.39  0.002084647    1.117    0.105
        30 -11.6917      3.0957     17.2423   1.1473635068e+02   7.0324058269e+01      0.26123    0.1348648 -28.74 0.0004086881    1.504    0.335
        31 -13.2101      4.0920     10.1120   1.1138323237e+02   7.1249134159e+01    0.7270193    0.3027613 -43.29 0.0007874682    2.224    0.550
        32 -11.2243    150.0556     16.0336   6.7299851586e+01   4.5284625243e+01    0.5900188    0.3310666  33.77  0.002820174    2.267    0.559
        33 -12.7631    131.4574      3.8243   6.6877254553e+01   5.0720097093e+01     1.357841    0.3068091  61.91  0.004914771    3.236    0.691
        34 -10.3547     79.8539     17.1042   8.3563265909e+01   6.0415126338e+01    0.4131879    0.2452788 -48.89  0.001930563    2.807    0.644
        35  -9.9311    163.6856      5.5289   6.2407206861e+01   4.3022236023e+01    0.3956654    0.2427326 -57.70  0.001083667    1.870    0.465
        36 -10.1687    166.0573      1.7752   6.1127037674e+01   4.2790346300e+01    0.2558326    0.1526278  72.00 0.0008612262    1.372    0.271
        37 -10.7923    170.2328     14.0948   6.3734390438e+01   4.0641647123e+01    0.4009607    0.2019448 -52.79  0.001401423    2.313    0.568
        38 -11.3022    165.4526     11.7307   6.3784820164e+01   4.2022024240e+01     0.431292    0.2658153 -69.76  0.001893945    1.924    0.480
        39 -10.6935    168.0007      7.6952   6.2390482759e+01   4.1796373182e+01    0.1901164    0.1601602 -63.00 0.0004135992    1.272    0.214
        40  -8.8404    169.3134      4.6378   6.1439638283e+01   4.1764637756e+01    0.2727363     0.173243 -88.65 0.0009387726    1.569    0.363
        41 -10.6315    132.4990     13.1521   6.9530911433e+01   4.9679312583e+01    0.4629242    0.2032793  68.48   0.00196701    2.263    0.558
        42 -11.1853    200.1821      5.5565   5.8138828493e+01   3.4395428897e+01    0.5902654    0.2648158 -45.97  0.002880892    2.225    0.551
        43  -9.9624    193.1791      6.5984   5.9107379060e+01   3.5927493983e+01    0.3127695    0.1152379  57.20   0.00092029    2.426    0.588
        44 -10.1175    187.2061     14.1834   6.1565453627e+01   3.6564740991e+01    0.3845956    0.1851851  69.43  0.001872855    1.745    0.427
        45 -11.0383    187.8233      9.7711   6.0444189870e+01   3.6873096155e+01    0.4001278    0.2896855 -67.60  0.002200485    1.363    0.266
        46 -11.4382    221.3750     12.2508   5.7512246793e+01   2.8825787180e+01    0.7290397    0.2579308  75.57  0.003130516    2.618    0.618
        47 -11.7633    231.8602      9.5573   5.6041414427e+01   2.6801082848e+01    0.5690731    0.3384003 -84.76  0.002143757    1.468    0.319
        48  -9.6064    224.7030      8.4142   5.6429096807e+01   2.8506982742e+01    0.2156754    0.1308508  64.35 0.0007883523    1.584    0.368
        49 -10.4162    141.2293     10.8201   6.7276470796e+01   4.7860764755e+01    0.3108165    0.1989678 -61.58  0.001217985    2.023    0.506
        50 -10.5854    122.9440      9.9705   7.0374934328e+01   5.2141763019e+01     0.392657    0.1721097  53.63   0.00139967    1.796    0.443
        51 -11.1444     82.6469      6.3117   7.8594253763e+01   6.0892378164e+01     0.503487    0.2319625 -25.16  0.001965458    2.386    0.581
        52 -10.8340     77.1492      9.1898   8.1302003876e+01   6.1672387644e+01    0.2812956    0.1988858  28.97 0.0008701235    1.173    0.148
        53  -9.7433     77.4422      4.5175   7.9376596739e+01   6.2022512285e+01    0.2271961    0.1400709  14.09 0.0008385417    1.681    0.405
        54 -10.3034    146.8992     12.2664   6.6747358530e+01   4.6393762759e+01    0.2718365    0.1989215 -67.94   0.00094835    1.611    0.379
        55 -10.5988    157.6766      4.6534   6.3002902118e+01   4.4525970906e+01    0.3786279    0.2131624 -23.52   0.00201902    2.216    0.549
        56 -10.2711    154.3487      4.6976   6.3489027667e+01   4.5309732229e+01    0.2600223    0.1988073  78.51 0.0008990229    1.157    0.136
        57 -11.1374    208.6802      3.5280   5.6869065040e+01   3.2640948575e+01    0.4444262    0.2816768 -86.44  0.001616636    1.366    0.268
        58 -10.5491    176.8680      4.2483   6.0407720963e+01   4.0006490712e+01     0.523706    0.1762255  75.60  0.001450206    2.958    0.662
        59 -12.0766    246.9225      2.6009   5.3552026608e+01   2.4359594512e+01    0.4375376    0.1888902  64.18 0.0008914637    2.232    0.552
        60  -9.6418    145.4360      4.3262   6.4721267663e+01   4.7439349583e+01    0.2139363     0.139046  88.93  0.001164773    1.681    0.405
        61 -10.1617     42.6762      3.7285   9.0915363959e+01   6.7804457158e+01    0.2512447    0.2182175 -38.70  0.001856507    1.850    0.459
        62 -10.3016     46.0767      1.3395   8.8520609097e+01   6.7539955076e+01    0.3182541   0.08267805  41.96  0.001391699    3.203    0.688
        63 -10.5875    224.3977      2.0178   5.5174414092e+01   2.9260679229e+01    0.2766395    0.1421829  69.70  0.001541461    1.672    0.402
        64 -10.0848    217.3171      1.5929   5.5687885148e+01   3.0881518896e+01     0.236887    0.1224365  73.81  0.001301235    1.604    0.376
        65 -10.8820    191.9309      1.8390   5.8153978845e+01   3.6682859723e+01    0.2143324    0.1452461  82.00 0.0004036119    1.206    0.171
        66  -9.0142     31.6572      3.7312   9.5493371838e+01   6.9266171518e+01    0.1134604    0.0654131   9.08 0.0003188036    1.608    0.378
        67  -9.6636    229.6685      1.3953   5.4625203643e+01   2.8169006050e+01     0.153647   0.09288777  73.15 0.0006019673    1.434    0.303
        68  -9.1621    183.4328      1.3919   5.8964533934e+01   3.8718186538e+01    0.1259131   0.09858674  83.86 6.854846e-05    1.036    0.035
        69 -12.6190    242.1420    101.2563   7.4089496220e+01   1.1091324008e+01     1.674139    0.6804671 -57.87  0.005525287    3.740    0.733
        70  -9.5072     91.9732    250.5098   1.3362588056e+02   1.0292608168e+01    0.1881309    0.1061226  44.11 0.0003907184    1.510    0.338
        71 -10.4197     36.9586    109.6763   1.2689857904e+02   5.0086256658e+01    0.3708941    0.1852148  48.10  0.001129237    2.697    0.629
        72 -10.8745    201.5430    107.7914   8.2275878329e+01   1.8849970898e+01    0.3684306    0.1397126 -43.15  0.001277679    2.523    0.604
        73 -10.7643     67.6391    107.1029   1.1661036391e+02   4.7044162988e+01     0.530094    0.2378182 -31.59  0.001759248    3.727    0.732
        74 -11.2032     16.1686     98.4038   1.3136009718e+02   5.4346877765e+01    0.4463108    0.2219414 -27.09   0.00214398    2.496    0.599
        75  -9.4978    188.5519    107.4974   8.4709558403e+01   2.1949401442e+01    0.1532703    0.1469944 -74.62 4.928191e-05    1.008    0.008
        76  -9.6382     74.2134    107.6531   1.1467604051e+02   4.5966325097e+01    0.1940615    0.1344942  20.57 0.0008692102    1.674    0.403
        77 -11.0057    230.4519    105.1409   7.6707310419e+01   1.2867664376e+01     0.310096    0.2797988  59.58  0.001315738    1.204    0.170
        78 -11.1300     47.9870    102.9071   1.2193774645e+02   5.0471258369e+01    0.4857664    0.2026835 -34.64  0.001788571    3.281    0.695
        79 -11.0840     49.9876     97.8201   1.2010512029e+02   5.1376918117e+01    0.3150071      0.18388 -19.44  0.001243051    2.381    0.580
        80 -10.8282    133.7143    102.6290   9.6030372891e+01   3.5794138284e+01    0.3400118    0.2530454 -50.15  0.001360317    1.386    0.278
        81  -9.4768    105.9288    102.6371   1.0372499995e+02   4.1611363348e+01    0.2010437     0.186983  31.32  0.000529323    1.086    0.079
        82  -9.5488     81.1570    102.3517   1.1115935570e+02   4.6075413523e+01    0.2042048    0.1298718  45.62 0.0009476474    1.747    0.428
        83  -9.7927     75.8062    101.8115   1.1270598848e+02   4.7033198305e+01     0.193412    0.1724267  83.14  0.001077254    1.365    0.267
        84 -10.2852     27.9519    101.7297   1.2819114638e+02   5.2702210815e+01    0.2421387     0.202417  47.49  0.001558993    1.461    0.316
        85 -11.1594      4.0477     99.7488   1.3544664512e+02   5.4807396050e+01    0.3576348    0.2084014 -58.26  0.001877395    1.300    0.231
        86  -8.9495    223.2677    100.6843   7.6840998214e+01   1.5241134213e+01    0.1466838    0.1040938 -68.28  0.000324693    1.552    0.355
        87 -11.7721    175.5935     97.2506   8.4754333079e+01   2.7036337123e+01    0.6077001    0.4336997 -82.51  0.002075974    1.859    0.462
        88 -10.0496     34.4743     98.9552   1.2549138854e+02   5.2740471650e+01    0.2079643    0.1755047  50.22 0.0005815095    1.455    0.313
        89 -10.3848    226.6755     96.9232   7.5447828181e+01   1.5162746101e+01    0.2597089    0.2145339 -55.96 0.0009424912    1.106    0.096
        90 -11.2809    158.3418     96.2299   8.8253935646e+01   3.1379599059e+01    0.4575323    0.3584176  72.82  0.001918981    1.419    0.295
        91 -10.7761    188.3782     93.9335   8.1348496642e+01   2.4583572673e+01    0.2907584    0.2212019  52.33 0.0008044778    1.322    0.243
        92 -10.9780    193.7216     91.7103   7.9786953538e+01   2.3712172668e+01    0.4407483    0.3159114 -36.82  0.002108248    1.456    0.313
        93 -11.5245    200.2952     89.5968   7.8081968205e+01   2.2528342364e+01    0.5422763    0.3191751  68.84  0.001821817    1.921    0.479
        94 -10.3714    205.5140     86.2420   7.6370700106e+01   2.1890362211e+01     0.353236    0.1254568 -44.23  0.001234863    2.687    0.628
        95 -11.2066     37.7507     91.6128   1.2275647408e+02   5.4036390023e+01    0.4527423    0.2681585  44.82  0.002338221    2.186    0.543
        96 -11.0610     32.9501     91.9981   1.2447715543e+02   5.4406614598e+01    0.3169768     0.218149  48.52 0.0008781552    1.909    0.476
        97 -10.6191    214.1960     89.1706   7.5636968709e+01   1.9350384225e+01    0.2505043    0.1997634 -50.96 0.0005214335    1.184    0.155
        98 -10.5268      2.7726     89.4008   1.3409691692e+02   5.7113452712e+01    0.3346143    0.1788885 -53.53  0.001981512    1.397    0.284
        99 -10.4885      2.4885     83.9924   1.3320668609e+02   5.8272378758e+01    0.2745537    0.1899902 -72.60 0.0009508421    1.417    0.294
       100 -11.7003      5.2483     78.9708   1.3127660122e+02   5.9172017878e+01    0.8591213    0.2665924 -65.85  0.003611121    3.041    0.671
       101 -10.3670     87.8844     89.9102   1.0565384292e+02   4.7613002753e+01    0.3649773    0.2030285 -42.60  0.001266141    1.735    0.424
       102 -11.4773    221.4298     92.3348   7.5220299492e+01   1.7144149254e+01    0.5047567    0.3021397  82.04  0.002091998    2.315    0.568
       103 -10.6169     57.2122     85.3232   1.1449285742e+02   5.3180738092e+01    0.4308738    0.2643172   6.41  0.002040468    2.162    0.537
       104 -10.4652     52.0143     87.1742   1.1677081893e+02   5.3435968564e+01    0.4108982    0.2032348 -52.28  0.001925662    1.830    0.454
       105  -9.9783     47.9870     88.5047   1.1849691312e+02   5.3623031141e+01    0.2736252    0.1859309   2.11  0.001465487    1.759    0.432
       106 -11.3807     14.3286     88.5083   1.3006199941e+02   5.6619484117e+01    0.3287207    0.3033788  -6.68  0.002059747    1.256    0.204
       107 -11.3172    154.3764     87.6372   8.6822715277e+01   3.3973339233e+01    0.4864139    0.2502921  59.91  0.001728509    2.148    0.534
       108 -11.2920    106.1181     86.9971   9.9257514491e+01   4.4814223121e+01    0.5990258    0.4932597   3.76  0.003096493    1.359    0.264
       109 -10.4522    100.0291     83.5196   1.0004589418e+02   4.6683581243e+01    0.2713997    0.2494511  29.34 6.883814e-05    1.081    0.075
       110 -10.9512    103.0097     80.9865   9.8396407117e+01   4.6596067633e+01    0.2937909    0.2117321 -43.35  0.001034001    1.412    0.292
       111 -10.1091     42.7868     86.6426   1.1982460013e+02   5.4586598733e+01    0.3281486    0.1267104 -42.83  0.001388258    2.324    0.570
       112 -11.2123     17.8237     81.5337   1.2738503294e+02   5.7853990587e+01    0.2365629    0.1987852 -20.47 0.0004728239    1.203    0.169
       113 -12.1682     24.2143     82.8055   1.2541465150e+02   5.7109148742e+01    0.6873826    0.4281459 -85.33  0.003418563    2.637    0.621
       114 -11.3203     29.2559     81.7799   1.2338819099e+02   5.6905671812e+01     0.352603    0.2743536 -41.19  0.001112391    1.055    0.052
       115 -10.2559     28.7821     77.1699   1.2243044746e+02   5.7896884510e+01    0.2184812    0.1736929 -41.45 0.0006781364    1.039    0.038
       116 -11.0200    248.7283     84.0049   6.9510256311e+01   1.2665418464e+01    0.3110368    0.2196133 -69.67  0.001047266    1.414    0.293
       117  -9.5954    246.1889     87.3910   7.0555835825e+01   1.2628061021e+01    0.3109042    0.1827723  85.16 0.0009428453    2.329    0.571
       118 -10.1839    242.4715     85.4867   7.0644567404e+01   1.3725757870e+01    0.2975516    0.2045705 -43.94  0.001214996    1.335    0.251
       119 -11.4470    238.8523     82.5557   7.0499467807e+01   1.4986106001e+01    0.6623595    0.3539682 -38.77  0.003095726    1.806    0.446
       120 -11.0617    222.1198     84.9420   7.3419538654e+01   1.8275676747e+01    0.4888537    0.3366216  89.35  0.002382497    1.688    0.407
       121 -11.3706    217.3393     82.7012   7.3631740669e+01   1.9750211950e+01    0.5817181    0.3108278 -45.65  0.001920329    1.760    0.432
       122 -10.6595    219.7991     74.4991   7.1371802618e+01   2.0560934112e+01    0.4080923    0.2820349 -35.94  0.001695108    1.539    0.350
       123  -9.4014    223.2962     74.6721   7.0908325816e+01   1.9733260795e+01    0.2295742    0.1550301 -65.22 0.0005361206    1.504    0.335
       124 -10.9345     98.1779     77.3517   9.8750709851e+01   4.8217379481e+01    0.3731022    0.2610992  54.47  0.001816015    1.667    0.400
       125 -10.6632    118.9451     86.1814   9.5360254031e+01   4.2333319441e+01    0.4658763    0.2014363  41.39  0.001297379    2.340    0.573
       126  -9.3189    177.1283     85.2065   8.1304603220e+01   2.8908640021e+01    0.2039038    0.1670133 -68.05 0.0004395821    1.287    0.223
       127 -10.1404     75.5898     83.0817   1.0765742787e+02   5.1027971941e+01    0.3897196    0.1948516 -31.27  0.001584363    2.395    0.582
       128 -10.9575    192.5495     73.3580   7.5407501611e+01   2.7207220127e+01    0.4395736     0.397617  64.62  0.002461418    1.111    0.100
       129 -10.3679    140.0353     84.0383   8.9222356257e+01   3.8030249654e+01    0.2437347    0.1887352 -81.57 0.0009520107    1.694    0.410
       130  -9.8622    229.5052     83.0837   7.1914023120e+01   1.6937377714e+01    0.2153871    0.1290339 -41.65  0.001028843    1.578    0.366
       131 -11.4037    188.6557     80.7654   7.7965287707e+01   2.6889908714e+01    0.4899641    0.3762957 -74.12  0.002426737    1.419    0.295
       132  -9.5226    182.0078     83.4909   7.9905633941e+01   2.8027165857e+01    0.2202789    0.1446563  59.43 0.0004025948    1.490    0.329
       133 -10.3383    160.4090     81.0962   8.3676846859e+01   3.3718951031e+01    0.4052394    0.2472416  56.53  0.001766281    1.594    0.373
       134  -9.7911     40.6828     82.3076   1.1946468439e+02   5.5713743599e+01    0.1174006    0.1003252  78.95 0.0005355029    1.633    0.388
       135 -10.6043    135.2453     80.4270   8.9374805752e+01   3.9802492341e+01    0.2863762    0.2153615 -38.23 0.0009320173    1.382    0.277
       136 -10.1059     63.0017     79.3405   1.1082806528e+02   5.3630894267e+01    0.3272122    0.2489232 -84.87  0.001663282    2.189    0.543
       137 -11.7425    223.9893     45.4813   6.4308926902e+01   2.4030549198e+01    0.7760761    0.5817734 -68.27  0.003010794    1.198    0.165
       138 -11.1945    221.5327     56.1552   6.6974506596e+01   2.3044569314e+01    0.5334618    0.3418992 -84.95   0.00172786    1.687    0.407
       139 -10.8555    216.0528     60.0476   6.8586499491e+01   2.3724776079e+01     0.629244    0.2025952  62.38  0.002278725    3.004    0.667
       140 -10.8816    212.3576     54.9018   6.7907019285e+01   2.5366371351e+01    0.6514248    0.3346643 -71.90  0.002548154    2.829    0.646
       141 -10.4624    233.5463     45.8409   6.3287157735e+01   2.1826957375e+01    0.5797665    0.2531993 -49.76  0.002230922    2.097    0.523
       142 -10.5301    250.0247     73.7549   6.7211985734e+01   1.4060287155e+01    0.2727664    0.2047455 -33.02   0.00097654    1.519    0.342
       143 -11.7088    250.2602     67.1135   6.5815621879e+01   1.5055990408e+01     1.102065    0.3669311 -30.85  0.003221322    5.766    0.827
       144 -12.2965    246.5474     56.3357   6.4025697127e+01   1.7476379373e+01    0.8192459    0.4342672 -70.88  0.002131272    2.197    0.545
       145 -11.6488    235.3542     56.4364   6.5325788123e+01   1.9886075493e+01    0.5797112     0.313599  62.13  0.002526099    1.843    0.457
       146 -11.1136    238.0234     51.7568   6.4028438642e+01   1.9989899248e+01    0.3548528    0.2900446 -57.39  0.001128719    1.143    0.125
       147 -10.9324    200.6007     77.6857   7.5116625764e+01   2.4537564842e+01     0.595656    0.1892405  61.41   0.00189247    3.439    0.709
       148 -10.3531    176.9882     77.7268   7.9370136193e+01   3.0264813176e+01    0.4047197    0.2277597 -54.97  0.001662037    2.039    0.509
       149 -10.9508    171.8522     71.4280   7.8695247581e+01   3.2594366078e+01    0.6118957    0.3583594  83.47  0.002316736    2.639    0.621
       150 -10.7133    167.9700     76.9233   8.0948145598e+01   3.2611952602e+01    0.6580421    0.3234307  70.52  0.002246182    2.983    0.665
       151 -11.5331     68.2681     76.0857   1.0806282646e+02   5.3521634546e+01    0.3874825    0.2903798 -38.56 0.0008828886    1.241    0.194
       152 -11.8737     59.3807     69.8113   1.0927436487e+02   5.5976736811e+01    0.6408734    0.3951243  31.17  0.003213446    1.685    0.406
       153 -10.7087     51.8844     71.0463   1.1233793141e+02   5.6707077867e+01    0.2836092    0.2027877  23.37 0.0008333757    1.460    0.315
       154  -9.4981     43.7700     78.1828   1.1728065589e+02   5.6233085759e+01    0.1832923    0.1304478 -25.49  0.001054793    1.345    0.256
       155 -10.2421    238.0672     76.1900   6.9227267136e+01   1.6204131574e+01    0.2687649    0.2111101 -61.71 0.0009506202    1.126    0.112
       156 -10.5156    234.1425     73.3593   6.9129018597e+01   1.7520131002e+01    0.4185461    0.2104434 -48.21  0.001775345    1.809    0.447
       157 -10.6952    138.5859     77.1024   8.7579813068e+01   3.9630723756e+01    0.2499919    0.2029429  61.77 0.0003806406    1.256    0.204
       158 -10.2959    144.0543     75.7115   8.5863409045e+01   3.8594516055e+01     0.216233    0.1940514  49.85 0.0006164269    1.063    0.060
       159 -11.6935     82.1504     74.8379   1.0303668910e+02   5.1569412857e+01    0.2366146     0.211951 -21.14 0.0002677836    1.052    0.050
       160 -10.1609     15.1160     75.2088   1.2693236643e+02   5.9344322988e+01    0.2063339    0.1256895 -45.96 0.0002957052    1.283    0.220
       161 -10.5251     26.7408     64.8133   1.1995080257e+02   6.0519748446e+01    0.4499092    0.1948927 -27.62  0.001992661    2.803    0.643
       162 -10.1171     24.7085     74.4140   1.2323157161e+02   5.8796365332e+01    0.2914026    0.1573421  -2.70  0.001356115    2.408    0.585
       163 -10.9871     21.4987     71.5846   1.2371321258e+02   5.9616898819e+01    0.5743897    0.2709246 -19.50  0.002464482    2.872    0.652
       164 -10.7257    214.6804     71.8831   7.1518289027e+01   2.2173906876e+01    0.3440908    0.2820417  27.43  0.001412033    1.701    0.412
       165 -10.9032      6.7423     71.7306   1.2920986183e+02   6.0565739494e+01    0.2810044    0.2251609  82.37  0.001133482    1.749    0.428
       166 -10.5725    149.7486     71.7922   8.3427221125e+01   3.7914412131e+01    0.2602883    0.1812186 -59.79 0.0008103824    1.721    0.419
       167 -11.9119    149.0731     65.0033   8.1629409012e+01   3.9198538137e+01    0.7791399    0.5225643  82.84  0.002722258    2.043    0.510
       168 -11.6847    115.9953     69.9328   9.1294771620e+01   4.5945246983e+01    0.4967387    0.3142317 -33.98  0.001711356    1.661    0.398
       169 -10.3783    202.5063     70.4962   7.3056015879e+01   2.5277764954e+01    0.3038936    0.2048237 -59.02  0.001319047    1.514    0.339
       170 -11.9580    124.9972     69.6217   8.8787723860e+01   4.4032124016e+01    0.5667521    0.4454307  75.85  0.002398518    1.589    0.371
       171  -9.8951    102.1793     70.3062   9.5365689281e+01   4.8724731906e+01    0.2668342    0.1896917 -65.68  0.001233516    2.113    0.527
       172 -10.7332     32.6440     70.0444   1.1914808076e+02   5.8977456611e+01    0.3922706    0.1737587 -41.03  0.001920217    1.922    0.480
       173 -10.3747    226.2199     68.5260   6.9120536881e+01   2.0063620367e+01    0.4061937    0.1519845 -43.06  0.001608543    2.434    0.589
       174 -11.1940     36.3968     56.3555   1.1370789025e+02   6.1184142688e+01    0.4066055    0.2686702  21.64  0.002471845    1.576    0.366
       175 -10.9531     41.4300     68.6784   1.1548528476e+02   5.8364099583e+01    0.4455459    0.2570883  31.65  0.002423736    1.906    0.475
       176 -12.0119     35.1542     62.9257   1.1618171008e+02   6.0103572437e+01     0.640987    0.4365958  39.07   0.00381451    1.861    0.463
       177 -10.5916    179.9203     68.7180   7.6456447170e+01   3.1059025462e+01     0.490717    0.1755949  53.87  0.001738472    2.591    0.614
       178 -10.9933    162.6844     67.1754   7.9361969785e+01   3.5542937036e+01    0.5503838    0.4896466 -48.85  0.003019609    1.176    0.150
       179 -11.6777    245.3416     97.2208   7.2766498139e+01   1.1132066792e+01    0.7298234     0.402241  81.34  0.002980945    2.923    0.658
       180 -10.6523    165.2265     62.4012   7.7540547182e+01   3.5681758493e+01    0.3836952    0.2470118  63.35  0.001296633    1.493    0.330
       181 -11.6455    166.3262     56.1846   7.5625737823e+01   3.6362114564e+01    0.7018522    0.5280339 -41.19  0.003662658    1.414    0.293
       182 -10.6443    132.9605     67.8797   8.6240080737e+01   4.2522298400e+01    0.3857674    0.2808093  53.93  0.001911201    1.322    0.243
       183 -10.6487    205.3071     65.6251   7.1447007512e+01   2.5391573631e+01     0.353132    0.2509966 -66.68  0.001207909    1.441    0.306
       184 -11.0349    140.3842     68.0205   8.4490073161e+01   4.0772068032e+01    0.5274045    0.2456615  52.10  0.002090296    2.010    0.503
       185 -10.4194    198.4260     70.5184   7.3718393142e+01   2.6254299269e+01    0.2731514    0.2240672  66.69 9.487688e-05    1.172    0.147
       186  -9.5888    102.2535     66.4372   9.4121682729e+01   4.9383110831e+01    0.2844967    0.1286743  40.51  0.001146499    2.163    0.538
       187  -9.8244    189.9676     65.0477   7.3754890045e+01   2.9188061428e+01    0.2220062    0.1745152  30.78  0.001120885    1.653    0.395
       188 -11.0620     11.0116     63.6280   1.2570091062e+02   6.1912299865e+01    0.3480156    0.1977326 -61.74  0.001476821    1.722    0.419
       189 -12.7516     19.4709     58.3642   1.2099633022e+02   6.2327902298e+01    0.5079087    0.2781776 -27.28  0.001843814    1.721    0.419
       190  -9.7067    234.3042     63.3543   6.6936672344e+01   1.9066607254e+01    0.2200435    0.1608545 -31.38  0.000649693    1.618    0.382
       191 -10.1564    185.6160     64.2357   7.4287303345e+01   3.0380840873e+01     0.318371    0.1853154 -35.92 0.0009584555    1.839    0.456
       192 -10.2302     54.2828     63.5420   1.0917708119e+02   5.7812858462e+01    0.2647457     0.156337 -56.99  0.001297714    2.192    0.544
       193 -10.6000     78.0906     69.5591   1.0273433671e+02   5.3224647791e+01     0.558199    0.1971988  32.43  0.001967663    3.352    0.702
       194 -11.3941     67.1595     61.9092   1.0402542560e+02   5.6310549010e+01    0.2889136     0.239309   2.34 0.0008407323    1.122    0.109
       195 -10.3198     98.0295     61.7050   9.3861217243e+01   5.1009821960e+01    0.1936945    0.1740125  16.05 0.0006334567    1.024    0.023
       196  -9.7385    207.1047     60.6878   7.0002869000e+01   2.5734387408e+01    0.2609071    0.1691498 -51.89  0.001298984    1.500    0.333
       197 -10.1795    195.5523     47.3610   6.8483618124e+01   3.0474510392e+01    0.3032605    0.2736434 -21.64   0.00179883    1.388    0.280
       198 -11.1466    200.3147     58.8306   7.0566977760e+01   2.7644003708e+01    0.5973719    0.3528216 -79.09   0.00255711    2.246    0.555
       199 -10.0923    202.4518     53.7025   6.9015190425e+01   2.7898070761e+01    0.6019292    0.2033021 -40.98  0.002262269    2.823    0.646
       200 -10.6216    200.7572     45.5603   6.7308616939e+01   2.9471213487e+01    0.2994688    0.2205313 -33.76  0.001008238    1.548    0.354
       201 -11.8352    206.5205     43.4083   6.6022406461e+01   2.8392378460e+01    0.5153663    0.4958799  55.42  0.003278011    1.286    0.222
       202 -10.8169    178.2026     60.0760   7.4501389288e+01   3.2850030676e+01    0.3625384    0.3270103 -11.01  0.001059729    1.359    0.264
       203 -12.3085    185.1882     48.0317   7.0220147813e+01   3.2904811360e+01     0.772252    0.6312451  25.69  0.004216964    1.622    0.384
       204 -10.7242    171.5079     49.4542   7.2862099007e+01   3.6064762466e+01    0.5282128    0.1806272 -38.89  0.001939919    2.962    0.662
       205 -11.7414    180.5964     38.6410   6.8536912128e+01   3.5297814262e+01    0.6067538    0.3297658 -73.92  0.002461676    2.713    0.631
       206 -10.0457    186.9650     38.2847   6.7495242371e+01   3.3789964595e+01    0.2545485    0.1847703  60.59  0.001391382    1.279    0.218
       207 -10.6103    174.2468     57.3472   7.4484528325e+01   3.4238880586e+01    0.3736555     0.237451 -21.08  0.001116306    2.123    0.529
       208 -11.4092    175.6120     51.8223   7.2779718185e+01   3.4716971983e+01    0.5144258     0.273119 -35.57  0.002293908    2.030    0.507
       209  -9.8541     78.6764     60.5922   9.9644645707e+01   5.4708195599e+01    0.3059447    0.1791639  49.88    0.0012545    2.085    0.520
       210 -10.5673     57.4550     60.0921   1.0691378429e+02   5.8013361300e+01    0.2576251    0.2152508  23.82  0.001622067    1.247    0.198
       211  -9.9245    191.7029     58.6426   7.1860867381e+01   2.9759719582e+01    0.3066253     0.232129  79.43  0.001611785    1.276    0.216
       212  -9.6434    138.9720     58.5409   8.2006177395e+01   4.2617467418e+01    0.2138212    0.1906796 -32.87 0.0006959441    1.209    0.173
       213  -9.8704     85.0805     59.5305   9.7189137390e+01   5.3780467722e+01    0.2024052     0.126612  38.04 0.0005011423    1.547    0.354
       214 -10.3320     47.0625     68.6280   1.1338473860e+02   5.7746216272e+01    0.2667585    0.1955529 -36.82  0.001578985    1.185    0.156
       215 -10.5396      3.3482     57.6417   1.2720549015e+02   6.3503860279e+01    0.2749789    0.2234563  83.15  0.001916442    1.876    0.467
       216 -10.3573    114.4866     52.4963   8.6188112132e+01   4.9067361751e+01    0.2968788    0.1933939 -33.32  0.001481493    1.637    0.389
       217 -10.6732    116.5655     49.7678   8.4758974625e+01   4.9013502024e+01    0.6566104    0.2890951 -48.11  0.002479518    3.151    0.683
       218 -11.2012    123.3545     54.7253   8.4599994067e+01   4.6785760120e+01    0.4761665     0.315058   4.70  0.001630063    2.235    0.553
       219 -10.7713    119.6863     53.6753   8.5203784483e+01   4.7757757294e+01    0.4438458    0.2038162 -36.98  0.001853787    2.313    0.568
       220 -11.5366    150.2522     52.5086   7.7764771227e+01   4.0823471114e+01     0.589611    0.4474159  -7.91  0.002998169    1.710    0.415
       221 -11.5023    141.0518     51.1302   7.9321742022e+01   4.3223961906e+01    0.4559762    0.3286124  37.96  0.001330702    1.421    0.296
       222 -10.3542    146.0386     48.1006   7.7354672906e+01   4.2461873356e+01    0.4404778    0.2443004  63.88   0.00195968    1.794    0.443
       223 -10.8314     87.9299     55.8310   9.5041269251e+01   5.3869554532e+01    0.4650152    0.2866291  63.84  0.001926917    2.868    0.651
       224 -11.3995     85.8974     51.8574   9.4340416764e+01   5.4862668870e+01     0.500937    0.2937869  19.86  0.002306015    2.125    0.529
       225 -10.6873     12.2794     56.2683   1.2328808563e+02   6.3229877332e+01    0.3018262    0.1650527  28.20  0.001798705    2.161    0.537
       226 -11.0255     99.2548     54.6062   9.1160405824e+01   5.1904527797e+01    0.3638037    0.2120835  34.85  0.001453454    1.697    0.411
       227 -10.4104    104.8606     53.7986   8.9265617222e+01   5.0898480839e+01    0.4305328    0.2259428  31.83  0.001631359    2.173    0.540
       228 -11.1002     60.7475     52.5506   1.0319718783e+02   5.8842158590e+01    0.3648353    0.2174499 -45.87  0.001408733    1.823    0.452
       229 -10.2726     71.0999     53.7421   9.9921069551e+01   5.7083008288e+01    0.2585652    0.1751115 -27.76  0.001426238    1.424    0.298
       230 -11.3737     25.7138     52.9622   1.1691157533e+02   6.2806831721e+01    0.2507531    0.1713217  -6.85  0.000563046    1.428    0.300
       231 -10.3384    134.4875     52.1038   8.1095717254e+01   4.4626754244e+01    0.3947341    0.2386523  32.12   0.00175964    1.970    0.492
       232 -10.8510     76.2033     51.8503   9.7523856460e+01   5.6553269818e+01    0.2645468    0.2159223  39.92  0.001556961    1.317    0.240
       233 -12.0080     42.8290     49.7461   1.0903340372e+02   6.1630119518e+01    0.5555866    0.2315903  31.17  0.001828625    2.464    0.594
       234 -10.9220     38.2607     44.1068   1.0892267200e+02   6.3079270713e+01    0.3485322    0.3228502 -69.84  0.002132709    1.710    0.415
       235 -11.2812     31.8217     43.1134   1.1121235137e+02   6.3922986561e+01    0.3301213    0.2732189  -8.96  0.001320825    1.101    0.092
       236  -9.9725     55.3056     49.8946   1.0429472964e+02   6.0036392019e+01    0.2570317    0.2214121 -66.64  0.001064854    1.802    0.445
       237 -10.5989     56.3601     46.0674   1.0256017300e+02   6.0503658129e+01    0.4196096    0.1978889  32.02  0.002062432    2.099    0.524
       238 -10.0406      7.0412     48.5723   1.2330143855e+02   6.4969846724e+01    0.1918893     0.131703 -38.30 0.0007023641    1.102    0.092
       239 -10.0255     94.0964     48.2096   9.0543260160e+01   5.3874508456e+01    0.3210771    0.1679366  47.86  0.001493717    1.862    0.463
       240 -10.3225    152.9925     44.6584   7.4951331150e+01   4.1255208610e+01    0.3746114    0.2142402 -21.43  0.001453789    2.294    0.564
       241  -9.1509    129.5303     46.5163   8.0525029395e+01   4.6561396757e+01    0.1401046    0.1271459  47.28 0.0001008798    1.012    0.012
       242  -9.3556     75.4753     46.4842   9.5895474281e+01   5.7499380151e+01    0.1332963    0.1108522   6.17  7.87704e-05    1.067    0.063
       243 -11.4488     20.9589     43.2556   1.1581155514e+02   6.4900079623e+01    0.4328339    0.3593878 -49.16  0.001535891    1.449    0.310
       244 -11.2241     15.7938     40.1202   1.1699868664e+02   6.5840216414e+01    0.6320094    0.3341872 -11.42  0.003145174    2.058    0.514
       245 -10.5614    142.3912     43.5586   7.6772348422e+01   4.3949448091e+01     0.356417    0.2573504  34.80  0.001537854    1.484    0.326
       246 -10.2434     97.6781     42.6189   8.7560873535e+01   5.3961092295e+01    0.3086821    0.2214744 -37.94 0.0009553094    1.551    0.355
       247 -10.1166    100.0694     37.7928   8.5209648570e+01   5.4118994539e+01    0.3365495    0.2307484  18.58  0.001362541    1.597    0.374
       248 -10.5645    249.7470     43.5940   6.1124865459e+01   1.8637651302e+01    0.2637007    0.2103403  71.53  0.001589122    1.328    0.247
       249  -9.5908    250.4282     39.5440   6.0260616088e+01   1.9054944204e+01      0.17622    0.1335085 -69.79 0.0008792868    1.069    0.065
       250 -10.7244    118.1207     41.9751   8.1835122081e+01   4.9743880000e+01    0.4513213    0.2380186 -39.61  0.002082981    2.118    0.528
       251  -9.7798    106.6506     43.8972   8.5468434368e+01   5.1954358758e+01    0.2547568     0.187683 -84.05  0.001226265    2.350    0.574
       252  -9.9516     67.1146     43.5998   9.7757860239e+01   5.9288209857e+01    0.1996794    0.1612134 -35.02 0.0006638357    1.356    0.262
       253  -9.9901    213.7305     42.8447   6.4969788422e+01   2.6769848715e+01    0.2225631    0.1655449  61.91 0.0006827759    1.347    0.258
       254  -8.9280    238.6233     42.3057   6.2000262286e+01   2.1203250690e+01    0.1415499   0.08152195 -72.12 0.0007028475    1.774    0.436
       255 -10.6901    194.3082     38.7267   6.6559554748e+01   3.1950713691e+01    0.5662597     0.336045 -54.62  0.002808138    1.745    0.427
       256 -10.8921    194.7894     30.4976   6.4513320262e+01   3.2883634840e+01    0.3772133    0.2780084 -31.85  0.001654057    1.601    0.375
       257 -10.7853     87.2633     41.0262   9.0131640998e+01   5.6188086117e+01    0.3092569    0.2704586 -44.54  0.001808576    1.424    0.298
       258 -10.1987    161.8466     41.1244   7.2302550950e+01   3.9567098441e+01    0.2399019    0.2230919  69.99 0.0006775718    1.056    0.053
       259  -9.9688    161.5274     37.4841   7.1352444629e+01   4.0111940539e+01    0.2354871    0.1745941  70.26 0.0008089902    1.233    0.189
       260  -9.5030    242.7142     40.5338   6.1216705695e+01   2.0560104638e+01    0.1678545    0.1049425 -88.74 0.0009152126    1.540    0.351
       261  -9.7850    130.1872     40.1263   7.8379723534e+01   4.7257790802e+01    0.2010824       0.1667  37.48 0.0004014217    1.151    0.132
       262  -9.7725    172.7246     38.7183   6.9798069477e+01   3.7215281187e+01    0.3188433    0.2002537  84.59   0.00151712    1.774    0.436
       263 -10.1923     46.0056     36.7892   1.0317860521e+02   6.3294249904e+01     0.317127    0.1476891 -32.62  0.001313021    2.014    0.504
       264 -11.4653     54.4760     36.7930   9.9891444901e+01   6.2160947523e+01    0.7369247     0.367488  43.39  0.003712721    2.338    0.572
       265 -10.1472     51.1930     30.7666   9.8855128063e+01   6.3461030799e+01    0.2714826    0.1706127 -14.90 0.0007871101    1.552    0.356
       266 -10.7041     55.0079     29.9317   9.7072241830e+01   6.3033247449e+01    0.2189962    0.1735159  10.17 0.0003469552    1.054    0.052
       267 -10.4050    202.6685     37.6905   6.5190518500e+01   3.0079420705e+01    0.2548056     0.202583  63.07  0.001001072    1.245    0.197
       268 -10.3930    200.7769     35.3919   6.4896147684e+01   3.0830841866e+01    0.3355273    0.2164038  62.04  0.001226042    1.437    0.304
       269  -9.2009    142.5734     38.5021   7.5226661332e+01   4.4559798892e+01    0.1376345      0.12376  58.41 0.0001717513    1.015    0.015
       270 -11.5441    147.5470     34.9776   7.3203461766e+01   4.3807380106e+01    0.7471904    0.2685614  61.90  0.002817598    2.567    0.610
       271  -9.6362    136.5509     38.4658   7.6470527372e+01   4.5987654974e+01    0.2538191    0.1043598  48.48  0.001024055    2.163    0.538
       272 -10.6808    123.7244     36.1565   7.8604941692e+01   4.9231324318e+01    0.4391885    0.3011111 -20.11  0.002328133    1.686    0.407
       273 -10.6935    119.9535     33.4090   7.8601608643e+01   5.0410310343e+01    0.2759523    0.2028673 -44.77  0.001024732    1.612    0.379
       274 -10.2983    109.8568     36.9749   8.2285608512e+01   5.2182020762e+01    0.3936902    0.1858304 -33.83  0.001296787    2.295    0.564
       275 -10.5846    222.2790     36.5228   6.2557529288e+01   2.5647081154e+01    0.3254766    0.2162194  73.96  0.001177432    1.365    0.268
       276  -9.4665    114.3761     36.7484   8.1056220303e+01   5.1234759740e+01    0.1819679    0.1263828 -10.35 0.0009479108    1.711    0.415
       277  -9.6147    218.5297     22.4793   5.9939936485e+01   2.8283090259e+01    0.1982357    0.1218238 -38.76 0.0008566881    1.734    0.423
       278 -10.1375    204.0264     29.1090   6.3029938295e+01   3.0851922087e+01    0.4568349    0.1782714  63.74  0.001975474    2.219    0.549
       279  -9.6398    201.2169     25.2380   6.2476631255e+01   3.1987723536e+01    0.2237747    0.1585779 -52.83 0.0007091588    1.404    0.288
       280 -11.4083    217.6084     29.1344   6.1472908944e+01   2.7675541484e+01    0.7196479    0.3656825 -89.19  0.002978235    2.233    0.552
       281  -9.7972    215.9653     35.2361   6.2997554756e+01   2.7271482210e+01    0.2063819    0.1369531  89.36  0.000285773    1.415    0.293
       282 -11.3429    211.4584     33.0069   6.3028308439e+01   2.8611055838e+01    0.5829867    0.3479421 -42.12  0.002311891    1.694    0.410
       283 -10.0899    141.6628    243.6655   1.2274917232e+02   3.3476069596e+00    0.1312633    0.1019506   6.94 0.0004282438    1.745    0.427
       284 -10.3464     16.1961    240.1786   1.4679029291e+02   2.2451099473e+01    0.1651565   0.09746369  70.16 0.0007214411    1.324    0.244
       285 -10.4633     53.7039    237.7701   1.3978290405e+02   1.8395326859e+01    0.1982417   0.06936248  47.74 0.0008004212    2.354    0.575
       286 -10.9145     80.9113     33.1497   8.9281672329e+01   5.8391887460e+01    0.2714062    0.2214943  56.23 0.0002816102    1.524    0.344
       287  -9.8204     12.6825    232.3412   1.4691036176e+02   2.4406005976e+01    0.1245445    0.0618094  68.97 0.0007049001    1.712    0.416
       288 -10.8208     61.7557     31.3851   9.5135879592e+01   6.1832442952e+01    0.2462219    0.1726617  27.97 0.0006387728    1.280    0.219
       289 -11.5484     65.9902     30.4927   9.3281250327e+01   6.1281065296e+01    0.3201372    0.2794947  -3.47   0.00129012    1.153    0.133
       290 -11.1069     24.7132     34.1519   1.1106930968e+02   6.6044206519e+01    0.5078709     0.231179 -53.86  0.002409998    3.204    0.688
       291  -9.7128    110.3824    224.8438   1.2673670858e+02   1.2442813782e+01    0.1859884     0.124756 -49.27 0.0009520286    1.748    0.428
       292 -11.3686     28.5167     28.6667   1.0737484721e+02   6.6494963344e+01    0.3994431    0.2759844   9.70  0.002720721    1.304    0.233
       293 -10.0293     52.6710    224.6612   1.3878367822e+02   2.1285178904e+01    0.1142476   0.09591664 -43.21 0.0007051817    1.735    0.424
       294 -10.8574    248.6307     29.3025   5.8433388391e+01   2.0798520219e+01    0.7818798    0.3459487  58.27  0.003848817    2.455    0.593
       295 -10.4678    244.8630     25.8359   5.8097622872e+01   2.2041360994e+01    0.3321222    0.1576101  71.84  0.001720369    1.939    0.484
       296 -11.5408    235.5310     32.0228   6.0209299660e+01   2.3266155148e+01    0.7355285    0.2890585  77.27  0.003114393    2.728    0.633
       297 -11.6967    229.3225     29.0134   6.0212610249e+01   2.5031468032e+01    0.5064248    0.3799084 -89.27  0.002689421    1.126    0.112
       298  -9.2052    164.8234     33.8213   6.9785386417e+01   3.9761856344e+01    0.1850352    0.1462666 -76.48 0.0005261654    1.348    0.258
       299 -10.4953     88.9272     33.5900   8.6961098305e+01   5.6846608712e+01     0.330714    0.2070632  34.55  0.001788265    1.447    0.309
       300 -10.1935     93.9350     31.2795   8.4659991474e+01   5.6156020422e+01    0.3955719    0.1731238  59.29  0.001565237    3.079    0.675
       301  -9.6712    177.3292     27.3083   6.6122807171e+01   3.7490456788e+01    0.2681321    0.1735727  52.96   0.00105754    1.490    0.329
       302 -10.7028    179.7074     30.6222   6.6622436666e+01   3.6518760512e+01    0.3699153    0.1736781  58.16  0.001039031    1.860    0.462
       303 -11.1489    182.8718     27.4832   6.5380667868e+01   3.6124648153e+01    0.6024969    0.3002225 -51.17  0.002780634    2.194    0.544
       304  -9.3752    160.4969     32.9112   7.0267243333e+01   4.0926131158e+01     0.173266    0.1377792 -32.65 -0.0004690751    1.437    0.304
       305 -11.0781    136.5771     30.5803   7.4060206905e+01   4.6930240210e+01    0.4114861    0.3368696   8.74  0.001955332    1.441    0.306
       306 -10.0536    126.6659    216.5565   1.2196677437e+02   1.1327689651e+01    0.2310375    0.1672889  89.76 0.0007851987    1.711    0.415
       307 -10.5645     26.4772    212.4816   1.4290169394e+02   2.7114270178e+01    0.2336292    0.2060504 -41.86  0.001616785    1.675    0.403
       308  -9.7605     37.4076    179.7191   1.3737787778e+02   3.3368520672e+01    0.1984634    0.1646179 -15.05  0.001196545    1.793    0.442
       309 -11.3498    246.1117    177.3501   8.9571824566e+01  -3.3107514117e+00     0.268006    0.1842847 -42.41 0.0008864696    1.398    0.285
       310 -11.6188    247.1779    172.1204   8.8321740724e+01  -2.5833045060e+00     0.356533    0.1787642 -45.04  0.001445574    1.942    0.485
       311 -11.1095    171.3058     30.9097   6.7961887106e+01   3.8531846199e+01    0.3831127    0.2295046  77.83 0.0008788961    1.673    0.402
       312  -9.6826    166.4714     29.5999   6.8375928038e+01   3.9865112101e+01    0.2644401    0.1108383  58.91 0.0007366986    2.005    0.501
       313 -10.0796    160.3127     24.5572   6.7999061199e+01   4.1933612659e+01    0.5673191    0.2696126  78.89  0.002293727    2.609    0.617
       314 -10.6932    153.2261     28.4719   7.0286467388e+01   4.3206732487e+01    0.3249255     0.212562 -22.01  0.001231809    1.881    0.468
       315  -9.4577      1.5638    177.7831   1.4513576544e+02   3.7235906259e+01    0.1740667   0.08828898 -89.80 0.0009441198    1.708    0.415
       316  -9.8366    191.6748     26.8153   6.4035267922e+01   3.4078247861e+01    0.2293441    0.1772061  10.89  0.001259025    2.010    0.502
       317 -10.7770     15.1464     32.2713   1.1461947983e+02   6.7165716987e+01    0.4045238    0.1991668 -13.99  0.001945175    2.292    0.564
       318 -10.3700     38.3805     27.0647   1.0255118146e+02   6.5621717116e+01    0.4218177    0.1964389  33.70  0.002096227    2.134    0.531
       319 -10.4415     40.7945     21.3849   9.9267621582e+01   6.6074144232e+01    0.2235962    0.1359553 -25.91 0.0002260867    1.501    0.334
       320  -9.5784      9.3421    167.2991   1.4249969344e+02   3.8997829422e+01    0.1184654   0.07895928 -49.47 0.0007035607    1.670    0.401
       321 -11.0408     13.9930    165.0094   1.4120412764e+02   3.9138271215e+01    0.2114932    0.1742411  42.95    0.0010707    1.418    0.295
       322 -11.0621    249.5174    161.9543   8.5834394462e+01  -1.2032993678e+00    0.2821077    0.2078148 -54.87  0.001067401    1.532    0.347
       323 -10.3874     55.1733     17.5967   9.2071245740e+01   6.4523064790e+01    0.2374953    0.1610993  -8.24 0.0007223459    1.379    0.275
       324 -10.1649      2.4591    161.3238   1.4349900743e+02   4.0910154855e+01     0.225806    0.1362706 -60.53  0.001369624    1.467    0.318
       325 -10.7144    249.6743    155.6585   8.4504912358e+01  -1.1611711794e-01     0.284665    0.2155634 -44.78 0.0007954576    1.237    0.192
       326 -11.1536      5.0707     26.8198   1.1731273215e+02   6.8751418813e+01    0.3723451    0.2046896   5.46  0.002423786    1.806    0.446
       327 -10.2987     33.3521    155.7424   1.3541155780e+02   3.9524372981e+01    0.1930525    0.1519685 -28.86 0.0006551702    1.648    0.393
       328 -11.0727    229.5258    153.9411   8.7644928100e+01   3.9398806192e+00    0.3325417    0.2363684 -46.73  0.000863568    1.361    0.265
       329 -10.6600    168.7185     23.9012   6.6509946546e+01   3.9969550054e+01    0.4960894     0.221002  53.82  0.002225232    1.996    0.499
       330 -10.7500     51.0957     25.0010   9.6623490141e+01   6.4232384239e+01      0.43135    0.1397097  34.87  0.001446416    2.957    0.662
       331 -11.5828     98.2533     21.9025   8.0116642581e+01   5.6338624295e+01    0.2939684    0.2172752  38.15 0.0007956715    1.147    0.128
       332 -10.7727     89.7206     21.6004   8.2354528876e+01   5.8074905572e+01    0.3501086    0.1983567  14.21  0.001695874    2.291    0.563
       333 -12.6496     19.2941    148.2974   1.3802969522e+02   4.2608684206e+01    0.7056501    0.3827323 -43.31  0.003649931    2.093    0.522
       334  -9.9823    207.7988     16.6051   5.9788949574e+01   3.1443725706e+01    0.2432806    0.1444896 -87.10 0.0007569266    1.611    0.379
       335 -10.0481     34.9405    150.7596   1.3432690853e+02   4.0559700966e+01    0.2157701    0.1278215  62.00  0.001076562    1.978    0.495
       336 -10.4196    198.4529     19.5433   6.1489743396e+01   3.3305067920e+01    0.3282866    0.2136623 -48.38  0.001706035    1.562    0.360
       337  -9.6703    247.6295     17.3056   5.6227196437e+01   2.2512076657e+01    0.2451743    0.1146244 -53.77  0.001122316    1.848    0.459
       338 -10.4627    244.2171     20.2572   5.7074485671e+01   2.2874496219e+01    0.2855391    0.1860859 -89.93 0.0009378277    1.312    0.238
       339 -10.0558    240.5728     19.7249   5.7285581437e+01   2.3719435507e+01    0.2588698    0.1341352 -50.95   0.00107916    1.707    0.414
       340 -11.8484    236.1893    135.1899   8.2412413615e+01   6.1461366601e+00    0.5130766    0.3525527   3.09  0.002086881    2.452    0.592
       341 -12.3275    241.8884    147.3150   8.4058132184e+01   2.8098922547e+00    0.7215406    0.4665841  67.73  0.003337337    2.295    0.564
       342  -9.4288    228.4221     21.5266   5.8755896302e+01   2.6163408598e+01     0.123658    0.1026537 -85.85 6.259081e-05    1.082    0.076
       343  -9.4962    177.0057     20.6816   6.4482669750e+01   3.8317625670e+01    0.1965476    0.1534737  76.34  0.001166693    1.087    0.080
       344 -11.5665    233.3250    141.6747   8.4313374009e+01   5.5024015184e+00     0.375244    0.2023307 -43.31  0.001051443    1.699    0.412
       345 -10.9691     39.1748    146.8304   1.3264532574e+02   4.1066240456e+01    0.2992053    0.2534426 -63.85  0.001253345    1.080    0.074
       346 -10.3438     38.4936    143.4518   1.3232039011e+02   4.1952610292e+01     0.220171    0.2001184 -63.65 0.0005517902    1.107    0.096
       347 -11.0935    248.1455    144.8376   8.2494133428e+01   2.0962486310e+00    0.2825652    0.2637464  26.59  0.001692847    1.193    0.162
       348 -11.8951    245.8889    140.2035   8.1882695482e+01   3.3529421948e+00    0.3815558    0.3106721  49.24  0.002055765    1.382    0.276
       349 -11.1335      6.6805    142.8114   1.4057282866e+02   4.4873701481e+01    0.3211441    0.1734011  54.25  0.001748603    2.145    0.534
       350 -11.5078    212.4992    138.2478   8.7339284193e+01   1.0439787701e+01    0.5200706    0.4207152  -6.11  0.001955936    1.529    0.346
       351  -9.5688    161.4366     19.2367   6.6373637251e+01   4.2232807436e+01    0.2171464    0.1364012 -19.58  0.001125677    2.064    0.515
       352  -9.6968    185.7446     18.6729   6.2828241416e+01   3.6432633922e+01    0.2460527   0.08290361 -46.20 0.0009661876    3.145    0.682
       353 -10.2003     54.4028    137.1910   1.2687538504e+02   4.1665273930e+01    0.1995565    0.1221246 -73.89 0.0005671598    1.680    0.405
       354 -10.0663    155.6488     16.1866   6.6441695433e+01   4.3933982677e+01    0.2436099    0.1696446  54.71 0.0006005879    1.269    0.212
       355  -9.7409    158.7173     15.3216   6.5728967727e+01   4.3284739868e+01    0.2018078    0.1434448  68.33 0.0003838851    1.185    0.156
       356  -9.7109     47.3184    137.6510   1.2895402526e+02   4.2390824262e+01      0.14042   0.09736284  76.81 0.0007048268    1.734    0.423
       357 -10.4062      4.0604    135.4536   1.4039107793e+02   4.6750935475e+01    0.2550862    0.2406062  57.53  0.001910604    1.293    0.226
       358  -9.7137    232.5845     17.9887   5.7651429571e+01   2.5666591659e+01    0.1708085    0.1088639 -44.53 0.0005867471    1.558    0.358
       359  -9.9518      8.9741    134.5771   1.3899816475e+02   4.6619145790e+01    0.1861596    0.1709066  62.89 0.0003589006    1.271    0.213
       360 -12.0132     13.1712    130.6700   1.3736466983e+02   4.7224339434e+01    0.4453542     0.352772  81.52  0.001099773    1.306    0.234
       361 -11.1585    249.5792    132.1294   7.9582725176e+01   4.1141482596e+00    0.4238454    0.2794304 -25.60  0.002100153    1.710    0.415
       362 -10.7941    242.5304    129.4100   8.0118100827e+01   5.9611388141e+00    0.3448305    0.1686115  44.96  0.001484197    2.341    0.573
       363 -11.8029    226.0870    126.5496   8.2229517190e+01   9.8278467225e+00     0.535025    0.3979363 -21.90  0.001561058    1.585    0.369
       364  -9.5785     72.8016    128.8416   1.1993274531e+02   4.1215688841e+01    0.1926913    0.1656679  78.63 0.0008012264    1.294    0.227
       365 -10.3854    126.4490     15.2019   7.1336422225e+01   5.0876209399e+01    0.3985111    0.1711867  57.75  0.001099931    1.892    0.471
       366 -11.3056     24.5126    127.9934   1.3382765456e+02   4.6954665393e+01    0.3685651    0.2441309  16.47  0.002114865    1.916    0.478
       367 -10.3972     92.4934     15.8650   7.9477264885e+01   5.8107768417e+01    0.2216764    0.1496346  43.43 0.0002708634    1.235    0.190
       368 -11.0293     56.0502    126.9297   1.2447967223e+02   4.3934705339e+01    0.4515165    0.2450796 -39.22  0.001448778    2.053    0.513
       369  -9.6466    207.7582    127.0247   8.5662119101e+01   1.3687646311e+01    0.2045212    0.1228021 -42.54 0.0005875821    1.591    0.371
       370 -10.2430     66.4349    124.5034   1.2090151986e+02   4.3157227203e+01     0.323561     0.197144 -25.07  0.001380818    2.379    0.580
       371 -10.9296     18.9288    120.6083   1.3428674993e+02   4.9125611791e+01    0.4275634     0.166062 -45.86  0.001069222    2.427    0.588
       372  -9.9491    238.2171     14.4002   5.6451469044e+01   2.4863462610e+01     0.302166    0.1537364  87.11   0.00119101    1.832    0.454
       373  -9.9277    242.4870     13.0038   5.5829561009e+01   2.4111719987e+01    0.2567086    0.1386618  77.41   0.00145937    1.619    0.382
       374  -9.8998    246.7972    121.8288   7.7822638655e+01   6.4979476101e+00    0.1972295    0.1488149 -59.76  0.001060073    1.337    0.252
       375 -10.0728     10.0449     99.0617   1.3344080818e+02   5.4605035652e+01    0.2107532    0.1403519  58.44    0.0012337    2.048    0.512
       376 -10.8094     22.8195    107.8925   1.3098610910e+02   5.1734788032e+01    0.2867208    0.1708395  22.72  0.001603175    2.000    0.500
       377  -9.4114    178.4641     14.5611   6.2752205404e+01   3.8617101522e+01    0.1308442    0.1079159  75.54  0.000114996    1.031    0.030
       378 -10.3671     67.6770     12.9355   8.5775973307e+01   6.2999800240e+01    0.2036056    0.1504772  39.97 0.0004350457    1.266    0.210
       379 -11.0556      5.9894    119.9929   1.3789997834e+02   5.0166890911e+01    0.3629456    0.2320034 -51.77  0.002242844    1.344    0.256
       380 -10.7911      5.8252    115.9012   1.3737363435e+02   5.1105111378e+01    0.2654725    0.1918557 -50.79 0.0008597278    1.218    0.179
       381 -12.0985     22.1812     95.7952   1.2889329430e+02   5.4481020911e+01    0.5260823    0.2929541 -33.25  0.002562454    1.849    0.459
       382 -11.2597      8.4308    109.8093   1.3570342194e+02   5.2316842727e+01    0.4888537    0.1810516 -37.57  0.002096595    3.172    0.685
       383 -11.0758     11.8949    104.9098   1.3385934355e+02   5.3192114671e+01    0.3058403    0.2128375 -19.88  0.001173099    1.675    0.403
       384 -11.8274     18.3256    104.1242   1.3171537240e+02   5.2923583693e+01    0.3726286    0.2942957  48.20   0.00156061    1.566    0.361
       385 -10.3740    217.1119    119.9901   8.2314643813e+01   1.2999070240e+01    0.3166604    0.2154124 -33.98    0.0014052    1.512    0.339
       386  -9.8076     28.0266    120.2612   1.3156481340e+02   4.8460897556e+01    0.2588176    0.1522529 -82.72 0.0008113513    1.943    0.485
       387 -10.1241     13.1732    117.1289   1.3542549935e+02   5.0345739155e+01    0.1930362    0.1375555 -50.69  0.001125118    1.225    0.184
       388 -11.7584    237.8007    113.4426   7.7396482470e+01   9.8178753688e+00    0.3539485    0.2983759 -54.43 0.0009706501    1.077    0.072
       389 -12.0603    109.2255     29.6523   7.9972135449e+01   5.3194927163e+01    0.6446468    0.2793347  61.38  0.001832633    2.659    0.624
       390 -12.0262    226.4974    112.8062   7.9067868776e+01   1.2315947334e+01    0.6576753    0.3997331  66.88  0.002740804    1.989    0.497
       391 -11.8533    207.5435    112.5251   8.2298845962e+01   1.6564425165e+01    0.5770484    0.3255473 -53.99  0.001662369    1.892    0.471
       392 -11.7042    194.8043    112.6883   8.4749369190e+01   1.9463041296e+01     0.401491    0.3482447 -47.11  0.002060637    1.126    0.112
       393  -9.4229     97.6790    114.6719   1.0929713222e+02   4.0481936182e+01    0.1550309    0.1170245 -14.58 0.0007048149    1.688    0.408
       394  -9.3457     59.5335    113.4921   1.2062843888e+02   4.6665329487e+01    0.1389011    0.1239833 -48.90 4.485814e-05    1.004    0.004
       395 -11.7252    231.5143    111.6513   7.7992972746e+01   1.1457725399e+01    0.3964089    0.2965441  74.25  0.001378317    1.533    0.348
       396 -10.7933    133.0171    111.3115   9.8544219093e+01   3.4102112450e+01    0.4097528    0.2714788 -35.07  0.001762373    1.639    0.390
       397 -10.1211    245.1743     92.9883   7.1884507211e+01   1.1892320404e+01    0.2117323     0.180704 -67.65 0.0005451844    1.064    0.060
       398 -11.0875    233.2381     99.0298   7.4916341899e+01   1.3361531489e+01    0.3879142    0.2820536 -89.32  0.001654351    1.612    0.380
