#   1 NUMBER                 Running object number                                     
#   2 MAG_AUTO               Kron-like elliptical aperture magnitude                    [mag]
#   3 X_IMAGE                Object position along x                                    [pixel]
#   4 Y_IMAGE                Object position along y                                    [pixel]
#   5 X_WORLD                Barycenter position along world x axis                     [deg]
#   6 Y_WORLD                Barycenter position along world y axis                     [deg]
#   7 A_WORLD                Profile RMS along major axis (world units)                 [deg]
#   8 B_WORLD                Profile RMS along minor axis (world units)                 [deg]
#   9 THETA_WORLD            Position angle (CCW/world-x)                               [deg]
#  10 FWHM_WORLD             FWHM assuming a gaussian core                              [deg]
#  11 ELONGATION             A_IMAGE/B_IMAGE                                           
#  12 ELLIPTICITY            1 - B_IMAGE/A_IMAGE                                       
         1 -10.1454    145.4245     22.5487   7.8975640362e+01   4.6274102726e+01    0.3300029     0.251906  -0.77 0.0001158657    1.385    0.278
         2 -10.5190     24.7709     16.7435   1.1941745532e+02   7.1589388720e+01    0.3580474    0.3163493   1.94 0.0009241595    1.221    0.181
         3  -9.1862     31.6130     10.6451   1.1204005043e+02   7.1971715443e+01    0.4369171    0.2031205 -31.87  0.001404595    2.144    0.534
         4 -10.1554      9.3610     19.6238   1.3036890066e+02   7.2263632052e+01    0.4553532     0.249881  -4.15  0.001365509    2.237    0.553
         5  -8.9616    128.4815     16.2633   7.9684275691e+01   5.1307862140e+01    0.4774033    0.2421114  25.51  0.001055313    2.677    0.626
         6  -9.6945     63.9593     14.3471   9.7773956340e+01   6.6235497478e+01    0.4072896    0.2582196  25.09 0.0008154068    1.734    0.423
         7  -8.5263     76.4450      7.1169   8.8962421137e+01   6.4708758426e+01    0.2871106     0.185647  27.73  0.001006856    1.583    0.368
         8  -8.8414     80.2072     12.9635   9.0849924073e+01   6.3164526590e+01     0.314137    0.2604012 -44.33 0.0008750759    1.401    0.286
         9  -9.3465     74.6187     13.2513   9.2986412783e+01   6.4297071410e+01    0.4014783    0.2643366 -16.11  0.001412638    1.503    0.335
        10  -8.5622    134.5898     13.2935   7.7286643135e+01   5.0058395064e+01     0.272574    0.1726009  32.38 0.0005802565    1.683    0.406
        11  -9.3690    137.0000      9.0301   7.5128319112e+01   4.9853791255e+01    0.4048973    0.1928615  -9.48  0.001579538    2.414    0.586
        12  -8.6277     97.2812     12.0267   8.5110672449e+01   5.9447872308e+01    0.2829343    0.2011988  32.47 0.0005906257    1.380    0.275
        13  -8.2474     38.0000     11.9733   1.0909188724e+02   7.0887454912e+01    0.2186685   0.06559335 -42.87 0.0008046291    2.958    0.662
        14  -8.9487    157.0113     10.8218   7.2736386045e+01   4.4484127543e+01    0.2605548    0.2105783 -17.77  0.001392671    1.239    0.193
        15  -8.5337    106.1481     10.6289   8.2127166445e+01   5.7487524972e+01    0.2351541    0.1938618 -26.86 0.0007140972    1.231    0.188
        16 -10.6062     20.0075      8.8264   1.1839560605e+02   7.3625724437e+01     0.343556     0.221656   6.76 0.0004668865    1.752    0.429
        17  -8.4319      1.7729      8.2377   1.3107186005e+02   7.5142954910e+01    0.2580846    0.1510659 -65.87  0.001479566    1.609    0.378
        18  -8.9955    128.6190      7.5219   7.5972260056e+01   5.2159461046e+01     0.270738    0.1784475 -10.31 0.0007926527    1.573    0.364
        19  -7.6434    119.3289      7.2974   7.7655555048e+01   5.4552479574e+01    0.1552337   0.09783184  32.40 0.0003250386    1.636    0.389
        20  -8.9571     56.3582      4.7402   9.5458636382e+01   6.9028443447e+01    0.4288585    0.2401508   0.41  0.001832079    2.535    0.605
        21  -8.5812     84.9046      5.0621   8.5088543042e+01   6.3085588983e+01    0.4014058    0.2038971   6.50  0.001519347    2.881    0.653
        22  -8.9303     68.8705      3.7962   8.9770105221e+01   6.6699429378e+01    0.4386768    0.1908859 -14.68   0.00167313    2.835    0.647
        23 -10.0683     49.0584      4.6410   9.8819202621e+01   7.0344061856e+01    0.2713033    0.2018357  -1.47 0.0003771036    1.287    0.223
        24  -8.0188     12.8851      5.2637   1.2142019950e+02   7.4977833148e+01     0.255321    0.1151021 -33.30   0.00120293    2.126    0.530
        25  -9.1303    110.7973      4.0301   7.7934047859e+01   5.7006290695e+01    0.3859704    0.2087862 -33.85  0.001721206    1.892    0.472
        26  -8.8857    125.3395      3.6477   7.4901431397e+01   5.3353454827e+01    0.2672402     0.221227  38.23 0.0005042158    1.146    0.128
        27  -8.5327    104.8938      2.7441   7.8622948822e+01   5.8588293217e+01    0.4080413    0.1903286  13.27  0.001434551    3.209    0.688
        28  -8.4943    153.8047      3.1721   7.0345433401e+01   4.5991226394e+01    0.1991726    0.1519451  37.09 0.0003968172    1.327    0.246
        29  -8.2109    182.1705      2.1326   6.6784110770e+01   3.8766745997e+01    0.2017405    0.1779359  34.49 0.0004081901    1.187    0.158
        30  -7.9843    143.1473      1.9499   7.1335625093e+01   4.8874568747e+01    0.2062223     0.183114 -55.17 0.0003210607    1.206    0.170
        31  -7.8134      3.1685      1.2898   1.2671934590e+02   7.6491874424e+01    0.1383592     0.101199  19.26 0.0003074414    1.604    0.377
        32  -7.5157    229.7661    225.9762   1.1298279216e+02   1.6254630859e+00    0.1219987   0.07714191 -17.97 0.0004814579    1.576    0.366
        33  -9.2895    213.0675    250.3401   1.1893888867e+02   1.3986156768e+00    0.2382251    0.0924293  38.07  0.001402342    2.113    0.527
        34  -9.9049    200.4725    248.9410   1.2076984405e+02   3.0592973000e+00    0.2991398    0.1739145  13.58  0.001261866    1.591    0.371
        35  -7.8593    123.5456    250.5272   1.3388997236e+02   1.2400488173e+01    0.1822738   0.07963986  27.56  0.001019016    2.228    0.551
        36  -7.6048     70.2231    225.6233   1.4147649258e+02   2.2152337755e+01    0.1431947    0.0862498  26.97 0.0009387064    1.690    0.408
        37  -8.2865    237.2068    224.8826   1.1165833149e+02   7.9904260669e-01    0.1496065   0.09048327  10.97 0.0004626143    1.327    0.246
        38  -8.2655     47.1167    223.9524   1.4566243369e+02   2.4842679362e+01    0.1478203    0.1186565  54.48 0.0004088799    1.069    0.064
        39  -7.4274    206.5196    222.4610   1.1624887776e+02   4.9890177682e+00    0.1138525   0.08010183  16.15 0.0001519965    1.090    0.083
        40  -8.2645    130.0943    220.9262   1.2973719174e+02   1.5529852515e+01    0.1698024     0.122649   8.08  0.001123587    1.669    0.401
        41  -8.3152    182.3055    219.9198   1.2005031780e+02   8.5499076739e+00    0.2094694    0.1244885  17.51  0.001184493    1.633    0.388
        42  -7.6593    173.5610    219.1926   1.2150586140e+02   9.8414139802e+00    0.1380995   0.09663812 -12.58 0.0005476133    1.632    0.387
        43  -7.7198    227.6554    217.6710   1.1208141629e+02   2.7067395603e+00    0.1177576   0.06475633  10.70 0.0007050593    1.750    0.429
        44  -7.4726    105.6968    217.6410   1.3404567587e+02   1.9187600438e+01    0.1043784   0.08173293  -2.17 0.0007038497    1.721    0.419
        45  -9.0306    246.5846    215.9593   1.0886045394e+02   4.6204600924e-01    0.1975483    0.1382939   9.24 0.0006736617    1.021    0.021
        46  -8.5041    248.2403    211.5869   1.0792166019e+02   6.6298641868e-01      0.20267    0.1170093  20.07 0.0008442292    1.347    0.257
        47  -7.4861    203.7966    216.3862   1.1582519219e+02   6.0179623654e+00    0.1592324   0.08136665  26.67 0.0004916684    1.628    0.386
        48  -8.4025    193.4977    215.7805   1.1750641671e+02   7.4981730691e+00    0.2337381    0.1164019  22.94  0.001199708    1.931    0.482
        49  -7.4819    179.3219    215.2699   1.1993476041e+02   9.5276699581e+00    0.1143815   0.07281957  13.84 0.0002938696    1.568    0.362
        50  -8.1855    121.9070    213.3476   1.3045033172e+02   1.7730457405e+01    0.2178986     0.122151  24.82  0.001108155    1.847    0.459
        51  -7.1642    169.3535    212.2917   1.2132605935e+02   1.1305288986e+01    0.1185824    0.0759347  12.40 0.0007028999    1.680    0.405
        52  -7.3882    200.3541    223.2852   1.1740259540e+02   5.7204522474e+00     0.115462   0.06726753  13.83 0.0004087961    1.666    0.400
        53  -7.8489    186.2830    210.3718   1.1798909096e+02   9.1528309851e+00    0.1817688    0.1106459  11.60  0.001016122    1.752    0.429
        54  -8.0884    232.5273    211.4870   1.1035030559e+02   2.6910793305e+00     0.186978   0.08733682 -15.30  0.001018815    2.416    0.586
        55  -7.8836    163.0568    207.9091   1.2188426133e+02   1.2783453891e+01    0.1784626     0.121067   9.45 0.0005532819    1.614    0.380
        56  -9.3010    124.0042    205.9912   1.2918238037e+02   1.8571484233e+01    0.1647628    0.1360018  36.01  0.001165136    1.002    0.002
        57  -7.4709    246.6286    205.2163   1.0714427155e+02   1.4762059182e+00    0.1464579   0.08297136 -10.81 0.0009358751    1.608    0.378
        58  -7.7717    226.4665    205.0141   1.1029782874e+02   4.1675605343e+00    0.1593748   0.07993908  -5.00 0.0008092936    2.561    0.610
        59  -7.9085    215.5764    205.4949   1.1217259776e+02   5.6098463710e+00    0.2058298   0.08299128  28.50  0.001018325    2.281    0.562
        60  -8.1409    117.4733    205.0282   1.3036928898e+02   1.9612803633e+01    0.2181958     0.142564  24.37 0.0009106207    1.541    0.351
        61  -7.3446    176.3007    204.3103   1.1890532204e+02   1.1352994394e+01     0.118113   0.07829858   9.00 0.0002788065    1.603    0.376
        62  -7.0717    148.6870    204.6760   1.2417518924e+02   1.5298327274e+01    0.1171244   0.08248637   6.65 0.0007040719    1.660    0.398
        63  -8.0991    250.5009    199.4633   1.0560478256e+02   1.5347411060e+00    0.2106983   0.09269904 -24.50  0.001203862    2.147    0.534
        64  -7.8150    196.0229    200.5060   1.1475494787e+02   8.9696994765e+00    0.1813156   0.09552983  33.88  0.001027394    1.579    0.367
        65  -7.6854    184.8515    200.3636   1.1674141997e+02   1.0618390234e+01    0.1766136   0.08914979  27.71 0.0009355851    1.793    0.442
        66  -7.3988    221.6870    199.3206   1.1015809715e+02   5.4429090180e+00   0.09642944   0.08968674  32.47 0.0003003139    1.652    0.395
        67  -8.0230    243.5089    198.2936   1.0648324158e+02   2.5702265030e+00    0.1535832   0.08663286  -9.25 0.0008717884    1.656    0.396
        68  -7.5675     99.9870    198.5270   1.3318922156e+02   2.3010000384e+01    0.1481517     0.096347  10.04 0.0005937228    2.263    0.558
        69  -8.5772    166.1605    197.3749   1.1977320060e+02   1.3785330517e+01    0.2264137    0.1210491  26.23  0.001200675    1.798    0.444
        70  -8.2815    192.9039    194.4292   1.1434136161e+02   1.0190012638e+01    0.2607865    0.1500753 -19.05  0.001456012    1.997    0.499
        71  -8.3015    236.2541    195.0961   1.0708596633e+02   3.8805774968e+00    0.1759628    0.1184276   4.05 0.0004753692    1.216    0.177
        72  -7.2970     90.5049    192.4505   1.3451412065e+02   2.5289983627e+01    0.1163517   0.09895969  46.99 0.0001531547    1.009    0.008
        73  -7.3655    124.5304    193.4774   1.2750508042e+02   2.0492128194e+01    0.1197099    0.1021611  31.35 5.318605e-05    1.044    0.042
        74  -7.6809     64.8264    189.4109   1.3969630862e+02   2.8944649712e+01    0.1499146    0.1025736  23.46 0.0006422444    1.637    0.389
        75  -7.3541    250.2761    182.3171   1.0267599123e+02   3.2928986912e+00    0.1180056   0.06896584   5.80 0.0002038538    1.569    0.363
        76  -7.6704    165.4939    182.4840   1.1756672916e+02   1.6045983005e+01     0.125924    0.1049998  20.17 -7.882259e-06    1.020    0.019
        77  -7.2439    183.3526    180.3108   1.1374674411e+02   1.3546078288e+01      0.13166   0.08472548   9.65 0.0007044583    1.724    0.420
        78  -7.5547    156.6504    180.7264   1.1904738664e+02   1.7703030223e+01    0.1274963     0.088103  10.99 0.0002617758    1.632    0.387
        79  -7.5851     96.5744    178.4462   1.3156977548e+02   2.7031482208e+01    0.1188136    0.1073195  43.46 3.623004e-05    1.043    0.041
        80  -7.2269    130.3275    183.3100   1.2489265375e+02   2.1331429596e+01    0.1227462   0.09150802   3.05 0.0007040261    1.661    0.398
        81  -7.1847    190.2946    175.7317   1.1163795228e+02   1.3081441332e+01    0.1080298   0.09691528  51.64 0.0001929069    1.514    0.339
        82  -7.2795    137.6677    175.6812   1.2218321988e+02   2.1497139305e+01    0.1280637   0.09367251   2.81 -2.651292e-05    1.693    0.409
        83  -7.6470     46.7693    175.4485   1.4247682484e+02   3.3572013680e+01    0.1470501     0.107739  18.53 0.0009460479    1.661    0.398
        84  -7.7738    205.6460    174.6702   1.0864690504e+02   1.0787683053e+01     0.134059   0.08185104   9.24 0.0004760794    1.778    0.438
        85  -7.8271    149.0220    174.5149   1.1960009632e+02   1.9901151737e+01    0.1946288    0.1118233  34.17 0.0008135814    1.559    0.358
        86  -8.2483    184.2452    171.7241   1.1205954407e+02   1.4623330875e+01    0.2100326    0.1296857   5.88  0.001053977    2.026    0.506
        87  -8.3703    177.3608    167.2912   1.1258425503e+02   1.6408206745e+01     0.205525    0.1374409   4.96   0.00108863    1.735    0.424
        88  -8.3984    168.5195    163.6725   1.1368126348e+02   1.8444460181e+01    0.2703584      0.16972  -2.37  0.001286826    2.247    0.555
        89  -7.6965    122.9544    162.5326   1.2331684463e+02   2.6130118841e+01     0.178985    0.1098146  13.42 0.0008079182    2.416    0.586
        90  -7.7250    159.4091    160.7681   1.1502139911e+02   2.0451998772e+01    0.1860952     0.118957 -26.71 0.0009550928    1.777    0.437
        91  -7.9612    204.8209    159.3979   1.0590015653e+02   1.2957080795e+01    0.1850983    0.1040308  29.12 0.0008633448    1.685    0.407
        92  -7.5244    138.6358    158.3124   1.1906326938e+02   2.4364832907e+01    0.1330732    0.1013919  67.29 3.340753e-05    1.758    0.431
        93  -7.6282    205.3422    152.3127   1.0438869075e+02   1.3844038813e+01    0.1385693   0.08853878   9.52 0.0007046671    1.703    0.413
        94  -7.5497    168.9827    151.7350   1.1129555450e+02   2.0276343482e+01    0.1744591    0.1077195  37.84  0.000881439    1.505    0.336
        95  -7.4415    107.4851    151.5766   1.2515243189e+02   3.0641169913e+01    0.1295181    0.1205621  42.07 0.0001282315    1.012    0.012
        96  -7.8965    133.5259    147.9137   1.1831663306e+02   2.7126248870e+01    0.1961195     0.133067 -45.81  0.001022684    1.564    0.361
        97  -9.4867     67.1921    144.6824   1.3428139317e+02   3.7683169347e+01    0.4813926    0.2889546  71.04  0.002409808    2.040    0.510
        98  -7.9944     15.1008    139.2763   1.4735582589e+02   4.3978223924e+01    0.3243126    0.1663149 -20.53  0.001431501    4.142    0.759
        99  -8.1280    140.4769    137.2916   1.1459891742e+02   2.7899613979e+01    0.3387719    0.2039297   7.39  0.001303819    3.087    0.676
       100  -8.6598    133.9505    137.8266   1.1624050039e+02   2.8961376016e+01    0.2116334    0.1917864 -33.23 0.0003260992    1.138    0.121
       101  -7.5682    125.3400    135.2786   1.1779740048e+02   3.0964580501e+01    0.1388182    0.1065267   1.85 0.0003946191    1.621    0.383
       102  -7.8144     54.7932    135.4112   1.3637041624e+02   4.1183622115e+01    0.1662367    0.1224883  10.28 0.0008481014    1.758    0.431
       103  -8.5403      4.9730    134.2303   1.4965994410e+02   4.5781669190e+01    0.2513569    0.1535858 -32.77  0.001286299    2.363    0.577
       104  -8.3754     23.9566    129.9056   1.4424611207e+02   4.5389438211e+01    0.2999495    0.1628275 -25.73  0.001398422    3.258    0.693
       105  -7.8310     67.3407    127.3274   1.3172795523e+02   4.1513483150e+01    0.1334323   0.09840525 -29.57 0.0007051459    1.736    0.424
       106  -7.9657    132.6779    124.6519   1.1374065461e+02   3.1742829924e+01    0.1482868    0.1097853  -3.80 0.0005269074    1.741    0.426
       107  -9.3510     13.2385    120.4166   1.4643836840e+02   4.8346807115e+01     0.359257    0.1906645 -40.43  0.001869885    2.444    0.591
       108  -7.4749     84.6583    121.6798   1.2584775057e+02   4.0421795781e+01    0.1388957    0.1050305 -21.04 0.0005944353    1.720    0.419
       109  -9.3368    244.8016    117.7122   9.0465562759e+01   1.1536862379e+01    0.2963656    0.1978885 -18.29  0.000745715    1.270    0.212
       110  -7.8994     99.8467    119.3799   1.2114505135e+02   3.8575969514e+01    0.1955369    0.1320369  24.81 0.0009427733    1.696    0.410
       111  -7.9204     60.5063    113.5026   1.3146046894e+02   4.5537266312e+01    0.1315314    0.1217745 -75.13 0.0001317379    1.019    0.019
       112  -7.6141    142.9735    111.5080   1.0814112653e+02   3.2308757883e+01    0.2200733    0.1217711  22.74 0.0008098398    2.737    0.635
       113  -8.6087      1.7360    110.2730   1.4902044754e+02   5.1379113740e+01    0.2424865    0.1261007 -69.17  0.000993705    1.614    0.380
       114  -7.7922    124.4917    106.9995   1.1164249785e+02   3.6808463075e+01    0.2051256    0.1237295 -21.87 0.0007469184    2.409    0.585
       115  -8.8507     13.8475    106.2258   1.4498264422e+02   5.1604716895e+01    0.2744094    0.1292281 -61.12 0.0009128815    1.841    0.457
       116  -8.2743     17.3405    103.3004   1.4357467626e+02   5.2061355665e+01    0.1738366    0.1312065   6.86  0.001027614    1.683    0.406
       117  -7.6813    134.3807    105.8386   1.0881635810e+02   3.5110377915e+01    0.2097222    0.1344931 -31.08 0.0005407614    1.671    0.401
       118  -7.9515    109.4822    106.0306   1.1545360136e+02   3.9798798097e+01    0.2021122    0.1198877 -26.61 0.0005480129    2.372    0.578
       119  -8.8461    249.2534    104.7255   8.6893046546e+01   1.2333288669e+01    0.2278489    0.1372515 -56.37  0.001020184    3.114    0.679
       120  -7.6583     93.4911    103.5013   1.1944312828e+02   4.3106611076e+01    0.1404122    0.1355784 -40.78 5.352395e-05    1.022    0.021
       121  -8.0983    129.8319     97.4758   1.0777390413e+02   3.7667013603e+01    0.2432964    0.2027274  -3.87 0.0007888799    1.324    0.245
       122  -9.3696      7.8215     96.4128   1.4595738343e+02   5.4289449832e+01    0.2399581    0.1606151 -20.97 0.0009032275    1.970    0.492
       123  -7.6036     82.3346     94.3202   1.2066724856e+02   4.6960110383e+01    0.1462422    0.1082876 -20.23 0.0007049537    1.702    0.412
       124  -7.8483     52.7589     92.9734   1.3015485762e+02   5.1301244931e+01    0.1973157    0.1626835 -62.87 0.0005299419    1.095    0.087
       125  -8.5692     44.3757     91.8016   1.3281789712e+02   5.2501989992e+01    0.3523449    0.1983881 -32.38  0.001609302    2.362    0.577
       126  -8.4750    248.7852     91.3972   8.3841630492e+01   1.4014789959e+01     0.173948    0.1120141  36.70 0.0009535372    1.673    0.402
       127  -7.8664    110.0252     91.0094   1.1140187577e+02   4.2876686624e+01    0.2382234    0.1806178  -1.84  0.001072531    1.700    0.412
       128  -8.3217     96.8059     90.1817   1.1509142902e+02   4.5477231200e+01    0.3565159    0.2252743   5.37  0.001372953    2.879    0.653
       129  -9.2084     21.0156     90.9827   1.4084323910e+02   5.4746088831e+01    0.2721752    0.1629833 -12.28  0.001394122    2.408    0.585
       130  -8.4927     68.0365     85.8482   1.2331247194e+02   5.1027599478e+01    0.3540809    0.1839114  31.41  0.001567577    2.118    0.528
       131  -9.4214     35.8265     82.0934   1.3405166421e+02   5.5677497463e+01    0.6221719     0.264689 -36.65   0.00239794    3.289    0.696
       132  -7.7261    127.3772     83.3161   1.0439210279e+02   4.0948015329e+01    0.1603476    0.1162691   7.06 0.0007028144    1.805    0.446
       133  -8.8627     89.2734     78.6612   1.1422937938e+02   4.9310111241e+01    0.5822846    0.2923875  26.05  0.002178031    2.827    0.646
       134  -9.5289      8.2847     77.2812   1.4365288584e+02   5.8836580293e+01    0.4196995    0.2093654 -44.68  0.001384506    2.021    0.505
       135  -7.9674    184.3487     78.0128   9.0191418542e+01   2.9142051163e+01    0.2110688    0.1733618 -22.62  0.000499301    1.140    0.123
       136  -8.7962     48.8010     76.8956   1.2807711900e+02   5.5582428300e+01    0.3365541    0.2472443 -35.36  0.001257468    1.433    0.302
       137  -7.5541    106.9511     76.0000   1.0789711636e+02   4.6582738215e+01    0.2423174   0.08518708  43.74 0.0007120934    2.948    0.661
       138 -10.0873     25.3004     71.3594   1.3605491605e+02   5.9161954777e+01    0.7109159    0.3780647 -39.45  0.003511323    2.005    0.501
       139  -7.7548     75.1654     74.5770   1.1781181502e+02   5.2548152527e+01    0.1879657    0.1380082  16.69  0.000624457    1.635    0.388
       140  -8.3177     80.3269     67.9608   1.1398710650e+02   5.3169481757e+01    0.2458295    0.1948626  -9.34 0.0005866409    1.475    0.322
       141  -8.7000     84.0832     63.9272   1.1135951837e+02   5.3383429830e+01    0.4721601    0.2686875  15.77  0.001727766    3.147    0.682
       142  -8.3636     61.7930     67.0496   1.2051145136e+02   5.6230786252e+01     0.301242    0.1768862 -52.13 0.0008338261    1.534    0.348
       143  -9.6521     65.3013     61.3182   1.1739245684e+02   5.7011027045e+01    0.4582084    0.3310029 -29.23  0.002357185    1.457    0.313
       144  -8.5775     43.3715     67.7891   1.2796847530e+02   5.8341527366e+01    0.2571882    0.2026324 -26.95 0.0009825483    1.374    0.272
       145  -7.5669    106.0203     67.4962   1.0543444853e+02   4.8479065870e+01      0.21961    0.1474968  41.59  0.001014283    1.541    0.351
       146  -9.4925     17.5471     62.4055   1.3754506367e+02   6.1870604020e+01       0.4893    0.2263634 -49.19  0.001976704    1.877    0.467
       147  -7.9759    147.9333     63.5017   9.3093696343e+01   3.9895957759e+01    0.2201335    0.1486419  49.89 0.0004393514    1.507    0.336
       148 -10.6256     38.3034     57.7080   1.2741922386e+02   6.1241702686e+01    0.5160789    0.3002682 -26.54  0.002436542    2.162    0.537
       149  -8.9088     51.6784     60.3741   1.2253271333e+02   5.9095227050e+01     0.348821    0.2587593  61.02  0.001835859    1.767    0.434
       150  -9.2804      2.8438     54.7447   1.4266416951e+02   6.4495162279e+01    0.4111606    0.3450574  83.45  0.002796725    1.238    0.192
       151  -7.1175    196.6764     55.7205   8.1655280328e+01   2.9431191537e+01    0.1465339    0.1047072  23.06 0.0003361429    1.589    0.370
       152  -7.9128     99.4854     53.9748   1.0269355866e+02   5.2427627417e+01    0.2323915    0.1405501 -37.67  0.001028161    1.577    0.366
       153  -9.5517     75.2825     50.3078   1.0970463990e+02   5.7743925674e+01    0.4023604    0.3014446  -9.44  0.000222251    1.566    0.362
       154  -7.8906    118.7270     51.3859   9.6066833394e+01   4.8719530313e+01    0.2720076    0.1474424  53.99 0.0004888754    1.979    0.495
       155  -9.8169     10.5307     47.2985   1.3764254276e+02   6.5889573855e+01    0.6201255    0.2831638 -33.11  0.002023096    2.440    0.590
       156 -10.3388     45.3440     49.0461   1.2165413286e+02   6.2433906605e+01    0.2637047    0.2282901 -14.85 0.0004428832    1.198    0.165
       157  -8.2128    106.7998     48.2745   9.8280302693e+01   5.1915269323e+01    0.2492717    0.2105057   9.91 0.0001759537    1.235    0.190
       158 -10.2047     26.4251     46.4002   1.2966551709e+02   6.4985085041e+01    0.8871184    0.3902251  -3.98  0.003020521    5.061    0.802
       159  -9.4999      2.1086     45.5462   1.4141304060e+02   6.6705805837e+01    0.3166491    0.1991687 -51.40  0.001070999    1.326    0.246
       160  -7.2986     53.6545     46.7086   1.1715648918e+02   6.1871972945e+01    0.1422038   0.09904852 -19.27 0.0003836637    1.660    0.398
       161 -10.0773     83.2689     40.0219   1.0263457283e+02   5.8256564545e+01    0.2900973    0.2468827  -1.93            0    1.179    0.152
       162  -8.7532    250.6138     41.4590   7.1430829035e+01   1.9301374909e+01    0.2350891    0.1057496 -23.95  0.000331853    1.884    0.469
       163  -8.6276     94.5124     42.3589   9.9756629570e+01   5.5574559996e+01    0.5631111    0.1294426  46.24  0.001592929    4.386    0.772
       164  -9.3751     39.1481     41.5948   1.2195050759e+02   6.4808410956e+01    0.5051377    0.2663179   3.29  0.002039426    3.281    0.695
       165  -7.6573    123.3741     40.7599   9.0800971791e+01   4.9354327788e+01     0.214854    0.1393264 -15.99 0.0008143265    1.687    0.407
       166  -9.7018     17.7452     38.3210   1.3169146509e+02   6.7523523708e+01    0.4941534    0.1697694 -40.78  0.001998895    2.842    0.648
       167  -9.2531     91.5315     37.2128   9.8581641386e+01   5.7086326152e+01    0.4336853    0.2615688  31.67  0.001168567    1.872    0.466
       168  -9.1739     96.1094     33.1953   9.5355404865e+01   5.6773934864e+01    0.2867527    0.2249463  14.25 0.0003141533    1.354    0.261
       169  -8.9564    106.7147     36.6464   9.3631759823e+01   5.3870519271e+01    0.3310735    0.2239862  17.58  0.001481646    1.813    0.448
       170  -8.8866     68.8777     35.6593   1.0624448797e+02   6.1721467248e+01    0.4052547    0.2762446  40.26  0.002064344    1.577    0.366
       171  -9.3850     54.7278     36.5021   1.1266937161e+02   6.3846367364e+01    0.3051598    0.2484453  -1.23  0.001067838    1.296    0.228
       172  -8.8552     37.1689     35.9591   1.2083521736e+02   6.6258097341e+01    0.3843034    0.2302208  -7.33  0.001737971    2.379    0.580
       173  -9.4654      7.0126     34.2238   1.3634091574e+02   6.9123170669e+01    0.3649774    0.2705558 -50.24  0.002341341    1.102    0.093
       174  -8.3689     76.6857     34.0774   1.0248079380e+02   6.0587603695e+01    0.2321191    0.2056627  50.15  0.001178948    1.313    0.239
       175  -7.8124     81.7816     32.4038   9.9842206929e+01   5.9889825859e+01    0.1938917    0.1296783  31.57 0.0003919274    1.592    0.372
       176  -7.4256    155.7772     30.9716   8.0252620338e+01   4.2635998425e+01    0.1899267    0.1189337 -22.71 0.0003373017    1.574    0.365
       177  -8.2194    127.8108     30.3054   8.5593709094e+01   4.9771090242e+01    0.2406939    0.2014235  -7.25 0.0002481073    1.190    0.159
       178  -8.4343    105.0192     31.4835   9.1926233438e+01   5.5049775022e+01    0.2186045    0.1449974  52.82 0.0005702483    1.560    0.359
       179  -9.2213      1.5623     29.9712   1.3832349692e+02   7.0351788607e+01    0.2894721    0.1186618 -66.15  0.001216332    1.883    0.469
       180  -7.8075    112.7574     29.9459   8.9135736708e+01   5.3471045632e+01    0.3139873    0.1526691  34.23  0.001156285    2.549    0.608
       181  -7.2054    192.2592     29.6898   7.4394967232e+01   3.3616833641e+01    0.1433998   0.09889056 -50.55 0.0001515278    1.527    0.345
       182  -7.7299    184.2056     27.7526   7.4823474378e+01   3.5817324653e+01    0.1938576    0.1589547  18.12 0.0005621064    1.306    0.234
       183  -7.5721    153.3172     27.2867   7.9348986403e+01   4.3704096541e+01    0.1537623    0.1059452  29.72 0.0006999648    1.589    0.371
       184  -9.5939     84.0095     21.9405   9.4120795933e+01   6.1100055103e+01       0.5303    0.2617188  37.38  0.001164342    2.188    0.543
       185 -10.1038     72.3832     25.8060   1.0028418603e+02   6.2827169567e+01    0.4023398    0.2739255  33.74 0.0008597894    1.521    0.343
       186  -9.6117     61.9017     26.8420   1.0511368478e+02   6.4541254921e+01    0.5475602    0.2891852 -24.08  0.002306843    2.267    0.559
       187  -8.6004     57.4636     25.4377   1.0639883284e+02   6.5536313340e+01    0.2451688    0.2147839  39.33 0.0009360134    1.323    0.244
       188  -8.6247     60.2954     23.2825   1.0406495926e+02   6.5442777432e+01    0.2407546    0.1893735  -7.54 0.0004696442    1.255    0.203
       189 -10.8776     48.2645     25.5348   1.1078455888e+02   6.6943407107e+01    0.2987778    0.2453527  10.30 0.0003956991    1.258    0.205
       190  -8.3024     45.7854     20.1680   1.0936247654e+02   6.8306481836e+01    0.2617115    0.1677564 -48.89 0.0009790874    1.625    0.385
       191  -7.4364    123.9597     26.7316   8.5019869434e+01   5.1192619168e+01    0.1809133    0.1266814  54.45 0.0003979371    1.420    0.296
       192  -7.4890    102.7735     25.5819   8.9963312551e+01   5.6422543020e+01    0.2037228     0.144655  67.55 0.0009620195    1.723    0.420
       193  -8.1277     73.9964    247.5218   1.4226112748e+02   1.8487651978e+01    0.1548739   0.07549585  35.55 0.0007714576    1.581    0.367
       194  -8.1651     27.3049     22.5721   1.2061811777e+02   7.0144774861e+01    0.3538181    0.1381907 -34.21  0.001377353    3.001    0.667
       195  -8.7602    249.4201    245.2623   1.1272208115e+02  -2.4129804412e+00    0.1695418   0.07926536 -17.52 0.0008537816    2.154    0.536
       196  -8.3995    218.6283    245.0824   1.1738758778e+02   1.2102246618e+00     0.190953    0.1072878  -7.46  0.001294542    1.934    0.483
       197  -8.6460     92.2309     20.9614   9.0955919358e+01   5.9458003659e+01    0.3623718    0.2484643  -2.74  0.001429743    1.621    0.383
       198  -8.5332    132.0488     20.7138   8.0800427161e+01   4.9901698933e+01    0.4401653    0.2320273  22.10  0.001631953    2.688    0.628
       199  -8.2438    242.9019    244.8063   1.1362692257e+02  -1.6325048297e+00    0.2035871   0.09501334   0.07   0.00118136    2.607    0.616
       200  -8.1599    116.7449     19.9796   8.3835248583e+01   5.3818751303e+01    0.2070081    0.1815207 -14.29 0.0003146807    1.113    0.102
       201  -8.6055     33.6350     19.7910   1.1569520627e+02   6.9998143303e+01    0.3387018     0.154687  19.29  0.001423253    3.037    0.671
       202  -7.7685    161.5472     19.4219   7.5185602751e+01   4.2460717675e+01    0.1446192    0.1341318  28.32 -1.941691e-05    1.074    0.069
       203  -8.6938    150.9960    249.7144   1.2909164192e+02   9.1306238802e+00    0.1974066    0.1103341  26.16  0.001164154    1.517    0.341
       204  -8.1385    189.4508     15.2782   7.0225122263e+01   3.5783082288e+01    0.2677236    0.1361921 -13.59  0.001138344    2.091    0.522
       205  -9.8125    192.9352    243.9367   1.2137798811e+02   4.4936992014e+00    0.1991949    0.1556061   1.72 0.0009415807    1.261    0.207
       206  -8.6286     50.2755     15.1226   1.0442289527e+02   6.8501619919e+01    0.2587961    0.1943381   6.05  0.000867259    1.382    0.276
       207  -9.4953    157.8406    244.8183   1.2739692321e+02   8.8398698102e+00    0.2324537    0.1136276  27.86  0.001419407    1.727    0.421
       208  -7.7140    233.4771    243.5177   1.1487658438e+02  -4.2488134840e-01    0.1051339   0.06918866  15.32 0.0008095464    1.046    0.044
       209  -7.9194     95.7723    243.4319   1.3815693702e+02   1.6626364499e+01    0.1403388    0.0809956  28.15 0.0007165305    1.612    0.380
       210  -8.2915    146.6845     14.1692   7.5552038093e+01   4.6843064181e+01      0.21935    0.1955156  85.12 0.0003164199    1.202    0.168
       211  -7.7806     25.4803    241.4492   1.5027100978e+02   2.4150328811e+01   0.09453251   0.06840887  53.27  0.000144875    1.032    0.031
       212  -8.3408    249.0810    239.0717   1.1191007220e+02  -1.8680706300e+00    0.2314306    0.1072638  -6.54  0.001390429    2.431    0.589
       213  -8.9726    170.6121    239.4355   1.2458651404e+02   7.8263044160e+00    0.2233396    0.1391946  13.60  0.001011299    1.652    0.395
       214  -8.2004     88.7832     13.1399   8.8151962156e+01   6.1263081562e+01    0.2856087    0.1537407  31.58 0.0008141499    2.090    0.521
       215  -7.5740     32.4804    247.4611   1.4932308739e+02   2.2630978054e+01   0.09608278   0.06614009  52.50 5.869337e-05    1.025    0.024
       216  -7.4217    214.3438    239.2918   1.1730009149e+02   2.2780774965e+00     0.109762   0.06069413  13.93 0.0002745403    1.657    0.397
       217  -7.7234    121.7656    239.2200   1.3315926829e+02   1.4078704981e+01    0.1676262    0.0704833  27.65 0.0008265364    2.427    0.588
       218  -7.6282     79.2311    238.5369   1.4074038209e+02   1.9201221059e+01    0.1430968   0.08379925  27.09  0.000673863    1.697    0.411
       219  -8.8358    242.1739    236.4015   1.1256726405e+02  -8.3569089453e-01    0.2020779     0.122421   9.13 0.0008635541    1.285    0.222
       220  -7.5656    148.4803    237.5450   1.2822883257e+02   1.0909547514e+01    0.1084529   0.08120451  30.55 9.093074e-05    1.007    0.007
       221  -7.7141    150.2403     23.1950   7.8372333267e+01   4.4963904401e+01    0.1982926    0.1665668 -56.72 0.0004790791    1.311    0.237
       222  -7.8265    195.9370    236.2943   1.1990836386e+02   4.9044311127e+00    0.1572697    0.1037415  27.08 0.0009344089    1.123    0.109
       223  -9.8365    188.9635    234.6765   1.2086784407e+02   5.9781007955e+00    0.2530998    0.1845243  19.07  0.001511431    1.059    0.056
       224  -7.7715    138.4822    235.0115   1.2973553234e+02   1.2519015659e+01    0.1268594   0.08491903 -11.35 0.0004306459    2.222    0.550
       225  -8.1402    162.0188    234.1911   1.2545683062e+02   9.5589658630e+00    0.1667679     0.114649  19.75 0.0005735866    1.287    0.223
       226  -7.3946      4.5169    234.4664   1.5357552441e+02   2.6974635400e+01     0.092939   0.06653859  56.87 0.0004378916    1.035    0.034
       227  -7.8029    248.5121    232.9738   1.1112316262e+02  -1.2881353968e+00    0.1348898   0.08255712 -13.00 0.0003674992    1.504    0.335
       228  -7.1689    153.3193    232.6766   1.2681967405e+02   1.0886838846e+01    0.1041538   0.07363413  52.65 0.0007044984    1.673    0.402
       229  -7.8182    195.0030    229.0282   1.1910053846e+02   5.8027430315e+00    0.1713435    0.1030612  12.22 0.0005029453    1.629    0.386
       230  -7.3342    158.3271    229.2725   1.2552303534e+02   1.0650597472e+01    0.1088593   0.07115012  14.79  0.000698224    1.583    0.368
       231  -8.0938    186.7695    226.9941   1.2023226806e+02   7.1210999102e+00    0.2229179    0.1195125  -7.68  0.001162692    2.967    0.663
       232  -7.6648    133.9621    228.7877   1.2988551064e+02   1.3929541564e+01    0.1513769   0.07023561  35.26 0.0005133412    1.680    0.405
       233  -8.5725    247.3690    224.9829   1.1011838339e+02  -4.5463687144e-01    0.2599615     0.121082  -3.02  0.001325279    2.592    0.614
       234  -7.3312    121.6666     14.6700   8.0416410093e+01   5.3205368236e+01    0.1599981    0.1011126  28.48 0.0007052057    1.724    0.420
