#   1 NUMBER                 Running object number                                     
#   2 MAG_AUTO               Kron-like elliptical aperture magnitude                    [mag]
#   3 X_IMAGE                Object position along x                                    [pixel]
#   4 Y_IMAGE                Object position along y                                    [pixel]
#   5 X_WORLD                Barycenter position along world x axis                     [deg]
#   6 Y_WORLD                Barycenter position along world y axis                     [deg]
#   7 A_WORLD                Profile RMS along major axis (world units)                 [deg]
#   8 B_WORLD                Profile RMS along minor axis (world units)                 [deg]
#   9 THETA_WORLD            Position angle (CCW/world-x)                               [deg]
#  10 FWHM_WORLD             FWHM assuming a gaussian core                              [deg]
#  11 ELONGATION             A_IMAGE/B_IMAGE                                           
#  12 ELLIPTICITY            1 - B_IMAGE/A_IMAGE                                       
         1 -14.2910    230.9810     38.9370   5.7724498374e+01   2.2356573898e+01     8.213299     1.528583 -29.58   0.02399599    3.990    0.749
         2 -14.5675    246.3682     47.0477   5.8107032186e+01   1.7721552795e+01      3.11306      2.50833  25.12   0.01725489    1.358    0.264
         3 -13.7263    248.0461     31.3278   5.3773198101e+01   1.9119926158e+01     2.960958     1.006197 -52.46  0.004930492    4.547    0.780
         4 -11.7974    248.9731     17.4960   5.0052781805e+01   2.0365481459e+01     0.786447    0.5591108 -50.83  0.002108534    1.361    0.266
         5  -7.9824    197.7854     26.7099   5.8396947682e+01   3.2276529273e+01    0.2558363    0.1950488  -4.76  0.000957256    1.426    0.299
         6  -9.3720    220.8452     15.7478   5.2297736072e+01   2.7462735417e+01    0.4274097    0.2964341 -70.74    0.0012819    1.612    0.380
         7  -9.4033    249.1139      5.0782   4.6815877431e+01   2.1548821690e+01    0.2525593    0.2229728  85.61 0.0002740661    1.164    0.141
         8  -7.2220    187.9467    113.7826   8.5034760817e+01   2.1890686743e+01    0.1858656    0.1136761  47.57            0    1.572    0.364
         9 -12.0100    238.7605    245.1925   1.0007415980e+02  -3.5082480166e+00    0.3604037    0.2481936  45.83 0.0005436247    1.577    0.366
        10  -9.3068    123.9884    206.0101   1.1392533781e+02   1.8630389448e+01    0.1620104    0.1282572  54.03            0    1.003    0.003
        11  -9.6251     27.4891    167.0812   1.2848071472e+02   3.7806526843e+01    0.4238122    0.2368695 -82.02  0.002402761    1.521    0.343
        12 -10.0351     22.2688    169.0963   1.2962576357e+02   3.7913054797e+01    0.3919696    0.1650169  69.38  0.002201985    2.246    0.555
        13  -9.0634    100.0407    163.4571   1.1326990465e+02   2.9573857166e+01    0.1975281    0.1640935 -79.15 0.0002970111    1.203    0.169
        14  -8.7551    244.1003    167.5272   8.6702467682e+01   3.1944298713e+00    0.2041397    0.1749102   2.12 0.0003499408    1.142    0.125
        15  -8.8520    245.0290    162.7358   8.5627250460e+01   3.5759407625e+00    0.2098968    0.1578575  -2.78 0.0003094288    1.232    0.188
        16  -8.4759    166.1455    160.0533   9.9190138960e+01   1.8747922574e+01     0.191356     0.169782  41.37 0.0003522775    1.000    0.000
        17  -8.0751      8.3485    160.3159   1.3178821774e+02   4.0777686521e+01   0.09349491   0.06993693 -57.39 0.0007047613    1.726    0.421
        18  -8.2911    245.0362    157.9118   8.4673882756e+01   4.1310608719e+00    0.1883381    0.1510402  12.90  0.000358648    1.044    0.042
        19 -10.3868    213.1006    155.7988   8.9604723685e+01   1.0345877069e+01    0.2392112    0.2065402  29.57 0.0003462701    1.059    0.056
        20  -8.9436     50.7300    154.2667   1.2264493909e+02   3.7904123444e+01    0.2274267    0.2086345 -27.28  0.001135709    1.628    0.386
        21  -9.8117     65.3792    146.0576   1.1852189862e+02   3.7826847040e+01    0.3544529    0.2364231 -54.44  0.001155032    1.653    0.395
        22  -9.9754     58.2280    149.1242   1.2047164164e+02   3.8073831809e+01    0.3844346    0.3705366 -73.05  0.002896441    1.338    0.253
        23  -8.7216     98.9541    148.0783   1.1129212128e+02   3.2716969385e+01    0.1805231    0.1606243  75.63            0    1.012    0.012
        24  -7.1239    142.9900    142.0180   1.0057499279e+02   2.6265606245e+01    0.1558912    0.1480175  59.52  0.000322522    1.028    0.028
        25  -9.3136    232.2971    138.1098   8.2632345091e+01   8.9666879903e+00    0.2279654    0.2030887  37.05 0.0001825039    1.195    0.163
        26  -7.4089    160.5114    137.4756   9.5959972624e+01   2.3663218454e+01    0.1382861    0.1286523  46.04 0.0001108254    1.018    0.017
        27  -7.2806    165.0158    132.9515   9.4071252180e+01   2.3542749086e+01    0.1651345    0.1492576  42.32 0.0003373644    1.036    0.034
        28  -7.1642     25.5007    124.4660   1.2535539534e+02   4.6568082078e+01    0.1144495   0.08879203  87.76 9.296764e-05    1.030    0.029
        29  -8.1635    212.9790    248.3200   1.0433125031e+02  -9.5501206670e-02    0.1651847   0.06935218  54.72 0.0007049919    4.335    0.769
        30  -8.8003    249.0144    111.9876   7.4086739301e+01   8.9955057874e+00    0.2101467     0.184513  -2.22 0.0004213165    1.030    0.029
        31 -10.0726    249.1495    244.5093   9.8459835082e+01  -4.9005077214e+00    0.2732592     0.251211   0.92  0.002434936    1.614    0.380
        32  -7.8481     16.8012    245.4045   1.3409280996e+02   2.5796909637e+01    0.1088524    0.0708766  41.02 0.0004607936    1.660    0.398
        33  -8.1546    222.9452    102.0515   7.5799318592e+01   1.5867367989e+01    0.2152031    0.1931724  12.45 0.0003649966    1.039    0.038
        34  -8.6001    199.7211     99.4298   7.9196055720e+01   2.1523270660e+01     0.283987    0.2419055  12.45 0.0007498529    1.195    0.163
        35  -7.7840    160.9964    118.4678   9.1685810105e+01   2.6953525479e+01    0.2126846    0.1373543  50.66 0.0005899214    1.515    0.340
        36  -8.6175    169.1346     92.1301   8.3295758373e+01   2.9837082808e+01    0.2320952    0.2007171  18.55 0.0006178768    1.222    0.182
        37  -9.1377    173.5933     90.4464   8.1905884426e+01   2.9087754244e+01    0.3651547    0.2676871 -17.58 0.0006750773    1.529    0.346
        38  -8.3446    151.4825     90.4832   8.6721940835e+01   3.4164200005e+01    0.2470039    0.2392086 -41.92 0.0005521423    1.047    0.045
        39  -7.9520    136.0988     90.8883   9.0457780183e+01   3.7446509735e+01    0.2062817    0.1925874 -75.12  0.001135791    1.135    0.119
        40  -8.9995    182.4333     84.5473   7.8492455470e+01   2.7977070511e+01    0.4364605    0.2396113  39.66  0.001771917    1.948    0.487
        41  -8.1937    186.6612     82.6914   7.7152756843e+01   2.7260538100e+01    0.2504326    0.2140029  44.07 0.0005109966    1.156    0.135
        42  -9.8797    164.6157     79.8928   8.0822596000e+01   3.3019664242e+01     0.456951    0.3355324   5.90  0.001112246    1.758    0.431
        43  -9.0988      2.5735    237.4167   1.3585430969e+02   2.8254878036e+01    0.1581422    0.1181297  83.02 0.0001619474    1.345    0.256
        44  -7.6198    134.3253     81.3518   8.8232480215e+01   3.9658437583e+01    0.1545439     0.117454   4.08 0.0007047937    1.760    0.432
        45  -8.9403    195.7063     79.5243   7.4577790319e+01   2.5567477625e+01    0.3139037    0.2222398 -55.98  0.001430155    1.727    0.421
        46 -11.0821    219.3832     73.6027   6.8943893098e+01   2.0710596053e+01    0.7117989    0.5015227 -26.77   0.00349498    1.361    0.265
        47 -10.0478    201.8701     74.7259   7.2137488192e+01   2.4790410260e+01    0.5289792    0.2829874  53.74  0.001445974    1.856    0.461
        48 -10.8729    211.3137     70.5659   6.9388925290e+01   2.3086671002e+01    0.7413446    0.4244998  44.98  0.002067778    1.773    0.436
        49  -8.7963    115.9681     73.5376   9.0682704448e+01   4.4998868683e+01    0.2642738    0.2025633 -40.72   0.00012824    1.258    0.205
        50  -9.2537    172.8087     64.9528   7.4663221758e+01   3.3499440639e+01    0.2887229    0.2697286 -20.40 0.0008630235    1.058    0.055
        51  -7.7626    153.1947     56.2151   7.5991264121e+01   3.9754240470e+01    0.2130862    0.1757074 -55.51  0.000588161    1.351    0.260
        52  -8.6091    146.9023     54.0690   7.6684600965e+01   4.1632876105e+01    0.3966671    0.2398152  19.41 0.0006436079    2.554    0.608
        53 -10.2684    128.7886     51.2218   8.0057753294e+01   4.6357252900e+01    0.2674813     0.238227 -27.19 0.0002656309    1.088    0.081
        54  -8.2035      4.1821    116.7028   1.2978254740e+02   4.9824116118e+01    0.1654317    0.1045346  63.21 0.0007884903    1.475    0.322
        55  -8.3688    140.1017     47.7303   7.6083533726e+01   4.4290717243e+01    0.2055719    0.1879994  24.85 0.0003353408    1.088    0.081
        56  -8.6706    191.6863     46.3544   6.5459940304e+01   3.1415087052e+01    0.2775373    0.2185906 -54.86 0.0008733654    1.398    0.285
        57  -9.4870    206.3008     38.2006   6.0733441002e+01   2.8679294196e+01     0.261001    0.2224877  20.76  0.000801783    1.247    0.198
        58  -7.5639    201.0792     34.1519   6.0243447517e+01   3.0531782905e+01    0.2206688    0.1885047  25.29   0.00041371    1.234    0.190
        59  -7.7058    159.4641     31.4593   6.6219308069e+01   4.1803423466e+01    0.1488466    0.1449669  19.57 0.0001011348    1.015    0.014
        60  -9.9523    204.7537     27.0472   5.7561696551e+01   3.0407453565e+01    0.3555022    0.3009155   1.22 0.0005815456    1.257    0.204
        61 -10.1031    150.9366    222.1823   1.1110307414e+02   1.2184210000e+01    0.1893497    0.1551117  48.20 0.0002703687    1.073    0.068
        62  -7.3612    170.0108     18.0845   5.9666000322e+01   4.0638561188e+01    0.1739528    0.1587581 -14.04 0.0003781396    1.111    0.100
        63  -7.7190     24.0648    216.2923   1.3185766893e+02   2.9509309720e+01    0.1304967   0.08899122  62.05 0.0003870036    1.085    0.078
        64  -7.0094    155.6693     13.6815   6.0463632829e+01   4.4913636209e+01    0.1607918    0.1029462  31.78 0.0007047745    1.688    0.408
        65  -7.6825    152.2932    207.4789   1.0906864557e+02   1.3968282010e+01    0.1663547   0.09014342  51.48 0.0009378061    1.611    0.379
