#   1 NUMBER                 Running object number                                     
#   2 MAG_AUTO               Kron-like elliptical aperture magnitude                    [mag]
#   3 X_IMAGE                Object position along x                                    [pixel]
#   4 Y_IMAGE                Object position along y                                    [pixel]
#   5 X_WORLD                Barycenter position along world x axis                     [deg]
#   6 Y_WORLD                Barycenter position along world y axis                     [deg]
#   7 A_WORLD                Profile RMS along major axis (world units)                 [deg]
#   8 B_WORLD                Profile RMS along minor axis (world units)                 [deg]
#   9 THETA_WORLD            Position angle (CCW/world-x)                               [deg]
#  10 FWHM_WORLD             FWHM assuming a gaussian core                              [deg]
#  11 ELONGATION             A_IMAGE/B_IMAGE                                           
#  12 ELLIPTICITY            1 - B_IMAGE/A_IMAGE                                       
         1 -12.9891    242.6243    114.7282   8.0397960247e+01   1.0163240459e+01     5.195138    0.6199676 -32.22  0.005195617    6.274    0.841
         2 -11.7335    236.5067     64.6259   6.8800132361e+01   1.8034845121e+01     1.535622    0.7881274 -51.43  0.003267584    2.634    0.620
         3 -12.8468    218.6981     40.2898   6.4590347715e+01   2.5235491508e+01     2.047593     1.236472 -44.90  0.009449446    1.730    0.422
         4 -11.9464    187.2256     98.1377   8.6364403177e+01   2.4553225372e+01     2.910394     0.503617 -37.01  0.007156347    5.348    0.813
         5 -11.8223    164.2807     53.3028   7.7889651407e+01   3.7352323016e+01     1.974097     1.073319 -64.71  0.005684681    4.629    0.784
         6 -12.3788    136.4732     39.8847   7.9631615325e+01   4.6360851253e+01     1.570205    0.8042374  65.28  0.005714786    2.606    0.616
         7 -12.7140    126.3060     22.9759   7.5606396973e+01   5.1216590758e+01     2.192052    0.7764109  41.85  0.007297634    2.891    0.654
         8 -12.0024    243.4769     17.5763   5.5715772776e+01   2.1793911122e+01    0.5679573    0.4579085 -43.69  0.001575405    1.161    0.138
         9  -9.0759    248.6034     11.0073   5.3619907626e+01   2.1266811060e+01    0.2686493    0.2482817  38.19  0.001220129    1.201    0.167
        10 -12.0217    119.9494     10.4161   7.1904763528e+01   5.4272196944e+01    0.8828537     0.726577  59.88  0.003074244    1.273    0.214
        11  -9.9218    249.8519      3.4137   5.1649690789e+01   2.1690871613e+01     0.451951    0.1780672 -32.04  0.002044884    2.142    0.533
        12  -9.4396    203.2912     17.9569   6.0066808954e+01   3.1605135791e+01    0.4417588    0.2944854 -64.54  0.002071428    1.767    0.434
        13 -11.2192    142.6887     15.8571   6.9024034240e+01   4.7890544179e+01    0.5694436    0.3429473 -27.32  0.001659111    1.702    0.412
        14 -11.1920    144.1277      9.1948   6.6145919924e+01   4.8204785261e+01    0.7370289    0.4196509 -36.50   0.00323919    1.898    0.473
        15  -9.6683    190.7935     14.9493   6.0738574542e+01   3.5176995238e+01    0.6836369    0.2931066 -39.35  0.002659705    2.369    0.578
        16 -10.5795    173.8258      3.8640   5.9397661160e+01   4.0745736492e+01    0.9373274    0.5116835  83.59  0.003902666    2.124    0.529
        17 -11.4163    190.6483      4.3403   5.7420569734e+01   3.6213405029e+01     1.184974    0.8876417  87.59  0.005022521    1.389    0.280
        18 -10.3685    184.1096      3.1115   5.7817675664e+01   3.8057223294e+01    0.6185992    0.3401242  73.85   0.00227138    1.796    0.443
        19  -9.1522    222.2686     14.5745   5.6958734528e+01   2.7144968643e+01     0.557895    0.2089447 -52.30  0.001839384    3.498    0.714
        20  -9.8371    185.1185      7.9109   5.9237347270e+01   3.7359228745e+01    0.4858699    0.3660798 -83.75  0.001249141    1.466    0.318
        21 -10.2196    210.9400      2.4771   5.4687705792e+01   3.1108420550e+01    0.4641102    0.2923723 -60.24  0.001014979    1.728    0.421
        22  -8.7167    236.6639      5.7715   5.3271846936e+01   2.4507265341e+01    0.2128492    0.1467131 -20.07 0.0005947505    1.456    0.313
        23  -8.8015      3.3430      5.3192   1.2136095048e+02   7.3464249946e+01    0.1274157   0.05907358 -36.66 0.0007049536    1.721    0.419
        24  -7.9501    225.1628      1.8325   5.3205947435e+01   2.7620029698e+01    0.2115857    0.1527371 -50.45  0.001008149    1.355    0.262
        25  -9.5141    230.1952    121.5571   8.4083131297e+01   1.1705185447e+01    0.2568538    0.1886449 -22.35  0.001239212    1.287    0.223
        26  -9.9440    178.0061    120.4646   9.4031931330e+01   2.2821209483e+01    0.3229173    0.2419269 -77.40  0.001415615    2.357    0.576
        27  -9.6460    167.8523    113.4568   9.4577426876e+01   2.6244096205e+01    0.3797931    0.2986843  83.84    0.0014473    1.957    0.489
        28  -8.3355     20.5160    232.1795   1.4182265185e+02   2.5987205435e+01    0.1245798    0.1048518  64.02 0.0004144667    1.282    0.220
        29 -12.1314      4.5317    213.3650   1.4380311217e+02   3.0359041239e+01    0.6290911    0.3665864  88.77  0.004536913    1.492    0.330
        30 -11.2959    176.7996     74.3541   8.1825966738e+01   3.0924783254e+01    0.8396091    0.7028219  31.39  0.001757031    1.157    0.135
        31  -7.3223     15.6897    113.7358   1.3606683407e+02   4.8951429987e+01    0.1086682   0.07640199 -49.24 0.0006939586    1.535    0.349
        32  -9.5365    204.5326    110.4822   8.6096217867e+01   1.8701385032e+01    0.3630467    0.2098649  14.38  0.001407808    2.485    0.598
        33  -9.8841    234.9284     37.6121   6.1838925471e+01   2.1649873536e+01    0.3498262    0.3099923 -68.83 0.0007293463    1.220    0.180
        34 -10.9871    151.5500     43.7317   7.7433937078e+01   4.2014702175e+01    0.9011769    0.6473586  52.38  0.004220779    1.357    0.263
        35 -10.0372    166.6044    209.6156   1.1317906269e+02   1.0743439286e+01    0.2142026    0.1693896  27.87 0.0004773712    1.069    0.065
        36  -8.1452    198.5162     99.5576   8.4464117985e+01   2.1747431724e+01    0.1531362    0.1358327  11.99 0.0001797402    1.034    0.033
        37  -8.7279    149.4872     96.0608   9.4409475216e+01   3.3492231600e+01    0.3145406    0.2394972  -2.04 0.0008620961    1.556    0.357
        38 -11.3210    229.3252     32.6952   6.1163347833e+01   2.3528112311e+01    0.6258544    0.3253836  41.46  0.001686746    2.186    0.543
        39  -8.4549    135.1775     93.7211   9.7454174137e+01   3.7039629113e+01    0.2483442    0.2042857 -53.23 0.0006883426    1.351    0.260
        40 -10.5390    161.9914     86.1848   8.8601071186e+01   3.2465908728e+01    0.6979183    0.5042233  16.70  0.003141075    1.606    0.377
        41 -10.9546    158.7694     76.2176   8.6407152319e+01   3.4979092231e+01    0.4849828    0.3271054 -39.68   0.00178269    1.533    0.348
        42  -9.0113    250.3469     86.3834   7.2391157262e+01   1.2290647829e+01    0.2779557      0.15173 -28.13  0.001319834    1.636    0.389
        43  -9.4045    143.5525     85.0354   9.2796205592e+01   3.6902045913e+01    0.3223077    0.2749554 -43.63 0.0008903648    1.243    0.196
        44 -10.2541    207.0243     65.7235   7.3593178520e+01   2.4807917900e+01     1.158417     0.664316 -85.51  0.003506551    4.743    0.789
        45 -10.1646    209.1803     62.3907   7.2287553436e+01   2.4744113272e+01    0.9587861     0.424408 -55.24  0.002668246    5.044    0.802
        46 -10.2185    194.9227     59.6881   7.3923622556e+01   2.8644329025e+01    0.4394251    0.2972681  51.53   0.00112249    1.454    0.312
        47 -10.7938    201.0319     55.4048   7.1604332692e+01   2.7707773093e+01    0.5770774     0.451183  53.47  0.001937401    1.283    0.220
        48  -9.8378    184.5089     68.0598   7.8374323327e+01   3.0012539348e+01    0.2953995    0.2628275   2.26 0.0003706714    1.095    0.087
        49  -8.4304    221.6705     67.5736   7.1751919625e+01   2.1057871770e+01    0.2956528    0.1725972 -10.21 0.0009323345    1.986    0.497
        50  -8.6330    243.6463     61.7941   6.7110196021e+01   1.6799307171e+01    0.3441738    0.2210304  15.61  0.001154972    1.929    0.482
        51  -7.9496     34.3716     57.2316   1.2125367892e+02   6.0491271249e+01    0.1824924    0.1086331 -71.49 0.0007705928    1.714    0.416
        52  -8.6293    124.6596     63.0425   9.1041986719e+01   4.5242061580e+01    0.2628884     0.209026  31.53 0.0002136883    1.248    0.199
        53  -9.9751    182.8824     77.4494   8.1476496704e+01   2.8945597271e+01     0.452288    0.3478965  32.15 0.0003334215    1.288    0.224
        54 -10.2077    108.5475     36.3222   8.6036057771e+01   5.3432602346e+01     0.429294    0.2540242 -26.51 0.0009329966    1.699    0.412
        55  -7.4145    250.7148     34.3241   5.9275994795e+01   1.8417430355e+01    0.1377362   0.08979045 -51.50 0.0007004513    1.601    0.375
        56 -11.8645    176.9214     57.2400   7.6551714582e+01   3.3548004555e+01    0.7836502    0.4490685   3.06  0.002784982    2.770    0.639
        57 -13.0890     34.2442    188.8892   1.3734784219e+02   3.2019293970e+01    0.8203051    0.7448545  24.27  0.006725234    1.479    0.324
        58 -12.5155     47.5257    177.9558   1.3390476166e+02   3.2749696378e+01    0.8445057    0.7123836  66.85  0.003942704    1.059    0.056
        59  -9.8686     63.2226    164.7038   1.2928572941e+02   3.3626912405e+01    0.2376504    0.1538692 -60.36  0.001439642    1.618    0.382
        60  -9.4183    187.8482    137.7085   9.5926401717e+01   1.7880002079e+01    0.2853051    0.1686621  44.34  0.001318374    1.605    0.377
        61  -7.8975    203.5335    160.9774   9.7671164986e+01   1.1271697366e+01    0.1901817    0.1291578 -28.28 0.0006061239    1.554    0.357
        62  -7.6300     67.7623     27.0172   9.6829237767e+01   6.2763261334e+01    0.1766074    0.1043325 -37.59  0.000524319    1.549    0.354
        63  -8.7196    113.9743    153.4934   1.1587789102e+02   2.8813813256e+01    0.1792395    0.1740677  84.72 3.961063e-05    1.086    0.079
        64  -8.4713    179.4889    147.0093   9.9696569664e+01   1.8023664757e+01    0.2110228    0.1690208  32.08 -5.563031e-05    1.112    0.100
        65  -7.9809    231.0126     17.7429   5.6940091420e+01   2.4703343428e+01     0.183016    0.1686867 -53.49 0.0004753706    1.055    0.052
        66 -10.1109     67.8751    144.3123   1.2582669340e+02   3.7307797545e+01    0.5688738    0.2979627  55.28  0.002514083    2.027    0.507
        67 -10.0462    225.7665    140.7801   8.9236398391e+01   9.9204450223e+00    0.2623631    0.2013388  27.02 0.0004352769    1.163    0.140
        68  -8.3455    135.5056    249.4928   1.2351943962e+02   1.0084415461e+01    0.1087412   0.07798782  39.86 0.0008105428    1.020    0.020
        69  -8.2717    116.0951    241.6452   1.2616785144e+02   1.3731126875e+01    0.1728801    0.1169719  88.53 0.0008234755    2.091    0.522
        70  -9.1968     87.4994    239.4764   1.3098190712e+02   1.7707559787e+01    0.1054807   0.07678148  50.37 7.892889e-06    1.003    0.003
        71 -10.6901    219.4700     27.4243   6.0859828994e+01   2.6507914950e+01    0.5321578     0.450041 -57.14 0.0009647131    1.231    0.188
        72  -8.3926    177.9499     12.9761   6.1878234100e+01   3.8791295716e+01    0.2404539    0.1678789 -59.70 0.0008266449    1.684    0.406
        73  -9.6118    249.2357     25.8763   5.7290280129e+01   1.9643641574e+01    0.4674402    0.1942311 -49.53  0.001398199    2.671    0.626
        74  -8.2499    250.6348     21.7559   5.6127028974e+01   1.9754239303e+01     0.219522     0.119976 -19.59 0.0005453727    1.805    0.446
        75  -8.5641    111.9982    138.1161   1.1369684535e+02   3.2252929474e+01    0.1937891    0.1817799  57.89 0.0003100499    1.039    0.037
        76  -9.1153    201.1588    133.4652   9.2259445803e+01   1.5847289244e+01    0.3452828    0.1714647 -48.15    0.0013253    2.949    0.661
        77  -7.4281    155.2803    130.3078   1.0148540108e+02   2.5781390614e+01    0.1455957    0.1106649   4.57 0.0001726492    1.559    0.359
        78  -8.2214    161.6594    129.6595   9.9858402617e+01   2.4609417502e+01    0.1562644    0.1107145   7.78 -0.002290439    1.771    0.435
        79  -8.0688    172.5485    124.4799   9.6194846928e+01   2.3279892328e+01     0.148646    0.1360184  19.01 9.627431e-05    1.024    0.024
