#   1 NUMBER                 Running object number                                     
#   2 MAG_AUTO               Kron-like elliptical aperture magnitude                    [mag]
#   3 X_IMAGE                Object position along x                                    [pixel]
#   4 Y_IMAGE                Object position along y                                    [pixel]
#   5 X_WORLD                Barycenter position along world x axis                     [deg]
#   6 Y_WORLD                Barycenter position along world y axis                     [deg]
#   7 A_WORLD                Profile RMS along major axis (world units)                 [deg]
#   8 B_WORLD                Profile RMS along minor axis (world units)                 [deg]
#   9 THETA_WORLD            Position angle (CCW/world-x)                               [deg]
#  10 FWHM_WORLD             FWHM assuming a gaussian core                              [deg]
#  11 ELONGATION             A_IMAGE/B_IMAGE                                           
#  12 ELLIPTICITY            1 - B_IMAGE/A_IMAGE                                       
         1 -14.3734    189.9544    151.5882   5.0814803236e+01   1.3824399877e+01     8.135716     5.840317  71.35   0.03903662    2.230    0.552
         2 -13.5751    199.9968     54.0169   2.5055369568e+01   2.7834505165e+01     4.281748      1.61354 -34.37   0.01658127    2.356    0.576
         3 -14.9599    235.5829    104.7788   3.2887755797e+01   1.2711513797e+01     6.039929    0.8858591 -39.66   0.01654275    5.194    0.807
         4 -14.3875    245.8957     29.3280   1.4435310775e+01   2.0835089023e+01     2.640198     1.088359 -24.56   0.01169205    2.607    0.616
         5 -15.8091    240.7502     87.3054   2.8254391446e+01   1.4273101641e+01     8.013222     2.265387  47.86   0.02836412    4.397    0.773
         6 -13.4863    176.1457     91.5865   3.9100031508e+01   2.7481206832e+01      2.52684     1.422322 -23.10  0.005222187    2.283    0.562
         7 -14.3163    232.9541     42.1440   1.8465144320e+01   2.1983647005e+01     2.564746     1.403331  -6.77  0.008746371    3.501    0.714
         8 -13.0760    249.8367     43.6432   1.7371263857e+01   1.8328896542e+01    0.7395859    0.3785343 -21.43  0.001582103    2.243    0.554
         9 -14.3219    248.8304     62.9629   2.1829547226e+01   1.6059541668e+01     1.284412    0.6095411 -28.40  0.002919585    1.951    0.488
        10 -14.1760    220.1502     27.0245   1.5883470809e+01   2.6634605521e+01     2.842113     1.648503  -9.91    0.0114813    2.551    0.608
        11 -11.4506    138.5193     47.0974   3.2971766947e+01   4.4327844781e+01    0.6541451    0.3559897 -28.64  0.002270227    1.974    0.493
        12  -8.9176    241.8132      9.9327   1.0309542282e+01   2.3820316747e+01    0.3298956    0.1392279 -60.25  0.001409329    2.197    0.545
        13  -9.9943    120.2530      9.3126   2.2327270027e+01   5.3789534403e+01    0.3347323    0.3076762 -29.45 0.0009808841    1.174    0.148
        14  -8.3606    158.1919      4.7225   1.5420755335e+01   4.4275307679e+01    0.1918391      0.10977  -5.64 0.0005725462    2.362    0.577
        15  -9.9767    182.4350      3.8773   1.2856363460e+01   3.8143884819e+01    0.3115819    0.2322665 -74.59  0.001774114    1.209    0.173
        16  -8.1751    133.6734      3.7059   1.8055135390e+01   5.0790611380e+01     0.144329   0.09413946  43.38 0.0003391216    1.624    0.384
        17  -8.4206    171.9876      2.4798   1.3353432923e+01   4.0917303394e+01    0.2046765    0.1221146  81.02 0.0008739532    1.548    0.354
        18  -8.1922    100.0230      1.9311   2.2974279168e+01   5.9604853523e+01    0.1573329    0.1505796  37.04 0.0005707503    1.071    0.066
        19 -10.0565    207.4594    206.4052   5.7817271318e+01   2.4509891876e+00    0.3950876     0.270034  62.81  0.001599866    3.162    0.684
        20 -10.3926    247.6578    202.6559   5.0536701214e+01  -2.6095403744e+00    0.3132739    0.2880932 -77.33  0.002092337    2.242    0.554
        21  -9.3532    234.5225    202.1598   5.2523129301e+01  -8.1509572473e-01    0.2088387    0.1983214 -23.58  0.001045114    1.565    0.361
        22 -10.4486    193.0353    194.9713   5.8508441257e+01   6.2721183645e+00    0.8023919    0.4374211 -59.19  0.003136005    4.437    0.775
        23 -10.3622    199.1547    197.8655   5.7873763468e+01   4.8913193087e+00    0.5850186    0.3722344  63.51  0.002586249    3.658    0.727
        24 -11.9913    222.1702    189.2672   5.2314158165e+01   2.6124954950e+00    0.9061475    0.7808933  81.39  0.005655813    2.179    0.541
        25 -10.7234    210.7278    189.1159   5.4262567247e+01   4.3648193742e+00    0.4559534    0.3309897 -51.73  0.002650122    1.970    0.492
        26 -10.9646    207.0089    180.3075   5.3319628256e+01   6.2361292164e+00    0.5013941    0.3527815 -65.01  0.001900424    2.800    0.643
        27 -11.3740    213.2696    179.7692   5.2111817101e+01   5.3159391897e+00    0.6577493    0.4007849 -26.56   0.00271188    1.599    0.374
        28  -8.6384    174.1401    188.8836   6.1109290910e+01   1.0306475427e+01    0.1853503    0.1724918  57.83 0.0004877563    1.313    0.238
        29  -9.4279    136.9560    184.4682   6.8241562545e+01   1.7435847050e+01    0.2152392    0.1953769 -49.15 9.838797e-05    1.223    0.183
        30  -9.5226    240.7912    182.7168   4.8100148963e+01   7.7832173252e-01    0.1997488    0.1746679  -3.07 0.0005025969    1.194    0.163
        31 -11.1711    239.1927    176.3857   4.7185361312e+01   1.8382962374e+00    0.5986121    0.4361261  73.95  0.002209546    3.615    0.723
        32  -8.6722    134.4832    248.5578   7.7372418937e+01   7.0571196902e+00    0.1897953    0.1330808  47.98 0.0006189067    1.329    0.248
        33 -10.3700    207.0039    171.6446   5.1684397018e+01   7.5470140478e+00    0.3552434    0.2452593 -38.81  0.001191463    1.499    0.333
        34  -8.3256     80.2098    172.8171   8.0103667900e+01   2.9160447544e+01    0.1617314    0.1573798  -9.83 0.0002739053    1.261    0.207
        35  -8.5774    144.0406    170.4937   6.4228273650e+01   1.8889117281e+01     0.196086    0.1924399 -45.79 0.0004375338    1.105    0.095
        36  -8.6044    131.5384    245.5380   7.7605282754e+01   7.9070422915e+00    0.2180887    0.1303906  58.67  0.000803113    2.115    0.527
        37  -9.8712    188.4818    167.4064   5.4308403555e+01   1.1407954644e+01    0.2588846    0.2340555 -71.63 0.0009672824    1.477    0.323
        38  -9.0935    177.4544    169.2915   5.6852234246e+01   1.3052684996e+01    0.1772089    0.1307949 -50.69 0.0009402836    1.575    0.365
        39  -9.9925     99.3218    247.0777   8.4009471580e+01   1.2091556410e+01    0.1952446    0.1870717  47.55 0.0005973963    1.265    0.209
        40  -9.9940    237.2057    241.7858   5.8347898616e+01  -5.6465996695e+00    0.3086977    0.1659994  43.31   0.00122213    2.504    0.601
        41 -10.5457    203.3685    151.8869   4.8380839605e+01   1.1304763304e+01    0.3356607    0.2842366  53.53 0.0009180141    1.404    0.288
        42  -9.4056    168.6867    155.5132   5.5914126928e+01   1.7150945905e+01    0.2757403    0.2340963 -72.86 0.0006924815    1.509    0.337
        43  -9.7253    131.3836    131.6075   5.9319012710e+01   2.9425466441e+01    0.3838955    0.2167314 -53.91  0.001123943    1.891    0.471
        44 -10.3872    133.9604    146.3020   6.1880565136e+01   2.5740214321e+01    0.9571204    0.3122908 -55.36  0.002800683    4.182    0.761
        45  -8.6374    124.0129    235.9577   7.8015316601e+01   1.0436470025e+01    0.1730882    0.1393533  40.44 0.0003411381    1.032    0.031
        46  -8.1689     83.1160    149.1300   7.5777853884e+01   3.4230780061e+01    0.1965571    0.1533144 -88.30 0.0005504511    1.335    0.251
        47 -12.8843      4.7563    140.9799   9.7309289429e+01   4.5341447758e+01    0.9213616    0.6758237 -88.49  0.005339055    1.132    0.116
        48 -10.3725     67.5975    143.7905   7.9315035551e+01   3.7880134220e+01     3.196814     1.206043 -70.77   0.01112774    3.125    0.680
        49 -11.2148     56.0683    118.3062   7.8566272708e+01   4.5865580446e+01     1.066976    0.7146567 -78.03 0.0007951193    1.505    0.335
        50 -12.4930     50.0868    131.7299   8.2710000137e+01   4.3243216748e+01     1.158578    0.8728935 -44.37  0.002341757    1.519    0.342
        51 -12.6871     42.2902    131.7104   8.5129966559e+01   4.4180036876e+01    0.9414217    0.6997281 -72.82   0.00282609    1.229    0.186
        52 -11.9859     34.2681    133.5982   8.7857115785e+01   4.4582643921e+01     0.498494     0.389826 -75.26 0.0009963861    1.159    0.137
        53 -11.0195     27.3726    145.8987   9.1257235481e+01   4.2221869983e+01    0.3718839    0.2407351  89.48  0.002026943    1.398    0.285
        54  -8.2682     50.2877    234.9710   9.2773379830e+01   2.0391332855e+01    0.1507754    0.1205598  63.41 0.0003473242    1.103    0.093
        55 -10.9189    149.5816    140.3510   5.6894301865e+01   2.3872047116e+01    0.5016376    0.3115236 -32.87  0.002024001    1.846    0.458
        56  -9.7102    194.5538    173.9969   5.4421717078e+01   9.2756323822e+00    0.4600155    0.3244187 -83.34  0.001700266    3.762    0.734
        57 -10.2460    174.7872    137.7889   5.0827434919e+01   1.9252690788e+01    0.4338315     0.255528 -58.07 0.0006539008    2.333    0.571
        58 -10.3337    210.9282    135.6355   4.3574249773e+01   1.2555319374e+01    0.4693196    0.2283957 -25.62  0.001953517    2.351    0.575
        59  -8.8193    239.0728    228.0413   5.5990190382e+01  -4.4117384897e+00    0.1422263    0.1283554  28.39 0.0007845841    1.676    0.403
        60  -9.4244    217.4884    135.3478   4.2414596452e+01   1.1386680315e+01    0.2369957    0.2055516  13.87 0.0009397793    1.165    0.141
        61  -8.4861    100.9967    176.0255   7.5357283900e+01   2.5209140633e+01    0.1865594    0.1676287  57.81            0    1.012    0.012
        62  -7.6566    217.6891    228.3059   5.9522811717e+01  -1.7367473176e+00    0.0961124   0.08568325  38.60  0.000702173    1.615    0.381
        63  -9.5239     81.9685    132.6101   7.3153946059e+01   3.8416593490e+01    0.4349775    0.2365565 -75.35 0.0005745507    2.354    0.575
        64 -10.6182    160.2098    128.8074   5.1860492494e+01   2.3992180474e+01    0.4463379    0.3971376  -6.66  0.002384197    1.217    0.178
        65 -11.9216     22.0767    125.4265   9.0712080687e+01   4.7811797840e+01    0.4960074    0.4394852 -36.65  0.003127543    1.362    0.266
        66  -9.9584    172.6457    123.9165   4.8048786124e+01   2.2300115829e+01    0.4652169    0.2211294 -45.92  0.001455224    2.146    0.534
        67  -8.8733    246.1274    220.6610   5.3729758524e+01  -4.4633572669e+00    0.1547673    0.1194283  29.78   0.00111153    1.485    0.327
        68  -9.1574    217.1163    124.2410   4.0017382305e+01   1.3216082284e+01    0.3129523     0.204854  -2.14  0.001466761    2.115    0.527
        69  -7.4489    185.3046    179.2995   5.7186732109e+01   9.9947241193e+00    0.1336356   0.09554141   4.34 0.0003314854    1.589    0.371
        70  -7.9743     92.4320    120.5452   6.7530646151e+01   3.9553620904e+01    0.1490741    0.1433808 -84.16 9.337861e-05    1.024    0.024
        71 -10.4536    111.3347    111.8937   5.9940758285e+01   3.7952051435e+01    0.6114926    0.3846563 -80.89  0.002017858    2.716    0.632
        72  -8.5684    148.9519    178.0464   6.4489419850e+01   1.6563012278e+01    0.2011099    0.1888715  31.63 0.0004705059    1.038    0.036
        73 -11.1288    158.7345     98.2881   4.4434262809e+01   3.0304827365e+01    0.3758089    0.2902255 -37.39 0.0005124884    1.284    0.221
        74  -9.6820    166.8776     91.7583   4.0949999158e+01   2.9622857640e+01     0.331905    0.2241649 -39.67 0.0006568243    1.432    0.302
        75  -8.2185    106.4967     93.4613   5.6375448648e+01   4.3133413670e+01    0.1555483    0.1481221 -87.10 0.0001260195    1.056    0.053
        76  -9.0477    158.0190     90.2040   4.2347260110e+01   3.2008249471e+01    0.2634917    0.2121685 -45.84 0.0006815844    1.215    0.177
        77  -8.6501    143.1496     90.6549   4.5804506164e+01   3.5448304284e+01    0.2481249    0.2012248 -53.32 0.0003640688    1.247    0.198
        78  -9.4398    154.0154     87.3734   4.2401267423e+01   3.3495755363e+01    0.2719685    0.2177438 -38.43 0.0003802525    1.237    0.191
        79  -8.3960    201.1530     81.8546   3.2273587933e+01   2.3367894416e+01    0.1870892    0.1649993   9.03 0.0003845424    1.326    0.246
        80  -8.5896     85.3633     82.1513   5.9746462858e+01   4.9944558523e+01    0.2134567    0.1795836 -56.82 0.0008421519    1.175    0.149
        81  -8.7556    127.2790     79.4835   4.6364115201e+01   4.1415512000e+01    0.4185549    0.1230701 -45.37  0.001204536    3.491    0.714
        82  -8.2998    139.7901     79.1668   4.3180721834e+01   3.8479984728e+01    0.2158221    0.1869568  13.78 0.0006867544    1.373    0.272
        83 -10.7031    192.1488     76.3759   3.2221766296e+01   2.6308232665e+01    0.6810669     0.394836 -28.26  0.003005578    1.789    0.441
        84  -8.0697    158.6538     76.1711   3.8155068973e+01   3.4415888600e+01    0.2121993    0.1434167 -25.70 0.0004130048    1.664    0.399
        85  -8.5750    104.0789     74.8071   5.1365578632e+01   4.7677789773e+01    0.2666065    0.2145755 -42.72 0.0005949648    1.234    0.190
        86  -9.5795    169.2147     70.1400   3.4350952471e+01   3.2847080141e+01    0.4586975    0.1626206 -37.00   0.00156566    2.635    0.620
        87  -8.6205    111.2674     71.5176   4.8151685512e+01   4.6731042413e+01    0.2666815     0.181365 -52.53 0.0005198419    1.549    0.354
        88  -9.8550    140.6401     66.9672   3.9153348218e+01   4.0511828630e+01    0.3839143    0.2418431 -39.53  0.001168068    1.569    0.363
        89  -8.8305     98.4789     67.9310   5.0782822011e+01   5.0310930212e+01    0.2208782     0.197151  47.05  0.001152159    1.130    0.115
        90  -8.0322    125.4685     67.4603   4.2948466791e+01   4.4156993030e+01    0.1541964    0.1479577 -81.47 -1.909559e-06    1.042    0.040
        91  -9.8762    144.5717     59.5016   3.5877070594e+01   4.0804360901e+01    0.3150127    0.2596349 -43.61 0.0008933258    1.201    0.167
        92  -9.1311    172.4813     60.6657   3.0990061831e+01   3.3563347104e+01    0.2730239    0.1768388  49.74  0.001247808    1.636    0.389
        93 -10.5630    167.6677     58.9661   3.1301251626e+01   3.5036023121e+01    0.6159684    0.4226522 -51.42  0.002906658    1.457    0.313
        94  -9.7317    162.3031     59.6918   3.2471699295e+01   3.6275720024e+01      0.54139    0.2487628 -29.79 0.0005542664    2.326    0.570
        95 -11.4623    153.7350     44.7345   2.9262346559e+01   4.0744287485e+01    0.7596114    0.3955742 -31.77  0.001563523    1.936    0.484
        96  -9.4245    163.0402     46.2964   2.8176179690e+01   3.8116977524e+01    0.2743562    0.2352179 -82.51 0.0006092147    1.159    0.137
        97  -9.7282    226.5380    219.7747   5.6723103048e+01  -1.8861404559e+00    0.3305886    0.2056003  56.00  0.001627199    3.837    0.739
        98  -7.6917     72.7166     58.3601   5.6311981435e+01   5.7492992221e+01    0.1449831    0.1154714 -81.65 0.0003974166    1.676    0.403
        99 -10.1748    124.8751     52.8079   3.8041651117e+01   4.6883057933e+01     0.521561    0.2484772 -31.59  0.001726399    2.243    0.554
       100  -9.8666    178.9024     52.6180   2.7597258161e+01   3.3175378282e+01     0.459619    0.2945452  26.65  0.001935856    2.401    0.583
       101  -9.5077     90.7154     51.7484   4.7345645435e+01   5.5127911722e+01    0.2482793    0.2325253 -47.90 0.0003457857    1.094    0.086
       102  -9.4672    184.0173    215.6983   6.3579488459e+01   4.6243878705e+00    0.1788852    0.1373184  23.59   0.00116086    1.083    0.077
       103  -9.6712     87.0033     42.1173   4.4678388764e+01   5.7635585415e+01    0.5226794    0.2021752 -35.62  0.001395717    2.646    0.622
       104 -10.1591    147.2942     44.9162   3.0496727004e+01   4.2386792523e+01    0.2763601    0.2069615  58.18 0.0003036965    1.308    0.235
       105 -10.2728    133.5344     39.6050   3.1357291823e+01   4.6718665040e+01    0.4457044     0.236613 -49.03   0.00181104    2.066    0.516
       106 -10.9448    162.7570     50.6736   2.9596024064e+01   3.7549214807e+01    0.6908478     0.463468  62.96  0.003266135    1.477    0.323
       107  -9.4696    123.8221     39.2077   3.3310264575e+01   4.9268399944e+01    0.2086753    0.1755354  23.72  0.001067142    1.347    0.258
       108  -9.3525    168.6734     35.5266   2.3940639005e+01   3.8138391656e+01     0.352137    0.2160834 -56.27  0.001396556    1.689    0.408
       109  -9.6121    161.0000     30.0182   2.3299021246e+01   4.0825965866e+01    0.4840908    0.2160838 -14.19  0.001638948    3.569    0.720
       110  -9.5360    184.4639     31.0969   2.0553923130e+01   3.4678917252e+01    0.2936037    0.2219533 -13.11 0.0009609118    1.592    0.372
       111 -13.6990    249.0628    106.1201   3.1435073322e+01   1.0067629640e+01     1.220288    0.5118284 -32.64  0.001081718    2.001    0.500
       112  -9.1208    133.9164     31.6754   2.8402954460e+01   4.7702506134e+01    0.2452023    0.2022879  -7.13 0.0007121158    1.408    0.290
       113 -13.4191    227.8510     75.4498   2.7032611970e+01   1.8550245539e+01     1.550342      0.89943 -17.69  0.001583478    2.141    0.533
       114  -9.2711    183.8557     23.9296   1.8538390029e+01   3.5686994391e+01    0.2902743     0.214707  66.82 0.0006103541    1.348    0.258
       115  -9.5792    178.5218     23.7572   1.9086919137e+01   3.7056050025e+01    0.4093044    0.2863236 -58.12  0.002102473    1.366    0.268
       116  -8.2103    119.4693     18.0501   2.5996260987e+01   5.3096193873e+01    0.2112468    0.1417941 -24.65 0.0006829377    1.594    0.373
       117  -8.3673    190.7287     15.2073   1.5349482190e+01   3.4940473787e+01    0.1804852    0.1519995  53.56 0.0007287351    1.355    0.262
       118  -8.0061    148.5764    216.4561   7.0612974970e+01   9.9068308455e+00    0.1249603    0.1049007  28.80 7.437525e-05    1.025    0.024
       119  -9.1880    191.3300    212.0957   6.1656756557e+01   4.0450968815e+00    0.2102993    0.1522836  36.16 0.0004344725    1.299    0.230
       120  -9.8515    247.9669    210.1236   5.1738353371e+01  -3.5122319640e+00    0.2630343    0.2133008  43.68  0.001225212    1.871    0.466
       121  -7.7700     51.2886    211.3027   9.0925094871e+01   2.4789399439e+01    0.1031765   0.09467198 -29.05 0.0002097829    1.564    0.361
       122  -9.2067    233.2701    209.3378   5.3930478476e+01  -1.5246265212e+00      0.19204    0.1500441   7.62 0.0004664601    1.044    0.042
       123  -9.9892    229.0894    207.2837   5.4271866707e+01  -7.1211754460e-01    0.2595837    0.1827075  42.07  0.001121014    1.721    0.419
