#   1 NUMBER                 Running object number                                     
#   2 MAG_AUTO               Kron-like elliptical aperture magnitude                    [mag]
#   3 X_IMAGE                Object position along x                                    [pixel]
#   4 Y_IMAGE                Object position along y                                    [pixel]
#   5 X_WORLD                Barycenter position along world x axis                     [deg]
#   6 Y_WORLD                Barycenter position along world y axis                     [deg]
#   7 A_WORLD                Profile RMS along major axis (world units)                 [deg]
#   8 B_WORLD                Profile RMS along minor axis (world units)                 [deg]
#   9 THETA_WORLD            Position angle (CCW/world-x)                               [deg]
#  10 FWHM_WORLD             FWHM assuming a gaussian core                              [deg]
#  11 ELONGATION             A_IMAGE/B_IMAGE                                           
#  12 ELLIPTICITY            1 - B_IMAGE/A_IMAGE                                       
         1 -13.8726     61.1307     75.7717   5.3193640716e+01   5.5636750712e+01    0.7964653    0.5184104 -38.77     0.002061    1.569    0.363
         2 -15.0610      6.4275     71.1668   7.7108603667e+01   6.2456860261e+01     1.305316    0.7870186 -62.10  0.005981093    1.387    0.279
         3 -13.3586    187.8004     11.4460   1.3299625945e+00   3.6076075717e+01    0.6143134    0.4890936 -28.46  0.003300897    1.407    0.289
         4 -14.0603     41.5423      5.0410   3.1261492175e+01   7.1847564497e+01    0.9947451    0.6213998   9.46  0.004859549    1.845    0.458
         5 -12.1503      3.0821      5.2626   5.8358208278e+01   7.6929511466e+01    0.2359674    0.1773285 -22.72 0.0004390466    1.067    0.062
         6 -12.8518      7.7087      2.3659   5.2625334094e+01   7.7015921786e+01     0.490096    0.3534235 -24.68  0.002458372    1.169    0.144
         7 -16.0660     11.2525     23.2809   6.0862938905e+01   7.2929956679e+01     2.258741      1.11262 -30.94   0.01133146    1.972    0.493
         8 -13.8978     26.2474     13.5486   4.5531554178e+01   7.3063009228e+01    0.7306442    0.3963929  14.66  0.003355514    2.184    0.542
         9 -14.9742    189.6889     24.4220   4.5743568676e+00   3.4207010507e+01     1.417948    0.8469499 -55.05  0.006335035    1.564    0.361
        10 -14.1396    122.2606     36.8823   1.8939484749e+01   4.9677140523e+01     1.104995    0.5529542  38.80  0.002893188    2.457    0.593
        11 -13.1017     43.7974     32.8665   4.5181642101e+01   6.7251960480e+01     1.043899    0.5827392  28.28  0.005047264    1.817    0.450
        12 -13.7715    242.2127     34.7989   2.4140269079e+00   2.1520775073e+01    0.6032396    0.5369278  83.04  0.003561694    1.283    0.220
        13 -14.7970    166.6112     29.4840   8.7084385262e+00   3.9276856447e+01     1.059684    0.8165153  77.87  0.003744066    1.211    0.174
        14 -14.9090    217.3886     13.6746   3.5953817725e+02   2.9076546002e+01     1.282521    0.9277933 -40.49  0.007930905    1.291    0.225
        15 -13.4348    223.5295     20.6585   6.9457386107e-01   2.6988339004e+01    0.3732256    0.3140808  48.07  0.001729186    1.564    0.360
        16 -12.6228    120.7248     25.9088   1.5230836862e+01   5.1484689236e+01    0.6140348    0.4725663  39.34   0.00324412    1.359    0.264
        17 -14.5773    147.9454     29.5490   1.1483556630e+01   4.4028584455e+01     1.339602    0.7730198  70.65  0.004785896    1.645    0.392
        18 -15.2308     99.2691     11.7353   1.4313440615e+01   5.8459531190e+01     1.501779    0.8800373  58.13  0.003960698    1.476    0.322
        19 -12.3553     85.5531     13.8504   1.8849286424e+01   6.1568282014e+01    0.4504345    0.4131611 -61.43  0.002447762    1.275    0.216
        20 -11.7114     71.1089     16.2308   2.4686634478e+01   6.4589114351e+01    0.3620921    0.2356963 -11.79  0.001838129    1.778    0.438
        21 -11.7189     74.7269     10.3836   2.0497800606e+01   6.4445353842e+01     0.302455    0.2275375  17.27  0.001045095    1.400    0.286
        22 -12.2270     60.2209     15.4459   2.8518246692e+01   6.6982545758e+01    0.5225242    0.2895446  30.68  0.002464514    1.916    0.478
        23 -11.9148     46.8216     13.0667   3.3348615018e+01   6.9870927017e+01    0.3235695     0.263647  47.32  0.001340816    1.354    0.261
        24 -12.2791    123.3764     10.9105   9.1271983166e+00   5.2419923835e+01    0.2731801    0.2143325 -84.45 0.0004666901    1.297    0.229
        25 -10.3963    168.3192      9.3113   2.6013734488e+00   4.1057972910e+01    0.1319521   0.09454245  44.98  0.000293755    1.645    0.392
        26 -11.5037    152.9999      8.3083   3.9955052781e+00   4.5028459835e+01     0.226819     0.208119  -6.21 0.0006419285    1.328    0.247
        27 -12.4124    232.0904      2.7483   3.5619757915e+02   2.7103744410e+01    0.3844364    0.2427104  53.78   0.00231063    2.090    0.522
        28 -11.9628    120.8201      3.3035   6.7034939869e+00   5.3759925498e+01    0.5909875    0.2587466 -88.76  0.002113511    3.314    0.698
        29 -11.0310     67.6448      2.8136   1.8891854798e+01   6.6787340701e+01    0.3046673    0.1595425  36.96  0.001462993    1.835    0.455
        30 -11.7557     80.3313      1.7178   1.4475926788e+01   6.3971653778e+01    0.6307045   0.08362117  57.88  0.001898037    4.201    0.762
        31 -11.3362     61.2125      1.4668   2.0408505312e+01   6.8320792549e+01    0.3597582    0.1130802  56.94  0.001385154    2.828    0.646
        32 -13.7988     22.3985    180.9487   8.3388839969e+01   3.3671705103e+01    0.8892311    0.4679097 -55.42  0.004044835    2.147    0.534
        33 -11.9187    209.6954    249.2901   4.9422655561e+01  -4.0593836813e+00    0.2285595    0.1444685   4.19   0.00151475    1.377    0.274
        34 -12.6652    108.1128    248.1056   6.9259012647e+01   9.3949285348e+00     0.700245    0.3697822  57.72  0.003522552    2.445    0.591
        35 -11.7105    109.4240    243.0560   6.8461139898e+01   1.0061950083e+01    0.3959845    0.2535123  50.01  0.001904238    1.501    0.334
        36 -14.1777     97.1881    239.3150   7.0702881505e+01   1.2362842137e+01    0.8925823    0.8019987  82.23  0.006286899    1.304    0.233
        37 -14.3969     91.1889    231.9523   7.1281056387e+01   1.4503066974e+01    0.6756446    0.5268581 -87.96  0.004292186    1.541    0.351
        38 -11.9607     41.4070    250.1750   8.3278273587e+01   1.7264033976e+01    0.2694145    0.1531368  57.52  0.001686351    1.459    0.315
        39 -13.4793     28.2791    246.4557   8.5732669467e+01   1.9338891768e+01    0.5096039    0.3985632  52.01  0.002965129    1.074    0.069
        40 -12.2020      2.8561    249.6404   9.0801219825e+01   2.1220323672e+01    0.3800428    0.2023768  49.47  0.001889504    1.316    0.240
        41 -13.9723      9.5364    245.5777   8.9398695314e+01   2.1345032982e+01    0.9284338    0.3298562  48.84  0.004012334    1.913    0.477
        42 -15.1330      8.5281    183.1899   8.7038292937e+01   3.4376783252e+01     1.171547      1.07056  84.89  0.008231061    1.182    0.154
        43 -15.2690     15.3580    174.9539   8.4820724057e+01   3.5724836033e+01     2.306519    0.8971771  54.60   0.01019238    2.361    0.576
        44 -11.3313    212.7074    199.8575   4.1070083742e+01   2.1282370348e+00    0.2059122    0.1354614 -12.84  0.001195835    1.473    0.321
        45 -13.5697    164.5925    194.7155   4.9703949657e+01   1.0277378795e+01    0.6734816    0.4451834 -65.46  0.003184066    2.540    0.606
        46 -12.2563    201.1027    191.2025   4.1685624612e+01   5.1273602518e+00    0.3244718    0.2291681   2.24  0.001397091    1.413    0.292
        47 -12.6105    179.6355    196.0973   4.6784709582e+01   7.6435363173e+00    0.2923212    0.2451852 -66.68  0.001705241    1.794    0.443
        48 -12.1814     48.7431    181.3231   7.6503666455e+01   3.0778602643e+01    0.4680679    0.2838349 -54.02   0.00236273    1.843    0.457
        49 -13.4505     84.9796    179.8995   6.6652143982e+01   2.6239586670e+01    0.9839405    0.4308232  49.85  0.003836748    2.401    0.583
        50 -11.9518    131.0065    173.0034   5.3629513927e+01   2.0206996781e+01     0.294933    0.2161995 -50.60  0.001487377    1.471    0.320
        51 -12.9845    124.6056    167.7952   5.4290190347e+01   2.2457894996e+01    0.7638102    0.3224419 -51.64  0.002901825    2.517    0.603
        52 -12.5985    236.9959    159.6020   2.9480956034e+01   4.5556106657e+00    0.5581335    0.1053311  40.23  0.001738013    6.030    0.834
        53 -11.9205     27.8435    158.8355   8.0143249328e+01   3.8512854105e+01     0.272662    0.1327329  52.03 0.0009962427    1.973    0.493
        54 -12.2114     76.8935    156.8727   6.5500685198e+01   3.2959385735e+01    0.4928762    0.3870708  15.48  0.001525795    1.471    0.320
        55 -13.3940     73.9920    153.2997   6.5789667436e+01   3.4278067140e+01     0.788353    0.5500106  34.87  0.002014952    1.396    0.283
        56 -12.7759    208.4183    154.0441   3.3160271896e+01   9.9845818061e+00    0.6468205    0.4255015  33.77  0.003455452    1.581    0.367
        57 -13.6581    197.2986    179.2888   4.0216453679e+01   7.6332194907e+00    0.6536971    0.4779731 -75.58  0.003037547    3.057    0.673
        58 -11.3551    122.1110    180.8401   5.7200522898e+01   2.0076952849e+01     0.466361    0.2764589  77.74  0.001564117    4.157    0.759
        59 -11.8835     85.7745    152.7201   6.2218739188e+01   3.2606806423e+01    0.5535611    0.2714896 -42.59  0.002101855    2.510    0.602
        60 -12.8066      8.2849    149.3927   8.5064524726e+01   4.2517369321e+01    0.8526887    0.3513117  49.16  0.003843036    2.275    0.560
        61 -10.9927     12.6547    148.6824   8.3726620637e+01   4.2368612222e+01    0.2064786    0.1688299 -68.52  0.001000139    1.210    0.173
        62 -11.8379    103.5357    149.7201   5.6551833741e+01   3.0340224536e+01    0.3968011    0.2985128 -19.65  0.001701339    1.744    0.427
        63 -10.9899    155.6598    157.3326   4.4664902929e+01   1.8953610413e+01     0.146704    0.1183814  79.36 6.036799e-05    1.748    0.428
        64 -12.3230    111.6292    155.5396   5.5419850488e+01   2.7533256921e+01    0.5591655    0.3585699  76.22  0.002179057    2.592    0.614
        65 -10.4938     38.2431    145.6062   7.5629684815e+01   4.0810061048e+01    0.1773157    0.1354087   8.07 0.0005186906    1.599    0.374
        66 -10.3596     63.3331    138.6638   6.6690602322e+01   3.9518725964e+01    0.1596694    0.1055867  65.61 0.0007052113    1.739    0.425
        67 -12.2242    246.1239    134.0338   2.3055718785e+01   6.9526369144e+00    0.3149804    0.2329534 -66.28  0.001809183    2.080    0.519
        68 -13.6100    234.1577    126.9116   2.3297937420e+01   9.9674972952e+00    0.7097706    0.5263202 -58.87  0.004081785    1.697    0.411
        69 -12.4602     43.8263    132.8763   7.2146771274e+01   4.3487084761e+01    0.4643462     0.242588 -64.59  0.001749386    1.773    0.436
        70 -12.1327    138.0291    131.9928   4.3391487933e+01   2.7773839689e+01    0.3925478    0.2948346  21.75  0.001695716    1.531    0.347
        71 -12.6255    223.1238    127.8523   2.5165299017e+01   1.1722570439e+01    0.4874221    0.3176911 -63.02  0.002337256    2.370    0.578
        72 -10.9582      5.4363    128.8098   8.4385560260e+01   4.7897161312e+01    0.2555211    0.1340405 -41.89  0.001211404    2.216    0.549
        73 -14.1570    104.7089    121.3525   5.0118752936e+01   3.6928721900e+01      1.74167     1.134192  43.59  0.007631563    1.514    0.340
        74 -13.0239    112.9554    116.5714   4.6502758301e+01   3.6415545827e+01    0.7125853    0.4015467  31.05  0.002758645    2.046    0.511
        75 -14.6748    106.3556    104.7907   4.5425442146e+01   4.0497417245e+01     1.515145     1.328558  45.88  0.006902537    1.131    0.116
        76 -10.2841     58.9753    125.0152   6.5748109414e+01   4.3642014376e+01    0.1776069    0.1650852 -77.35 0.0005134017    1.034    0.033
        77 -12.7789    179.8948    120.6906   3.1184526032e+01   2.1310471852e+01     0.581956    0.2715962  44.95   0.00216892    2.226    0.551
        78 -11.4227      8.1213    114.7554   8.2195218731e+01   5.1328346253e+01    0.2279384    0.1705136 -28.97 0.0006573378    1.549    0.355
        79 -11.9214     78.7296    110.7242   5.5950807547e+01   4.4276323624e+01    0.3897793    0.3308535 -78.04  0.001439894    1.263    0.208
        80 -12.7244     84.9605    114.9186   5.4839479990e+01   4.2157904307e+01     1.015485    0.5528333  22.26  0.003697965    2.475    0.596
        81 -11.8490     88.2243    109.1700   5.2363700417e+01   4.2987127194e+01    0.5176799    0.2973439 -61.95  0.002075539    1.946    0.486
        82 -12.1772      4.3959    119.4597   8.3939284014e+01   5.0343892526e+01    0.5468239    0.2666949  10.15  0.002566357    2.507    0.601
        83 -11.9091     42.6140     90.2977   6.4815847284e+01   5.4644958169e+01    0.3833229    0.2524858 -64.18 0.0004507779    1.456    0.313
        84 -13.1223     20.7642     86.1298   7.3256568603e+01   5.7813901202e+01    0.7330245    0.4030581   4.50  0.003398682    2.235    0.553
        85 -14.6200     25.1133     93.7593   7.2789352800e+01   5.5521040906e+01     1.703096     1.020573  -2.63  0.008003829    2.136    0.532
        86 -14.1624     18.5313    111.2443   7.8019232815e+01   5.1527615300e+01    0.8532872    0.6915838 -31.97  0.003519429    1.367    0.268
        87 -14.1060     10.7867    102.8243   7.9873493984e+01   5.4232566360e+01    0.8709638    0.6644636  31.90   0.00508825    1.440    0.306
        88 -13.6901      2.2549     96.8980   8.2498893924e+01   5.6213228617e+01     1.033031    0.3405119 -77.44  0.003582917    2.657    0.624
        89 -12.2870    121.4953    112.0013   4.2891944107e+01   3.5681350471e+01    0.3708686    0.3077923  84.69  0.001235625    1.459    0.315
        90 -11.7632     62.8444    110.3945   6.1473675691e+01   4.6865962975e+01    0.4034763    0.3077796  73.30  0.001951324    1.542    0.352
        91 -11.3172    176.6745    110.3452   2.9310608190e+01   2.3926828859e+01    0.3100043    0.2201135   5.83  0.001361593    2.078    0.519
        92 -11.1759     45.8717    110.1014   6.7645178552e+01   4.9186288647e+01    0.2910558    0.1805154 -45.58  0.001343858    1.642    0.391
        93 -10.6928     64.5176    101.5321   5.8838109969e+01   4.8864181523e+01    0.3086641    0.2320828  46.13  0.001056688    1.388    0.279
        94 -12.0282     61.8388     98.2243   5.9046670653e+01   5.0095742357e+01    0.4648847    0.3417207  78.99  0.001741833    1.763    0.433
        95 -12.5374    136.2990    102.9591   3.6510582711e+01   3.4399695490e+01    0.6941419    0.3320568  47.78  0.002073455    2.086    0.521
        96 -13.5168    120.1118    102.3292   4.0698207365e+01   3.8132554950e+01     0.750227     0.359173  41.51  0.002768166    2.110    0.526
        97 -11.3455     48.6732    100.6862   6.4682222914e+01   5.1273238771e+01    0.2820249    0.2297866  -3.57  0.001321617    1.417    0.294
        98 -12.4375     52.2814     97.8900   6.2655688031e+01   5.1521491103e+01     1.028727    0.4057012  21.90  0.003498471    3.261    0.693
        99 -12.2088    163.1619     97.8897   2.8881987734e+01   2.9279336134e+01    0.4026107    0.3143416  62.39 0.0006319712    1.370    0.270
       100 -13.0980    137.4254     95.1323   3.4058898839e+01   3.5761194374e+01    0.5112271    0.4403031  76.08  0.001347462    1.282    0.220
       101 -12.1795     32.8801    111.2359   7.2688488702e+01   5.0293133649e+01    0.5234143    0.3339837 -77.25  0.002558423    1.526    0.345
       102 -11.9296     49.1596     93.4291   6.2864196538e+01   5.3054890370e+01    0.4155462    0.2998521  85.53   0.00197985    1.749    0.428
       103 -12.7328     28.6914    121.9576   7.5778547720e+01   4.7891344639e+01    0.6520967    0.3412334 -58.52  0.003009112    1.738    0.425
       104 -14.3160    188.3770     83.1037   2.0254327519e+01   2.6153298226e+01     1.552909    0.9986345  89.79  0.006720654    2.306    0.566
       105 -14.6037    198.7983     70.0803   1.5321347727e+01   2.5889690470e+01     1.233616    0.7573851  40.85  0.005793931    2.072    0.517
       106 -14.4892    164.1245     71.4166   2.1380891455e+01   3.3801045074e+01     1.433949     1.041665  70.11  0.006964264    1.457    0.313
       107 -13.8591    160.1300     81.1021   2.4914380918e+01   3.3083915845e+01    0.9790277    0.5727258  32.37   0.00271187    2.436    0.589
       108 -14.2235    169.3020     76.8510   2.1936548058e+01   3.1636038016e+01    0.8811027    0.5465104  44.00  0.002746548    1.779    0.438
       109 -12.2352     36.8321     92.8308   6.7763029264e+01   5.4645908427e+01    0.4623277    0.3089593  -1.15  0.001512594    1.866    0.464
       110 -12.6290    242.2962     83.5883   1.2960162296e+01   1.5023507401e+01    0.3952065    0.2274041  69.15  0.002090967    2.228    0.551
       111 -13.2313    237.2516     79.8525   1.2720186611e+01   1.6495567432e+01    0.4101368    0.2846015  84.62  0.002331921    1.835    0.455
       112 -13.3418     66.0813     49.0779   4.1679280417e+01   6.0460422989e+01    0.8183162    0.6750894 -44.76  0.004467083    1.276    0.216
       113 -13.6095     53.7576     67.1316   5.3639396311e+01   5.8744890749e+01     1.155403    0.9811845  29.44  0.006395536    1.204    0.169
       114 -13.8542     88.6048     62.9755   3.8292691563e+01   5.3283227623e+01     1.410095    0.8058851 -18.62  0.003795231    3.092    0.677
       115 -12.9138     55.1676     81.1686   5.7256166786e+01   5.5262232480e+01    0.5898609    0.4724969 -33.48  0.002415001    1.264    0.209
       116 -14.6298    170.2088    242.0289   5.5796914789e+01   1.8898185254e+00     1.146398    0.7198505  22.58  0.006924852    1.308    0.236
       117 -12.6074     77.8424     71.9742   4.5334191636e+01   5.3579958917e+01    0.7460333    0.4199349 -24.79  0.002434106    2.771    0.639
       118 -14.2886    214.7301     78.5623   1.5206868549e+01   2.1152164519e+01    0.9814231    0.6885664  76.65  0.005277887    1.679    0.404
       119 -11.8096    114.2523     79.8469   3.5773275433e+01   4.4225235289e+01    0.4706676    0.3417895 -52.44  0.002160228    1.463    0.317
       120 -13.1417     57.2966    246.6449   7.9808039228e+01   1.6093384648e+01    0.5822551    0.3346389  26.18  0.003378966    1.713    0.416
       121 -14.1687      5.2422     63.4043   7.6278508092e+01   6.4401568143e+01    0.6568772    0.6061493  10.43  0.003746659    1.232    0.188
       122 -12.7758    135.2589     79.1358   2.9921533448e+01   3.9427810144e+01    0.8882478    0.3759719  54.45  0.003123731    2.419    0.587
       123 -11.1677     42.5221     79.4744   6.2220830069e+01   5.7342683127e+01     0.289588    0.1833687 -40.40  0.001184692    1.569    0.363
       124 -11.1357     41.6337     76.1561   6.1740208842e+01   5.8255202628e+01    0.2889332    0.2031526 -54.31 0.0007601605    1.321    0.243
       125 -11.4165     27.4668     76.2233   6.8213755052e+01   5.9729116894e+01    0.2973899    0.2313127  75.72  0.001121536    1.552    0.356
       126 -12.1437     40.2756     67.6678   5.9979699281e+01   6.0437708926e+01    0.8656371    0.3513824  26.34  0.003412486    2.607    0.616
       127 -12.7615    134.7624     66.1223   2.5995758821e+01   4.1930884977e+01    0.6291225    0.4580733  36.07  0.001929582    1.539    0.350
       128 -11.6730    100.0391     65.0966   3.5223050653e+01   5.0376295538e+01    0.3433239    0.3111924 -22.54  0.001715444    1.154    0.134
       129 -12.9643     78.8729     59.8584   4.0704678715e+01   5.5900386703e+01    0.7129558    0.5031577 -53.20  0.003403326    1.578    0.366
       130 -14.1115    177.8916     57.1323   1.4993199049e+01   3.2726478322e+01    0.8703899    0.6064655 -52.78  0.002616419    1.402    0.287
       131 -12.1784     36.1698     54.3030   5.7775067459e+01   6.3969233267e+01    0.6741158    0.3111999 -30.46  0.002568964    2.916    0.657
       132 -11.1387     34.4691     60.5331   6.0648593329e+01   6.2763909118e+01    0.4258781    0.1915734 -46.54  0.001829711    2.011    0.503
       133 -11.8613     38.6982     59.6988   5.8286035998e+01   6.2461002962e+01    0.3390751    0.2583951  71.24  0.001740621    1.875    0.467
       134 -11.8738     24.8235     59.1222   6.5146693141e+01   6.4066196757e+01    0.4508277    0.2540268 -45.55  0.001889791    1.576    0.365
       135 -14.6551    119.3354     54.3100   2.5871242786e+01   4.7757231583e+01     1.134148    0.6415475  47.87  0.002413164    1.707    0.414
       136 -12.8365    136.1901     50.8262   2.0697613923e+01   4.4099820357e+01    0.5764154    0.5042416 -24.36  0.001695653    1.255    0.203
       137 -12.8542    248.2450     52.3328   5.6620366292e+00   1.8179233405e+01     0.615847    0.2675993 -33.38  0.003052529    1.991    0.498
       138 -12.9732     61.7698     58.7831   4.7245348139e+01   5.9286294911e+01    0.9031605    0.4446514 -29.38  0.003273644    2.945    0.660
       139 -11.2133     17.7886     55.1787   6.7777113606e+01   6.5569762537e+01    0.3258131    0.1772465 -69.12  0.001566353    1.908    0.476
       140 -11.8232    231.2315     55.0382   7.8303048274e+00   2.1129978400e+01    0.2793386    0.1846621 -88.19  0.001566435    1.723    0.420
       141 -13.5545    103.2708     50.3583   2.8895263912e+01   5.2295295406e+01    0.9347295    0.5527198 -47.80  0.001003069    1.889    0.471
       142 -13.5257     97.9842     49.9687   3.0359675734e+01   5.3595558948e+01    0.6915112    0.4352851 -41.82  0.002055106    1.670    0.401
       143 -13.1029     70.8807     75.2904   4.9102178088e+01   5.4118700609e+01    0.6209531    0.4506682  -1.84  0.001764051    1.824    0.452
       144 -10.6769     23.5487     50.0010   6.3088766834e+01   6.6259771601e+01     0.191859    0.1179201 -55.12 0.0004361932    1.487    0.328
       145 -13.4813    157.1368     43.6772   1.4415102652e+01   3.9825085927e+01    0.9230544     0.565469  40.91   0.00413692    1.963    0.491
       146 -11.1504     38.8036     46.1791   5.3467898672e+01   6.5379383735e+01    0.1935183    0.1867394 -23.13  0.001209524    1.147    0.128
       147 -15.1958    212.2477     40.8907   6.4335362525e+00   2.7000097040e+01     2.007322    0.6899006  75.90  0.007323332    3.739    0.733
       148 -13.4827    147.5157    238.8455   5.9951509973e+01   5.4733479088e+00    0.6312115    0.3732503  59.28  0.002996045    3.032    0.670
       149 -12.3948     27.8154    235.6408   8.5312623681e+01   2.1417081237e+01    0.8465219    0.5473222  -3.70   0.00457172    2.926    0.658
       150 -13.3787      6.2197     42.8858   7.1016061738e+01   6.9128371497e+01    0.9156892    0.4490414  12.42  0.004611719    2.188    0.543
       151 -13.8636     20.7702    224.1878   8.6248652068e+01   2.4382209100e+01    0.5819418     0.491783  65.52  0.002538943    1.126    0.112
       152 -13.4065    237.0844    230.0476   4.1838262183e+01  -4.9513211363e+00    0.5044652    0.3659921 -26.11  0.003668376    1.438    0.305
       153 -12.1318    235.5149    247.9926   4.4814171304e+01  -6.8342912022e+00    0.2199431    0.1167763  13.73  0.001399516    1.619    0.382
       154 -13.8515     66.3726    223.2482   7.6047470518e+01   1.9432922554e+01    0.8972553    0.6100333  40.59  0.005369216    1.205    0.170
       155 -13.4723     59.3882    212.7876   7.6758481204e+01   2.2448055554e+01    0.6300715    0.4117681  -6.12  0.001946758    2.734    0.634
       156 -10.5615     71.8830     44.1676   3.7279036350e+01   6.0246351871e+01      0.19255    0.1880435  75.11 0.0003749296    1.189    0.159
       157 -10.8919     25.4773     44.0506   5.9991850552e+01   6.7374484254e+01    0.2024923    0.1197761 -54.05 0.0009361728    1.589    0.371
       158 -11.9459    134.9731     39.6782   1.7206027059e+01   4.6045608016e+01    0.5294109    0.3248277  82.98  0.001837719    1.993    0.498
       159 -12.6416    110.1187     41.9520   2.3801939536e+01   5.1983323044e+01    0.5139217    0.2380662  55.60 0.0009133015    2.011    0.503
       160 -13.2818    113.6717     37.9047   2.1358649100e+01   5.1696177667e+01    0.4326795    0.3652758  73.27  0.001386964    1.197    0.165
       161 -12.9839     57.5569    201.7617   7.6209613033e+01   2.5042408093e+01     1.270244    0.4755536 -73.54   0.00519444    3.021    0.669
       162 -12.8880    131.5671     33.3227   1.5695966605e+01   4.7774330052e+01    0.5220259    0.4160429  19.39  0.001589696    1.543    0.352
       163 -12.9760     24.5398    216.8624   8.5054283509e+01   2.5504975549e+01     1.248078    0.1753232  42.74   0.00467316    3.524    0.716
       164 -12.2311     40.2901     40.2564   5.0302740203e+01   6.6374585689e+01    0.5689711    0.2712457  34.55  0.002565113    2.104    0.525
       165 -12.5623     32.9658     40.3890   5.4358179703e+01   6.7304961719e+01    0.3143899    0.2830399 -17.09 0.0006047578    1.043    0.041
       166 -12.6842     75.8881     37.0489   3.2679982605e+01   6.0627146288e+01    0.4732119    0.2955016  40.86  0.001273175    1.518    0.341
       167 -11.7912     70.9400     36.2230   3.4233251526e+01   6.1786192576e+01     0.299437    0.2360946  53.98 0.0009643479    1.363    0.266
       168 -13.4526     94.2622    218.3474   6.9142444372e+01   1.6671480510e+01    0.4525091    0.2771969  32.25  0.001627435    1.418    0.295
       169 -11.7117    104.8957     36.8386   2.3239639834e+01   5.4014157962e+01    0.3115864    0.2104528 -36.91  0.001317613    1.570    0.363
       170 -13.8699     64.4721    214.3807   7.5703277187e+01   2.1478175257e+01    0.5060792    0.3629877  47.87  0.002507957    1.161    0.139
       171 -12.7624    140.0476     21.3273   1.0042159396e+01   4.7029036888e+01    0.6621569    0.2866861  62.68  0.001238858    2.018    0.504
       172 -13.9411    216.8877     28.5442   3.0499520915e+00   2.7506867080e+01    0.7176433     0.383553 -67.92  0.003555555    1.936    0.483
       173 -10.4809      5.4889    219.4943   8.9315859118e+01   2.6758181010e+01    0.1171682   0.08811818  60.15 -8.198371e-07    1.003    0.003
       174 -10.1333     38.0000    216.9556   8.2031626640e+01   2.4072616629e+01    0.1807966   0.06609938 -75.88 0.0007951223    2.892    0.654
       175 -13.4429     57.6215     26.7796   3.5467385925e+01   6.5895076784e+01     1.067836    0.3437268  41.39  0.002978121    2.969    0.663
       176 -12.5030    181.2505    215.8781   4.9747359913e+01   4.2256405035e+00    0.2392954    0.1610498 -15.15  0.001367289    1.585    0.369
       177 -11.3107    157.3113    214.6682   5.4495198161e+01   7.9662349226e+00    0.1237076   0.09835172  58.10 0.0007043324    1.674    0.403
       178 -12.1806     30.5969     25.3238   4.9041881806e+01   7.0487787446e+01    0.4081193    0.2392043  11.39  0.001812354    1.980    0.495
       179 -12.0386     36.3783     22.2670   4.4062819731e+01   7.0209805436e+01    0.3522824    0.2330004 -16.21 0.0007132363    1.618    0.382
       180 -12.3360     85.6313    215.6063   7.0852797610e+01   1.8420223474e+01    0.2695025    0.2009276  51.93  0.001391177    1.207    0.171
       181 -11.7580    136.7122    210.9221   5.8442313073e+01   1.1771548178e+01    0.2200571    0.1905546 -87.82  0.001120664    1.547    0.354
       182 -12.2448     46.1300     20.1875   3.7634062582e+01   6.8975474738e+01    0.4647951    0.2441261  30.48  0.002196115    1.944    0.486
       183 -12.7972     46.5433    208.7783   7.9465287042e+01   2.4838786357e+01    0.5131416    0.2223515  67.64  0.002167009    2.830    0.647
       184 -14.0433     26.5689    225.9674   8.5088733990e+01   2.3442953143e+01    0.9095588    0.4087339 -54.91  0.004528143    2.984    0.665
       185 -11.1800     80.8580    208.4936   7.1217036520e+01   2.0537401361e+01    0.2242864    0.1630424  61.60  0.001115117    1.365    0.267
       186 -11.5006    175.9871     13.9209   3.1247417726e+00   3.8688923129e+01    0.1988238    0.1682855 -75.90 0.0003054218    1.031    0.030
       187 -13.0422     71.8850    206.6827   7.3192429524e+01   2.2134166571e+01     0.421149    0.2355604  33.80  0.002130918    1.571    0.363
       188 -13.3750     15.7395    198.4050   8.6088991882e+01   3.0311121927e+01    0.9430451    0.2413802 -61.55  0.003613513    4.014    0.751
       189 -10.9770    151.9787    205.8454   5.4281215119e+01   1.0310689904e+01    0.2280765    0.1434155   8.35  0.001085902    2.017    0.504
       190 -11.9088     41.2489    205.3598   8.0464796733e+01   2.6179953264e+01    0.2378991    0.1305959  42.91  0.001267714    1.505    0.336
       191 -10.8831     51.2123     20.4014   3.5213452399e+01   6.8042536647e+01    0.3697115     0.120252  45.60   0.00138507    2.969    0.663
       192 -12.0545    126.8869    232.3299   6.3487123140e+01   9.4500383686e+00    0.1973074    0.1808182  82.51  0.001336656    1.385    0.278
       193 -13.5157     39.1299    194.9339   8.0182698903e+01   2.8728337394e+01     0.948885    0.3460391  48.30  0.004066725    2.359    0.576
       194 -14.1214     30.0777    169.1326   8.0427532839e+01   3.5754741414e+01     2.083703    0.9206134 -42.36  0.008057622    3.501    0.714
       195 -13.4430     22.1489    166.2084   8.2375441057e+01   3.7226667909e+01    0.6568884    0.3556801  32.88  0.001610865    1.768    0.434
