#   1 NUMBER                 Running object number                                     
#   2 MAG_AUTO               Kron-like elliptical aperture magnitude                    [mag]
#   3 X_IMAGE                Object position along x                                    [pixel]
#   4 Y_IMAGE                Object position along y                                    [pixel]
#   5 X_WORLD                Barycenter position along world x axis                     [deg]
#   6 Y_WORLD                Barycenter position along world y axis                     [deg]
#   7 A_WORLD                Profile RMS along major axis (world units)                 [deg]
#   8 B_WORLD                Profile RMS along minor axis (world units)                 [deg]
#   9 THETA_WORLD            Position angle (CCW/world-x)                               [deg]
#  10 FWHM_WORLD             FWHM assuming a gaussian core                              [deg]
#  11 ELONGATION             A_IMAGE/B_IMAGE                                           
#  12 ELLIPTICITY            1 - B_IMAGE/A_IMAGE                                       
         1 -13.1691    194.1166     30.7777   9.4192575328e+01   3.9271835672e+01  0.003061097  0.001806828 -52.19  0.005760759    1.612    0.380
         2 -14.0878    206.1969     15.0643   9.4203650029e+01   3.9260945199e+01  0.004948331   0.00241296 -51.55  0.008498568    1.939    0.484
         3 -12.1921      2.2552      4.8316   9.4024812563e+01   3.9254829360e+01  0.002299716  0.001109621 -70.13  0.003916419    1.974    0.493
         4 -10.8950    189.8722     15.6491   9.4189292257e+01   3.9261433083e+01 0.0006767529 0.0005118459  80.93 0.0007611258    1.331    0.249
         5  -9.8600    204.7749    250.4198   9.4195477111e+01   3.9423127109e+01 0.0005011519 0.0003115895 -20.51 0.0005790979    1.584    0.369
         6 -10.1800    184.1927    250.3105   9.4177357866e+01   3.9423157312e+01 0.0006119111 0.0004396016 -25.46 0.0006251277    1.363    0.266
         7 -10.7076    169.7083    248.5942   9.4164655530e+01   3.9422047252e+01  0.001010015 0.0005008276 -43.61  0.000823628    1.918    0.479
         8 -11.6368    150.0300    248.4545   9.4147333342e+01   3.9422047359e+01  0.001184883 0.0009357266  47.24  0.002550162    1.320    0.243
         9 -10.8833    143.2063    249.1229   9.4141305126e+01   3.9422540724e+01 0.0006981659 0.0005696443  70.38  0.000458635    1.253    0.202
        10 -10.9684    116.4423    239.0130   9.4118045398e+01   3.9415700352e+01  0.002219736 0.0007825215 -74.65  0.002796074    2.687    0.628
        11 -12.5457    134.0530    248.9852   9.4133249802e+01   3.9422489375e+01   0.00362947  0.001239333  -2.51  0.005166711    2.957    0.662
        12 -11.3331    122.3663    232.8864   9.4123445946e+01   3.9411451452e+01  0.001739385 0.0008908186 -75.65  0.003040446    1.880    0.468
        13 -11.4481    100.1576    247.4795   9.4103451009e+01   3.9421608280e+01  0.002121797  0.001040745  16.94  0.003600746    2.110    0.526
        14 -10.8569    121.6134    244.6414   9.4122428082e+01   3.9419554646e+01  0.001123125  0.000550323  56.02  0.001882734    2.148    0.535
        15 -12.2838    126.3827    241.1455   9.4126732709e+01   3.9417123575e+01  0.002157908  0.001407175 -46.39  0.004259709    1.466    0.318
        16 -11.7600    135.3938    241.1615   9.4134665786e+01   3.9417092194e+01  0.001579239 0.0007348429 -49.91  0.002645803    2.029    0.507
        17 -10.9672    114.9221    250.4778   9.4116360066e+01   3.9423607068e+01  0.002028078  0.000629895  -5.56  0.002752277    3.232    0.691
        18 -11.2924    109.5908    247.4766   9.4111756781e+01   3.9421563539e+01  0.001652072 0.0008330276  78.18   0.00260791    2.019    0.505
        19 -11.2121    135.5667    236.3156   9.4134963737e+01   3.9413752310e+01  0.001283601 0.0005848194 -45.42  0.001479261    2.077    0.519
        20 -11.6032    134.0184    232.5292   9.4133714586e+01   3.9411150646e+01  0.001463458 0.0006096259 -64.74 0.0006177993    2.258    0.557
        21  -9.4745     84.0016    242.2879   9.4089384467e+01   3.9418102932e+01 0.0007279256 0.0004718158 -47.05  0.001042136    1.474    0.322
        22 -11.4051     81.8438    246.6310   9.4087351927e+01   3.9421104925e+01  0.001790909  0.001050664  51.27  0.003311029    1.786    0.440
        23  -9.8843     89.0404    250.5973   9.4093567456e+01   3.9423806201e+01 0.0009347175  0.000340213  -4.37 0.0003981666    2.766    0.638
        24 -10.4635     88.9865    247.3950   9.4093617654e+01   3.9421599901e+01  0.001035014 0.0006536771   4.50  0.001435963    1.615    0.381
        25  -8.8069     74.6840    250.5804   9.4080927066e+01   3.9423857394e+01   0.00069413 0.0003264434  -9.11   0.00114516    2.127    0.530
        26  -9.2411     63.4751    250.0020   9.4071075277e+01   3.9423506983e+01  0.000688587 0.0003138637 -76.33  0.001122556    2.108    0.526
        27 -11.3364     59.7325    245.5224   9.4067917588e+01   3.9420436292e+01  0.001474416 0.0009928864 -75.55  0.001756489    1.438    0.304
        28 -10.9639     32.6916    201.8337   9.4045461727e+01   3.9390446041e+01  0.000590376 0.0005516592 -27.82  0.000294502    1.054    0.052
        29 -11.4630     63.0863    221.9880   9.4071593160e+01   3.9404206258e+01  0.002017853  0.001881521 -70.75  0.002394451    1.043    0.042
        30 -11.7124     41.0040    204.9885   9.4052679987e+01   3.9392585739e+01  0.002453192  0.001060908  25.74  0.003067691    2.420    0.587
        31 -11.2304     22.7938    202.0073   9.4036745425e+01   3.9390605522e+01  0.001137909 0.0008786074  67.48  0.001161695    1.330    0.248
        32 -14.8802      2.8981    192.1589   9.4019542753e+01   3.9383898096e+01    0.0231368  0.002660603 -80.37   0.02053925    7.354    0.864
        33 -11.2208    164.8057    241.6658   9.4160545572e+01   3.9417297458e+01   0.00131474 0.0006056066  36.52  0.002142613    2.291    0.564
        34 -11.5726     98.1589    240.1093   9.4101915285e+01   3.9416538960e+01  0.001564558  0.001033788  27.39  0.002349867    1.577    0.366
        35 -10.9324    104.3883    237.9170   9.4107466329e+01   3.9415000248e+01  0.001286948  0.000493591 -20.77  0.001944745    2.551    0.608
        36 -11.2298     98.5532    232.0074   9.4102508725e+01   3.9410954647e+01  0.001275733  0.000699751  67.81  0.001742962    1.885    0.470
        37 -10.3328    112.7714    230.1234   9.4115082735e+01   3.9409591956e+01 0.0009549166 0.0005682541  13.66  0.001003208    1.732    0.423
        38 -11.7100    105.7462    229.0974   9.4108929300e+01   3.9408917078e+01  0.001830251  0.001049001  22.93  0.003356114    1.814    0.449
        39 -11.0463    173.0941    239.8931   9.4167895574e+01   3.9416034909e+01  0.001153064 0.0005353933  82.50  0.001893558    2.175    0.540
        40 -11.4998     90.2493    238.9121   9.4094987992e+01   3.9415749328e+01  0.001422661 0.0008520749  58.15  0.001498871    1.740    0.425
        41 -11.8022     67.1293    244.1413   9.4074472600e+01   3.9419453198e+01   0.00238347  0.001013033  -4.86  0.003728382    2.368    0.578
        42  -9.7734     82.6224    238.3283   9.4088291120e+01   3.9415380747e+01 0.0007475348  0.000422648  -7.55  0.001356689    1.775    0.437
        43  -9.2155    156.3005    236.9184   9.4153199326e+01   3.9414067977e+01 0.0004952208 0.0004430552 -77.98 0.0004349782    1.093    0.085
        44 -10.3123    165.5438    235.4599   9.4161380460e+01   3.9413017689e+01 0.0007438591 0.0003381209 -87.04  0.001206361    2.165    0.538
        45 -10.8530    156.7581    231.6216   9.4153760518e+01   3.9410416025e+01 0.0006772662 0.0005696958 -71.79 0.0003487834    1.150    0.131
        46  -9.3640     78.0725    233.2494   9.4084440649e+01   3.9411901127e+01 0.0005529879 0.0004162133 -46.56 0.0006029917    1.273    0.214
        47  -9.0827     62.9062    233.0459   9.4071095138e+01   3.9411826217e+01 0.0005737775 0.0003504064 -44.58 0.0003587894    1.565    0.361
        48  -8.8401     92.4373    232.4966   9.4097109703e+01   3.9411319110e+01 0.0003514144 0.0003305326 -54.56 9.716027e-05    1.019    0.018
        49 -11.0461    244.5089    226.4734   9.4231160190e+01   3.9406414760e+01 0.0006101373 0.0004721592  75.41  0.001290143    1.312    0.238
        50  -9.1224     57.4879    230.9225   9.4066390407e+01   3.9410386140e+01 0.0005084728 0.0003397975 -87.19 0.0008045766    1.476    0.322
        51 -14.3849     30.6364    246.0747   9.4042282302e+01   3.9420937253e+01  0.007223151  0.003444297  -9.74   0.01217245    2.096    0.523
        52 -10.2594    141.8878    230.4039   9.4140706235e+01   3.9409648815e+01 0.0009023379 0.0004488296 -54.67  0.001050511    1.900    0.474
        53 -10.9181     84.7788    229.4004   9.4090462046e+01   3.9409219660e+01   0.00117332 0.0008606655 -16.34   0.00210459    1.353    0.261
        54 -10.6207     77.4661    220.9229   9.4084283727e+01   3.9403410437e+01 0.0007182175 0.0006081734  41.80 0.0004704178    1.232    0.189
        55 -10.4273     79.8250    227.7772   9.4086150717e+01   3.9408122952e+01  0.001202495 0.0004724092 -47.05  0.001854115    2.387    0.581
        56 -10.2772     78.7030    224.6941   9.4085257276e+01   3.9406003465e+01 0.0008381265 0.0004876297 -53.24 0.0008534611    1.634    0.388
        57  -9.1018    180.0453    228.5456   9.4174352400e+01   3.9408181065e+01 0.0007794159 0.0002529652  50.33  0.001032949    3.361    0.702
        58 -10.4484    165.8716    227.0021   9.4161921162e+01   3.9407188186e+01  0.001103171 0.0004901761  63.94  0.001755885    2.363    0.577
        59  -8.7803    190.6984    228.2728   9.4183738444e+01   3.9407939024e+01 0.0003603063 0.0002456728  44.02 0.0001853726    1.534    0.348
        60  -9.8711    197.6652    226.6898   9.4189918076e+01   3.9406812504e+01  0.000781338 0.0004929777  45.79   0.00127154    1.660    0.397
        61 -11.1522     99.3457    223.4208   9.4103467342e+01   3.9405034674e+01  0.001085696 0.0007729973  25.85 9.566023e-05    1.462    0.316
        62 -10.4209     92.6483    225.9248   9.4097495548e+01   3.9406789989e+01 0.0007773432 0.0005265835   6.38 0.0008090171    1.509    0.337
        63  -9.6230    147.0094    225.3064   9.4145367698e+01   3.9406111830e+01  0.000480336 0.0004331169 -26.80 0.0002751148    1.089    0.082
        64 -10.0105    132.3946    224.7378   9.4132519649e+01   3.9405789733e+01 0.0006749678 0.0005400209 -58.70 0.0009027172    1.196    0.164
        65 -10.3614    129.1575    221.0851   9.4129780115e+01   3.9403288083e+01 0.0007451092 0.0005609019  51.95  0.000753252    1.383    0.277
        66 -10.6434    117.3254    224.2940   9.4119267948e+01   3.9405554286e+01 0.0006516165 0.0005794871 -49.22 0.0002730821    1.078    0.072
        67 -10.7559    160.4091    223.7662   9.4157209176e+01   3.9404985399e+01 0.0009636342 0.0005133727 -32.29  0.001148787    1.814    0.449
        68 -11.4695    142.0862    221.7770   9.4141139839e+01   3.9403703517e+01  0.001244873 0.0009602388 -56.94  0.001050896    1.240    0.193
        69 -10.9190    137.4831    214.6354   9.4137302579e+01   3.9398804617e+01  0.001315365  0.001070022 -59.14  0.002517531    1.177    0.150
        70  -9.9316    110.9402    221.0677   9.4113744872e+01   3.9403360617e+01  0.000876556 0.0004633082 -82.14 0.0009336885    1.845    0.458
        71 -10.8953     70.6615    219.2249   9.4078345981e+01   3.9402269973e+01  0.001256295 0.0007954973 -89.53  0.002425821    1.564    0.361
        72 -10.1682     67.8412    214.7976   9.4075999138e+01   3.9399231546e+01  0.001103481 0.0005271413 -83.52  0.001409799    2.044    0.511
        73 -10.2908    246.4699    218.4953   9.4233118652e+01   3.9400906530e+01 0.0006072943  0.000375649 -48.48 0.0008597072    1.542    0.351
        74  -9.5463    104.9192    218.8668   9.4108511722e+01   3.9401871588e+01 0.0005067748 0.0004958959 -86.20 0.0003193023    1.040    0.039
        75  -9.1020     99.4324    217.7531   9.4103715837e+01   3.9401128972e+01 0.0006345124 0.0003507886 -34.91 0.0006802433    1.743    0.426
        76  -8.3102     89.6421    218.3307   9.4095080648e+01   3.9401570746e+01 0.0003947409 0.0002311742  45.05 0.0007043013    1.792    0.442
        77  -9.0581     93.8302    217.0011   9.4098807551e+01   3.9400635998e+01  0.000616188 0.0003253801  56.06  0.001062314    1.987    0.497
        78 -13.9056      5.5456    245.7281   9.4020201354e+01   3.9420797703e+01  0.003626962  0.002571453  64.78  0.007408015    1.455    0.312
        79  -9.6533     88.1517    212.8765   9.4093934946e+01   3.9397819274e+01  0.000667469 0.0004401735  69.92  0.000611986    1.555    0.357
        80  -8.4501     78.6821    214.6957   9.4085544428e+01   3.9399114373e+01 0.0003883754 0.0002279394 -44.66 0.0007027058    1.627    0.385
        81 -10.2360    102.4207    212.2013   9.4106514718e+01   3.9397290142e+01 0.0009627196 0.0004759596  38.47  0.001622045    2.131    0.531
        82 -11.2208     72.9883    209.9645   9.4080677593e+01   3.9395879186e+01  0.001055903 0.0006681129 -23.33  0.001847946    1.550    0.355
        83 -10.4318    107.5252    209.0115   9.4111104315e+01   3.9395069023e+01  0.001233168 0.0006206425 -50.16  0.001789011    1.882    0.469
        84 -10.3006    112.6161    208.3026   9.4115606491e+01   3.9394557309e+01 0.0006831769 0.0006368046 -48.00 0.0006491726    1.030    0.029
        85  -9.2526    134.7844    208.0121   9.4135126307e+01   3.9394253642e+01 0.0006472138 0.0003006063 -52.08 0.0009683524    2.030    0.507
        86  -8.9851     28.6520    208.2844   9.4041706644e+01   3.9394907056e+01 0.0003774657 0.0002394734  42.60 0.0002883584    1.651    0.394
        87 -11.3394    246.9032    205.9551   9.4233864948e+01   3.9392263144e+01  0.001293748 0.0006162777 -29.92  0.002181722    2.030    0.507
        88 -12.1632     93.3586    202.3850   9.4098837190e+01   3.9390567072e+01  0.001406585  0.001130945 -71.21  0.003069651    1.201    0.168
        89  -9.8107    102.8270    202.6711   9.4107161560e+01   3.9390721657e+01  0.001144978 0.0005926238  27.25  0.001562717    2.019    0.505
        90 -10.0855     98.5614    196.9755   9.4103580505e+01   3.9386816397e+01  0.001339091 0.0006238992  21.45  0.001496825    2.234    0.552
        91  -9.2753    102.5640    195.5629   9.4107145810e+01   3.9385825029e+01 0.0004958023 0.0003189403  77.00 0.0004495093    1.578    0.366
        92  -8.9146     32.9761    206.9544   9.4045553657e+01   3.9393973151e+01 0.0005763615 0.0003463588 -47.85 0.0004989834    1.586    0.370
        93  -8.7151    175.1750    205.4059   9.4170752863e+01   3.9392260999e+01 0.0004684552 0.0003177644  19.51 0.0002674021    1.528    0.345
        94  -8.8899    149.2224    204.4100   9.4147941517e+01   3.9391702533e+01 0.0008384616 0.0001732667 -53.52  0.000962975    4.170    0.760
        95  -9.0892    125.4423    205.2860   9.4126986266e+01   3.9392419248e+01 0.0005107847 0.0003137951  72.88 0.0009507257    1.664    0.399
        96  -9.2724    167.0070    203.2287   9.4163628977e+01   3.9390801484e+01 0.0004728471 0.0004413699   4.89 0.0003294185    1.100    0.091
        97  -8.9943    132.9803    202.7228   9.4133697650e+01   3.9390617679e+01 0.0004766745 0.0004666529 -37.94 0.0003983813    1.027    0.026
        98 -10.8698    222.4909    245.1910   9.4211229332e+01   3.9419431063e+01 0.0006609483 0.0004983722  -5.58 0.0008389163    1.336    0.252
        99  -9.8229     64.2104    202.0494   9.4073194434e+01   3.9390463237e+01 0.0008018343 0.0004390469 -19.58  0.000473483    1.800    0.444
       100 -10.2242    115.1056    200.2293   9.4118041680e+01   3.9388983010e+01 0.0005849307 0.0004907336  87.15 0.0002346801    1.190    0.159
       101  -9.6459    196.9779    200.4913   9.4190086768e+01   3.9388763765e+01 0.0005295662 0.0003442434  -1.86 0.0004962116    1.557    0.358
       102  -8.8031    183.1930    200.4107   9.4177957595e+01   3.9388778620e+01 0.0004662211 0.0003189367  19.50 0.0003091986    1.515    0.340
       103  -8.7043    169.5106    200.4759   9.4165914271e+01   3.9388892230e+01  0.000345704 0.0003384409 -61.90 1.197264e-05    1.024    0.023
       104  -9.7621    120.0373    199.3634   9.4122408093e+01   3.9388363550e+01 0.0006265635 0.0004980265  77.30 0.0002130544    1.274    0.215
       105  -9.5988     43.2254    199.4707   9.4054805395e+01   3.9388774708e+01  0.000879627 0.0004201611 -47.12 0.0009337983    1.982    0.495
       106 -11.5794    249.4757    195.6342   9.4236429094e+01   3.9385137127e+01  0.001401971 0.0007129586  67.94  0.002405537    2.037    0.509
       107  -9.3065     84.7654    192.2589   9.4091583229e+01   3.9383627997e+01 0.0005708748 0.0004183902  89.89   0.00037275    1.353    0.261
       108  -8.3419     86.2728    199.2672   9.4092696101e+01   3.9388450332e+01   0.00053862 0.0004044616 -68.71 0.0001806168    1.281    0.220
       109  -9.4267     85.9750    195.7475   9.4092541352e+01   3.9386026395e+01 0.0005299878 0.0005035532 -65.55 0.0003165558    1.022    0.021
       110 -10.9838     57.7932    194.0504   9.4067792542e+01   3.9384978996e+01  0.001694718 0.0008889491 -78.57  0.002076303    1.846    0.458
       111  -9.9540     52.9885    197.7524   9.4063450430e+01   3.9387550007e+01 0.0009080351 0.0005715116  20.11  0.001738776    1.647    0.393
       112  -9.5543    134.0269    197.7107   9.4134769473e+01   3.9387159163e+01 0.0006369304 0.0004617872  75.37 0.0003240516    1.401    0.286
       113  -9.3030    133.4099    194.2934   9.4134329233e+01   3.9384807417e+01 0.0006205851 0.0003853101 -21.04 0.0007323465    1.585    0.369
       114 -11.5415     64.4883    195.0095   9.4073654996e+01   3.9385611381e+01  0.001055366 0.0006344907 -54.39  0.001300727    1.582    0.368
       115 -10.5062     76.6356    187.8291   9.4084564368e+01   3.9380611360e+01  0.001322548  0.000595215  65.10  0.001683504    2.329    0.571
       116 -11.6728     70.0601    187.4033   9.4078791234e+01   3.9380346548e+01 0.0009004496 0.0006432082 -45.08 0.0005636517    1.341    0.255
       117 -12.6659     38.2041    194.0850   9.4050552715e+01   3.9385084481e+01  0.001349095 0.0006278228 -67.53 0.0007353981    2.038    0.509
       118  -9.7890    113.3828    195.7361   9.4116661415e+01   3.9385894984e+01 0.0006325808 0.0004636333  20.13  0.001027446    1.414    0.293
       119  -9.4261    112.6513    192.1774   9.4116125301e+01   3.9383446232e+01 0.0007266472 0.0003630182 -55.09  0.001006735    1.892    0.472
       120 -12.8730     38.9792    228.7068   9.4050164917e+01   3.9408936458e+01  0.001329186  0.001152933 -86.56  0.001366417    1.141    0.123
       121  -9.7706    159.7600    194.1286   9.4157522558e+01   3.9384566778e+01 0.0006178475 0.0004500822  37.87  0.000424562    1.434    0.303
       122 -10.2700    120.4148    192.3602   9.4122951724e+01   3.9383536313e+01  0.001071741 0.0006218843 -63.32  0.001488808    1.642    0.391
       123  -9.3901    118.0114    189.9878   9.4120908343e+01   3.9381912801e+01 0.0005126159 0.0004860449 -56.01            0    1.011    0.011
       124 -14.5726     46.7733    216.9740   9.4057388063e+01   3.9400820110e+01  0.006639503  0.002783414 -33.66  0.008561597    2.286    0.563
       125  -9.7224     72.9024    193.0169   9.4081120570e+01   3.9384202172e+01 0.0005120642 0.0004844371 -56.04 0.0002884885    1.013    0.013
       126 -12.1844    128.5891    234.4619   9.4128876730e+01   3.9412507961e+01  0.002601108 0.0006744324  14.19   0.00270911    4.023    0.751
       127 -10.0436    191.4166    191.5208   9.4185457790e+01   3.9382611164e+01 0.0006566053  0.000564346 -49.39 0.0006424976    1.115    0.103
       128  -9.3114    135.1506    190.0010   9.4135990088e+01   3.9381841511e+01 0.0005290703  0.000441986  51.37  0.000399838    1.245    0.197
       129  -9.8039     32.2439    189.9029   9.4045437043e+01   3.9382227274e+01   0.00106607 0.0005669595   1.11  0.001883111    1.909    0.476
       130 -12.0322    249.8394    185.9209   9.4237031361e+01   3.9378442025e+01  0.002501133 0.0007273198 -88.08  0.003279244    3.392    0.705
       131 -12.8382    248.2124    101.6358   9.4238048075e+01   3.9320372554e+01  0.002365573  0.001442547 -85.43  0.004497773    1.611    0.379
       132 -12.3538    248.5562    171.7962   9.4236312780e+01   3.9368716164e+01  0.001894694  0.001419976 -61.39  0.003589643    1.277    0.217
       133 -13.1383    248.3234    114.3564   9.4237776429e+01   3.9329137315e+01  0.003896718  0.001999041 -61.74  0.006851185    1.848    0.459
       134 -12.5342    248.3422    134.2298   9.4237215952e+01   3.9342831408e+01  0.002909864  0.001672468 -85.76  0.005373032    1.710    0.415
       135 -10.6755    141.5055    183.1956   9.4141786425e+01   3.9377121980e+01  0.001112383 0.0009149737  -1.32 0.0006384498    1.233    0.189
       136  -9.1725     36.8461    184.0943   9.4049666394e+01   3.9378206224e+01 0.0007235411 0.0004459268   5.56 0.0006670785    1.657    0.396
       137 -10.1252     24.2951    184.1706   9.4038619950e+01   3.9378309722e+01 0.0006356329 0.0005002966   4.47 0.0005342424    1.297    0.229
       138  -9.5397    126.1807    180.1237   9.4128394364e+01   3.9375077908e+01 0.0006940243 0.0004390671  64.59  0.001322893    1.634    0.388
       139 -13.6927    245.2588    158.2537   9.4233805643e+01   3.9359402508e+01  0.006016193  0.002176436  74.53  0.008672035    2.880    0.653
       140  -9.7015    115.2722    177.3660   9.4118879372e+01   3.9373228515e+01  0.000931285 0.0005096511  81.82  0.001660184    1.843    0.457
       141  -9.1023     47.8219    179.6803   9.4059460407e+01   3.9375119535e+01 0.0004842499 0.0003094855  13.23  0.000500609    1.611    0.379
       142  -9.9477     19.9939    179.0770   9.4034993360e+01   3.9374817309e+01 0.0005421164 0.0004871461 -48.01  0.000396442    1.067    0.063
       143 -12.2761    245.3713    241.0901   9.4231493679e+01   3.9416481938e+01  0.001324744 0.0007994854 -65.33  0.002511336    1.583    0.368
       144  -9.4089     85.0943    173.9136   9.4092431973e+01   3.9370986022e+01 0.0006643115 0.0004530216  62.03 0.0003240516    1.518    0.341
       145  -9.6111    121.9217    175.5590   9.4124784602e+01   3.9371952557e+01 0.0004956604 0.0004531914 -84.03 0.0003130093    1.082    0.076
       146 -11.3029     79.0474    175.3536   9.4087067632e+01   3.9372004868e+01  0.000903396 0.0007025012 -13.09  0.001344967    1.283    0.220
       147  -9.6662     64.5023    175.5213   9.4074264928e+01   3.9372183355e+01 0.0006634039 0.0005856898  69.55 0.0006857085    1.160    0.138
       148 -11.1318     67.0432    172.3870   9.4076596548e+01   3.9370012828e+01  0.001198648 0.0007388394  72.24  0.001751699    1.661    0.398
       149  -9.6689    107.3605    172.9564   9.4112051652e+01   3.9370226433e+01 0.0005001189 0.0004338284  84.55  0.001010047    1.156    0.135
       150  -9.7465     91.0090    172.6851   9.4097673348e+01   3.9370113297e+01 0.0007647729 0.0004486071 -53.09  0.001010618    1.621    0.383
       151 -12.3504     86.9822    166.9664   9.4094304647e+01   3.9366190843e+01  0.001646422  0.001340377   0.34  0.003612636    1.249    0.199
       152 -10.5834     29.0103    170.9680   9.4043177900e+01   3.9369193853e+01 0.0009688632 0.0009067494  -4.11  0.002274419    1.087    0.080
       153  -8.6970     52.6185    171.1535   9.4063943234e+01   3.9369224242e+01   0.00047819 0.0003045432 -68.67 0.0002944627    1.506    0.336
       154 -10.6685     89.6161    159.5809   9.4096846666e+01   3.9361090240e+01  0.001195771 0.0005430982  73.43  0.001411134    2.273    0.560
       155 -10.9339     44.5168    168.6591   9.4056892017e+01   3.9367539439e+01   0.00144453 0.0009370702 -23.92  0.002835247    1.511    0.338
       156  -9.5308    126.9464    167.3654   9.4129452295e+01   3.9366283286e+01 0.0007752207 0.0005139147 -28.17  0.001529813    1.470    0.320
       157 -10.0572     68.8147    166.7220   9.4078328609e+01   3.9366101847e+01 0.0006032271 0.0005339279  81.28 0.0004630351    1.140    0.123
       158  -9.0468     58.5043    167.4954   9.4069233990e+01   3.9366678896e+01  0.000346733 0.0003378782 -59.59 0.0008105926    1.019    0.018
       159  -8.9405     53.8456    164.8479   9.4065216685e+01   3.9364874361e+01 0.0004781737 0.0003877221  57.48 0.0003379509    1.278    0.218
       160  -8.8857     33.0994    164.8658   9.4046964289e+01   3.9364972689e+01 0.0005088921 0.0003724766 -50.68 0.0004012921    1.306    0.234
       161  -8.4966    177.5229    163.5291   9.4174062368e+01   3.9363393809e+01 0.0003441118 0.0003394278  77.50 0.0001474649    1.048    0.046
       162 -10.5563     39.9966    162.1011   9.4053117571e+01   3.9363039502e+01  0.001124189 0.0004741657  -9.38  0.001326731    2.370    0.578
       163  -9.4925     73.9109    159.6801   9.4083027432e+01   3.9361227737e+01 0.0006053249 0.0004399891 -51.60 0.0004370597    1.315    0.239
       164 -10.3216     72.5003    156.3376   9.4081888748e+01   3.9358930743e+01 0.0009245664 0.0006077368 -12.10  0.001747011    1.518    0.341
       165 -10.5537     95.6525    157.8284   9.4102210237e+01   3.9359855744e+01  0.001047313 0.0003237277  89.88  0.001400217    3.220    0.689
       166  -9.1035     78.8554    158.8428   9.4087402796e+01   3.9360629192e+01  0.000481068 0.0003952399  50.59 0.0005065746    1.267    0.211
       167  -9.0149    112.4549    157.9015   9.4116989106e+01   3.9359829694e+01 0.0004925916 0.0003387031 -88.64 0.0003402123    1.438    0.305
       168  -8.7751     52.4804    158.4711   9.4064211752e+01   3.9360486346e+01 0.0003573379 0.0003262826 -48.40 0.0002136675    1.050    0.048
       169 -12.4472     31.5360    155.6601   9.4045873700e+01   3.9358636134e+01  0.001780464   0.00137631 -81.59  0.002268696    1.266    0.210
       170 -12.3835     23.7293    154.7949   9.4039033025e+01   3.9358071555e+01    0.0017026  0.001324835 -45.01  0.003661892    1.233    0.189
       171  -9.3343    228.1982    155.2241   9.4218886146e+01   3.9357407506e+01 0.0005364236 0.0004495565 -53.00 0.0006071702    1.142    0.124
       172 -10.7625     99.0646    151.5122   9.4105403518e+01   3.9355488228e+01  0.001122709 0.0009710487   2.55  0.002535033    1.180    0.153
       173  -9.5903    102.0279    146.6732   9.4108156945e+01   3.9352140601e+01  0.001029054 0.0003679366 -57.76  0.001253944    2.592    0.614
       174 -10.0613    113.8531    150.5347   9.4118441707e+01   3.9354747171e+01 0.0007079742  0.000598092  88.42 0.0004322768    1.179    0.152
       175 -10.1687     60.7188    151.0179   9.4071687822e+01   3.9355316018e+01 0.0008566101 0.0004199129  40.94  0.001433247    2.152    0.535
       176 -11.0360     56.3188    150.3171   9.4067838904e+01   3.9354851791e+01  0.001716163   0.00123085  51.40  0.003520367    1.453    0.312
       177 -14.5572      9.5829    210.4081   9.4024856920e+01   3.9396446076e+01   0.01127377  0.003692447 -77.48   0.01590887    2.901    0.655
       178  -9.5713     87.0545    151.0353   9.4094853382e+01   3.9355213450e+01 0.0005795158 0.0003745074  47.08 0.0007695417    1.619    0.382
       179 -12.6549     67.8836    144.3902   9.4078193232e+01   3.9350718632e+01  0.001942583   0.00131059  55.46  0.002512875    1.543    0.352
       180 -11.3185     73.5821    139.7179   9.4083348397e+01   3.9347474538e+01  0.001440214 0.0008262257  16.91  0.001559171    1.802    0.445
       181  -9.5235     35.4690    148.9828   9.4049539816e+01   3.9354019315e+01 0.0005100264 0.0004617766 -86.38 0.0007192979    1.096    0.087
       182 -11.0443     38.5553    146.4534   9.4052332671e+01   3.9352263819e+01  0.001116003 0.0004565713  17.95  0.001635974    2.537    0.606
       183 -10.8770    133.4470    142.4118   9.4135921276e+01   3.9349058484e+01  0.001977895 0.0005603357  85.95   0.00252979    3.584    0.721
       184  -8.6737    107.3257    146.2791   9.4112828842e+01   3.9351844926e+01 0.0003823522 0.0002297798 -42.75 0.0002500439    1.592    0.372
       185 -10.7868     32.2150    145.8966   9.4046772958e+01   3.9351906118e+01 0.0008642158 0.0004727257 -75.60  0.001550962    1.763    0.433
       186 -11.4840     32.0635    140.1019   9.4046818845e+01   3.9347914053e+01  0.001048689 0.0005822479  59.46  0.001086094    1.881    0.468
       187  -9.5841     41.4993    140.4731   9.4055106686e+01   3.9348131116e+01 0.0003595958 0.0003242437 -47.78 0.0008092617    1.064    0.060
       188 -11.1199     60.0317    136.6967   9.4071522792e+01   3.9345451219e+01  0.001192355 0.0006287161  73.79  0.001543355    1.945    0.486
       189 -10.5007    236.3269    145.9968   9.4226305673e+01   3.9351005428e+01 0.0007145819 0.0005298536  -5.65 0.0008343133    1.359    0.264
       190  -9.6114     55.9704    138.5735   9.4067893179e+01   3.9346761648e+01 0.0005123971 0.0003400024  -3.52 0.0003261016    1.522    0.343
       191 -10.0770    110.4075    136.2794   9.4115841949e+01   3.9344940559e+01 0.0008394374 0.0004473435 -44.98  0.001193299    1.787    0.440
       192 -11.9359     45.3126    131.3871   9.4058740544e+01   3.9341854780e+01  0.001184089 0.0009021044  34.15  0.001937909    1.370    0.270
       193  -9.9214     79.2545    131.9043   9.4088575907e+01   3.9342065909e+01 0.0008148172 0.0003112334  35.56  0.001193287    2.784    0.641
       194 -11.1068     33.1629    131.6337   9.4048047513e+01   3.9342074825e+01  0.000891747 0.0004839346 -22.74  0.001310105    1.807    0.447
       195 -11.9386     31.7701    127.0596   9.4046964021e+01   3.9338928846e+01  0.001090578 0.0007322218  21.85  0.002162063    1.546    0.353
       196 -12.1857     15.3256    114.6678   9.4032886812e+01   3.9330456848e+01  0.001010163 0.0008055421 -83.81  0.002188951    1.232    0.189
       197 -12.8708     12.7532    127.3322   9.4030231287e+01   3.9339192996e+01  0.001547832  0.001270775 -42.98  0.002334506    1.171    0.146
       198 -13.0017     21.0895    121.5143   9.4037742994e+01   3.9335151215e+01  0.001931606  0.001013668 -12.47  0.003410369    1.898    0.473
       199 -10.4811    209.8277    125.7480   9.4203592261e+01   3.9337194203e+01 0.0006943674  0.000592326 -74.01 0.0004737406    1.138    0.121
       200  -8.4507     85.3109    126.6861   9.4094061282e+01   3.9338443692e+01 0.0003761497 0.0002411382  46.47 0.0006836762    1.633    0.388
       201  -9.7776     31.6775    195.3332   9.4044770556e+01   3.9385971154e+01   0.00090644 0.0004197183  16.58  0.001483662    2.235    0.553
       202 -10.6155     38.0470    121.6618   9.4052650699e+01   3.9335183906e+01 0.0004906087 0.0004460528 -20.23 0.0004389792    1.092    0.084
       203 -10.4624     54.7645    120.6903   9.4067381825e+01   3.9334444728e+01 0.0007996503 0.0004955161 -24.07  0.001150394    1.581    0.368
       204 -11.3306      7.6964    120.6995   9.4025990550e+01   3.9334642850e+01 0.0009765854 0.0004163198   5.25  0.001538731    2.395    0.582
       205  -9.9819     29.8861    183.8131   9.4043550762e+01   3.9378040849e+01 0.0009644798 0.0007019493 -73.19  0.001558525    1.328    0.247
       206  -8.9663     86.5555    116.7368   9.4095458604e+01   3.9331582739e+01 0.0005346753 0.0003060939  71.89 0.0007244633    1.793    0.442
       207  -9.6875    231.7905    116.5936   9.4223173637e+01   3.9330769180e+01 0.0004848358 0.0003197152  17.48 0.0004688795    1.569    0.363
       208 -11.4108     66.8682    128.5931   9.4077783692e+01   3.9339838267e+01   0.00105021 0.0007602557  77.05  0.002162628    1.400    0.286
       209 -10.9278    168.1535    113.3186   9.4167312825e+01   3.9328842914e+01 0.0008681343 0.0006030803  50.31 0.0009244107    1.502    0.334
       210 -11.0046    249.2551    151.0231   9.4237531185e+01   3.9354398146e+01  0.001373905 0.0008764142  86.17  0.002661722    1.564    0.361
       211  -9.5034    204.4072    111.1060   9.4199256007e+01   3.9327133345e+01  0.001023348  0.000268982 -27.07  0.001287746    3.609    0.723
       212 -10.4957     31.6450    110.9308   9.4047352554e+01   3.9327816281e+01 0.0006479067 0.0005018855  11.71 0.0005653826    1.328    0.247
       213 -10.3396     58.8526    110.1821   9.4071299100e+01   3.9327186903e+01  0.000792953 0.0003005793  29.10  0.001159507    2.784    0.641
       214  -9.8320    116.4867    129.0182   9.4121407828e+01   3.9339909248e+01 0.0008360247 0.0002150748 -40.25  0.001047345    3.554    0.719
       215  -8.8428     62.6547    107.3329   9.4074729609e+01   3.9325207505e+01 0.0003919035  0.000233168  45.65  0.000704989    1.763    0.433
       216  -8.7273    109.6955    128.7351   9.4115443912e+01   3.9339745513e+01 0.0003711914 0.0002330107 -42.72 0.0001590116    1.526    0.345
       217 -11.6333    248.1671    142.3547   9.4236825884e+01   3.9348431028e+01  0.001589716  0.001245818 -40.90  0.002849584    1.228    0.186
       218  -8.9651     42.9571     92.2076   9.4057875949e+01   3.9314868910e+01 0.0004542056 0.0002794153   0.10 0.0003698253    1.649    0.393
       219  -9.5133     24.1350     87.8882   9.4041462462e+01   3.9311969915e+01 0.0005453837 0.0004597157  49.00  0.000468548    1.236    0.191
       220 -10.6461    250.0173     86.5228   9.4240073218e+01   3.9309948606e+01 0.0005731859 0.0004601587 -86.40 0.0006267723    1.229    0.186
       221 -11.1581    200.9159    246.2458   9.4192202532e+01   3.9420270959e+01  0.001000829 0.0004846168  29.79 0.0007935414    2.166    0.538
       222 -12.8101     14.0769    238.9218   9.4027924788e+01   3.9416074777e+01  0.001681348  0.001334978  12.09  0.001636125    1.297    0.229
       223 -10.6647    193.7645    245.1639   9.4185938036e+01   3.9419562246e+01  0.000643999 0.0005674937  58.60 0.0002756781    1.175    0.149
