#   1 NUMBER                 Running object number                                     
#   2 MAG_AUTO               Kron-like elliptical aperture magnitude                    [mag]
#   3 X_IMAGE                Object position along x                                    [pixel]
#   4 Y_IMAGE                Object position along y                                    [pixel]
#   5 X_WORLD                Barycenter position along world x axis                     [deg]
#   6 Y_WORLD                Barycenter position along world y axis                     [deg]
#   7 A_WORLD                Profile RMS along major axis (world units)                 [deg]
#   8 B_WORLD                Profile RMS along minor axis (world units)                 [deg]
#   9 THETA_WORLD            Position angle (CCW/world-x)                               [deg]
#  10 FWHM_WORLD             FWHM assuming a gaussian core                              [deg]
#  11 ELONGATION             A_IMAGE/B_IMAGE                                           
#  12 ELLIPTICITY            1 - B_IMAGE/A_IMAGE                                       
         1 -13.0008     56.5196    127.2479   1.2721047682e+02   4.3542568965e+01     2.956222      1.13028 -71.05  0.009701907    3.845    0.740
         2 -13.5642    191.9570     27.5003   6.7435207684e+01   3.4100824864e+01     2.155888      1.56038  12.81   0.01067096    2.162    0.538
         3 -13.4580    202.7090     12.9260   6.2551968841e+01   3.3175628948e+01     1.385801     1.045095  41.70  0.008124439    1.663    0.399
         4  -9.7868    165.0016     11.9822   6.7077617072e+01   4.2372808976e+01    0.2039332    0.1370025  42.25 0.0003350835    1.590    0.371
         5  -8.0157    175.2774      3.6872   6.3470629178e+01   4.0685789924e+01    0.1275951   0.08691452 -70.35 0.0002587716    1.563    0.360
         6  -9.5599     11.8110      2.3955   1.0674620610e+02   7.1407321360e+01    0.1399564   0.07908665  10.20 0.0005727761    1.644    0.392
         7  -9.4096    104.0765    239.0407   1.3273992348e+02   1.1255983961e+01    0.2199169    0.1685865 -81.48 0.0003924332    1.342    0.255
         8 -11.8345    154.4635    247.0328   1.2405167937e+02   1.3277374634e+00    0.9175586    0.3125958  41.65  0.003774582    2.469    0.595
         9  -9.7624    133.6969    249.6395   1.2836766562e+02   4.4254852002e+00    0.2569112    0.2297441 -65.77  0.001736866    1.318    0.241
        10 -10.3267    121.2106    248.6413   1.3061024557e+02   6.6848110812e+00    0.2970262      0.25365 -58.95  0.001263718    1.414    0.293
        11 -11.2067     90.5226    246.5345   1.3610835847e+02   1.1976027875e+01    0.6174492    0.3380661  78.77  0.003118537    2.235    0.552
        12 -10.0965     97.1640    247.8595   1.3502113903e+02   1.0701820240e+01    0.3595973    0.1963093 -82.97  0.001829617    2.315    0.568
        13 -10.5973     80.6316    249.3246   1.3818435790e+02   1.2944336999e+01    0.4625954    0.2505919  78.00  0.002436891    2.084    0.520
        14 -10.4218     73.7754    246.7915   1.3917817465e+02   1.4421061428e+01    0.5061811    0.2595537  83.58  0.002553982    2.335    0.572
        15 -10.5563     69.9742    246.9845   1.3987500581e+02   1.4928900149e+01    0.4513457    0.2393449 -76.79  0.002548203    1.916    0.478
        16 -12.4645     57.2346    228.3643   1.4049872734e+02   2.0357175199e+01    0.8864573    0.6569374 -84.08  0.003545816    1.215    0.177
        17 -13.4924     78.3666    219.9697   1.3557837342e+02   1.9091158473e+01     3.686093    0.5323055  48.66  0.000797106    6.567    0.848
        18 -13.1298     47.2076    231.4996   1.4260910889e+02   2.1038787367e+01     1.644729    0.5860214 -70.71  0.007851902    2.606    0.616
        19 -12.0584     35.7089    228.9523   1.4445903467e+02   2.2976347436e+01     0.674858    0.5069508 -68.93  0.002099008    1.483    0.326
        20 -13.3381     10.2746    207.0101   1.4738921703e+02   3.0273392382e+01    0.9504336    0.7236059  22.66  0.005398301    2.063    0.515
        21 -12.3448     52.5158    217.2453   1.4034714934e+02   2.3289623585e+01    0.4173132    0.3788277 -57.08  0.001342769    1.533    0.347
        22 -14.3024     60.3697    206.0160   1.3764834501e+02   2.4656426010e+01     8.167569     0.922675  46.87   0.02226256    6.560    0.848
        23  -9.9109    192.3315    194.3495   1.0762834182e+02   3.7451341113e+00    0.6124178    0.3192379 -64.53  0.001941506    4.562    0.781
        24  -9.1124     71.4153    237.7796   1.3875914846e+02   1.6497565160e+01    0.2027503    0.1673763  60.97  0.001041817    1.181    0.153
        25 -10.9369     74.9478    186.4459   1.3213824183e+02   2.6991774232e+01    0.4138454     0.260516 -45.11  0.001419736    2.017    0.504
        26 -10.8928     79.0292    180.5970   1.3038656095e+02   2.7737116631e+01    0.3010253    0.2351033 -51.01 0.0007807382    1.433    0.302
        27  -8.8098    201.5382    183.3836   1.0357280390e+02   4.0032813445e+00    0.3073989    0.2341224 -78.35   0.00146541    1.973    0.493
        28  -9.1164     68.4702    235.4865   1.3908343281e+02   1.7370558368e+01    0.2247841    0.1163076  61.14 0.0007353506    1.740    0.425
        29  -9.6504     69.5433    228.9267   1.3824127229e+02   1.8534028861e+01    0.2653528    0.1829297  77.35 0.0007698169    1.267    0.211
        30  -8.9182    250.3140    248.1653   1.0642853692e+02  -1.4271947084e+01    0.2243596   0.09362292 -26.99  0.001091792    2.648    0.622
        31 -11.8320     92.5886    162.5210   1.2424520487e+02   2.9861866873e+01     1.449273     1.046594  83.47  0.001289352    1.558    0.358
        32 -10.1462    124.0042    174.3123   1.1883571363e+02   2.1482670906e+01     0.393905    0.1827329  34.64  0.001453214    2.561    0.610
        33  -9.8846    227.8363    171.1233   9.5918580854e+01   1.1483534170e+00    0.2603002     0.159423 -45.84 0.0009342239    1.670    0.401
        34  -9.2523     81.4871    170.7466   1.2831310173e+02   2.9677179358e+01    0.2546086    0.1940337  64.90 0.0004366717    1.299    0.230
        35  -9.5010     43.6206    173.0081   1.3743231916e+02   3.4259853138e+01    0.3224261    0.1755472  38.68  0.001692377    1.989    0.497
        36  -8.8350    114.8861    152.9624   1.1687512877e+02   2.8188580626e+01    0.2183702    0.1994569  89.20 0.0003189025    1.062    0.058
        37  -9.7958     48.0520    151.7093   1.3353073397e+02   3.8751679293e+01    0.3420345    0.1868044 -59.49  0.001117816    1.577    0.366
        38 -10.8653     53.6969    145.8912   1.3121151954e+02   3.9461108653e+01    0.6199861    0.3214889 -61.07  0.002994956    1.644    0.392
        39  -9.9742     47.5156    146.3404   1.3285845001e+02   4.0088150572e+01    0.2691987     0.213112  22.29   0.00160121    1.621    0.383
        40  -9.1983     98.5574    151.5238   1.2070546209e+02   3.1481079409e+01    0.2621223    0.1273465  50.79 0.0006421436    2.261    0.558
        41  -9.9264    104.9953    145.2529   1.1779298417e+02   3.1841507866e+01    0.5670509    0.3128135 -35.92  0.002188937    2.477    0.596
        42 -11.5418     93.1243    145.8262   1.2097988470e+02   3.3768456543e+01     0.290426    0.2631291 -41.54 0.0004491587    1.207    0.171
        43 -11.5296     28.8663    145.3283   1.3738743665e+02   4.2288410250e+01    0.4251354    0.3154906  -4.22  0.002528575    2.055    0.513
        44  -8.4613    180.2564    146.0529   9.9917651723e+01   1.5994098248e+01    0.2093121    0.1941289 -53.05 0.0002245806    1.074    0.069
        45 -10.2393    226.5189    139.8548   8.9331316900e+01   7.1826880408e+00    0.2384368     0.235173  53.33 0.0002981758    1.088    0.081
        46  -9.5973     38.6585    213.4536   1.4264139826e+02   2.5828445483e+01    0.2371899    0.1680181  74.95 0.0005407347    1.134    0.118
        47  -8.4259    112.8209    137.6474   1.1412835937e+02   3.2193811167e+01    0.1993279    0.1876291  67.35 0.0001479155    1.074    0.069
        48  -9.0375    113.2251    134.0659   1.1321610801e+02   3.2957373230e+01    0.3276901    0.2472046 -25.87 0.0007669902    1.678    0.404
        49  -9.9457    100.9745    130.6409   1.1569135257e+02   3.6024499796e+01    0.2858641    0.2358286 -20.24 0.0006535236    1.493    0.330
        50 -12.6111     42.9108    127.8472   1.3107185754e+02   4.4966675460e+01    0.8758664     0.597606 -86.50  0.004793421    1.583    0.368
        51 -10.7535     86.8451    169.8611   1.2689080635e+02   2.9048508703e+01    0.3155834    0.2761956 -61.11 0.0003733659    1.173    0.148
        52  -7.6982    173.3182    123.7047   9.6070203601e+01   2.2291939479e+01    0.1597295    0.1243487 -85.13 0.0003929612    1.609    0.378
        53  -9.4205    244.9774    121.1456   8.2026795278e+01   6.8122917360e+00    0.2303532    0.1864691 -42.07  0.000295638    1.109    0.098
        54  -8.9249    109.0640    122.0017   1.1149155114e+02   3.6550545432e+01    0.2140346    0.2080762 -47.36  0.000360416    1.046    0.044
        55 -11.2529     38.6741    116.3271   1.3021319209e+02   4.8079448207e+01    0.4331869     0.209497 -52.19  0.002126872    1.727    0.421
        56  -8.7670    167.6921    113.1338   9.4637803394e+01   2.5811659199e+01    0.3270429    0.2435198  88.72  0.001259083    1.771    0.435
        57 -12.6672     75.0762    165.9130   1.2908488993e+02   3.1790499982e+01    0.7585449    0.4101751 -47.34  0.001866983    2.059    0.514
        58  -9.9229      9.8821    110.8538   1.3748842061e+02   5.1708463191e+01     0.206226    0.1612194  34.20 0.0007678706    1.601    0.375
        59 -10.1679    167.4125    209.3699   1.1556365845e+02   5.7033498035e+00    0.3326363    0.2421273 -39.27 0.0006833022    1.536    0.349
        60  -8.9248    183.9455     76.8805   8.1699744232e+01   2.8808499521e+01    0.2247189     0.211325 -87.19 0.0005835159    1.010    0.010
        61  -9.6748    239.2022     65.4408   7.0329345509e+01   1.7539875502e+01    0.2358828    0.2040291 -58.74 0.0003812594    1.068    0.064
        62  -8.2079    125.1142     62.1639   9.0265546255e+01   4.5312788108e+01    0.1781857    0.1655331 -74.31 0.0002831402    1.228    0.186
        63 -11.3410    183.2678     34.2564   7.0417667518e+01   3.5396316584e+01    0.6105186     0.420485  64.55  0.001153338    1.313    0.238
        64 -10.9851     62.1347    249.1178   1.4144118786e+02   1.5621918340e+01    0.5388738    0.2848877  62.54  0.003122099    1.603    0.376
        65 -10.3190     82.9868    244.0484   1.3724278034e+02   1.3586971937e+01    0.2668735    0.1648845  78.75  0.001528582    1.625    0.385
        66  -8.3701     70.1916     49.3803   1.0217498162e+02   5.7782373111e+01    0.1750952    0.1171863  47.08 0.0008370308    1.797    0.444
        67 -13.2149     68.2832    145.2277   1.2733223336e+02   3.7717255370e+01     4.216809      1.93598  63.31   0.01372794    4.337    0.769
        68 -10.2615    136.1604     39.2769   8.0406338134e+01   4.6173783495e+01    0.2318564    0.2164249  30.09  0.000279208    1.069    0.064
        69  -8.7120    231.0992     16.7287   6.0520265588e+01   2.6118051935e+01    0.2197725     0.176116 -38.84 0.0009543243    1.419    0.295
        70 -15.6627     12.1376    240.5396   1.4921650419e+02   2.3360978724e+01     8.166808     1.304119 -71.26   0.02023006    4.617    0.783
        71 -12.9388     27.9329    249.2660   1.4720295483e+02   1.9945804570e+01      1.08892    0.4268532  37.87  0.005499465    2.769    0.639
