#   1 NUMBER                 Running object number                                     
#   2 MAG_AUTO               Kron-like elliptical aperture magnitude                    [mag]
#   3 X_IMAGE                Object position along x                                    [pixel]
#   4 Y_IMAGE                Object position along y                                    [pixel]
#   5 X_WORLD                Barycenter position along world x axis                     [deg]
#   6 Y_WORLD                Barycenter position along world y axis                     [deg]
#   7 A_WORLD                Profile RMS along major axis (world units)                 [deg]
#   8 B_WORLD                Profile RMS along minor axis (world units)                 [deg]
#   9 THETA_WORLD            Position angle (CCW/world-x)                               [deg]
#  10 FWHM_WORLD             FWHM assuming a gaussian core                              [deg]
#  11 ELONGATION             A_IMAGE/B_IMAGE                                           
#  12 ELLIPTICITY            1 - B_IMAGE/A_IMAGE                                       
         1 -10.7953    150.7908     15.7249   3.6583190767e+01   4.5011949088e+01    0.2603748    0.1918791  20.96 0.0007837621    1.906    0.475
         2 -11.7967    213.9531    246.6575   7.7192090063e+01  -7.5121942912e+00    0.2557564     0.176143 -12.50  0.001599006    1.287    0.223
         3 -11.5854    224.1396    248.4863   7.5589540829e+01  -9.0068264041e+00    0.2538393    0.1422832  23.63  0.001484658    1.635    0.389
         4  -9.9188     35.5097    242.4927   1.1465916624e+02   1.7698197981e+01     0.121617    0.1019526  66.09 0.0001089519    1.048    0.046
         5 -12.7146    240.5054    220.8632   6.8003463717e+01  -6.8544981952e+00    0.5677508    0.4676825  50.85  0.003658556    2.033    0.508
         6 -10.9117     36.0586    223.2684   1.1306484066e+02   2.1854501325e+01    0.2479316    0.1655898  87.15 0.0009138483    1.408    0.290
         7 -10.6692     59.8152    223.0059   1.0763187626e+02   1.9045081396e+01    0.2316841    0.1324712  71.17  0.001085817    2.012    0.503
         8 -12.2846     22.7098    218.5933   1.1566610404e+02   2.4360880916e+01    0.3981802     0.235125  68.37  0.001493339    1.561    0.359
         9 -10.7076     61.6020    216.8073   1.0656067018e+02   2.0240377134e+01     0.192481    0.1210169 -87.28 0.0009512119    1.725    0.420
        10 -11.8328     76.7833    212.6735   1.0242628348e+02   1.9148346217e+01    0.4554619    0.1849554 -68.59  0.001751703    2.756    0.637
        11 -12.2410     77.9612    204.9562   1.0114731527e+02   2.0810167240e+01    0.3729131     0.355539 -57.23  0.002223834    1.143    0.125
        12 -11.0985    149.7676    223.4922   8.6706230641e+01   5.5852667607e+00    0.3018742    0.2029731 -74.42  0.001381702    2.456    0.593
        13 -10.4633    240.2826    205.7335   6.5351558084e+01  -4.4512346281e+00    0.2070746    0.1475561  39.34  0.001255518    1.778    0.437
        14 -11.1919     18.8221    203.3357   1.1539377692e+02   2.8324399372e+01     0.395395    0.1603421  57.05   0.00170308    2.515    0.602
        15 -11.7834      5.8499    200.9303   1.1820388500e+02   3.0082189621e+01    0.2450259    0.1801004  52.53   0.00153514    1.282    0.220
        16 -11.4243     56.8510    205.4351   1.0645410862e+02   2.3550813851e+01    0.3734289    0.2299842  66.13  0.001806699    1.738    0.425
        17  -9.8044    140.3077    200.6485   8.5038626254e+01   1.1889970949e+01    0.1469647    0.1157565  74.17  0.000559193    1.713    0.416
        18 -10.0963     84.5259    199.0067   9.8670194444e+01   2.1289740505e+01    0.2200065     0.140609 -65.98  0.001032402    1.602    0.376
        19  -9.7463    124.4836    198.4452   8.8496298367e+01   1.5051144060e+01    0.1461887    0.1392661  43.55 0.0001269283    1.047    0.045
        20 -10.5842     80.3181    198.0743   9.9614775822e+01   2.2135783174e+01     0.246784    0.2062478  19.83  0.001327914    1.335    0.251
        21 -11.2714     66.4747    194.8616   1.0274149911e+02   2.4877313081e+01    0.3673604    0.2172385  69.34   0.00159745    2.080    0.519
        22 -11.6420    160.9016    194.3246   7.9067030904e+01   9.7412788745e+00    0.3366962    0.2867967  62.59 0.0009638034    1.461    0.315
        23 -10.3876    121.2401    188.3038   8.7530985846e+01   1.7958482415e+01    0.3120796    0.1634548  53.42  0.001169838    2.425    0.588
        24 -10.3832     94.6256    186.4731   9.4124037984e+01   2.2815209530e+01    0.2980954    0.1414193 -75.31 0.0009532864    3.490    0.713
        25 -10.2285    109.0374    186.0064   9.0261690838e+01   2.0578367595e+01    0.2512441    0.1814909  71.05  0.001134249    1.762    0.433
        26 -10.5272    147.6168    180.2538   7.9464309501e+01   1.5157359248e+01    0.3479584    0.1982508 -63.72  0.001340602    2.408    0.585
        27  -9.8112    248.4915    180.5044   5.9327032485e+01  -1.3889818951e+00    0.1274782    0.1016118 -27.85 0.0005038058    1.025    0.024
        28 -10.5723    191.8039    177.5309   6.9041893857e+01   7.8835829455e+00    0.3474769    0.1875886 -47.87  0.001525562    1.843    0.457
        29 -10.4356    101.0027    175.9859   9.0618513373e+01   2.4390687795e+01    0.2098069    0.2071422  82.23  0.001150873    1.009    0.009
        30 -10.2848     12.6049    176.0417   1.1463982863e+02   3.5600158549e+01    0.2886398    0.1443447  81.18  0.001303883    2.116    0.527
        31 -11.3626    120.5260    171.9300   8.4643893293e+01   2.2012007263e+01    0.5425953    0.2579946 -40.99  0.001969835    2.366    0.577
        32  -9.8848    206.3316    170.6630   6.4767714409e+01   6.7680783120e+00    0.1357488    0.1115976 -76.32 0.0007052069    1.737    0.424
        33 -10.3610     99.9752    166.6511   8.9175239229e+01   2.6912994806e+01    0.2679837   0.09976867  52.07  0.000704914    4.454    0.775
        34 -10.3048    138.7155    164.7599   7.8497778668e+01   2.0375791895e+01    0.3120238    0.1970721 -73.31  0.001178647    2.469    0.595
        35 -10.6213     79.6207    163.7100   9.4388396979e+01   3.0944616185e+01    0.5152227     0.279824  79.22  0.001578823    4.009    0.751
        36 -10.8019     93.2075    160.1516   8.9835618467e+01   2.9702859951e+01    0.3113165    0.1912226  59.28  0.001246509    2.076    0.518
        37 -10.4301    198.2265    158.4218   6.3790692170e+01   1.0577591949e+01    0.1941081    0.1394024  54.53 0.0009560534    1.713    0.416
        38 -10.2497    105.4144    158.1226   8.5980562943e+01   2.8128720779e+01    0.3077178    0.1994638  69.62  0.001191483    2.299    0.565
        39  -9.9322    218.8312    156.1433   5.9494703778e+01   7.4311912714e+00    0.1952989    0.1502733 -19.81 0.0009973515    1.331    0.248
        40 -11.4174    119.0130    153.5781   8.1269579696e+01   2.6784855642e+01    0.5575583    0.2466043 -56.15  0.001936191    2.403    0.584
        41 -10.5145     49.4966    155.0023   1.0178780383e+02   3.7338871541e+01     0.314274    0.1418755  59.25   0.00104156    3.504    0.715
        42 -10.1453     43.0001    155.4917   1.0379714174e+02   3.7962027333e+01    0.2023241    0.1426826  28.71 0.0006547933    1.554    0.356
        43 -11.2784     13.6087    160.6114   1.1289656826e+02   3.9439751273e+01     0.264491    0.2172002 -64.91 0.0007177886    1.139    0.122
        44 -10.8408    237.1609    157.3997   5.6674607286e+01   4.2383432508e+00    0.1595524    0.1282244  58.56 0.0008167308    1.672    0.402
        45 -10.6129     39.2399    147.6812   1.0377124823e+02   4.0427339465e+01    0.3532726    0.1612466  64.15  0.001142865    3.922    0.745
        46 -10.9076     55.3774    145.2570   9.8386870391e+01   3.9181625874e+01     0.462704    0.2556336  80.26  0.001637788    3.124    0.680
        47 -10.4285    149.0572    145.6763   7.1725561460e+01   2.2791507441e+01    0.3573726    0.2386886  82.43  0.001306266    2.808    0.644
        48 -11.3851    107.1863    145.3780   8.2774824889e+01   3.1012795723e+01    0.4957512    0.2912218  66.43  0.001701266    2.951    0.661
        49 -10.8392    125.2273    143.2947   7.7292598162e+01   2.8099141446e+01    0.4086243    0.2584923 -82.44  0.001405857    2.991    0.666
        50 -10.8086     87.8648    143.7666   8.8101088134e+01   3.4800404663e+01     0.308017     0.207121 -88.88  0.001239824    2.150    0.535
        51 -11.4375     21.4746    139.2871   1.0805947997e+02   4.4312373356e+01    0.3793814    0.2908635   9.46 0.0004746434    1.571    0.363
        52 -10.7783      1.3741    136.1932   1.1386726815e+02   4.6538153107e+01    0.2511653   0.09950282 -70.03 0.0006654395    1.984    0.496
        53 -11.1990     83.5966    132.8075   8.7035814001e+01   3.8307524046e+01    0.4609611    0.3042517  82.61  0.001788487    2.459    0.593
        54 -10.5386    131.6232    131.3661   7.2759806565e+01   2.9646767046e+01    0.4029321    0.1978611 -61.76  0.001295744    3.003    0.667
        55 -11.3051     98.3455    126.6564   8.1051176933e+01   3.7283715126e+01    0.7892694    0.3394002 -61.58  0.002475256    3.144    0.682
        56 -10.1406     72.8376    129.2455   8.9670087268e+01   4.0917903385e+01    0.2587389    0.1589837  71.63 0.0008727499    2.784    0.641
        57 -10.4898     59.4039    124.7423   9.3124924190e+01   4.3994774188e+01    0.4111515    0.2352536  79.69  0.001358949    3.726    0.732
        58 -11.7307     43.4425    122.3737   9.8062110515e+01   4.6566844103e+01    0.7880233    0.4074633 -85.00  0.002806684    3.193    0.687
        59 -10.5019    117.2628    125.1531   7.5140527824e+01   3.4016284699e+01    0.3022216    0.2097838  69.55  0.001051463    2.038    0.509
        60 -11.1295     28.7968    123.0342   1.0319350726e+02   4.7878305273e+01    0.5449912    0.2743886  79.47  0.001877544    3.799    0.737
        61 -11.5296    158.5394    121.7208   6.3762101487e+01   2.6130686726e+01    0.3186693     0.241738  82.74  0.001437445    1.764    0.433
        62 -10.1942     71.3298    120.6549   8.8227186206e+01   4.3322601216e+01    0.1564273    0.1182996  75.08 0.0007050375    1.754    0.430
        63 -11.1721    141.2281    118.1400   6.6986445967e+01   3.0626970151e+01    0.4290636    0.2459485 -59.89  0.001632664    2.182    0.542
        64 -10.6935    130.6687    118.5644   6.9805583212e+01   3.2780744051e+01    0.3516575      0.23617 -81.80  0.001322156    2.524    0.604
        65 -10.4907      2.6986    116.8349   1.1112112634e+02   5.1346520325e+01    0.4633074    0.1548706 -87.70  0.001278279    5.891    0.830
        66 -10.9138    108.5913    113.2168   7.4575105467e+01   3.8536685006e+01    0.6660295    0.3127675 -61.82  0.002076898    3.349    0.701
        67 -11.2895     92.3745    112.0891   7.9240931328e+01   4.1892182282e+01    0.6225265    0.3276772 -63.87   0.00222528    2.611    0.617
        68 -11.5363     14.2473    109.4507   1.0599321772e+02   5.2476226844e+01    0.6190948    0.2900705 -69.02  0.002810157    1.887    0.470
        69 -11.7740     46.1963    103.2324   9.2982362861e+01   5.1042225280e+01    0.7188469    0.3901856  70.02  0.002120299    5.479    0.817
        70 -10.1396    139.9394    105.4651   6.3997468135e+01   3.3631173429e+01    0.2239539    0.1365238  71.28 0.0008090807    2.632    0.620
        71 -10.9369      6.8087    102.6647   1.0758179502e+02   5.4622171289e+01    0.4767314    0.2008387 -77.87  0.001959919    2.592    0.614
        72 -11.3184    128.6158    102.4854   6.6077454440e+01   3.6737661852e+01    0.3150782    0.2216103  81.04  0.001291866    2.161    0.537
        73 -10.4673     66.4875    110.9881   8.7568123976e+01   4.6444930442e+01    0.2084693    0.1334021 -83.49 0.0008102432    2.529    0.605
        74 -12.6242     63.7570    100.3211   8.5828194639e+01   4.9410123191e+01    0.5554223    0.3132084 -55.55  0.001097345    1.744    0.427
        75 -11.3934    109.4394     99.5632   7.0597994381e+01   4.1424081361e+01    0.6921651    0.4111677  68.97  0.002381821    3.185    0.686
        76 -11.3630     78.7173    112.1348   8.3695996433e+01   4.4252890439e+01    0.6231247    0.3481852 -77.51  0.001964717    3.861    0.741
        77 -10.7004     94.5747     97.0033   7.4415677748e+01   4.4931000355e+01    0.3167191     0.202689 -65.41  0.001296848    2.137    0.532
        78 -10.5589     18.4666     93.3632   1.0142031286e+02   5.6101164984e+01    0.2165525    0.2068066 -10.34 0.0005493752    1.172    0.147
        79 -11.0194     34.6077     89.4193   9.4110895954e+01   5.5605947811e+01    0.5552211    0.2278958 -69.20  0.001892592    3.658    0.727
        80 -10.4355    124.4725     90.9784   6.3947294059e+01   4.0013883352e+01    0.2194913    0.1303145 -64.43 0.0008098729    2.556    0.609
        81 -11.1652     86.6505     87.1391   7.4104214663e+01   4.8546319484e+01    0.3858094    0.2726173  76.29   0.00161916    2.439    0.590
        82 -11.3759     79.7249     87.9581   7.6698448586e+01   4.9622043215e+01    0.2492637    0.2236616  21.85 0.0002484272    1.109    0.098
        83 -11.0055     48.9302     85.0455   8.7266480969e+01   5.4957726708e+01    0.4449931    0.2794189  71.35  0.001665592    3.711    0.730
        84 -11.2682    104.3367     83.1088   6.7288706465e+01   4.5890135887e+01    0.3979556    0.2560366 -69.32  0.001569274    2.581    0.613
        85 -10.7768     23.8844     80.0138   9.6174294349e+01   5.8769479410e+01    0.3061123    0.1782965 -86.79  0.001251351    3.252    0.692
        86  -9.8952    127.9998     76.2503   5.8738975832e+01   4.2027613925e+01     0.264107    0.1540138 -70.78 0.0008872648    3.509    0.715
        87 -10.8517    103.3176     75.8803   6.5358523980e+01   4.7495989336e+01    0.2650216    0.1999403  55.04  0.001310624    1.412    0.292
        88 -11.8429     38.0010     64.8318   8.5760316182e+01   6.0598326391e+01    0.4431469    0.3305101  81.91  0.002189539    2.571    0.611
        89 -10.8475     62.6825     74.0218   7.8596402907e+01   5.5361208654e+01    0.3711311    0.1744421 -54.78  0.001465837    2.562    0.610
        90 -11.4395     47.9142     71.9719   8.3813575902e+01   5.7905756269e+01     0.205226      0.18451 -16.27 0.0004218012    1.040    0.039
        91  -9.7462    179.0462     70.0174   4.6617832740e+01   3.1306608200e+01    0.1660619    0.1458187  78.53 0.0003620024    1.104    0.095
        92 -11.3221     82.3917     72.6279   7.0998118137e+01   5.2258830584e+01    0.4610767    0.3086132 -59.03  0.002127836    1.963    0.491
        93 -11.6520      7.4185     65.1514   9.9707387583e+01   6.3248780765e+01    0.4094225    0.2609345  26.76  0.001549428    1.812    0.448
        94 -11.6922     25.0766     58.1404   8.9465038051e+01   6.3319339619e+01    0.4462511    0.2958115 -61.65  0.002441643    1.805    0.446
        95 -11.5550     20.5154     51.5795   8.9511686380e+01   6.5031273394e+01    0.5172594    0.2678031 -58.08  0.002564464    2.182    0.542
        96 -11.4059     42.7769     68.9889   8.5023285909e+01   5.9176752669e+01    0.6528828    0.2062495 -48.92  0.002446636    2.834    0.647
        97 -12.7815      9.5476     49.5101   9.4292602525e+01   6.6320663313e+01    0.5387983    0.2192849 -42.17  0.001021139    1.961    0.490
        98  -9.7604    105.6729     53.3496   5.7351728781e+01   5.0828039737e+01    0.1413024    0.1108714 -79.83  0.000704883    1.759    0.431
        99 -10.9112     31.1265     51.6392   8.4454595577e+01   6.3945554249e+01    0.3258291    0.2382889 -80.96  0.001640559    2.737    0.635
       100  -9.4429     48.2976     49.3164   7.5881580833e+01   6.2159462426e+01    0.1354935   0.09139495  -7.60 0.0004018151    1.610    0.379
       101 -10.9212     81.9573     45.9253   6.1851266739e+01   5.6890343510e+01    0.2937644    0.1931809 -42.51 0.0008222843    1.715    0.417
       102 -10.3432    147.8459     43.8163   4.4947254899e+01   4.2460014406e+01    0.1913148    0.1767219  51.89 0.0005130892    1.138    0.122
       103  -9.5174     62.3354     54.6731   7.2126751519e+01   5.9058629296e+01    0.1267142    0.1109336  79.77 0.0005522119    1.721    0.419
       104 -10.8198      4.9242     40.7127   9.3863694336e+01   6.8320354607e+01    0.4267299    0.1647818 -65.40  0.001584336    4.644    0.785
       105 -10.3400     57.5335     41.2786   6.8938601359e+01   6.2032107504e+01    0.2287982     0.122569 -41.81 0.0008645477    2.037    0.509
       106  -9.5709     45.4847     35.4828   7.1644960662e+01   6.4802826152e+01    0.1265726    0.1075155   4.68   0.00039178    1.053    0.050
       107 -10.5960     72.7328     31.9804   5.9586523692e+01   6.0611332996e+01    0.2138167    0.1470882  87.56 0.0009002834    3.576    0.720
       108  -9.7803    109.1393     26.3987   4.7296633552e+01   5.3576679042e+01    0.1857058    0.1168215  70.70 0.0009382654    1.694    0.410
       109 -10.5106     37.2906     25.7950   7.1201500816e+01   6.7392203692e+01    0.2580661    0.1433311  31.22  0.001427941    1.644    0.392
       110  -9.7334     28.2691     26.3627   7.5854375958e+01   6.8510568741e+01    0.1261677   0.07775523  -9.93  0.000233422    1.651    0.394
       111 -11.0833     63.2887     21.1291   5.8393619362e+01   6.3699856648e+01    0.2552941    0.2070477 -25.50  0.001012386    1.371    0.271
       112  -9.8137    136.8739     20.8544   4.0142962083e+01   4.7750791262e+01    0.1702967    0.1376117 -81.45 0.0002684425    1.271    0.213
       113 -11.1205     32.6806     19.4586   7.0508561497e+01   6.8891875856e+01    0.2549934    0.2109177  14.33 0.0007687199    1.158    0.136
       114 -10.9852    122.4552     18.1867   4.1837773290e+01   5.1376370272e+01    0.3532718    0.1872035  56.26  0.001087011    1.587    0.370
