#   1 NUMBER                 Running object number                                     
#   2 MAG_AUTO               Kron-like elliptical aperture magnitude                    [mag]
#   3 X_IMAGE                Object position along x                                    [pixel]
#   4 Y_IMAGE                Object position along y                                    [pixel]
#   5 X_WORLD                Barycenter position along world x axis                     [deg]
#   6 Y_WORLD                Barycenter position along world y axis                     [deg]
#   7 A_WORLD                Profile RMS along major axis (world units)                 [deg]
#   8 B_WORLD                Profile RMS along minor axis (world units)                 [deg]
#   9 THETA_WORLD            Position angle (CCW/world-x)                               [deg]
#  10 FWHM_WORLD             FWHM assuming a gaussian core                              [deg]
#  11 ELONGATION             A_IMAGE/B_IMAGE                                           
#  12 ELLIPTICITY            1 - B_IMAGE/A_IMAGE                                       
         1  -8.4172    165.0180      8.4043   3.5873121610e+01   4.1989694683e+01    0.1993396    0.1760616 -50.51 0.0002661153    1.254    0.202
         2  -7.0233    220.6789    239.2797   7.7709181877e+01  -7.1609355939e+00    0.1031534    0.0934883  39.38 0.0005613542    1.584    0.369
         3  -7.1811    229.9808    250.0386   7.7759223457e+01  -9.8194605797e+00    0.1387492    0.1065005  -3.81  0.000333791    1.049    0.047
         4  -9.3789    190.0992    237.2779   8.3235309809e+01  -2.6380691161e+00    0.2991449     0.260455  67.90  0.001613286    1.776    0.437
         5  -7.7137      2.0000    239.0403   1.2272158434e+02   2.2867547110e+01     0.177178   0.05432072 -79.34 0.0001425657    2.963    0.662
         6 -10.2489    210.4436    231.5012   7.8333925064e+01  -4.6285357098e+00    0.2260435    0.1910321  -8.34 0.0001757235    1.096    0.088
         7  -9.2791    178.2365    231.3453   8.4676140173e+01   9.8620470155e-02    0.2898394    0.2289023  45.35 0.0001773006    1.429    0.300
         8  -9.1895    179.7149    226.7150   8.3617405697e+01   6.6125018336e-01    0.3107481     0.237012  19.78 0.0004600623    1.188    0.158
         9  -8.6595    180.4264    222.1157   8.2704752905e+01   1.3469793466e+00    0.2352612    0.2040597  11.09 0.0003227865    1.008    0.008
        10  -6.9530     20.7009    233.7853   1.1881269401e+02   2.2070973018e+01   0.09199748   0.09074415  -2.59            0    1.452    0.311
        11  -6.9927    215.3124    229.7056   7.7114333715e+01  -5.0269713666e+00    0.1062452   0.09938681  51.36 0.0003068021    1.595    0.373
        12  -6.8266     69.3406    226.3180   1.0788307177e+02   1.7762623154e+01    0.1227207    0.1019322 -20.55 0.0007049173    1.712    0.416
        13  -7.6838    100.4912    223.9199   1.0058213413e+02   1.3749921720e+01    0.1863889     0.133275 -61.29 0.0009938064    1.528    0.346
        14  -7.1601    248.6546    223.6948   7.0152487198e+01  -8.4734402464e+00    0.1238903   0.07526844  -4.62 0.0007041775    1.692    0.409
        15  -7.3536    190.4671    223.0601   8.0816883237e+01  -3.6268760452e-01    0.1770982    0.1225447 -35.68 0.0003459989    1.468    0.319
        16  -7.6426    207.6981    219.9249   7.6885319516e+01  -2.4134226785e+00    0.1731025    0.1447828 -14.79 0.0004081939    1.096    0.087
        17  -9.9459    147.2430    215.8441   8.8798131741e+01   7.8774642788e+00    0.2482563    0.2336791 -40.27 0.0004506677    1.161    0.139
        18  -7.0272     55.7002    215.2877   1.0981632225e+02   2.1994282756e+01    0.1358441   0.08507319  63.60 0.0006976626    1.557    0.358
        19  -6.6233    137.3032    213.3214   9.0630803116e+01   1.0033152358e+01    0.1396215    0.1068863  -6.67 0.0004357681    1.632    0.387
        20  -8.5527     99.0098    211.0082   9.9197181068e+01   1.6753839670e+01    0.2028085    0.1866827  54.90            0    1.012    0.012
        21  -7.1061     58.3361    210.3038   1.0869123305e+02   2.2778787161e+01    0.1249848    0.1027965 -28.51 0.0007038454    1.667    0.400
        22  -7.4236    237.3151    206.6368   6.9096290380e+01  -4.4918348390e+00    0.1115372   0.09889643 -63.10 0.0007040924    1.763    0.433
        23  -8.9015    170.0444    201.8139   8.1360046674e+01   6.7784054536e+00    0.2124736    0.1914103 -26.02 0.0003803715    1.118    0.105
        24  -6.9315    217.6759    201.3349   7.1661412879e+01  -8.2760643144e-01    0.1179422    0.1065006 -81.45 0.0004493967    1.713    0.416
        25  -7.9435    155.7050    198.6378   8.3957575513e+01   9.8814810410e+00    0.3005694    0.1735619 -56.68  0.001100182    2.071    0.517
        26  -9.3824     31.3319    197.4712   1.1373213136e+02   2.8989964797e+01    0.2323653    0.2059664 -71.74  0.001509757    1.208    0.172
        27  -7.1231    223.9575    195.7896   6.9477853029e+01  -8.4269958930e-01    0.1606896   0.09967206  32.88 0.0005286428    1.666    0.400
        28  -6.9661    199.3153    193.2902   7.3685738295e+01   3.4630703248e+00    0.1387756   0.09911183  -2.98  0.000251699    1.593    0.372
        29  -7.9797     97.7204    187.4636   9.6007685833e+01   2.2340361675e+01    0.2448635    0.1922359 -60.70 0.0003987848    1.301    0.231
        30  -7.2591     78.7764    187.8006   1.0088520286e+02   2.5211221919e+01    0.1894284    0.1519281  67.93 0.0003614146    1.248    0.199
        31  -7.4543    102.7375    184.0328   9.4171019132e+01   2.2324371981e+01    0.1972754    0.1821589 -67.76   0.00109088    1.102    0.093
        32  -9.0260     33.8122    181.9505   1.1160352351e+02   3.2430905218e+01    0.2019119    0.1927546  87.44 0.0002617871    1.155    0.134
        33  -7.1175    191.6226    179.8009   7.2614698875e+01   7.2885012018e+00    0.1848294    0.1292376 -49.71 0.0005105046    1.531    0.347
        34  -6.9512    138.5345    174.5788   8.3471950178e+01   1.8145672305e+01    0.1483012    0.1434968  39.58  0.000190455    1.026    0.025
        35  -7.5925    129.9113    170.2759   8.4758232700e+01   2.0731918570e+01    0.2052031    0.1883064  31.72 0.0002629522    1.083    0.077
        36  -9.8197    177.2494    148.9618   6.9155393992e+01   1.6154869439e+01    0.3282621    0.2533738 -42.65 0.0003244968    1.250    0.200
        37  -6.9100    249.7241    147.3197   5.5818073295e+01   3.3481238521e+00    0.1229354    0.0910855 -58.49 0.0003860693    1.574    0.365
        38  -8.3915    182.4555    146.1809   6.7446016889e+01   1.5685585571e+01     0.294686    0.2270113  -9.94 0.0006989057    1.595    0.373
        39  -8.7117    120.9197    145.5291   8.1930665320e+01   2.8239656468e+01    0.2695509    0.2338793 -44.91 0.0003487148    1.155    0.134
        40  -6.7093    188.3386    141.2730   6.5156708232e+01   1.5498683189e+01    0.1458029    0.1144447   3.72 0.0004305782    1.607    0.378
        41  -7.2577    181.6526    139.0106   6.6007962312e+01   1.7302915977e+01    0.2588987    0.1621487  45.76  0.001164473    1.670    0.401
        42  -7.0521    206.5263    136.4140   6.0622430788e+01   1.2864849921e+01    0.1404722    0.1297114 -28.75 4.095953e-05    1.048    0.046
        43  -8.0180     83.9550    135.9622   9.0337660758e+01   3.7245801068e+01    0.2163208    0.2088156 -63.43  0.001187902    1.001    0.001
        44  -7.5873    113.9620    128.9672   8.0032431231e+01   3.3504422050e+01    0.2833717    0.1588487  59.97  0.001015199    2.556    0.609
        45  -7.3166     85.7717    126.9546   8.7815474541e+01   3.9157771956e+01     0.207379    0.1214877 -53.28 0.0008754136    1.645    0.392
        46  -7.7159    126.8073    120.0493   7.4342845214e+01   3.2941644687e+01    0.2224656    0.2035049 -88.52 0.0003390913    1.191    0.161
        47  -7.8602    233.0470    120.0000   5.2744051397e+01   1.0838158784e+01    0.3429379   0.07753649  51.56  0.001069345    5.099    0.804
        48  -8.7019     69.4367    113.5502   8.9905569463e+01   4.5019561802e+01    0.3550429    0.2599678  69.46  0.001668857    1.828    0.453
        49  -9.2244    183.8203    102.4485   5.6978281857e+01   2.4011381108e+01    0.4017014    0.2749857 -28.86  0.001414893    1.657    0.396
        50  -8.4192    104.2634    103.5553   7.6370683371e+01   4.1218537197e+01    0.4306553    0.2106203  31.26  0.001551547    2.532    0.605
        51 -10.4500     87.9927     95.8706   7.9283836983e+01   4.5999351607e+01    0.2502895    0.2379243 -28.11            0    1.024    0.024
        52  -7.4877     99.4988     95.5229   7.5586536087e+01   4.3899022542e+01    0.1500944    0.1440224  -3.80 5.876167e-05    1.033    0.032
        53  -7.5377    160.0524     89.8956   5.8505177071e+01   3.1734294595e+01    0.2138595    0.1879316 -82.33  0.001126114    1.195    0.163
        54  -7.1951    250.5005     89.4722   4.4168940673e+01   1.2690784750e+01    0.1269508    0.1037615 -53.83 0.0001262106    1.005    0.005
        55  -6.7593     53.3219     86.7104   8.8784715406e+01   5.3514964998e+01    0.1318846    0.1095478  70.04 0.0002064365    1.605    0.377
        56  -7.4350    136.7393     74.9766   5.9546359779e+01   3.9842683522e+01    0.1910933    0.1861307 -44.00 0.0001922208    1.066    0.062
        57  -6.8998    199.3124     59.7484   4.4162517667e+01   2.7715268181e+01    0.1347761    0.0934279 -75.30 0.0006906291    1.519    0.342
        58  -7.7794    120.8550     52.0620   5.6389222790e+01   4.7235292156e+01    0.2008162    0.1809547  85.82 0.0003206278    1.209    0.173
        59  -7.4151    159.2930     48.7608   4.7516882566e+01   3.8632754487e+01    0.1796318    0.1517773  41.64 0.0004319899    1.311    0.237
        60  -7.9388    152.0139     46.9603   4.8304231812e+01   4.0622304732e+01    0.2019207    0.1805952  89.90            0    1.080    0.074
        61  -9.0302    120.6363     39.9729   5.2567456467e+01   4.8975377060e+01    0.3062747    0.2366696 -34.39 0.0006600036    1.415    0.293
        62  -8.5733    225.6940     37.2776   3.6131441153e+01   2.5110978052e+01    0.2024601    0.1825546 -82.81 0.0003983639    1.188    0.158
        63  -7.1416    243.2955     34.2963   3.3967481019e+01   2.1940197140e+01   0.09848055   0.09269366  43.69  0.000271184    1.565    0.361
        64  -7.9656    237.9892     32.5184   3.4062503555e+01   2.3212026318e+01    0.1814407    0.1563905 -38.72 0.0003253218    1.405    0.288
        65  -7.4570    115.0115     24.7014   4.8795810246e+01   5.2104845177e+01    0.1790336    0.1505668  55.83 0.0002479979    1.043    0.042
        66  -7.4485    188.0493     21.6537   3.6526862784e+01   3.5272481302e+01    0.1715878    0.1370174  79.90 0.0004275676    1.111    0.100
        67  -7.0045    111.0008     14.7619   4.6289994687e+01   5.4036273898e+01     0.172309   0.09451719  60.70 0.0008320046    1.565    0.361
