#   1 NUMBER                 Running object number                                     
#   2 MAG_AUTO               Kron-like elliptical aperture magnitude                    [mag]
#   3 X_IMAGE                Object position along x                                    [pixel]
#   4 Y_IMAGE                Object position along y                                    [pixel]
#   5 X_WORLD                Barycenter position along world x axis                     [deg]
#   6 Y_WORLD                Barycenter position along world y axis                     [deg]
#   7 A_WORLD                Profile RMS along major axis (world units)                 [deg]
#   8 B_WORLD                Profile RMS along minor axis (world units)                 [deg]
#   9 THETA_WORLD            Position angle (CCW/world-x)                               [deg]
#  10 FWHM_WORLD             FWHM assuming a gaussian core                              [deg]
#  11 ELONGATION             A_IMAGE/B_IMAGE                                           
#  12 ELLIPTICITY            1 - B_IMAGE/A_IMAGE                                       
         1 -15.3452      6.9423    147.4647   1.3633565151e+02   4.3687266073e+01     7.963964     2.368784 -78.40   0.02641649    4.103    0.756
         2 -13.3378    201.4068     33.7533   6.0687270307e+01   3.1272448091e+01     1.230035     0.970212  67.46  0.006520608    1.252    0.201
         3 -13.8069    218.2223     16.5541   5.5382880268e+01   2.9689314374e+01     1.023023    0.8430783  47.20  0.006970709    1.712    0.416
         4 -13.0557      2.8446     12.3641   1.0626378530e+02   7.0863163217e+01      1.10468    0.3167015 -39.90  0.005573812    2.970    0.663
         5  -9.9978     18.3317      5.6695   9.5946575630e+01   7.0156678336e+01   0.08839164   0.08206999  11.06 0.0005755451    1.720    0.419
         6 -11.6767     21.2553     27.5093   1.0368390879e+02   6.7140131998e+01    0.5191001    0.2326086  42.27  0.002449476    3.676    0.728
         7 -12.2766    176.1259    249.1610   1.1116357128e+02  -4.1241745310e+00    0.7924072    0.2443895  31.92  0.002715499    3.635    0.725
         8 -13.7119     10.0951    207.2414   1.4150029084e+02   2.9213899218e+01     1.284746    0.8070475 -61.74  0.005474056    1.577    0.366
         9 -13.1117     32.0431    247.4092   1.4034936616e+02   1.7983826908e+01     1.806498    0.5802781  34.72  0.007850091    3.222    0.690
        10 -11.6045      5.9258    249.7887   1.4520846848e+02   2.0419623940e+01    0.7485527    0.3149723  50.47  0.003870705    1.941    0.485
        11 -11.4931     12.7240    247.2356   1.4385945354e+02   2.0220461981e+01    0.4781527    0.2452437  61.38  0.000691294    1.622    0.383
        12  -9.8302     56.8121    240.8522   1.3497969721e+02   1.6211769291e+01    0.1800857    0.1597125  84.10 0.0005659756    1.158    0.137
        13 -13.1357      5.3988    184.7224   1.4059155997e+02   3.4889184916e+01     1.920024    0.5276165 -80.41  0.006537396    4.021    0.751
        14 -14.7214     98.9380    229.9786   1.2483793741e+02   1.2337294096e+01     6.929845     1.257404  46.60   0.01771491    5.869    0.830
        15 -10.2631    226.5541    201.9503   9.2742925779e+01  -3.7672985178e+00    0.3466774    0.2214432 -59.00  0.001651519    2.243    0.554
        16 -10.0051    249.7626    229.9929   9.3703457159e+01  -1.1746845457e+01    0.1628054   0.08854771 -35.96 0.0008875611    1.641    0.390
        17  -9.7301    192.3812    193.6701   9.7879369149e+01   3.6012524921e+00    0.5314637    0.2588987 -64.89  0.001343183    6.726    0.851
        18 -11.6589     55.1701    192.5145   1.2993130562e+02   2.7608087033e+01    0.3539306    0.2582824 -44.52 0.0005965538    1.625    0.384
        19  -8.3750    181.5175    192.4399   9.9935900692e+01   5.8407576682e+00    0.1445487    0.1387528  -7.51 0.0001248826    1.007    0.007
        20 -11.8365     61.8591    184.8800   1.2726556255e+02   2.8594415831e+01    0.3093099    0.2507729 -48.16  0.000461749    1.357    0.263
        21 -13.7036     41.7243    206.9080   1.3472093478e+02   2.5841316352e+01       1.3359       1.0685  84.44 0.0008748885    1.058    0.055
        22 -10.8923     72.8154    173.0209   1.2266331876e+02   3.0004952832e+01    0.2651023    0.2256332 -57.34 0.0003382284    1.154    0.133
        23 -13.2274     59.1742    170.4832   1.2580956777e+02   3.2564142347e+01    0.5690012    0.2911402 -44.83   0.00172041    2.222    0.550
        24 -11.8897     81.0799    164.4678   1.1900517355e+02   3.0905882128e+01    0.6487122    0.6182008 -88.43  0.003678457    1.045    0.043
        25 -12.8516     26.0539    224.2646   1.3966299918e+02   2.3682822456e+01     0.342892     0.289385 -68.43 0.0007629709    1.344    0.256
        26 -10.1057     94.7850    149.4377   1.1234268931e+02   3.2425656864e+01    0.3096058    0.2884559  55.79 0.0007837612    1.112    0.101
        27 -12.0849     83.0641    148.2358   1.1535518601e+02   3.4674670662e+01    0.3362443    0.2564946 -46.10 0.0005750014    1.290    0.225
        28 -12.4127     67.4201    143.6738   1.1888807068e+02   3.8178912065e+01    0.7645825    0.5224627  67.85  0.003090121    1.881    0.468
        29 -14.0630     32.1144    217.0479   1.3779182722e+02   2.4622781225e+01    0.9834842    0.7519411  60.87  0.002726881    1.196    0.164
        30  -9.0920     98.0099    145.6529   1.1064831536e+02   3.2800921414e+01    0.2070315    0.1968952  33.39 0.0003611769    1.119    0.107
        31  -9.5316    107.6402    135.3882   1.0568031355e+02   3.3545751740e+01    0.3543098      0.23668 -13.42  0.001364212    2.509    0.601
        32 -11.0707     56.6658    131.5783   1.1965303906e+02   4.2622673882e+01    0.5446095    0.2536317 -73.82  0.001892662    3.248    0.692
        33 -11.4482    139.5659    248.8068   1.1870550483e+02   1.8531859892e+00    0.3896949    0.2865016  82.92  0.002076196    1.885    0.469
        34 -10.3501     94.5800    132.3393   1.0864771424e+02   3.6655491308e+01    0.2684742    0.2373192 -23.47 0.0007760492    1.225    0.184
        35  -9.4158    105.4539    122.6265   1.0323176683e+02   3.6971126269e+01    0.1890595    0.1438333 -40.07 0.0004780545    1.314    0.239
        36 -10.9681     53.8019    119.0950   1.1793347086e+02   4.5989325976e+01    0.5242629    0.1913642 -66.86  0.001589019    4.199    0.762
        37  -9.8880    167.7251    112.7162   8.5162644914e+01   2.5900359351e+01     0.364251    0.2665638 -80.17 0.0009954717    1.748    0.428
        38  -8.9916    203.4557    111.4534   7.7925841274e+01   1.8238960497e+01    0.1446352     0.134291 -58.29 0.0001824036    1.054    0.051
        39 -11.1900    242.1474     93.3697   6.8157460010e+01   1.3562094453e+01     0.244742    0.1782265 -24.67  0.001309851    1.878    0.467
        40  -9.8980    150.4262    228.2209   1.1323050142e+02   4.0394926428e+00    0.1880869    0.1365657 -65.62 0.0009547583    1.669    0.401
        41  -9.1614    160.2515     78.9890   7.8147389923e+01   3.4032164705e+01    0.1841579    0.1235225 -41.65 0.0004288601    1.526    0.345
        42  -8.9298    184.5269     77.4870   7.3240841722e+01   2.8666538189e+01     0.141088    0.1313865 -87.00 -4.14691e-06    1.048    0.046
        43 -11.2279     13.0511     60.9417   1.1819540958e+02   6.2372610247e+01    0.3443088    0.1190539 -48.16   0.00162714    2.208    0.547
        44 -13.5367     12.6690    238.5245   1.4329914754e+02   2.2044598448e+01     1.700485    0.8696794  67.62  0.009243572    1.715    0.417
        45 -10.7785    238.9756    247.5042   9.8681081457e+01  -1.2967800304e+01    0.1776984    0.1057545  28.38  0.001036713    1.601    0.375
        46 -10.6234     89.8597    245.7389   1.2873409592e+02   1.0408080729e+01    0.2585655    0.1546687  79.25  0.001243107    2.113    0.527
        47 -11.4043    101.1755    248.0188   1.2665237316e+02   8.1924869340e+00    0.4327777    0.2005844 -61.31  0.001453844    2.363    0.577
        48 -10.7828    105.9872    241.4854   1.2482101583e+02   8.7656738948e+00    0.2573909    0.1251035  34.77 0.0004512161    2.039    0.509
