#   1 NUMBER                 Running object number                                     
#   2 MAG_AUTO               Kron-like elliptical aperture magnitude                    [mag]
#   3 X_IMAGE                Object position along x                                    [pixel]
#   4 Y_IMAGE                Object position along y                                    [pixel]
#   5 X_WORLD                Barycenter position along world x axis                     [deg]
#   6 Y_WORLD                Barycenter position along world y axis                     [deg]
#   7 A_WORLD                Profile RMS along major axis (world units)                 [deg]
#   8 B_WORLD                Profile RMS along minor axis (world units)                 [deg]
#   9 THETA_WORLD            Position angle (CCW/world-x)                               [deg]
#  10 FWHM_WORLD             FWHM assuming a gaussian core                              [deg]
#  11 ELONGATION             A_IMAGE/B_IMAGE                                           
#  12 ELLIPTICITY            1 - B_IMAGE/A_IMAGE                                       
         1 -12.3028    212.3476     37.7356   3.8103760189e+01   2.8452255246e+01    0.9682732    0.7714028 -49.51  0.005302738    1.194    0.162
         2 -11.7799    228.9544     22.4982   3.3178386807e+01   2.6780804287e+01    0.6987367    0.5531642 -72.45  0.002728068    1.021    0.020
         3 -10.0900    248.9948      3.4209   2.7996386918e+01   2.4903931948e+01    0.3862524    0.2296921 -58.33  0.002143204    1.321    0.243
         4  -9.7493      1.7920      4.5508   8.6833092699e+01   7.4166096108e+01    0.3464844    0.1155432 -45.08  0.001743565    2.713    0.631
         5 -11.6436     99.1312    228.6232   1.0311536847e+02   1.3052431887e+01     0.875056    0.3755383  40.90  0.003896688    2.000    0.500
         6  -9.3631     81.3410    250.1113   1.0922309566e+02   1.1310785962e+01     0.265155    0.1551297  37.76 0.0009318021    1.463    0.316
         7 -13.6286      4.5076    180.4151   1.2021299405e+02   3.5168568315e+01     11.76572    0.9079973 -77.57   0.01738887   21.757    0.954
         8 -10.8364     23.4175    223.7811   1.1902413202e+02   2.3655466825e+01    0.3828591    0.2857521  67.73   0.00238979    1.083    0.076
         9 -13.4010      9.3879    208.1196   1.2094158025e+02   2.8416208919e+01     1.562374    0.9859806 -75.10  0.007723852    1.433    0.302
        10 -11.0659     75.6634    221.8735   1.0759396408e+02   1.7809424387e+01      0.63485    0.3041963  50.18  0.001948992    1.962    0.490
        11 -10.6410     84.3602    219.2451   1.0532998319e+02   1.7165372716e+01    0.4864214    0.3349288 -79.40  0.001475694    1.589    0.371
        12 -10.0873     32.0115    222.2371   1.1713892142e+02   2.3082808292e+01    0.2814557    0.2409142 -78.04  0.001612047    1.249    0.199
        13 -12.3131     11.0689    232.6732   1.2199128533e+02   2.3018116435e+01    0.9036544    0.5438271  78.22  0.003224239    1.391    0.281
        14 -10.2529     43.1554    218.3433   1.1445471801e+02   2.2686506756e+01     0.338019    0.2498969 -79.63 0.0001367682    1.291    0.225
        15 -11.0168     19.0783    194.0172   1.1785831333e+02   3.0735010090e+01    0.5614229    0.2531587  56.74  0.002709127    2.152    0.535
        16 -10.1753     58.5668    176.2046   1.0631450920e+02   3.0734810659e+01    0.4380454    0.2927554 -32.29  0.001866802    2.045    0.511
        17 -10.1542     63.9119    170.9099   1.0417180774e+02   3.1366145935e+01    0.3611476    0.2595668 -42.19 0.0005046883    1.580    0.367
        18 -11.8174     56.8570    239.2984   1.1330174017e+02   1.6610975677e+01    0.7084135    0.5236664  71.26 0.0007560787    1.218    0.179
        19 -10.1228     74.0931    161.7570   9.9983727268e+01   3.2276561065e+01    0.3482285    0.3262288  17.22 0.0005635584    1.190    0.160
        20 -11.6906     80.0682    155.4210   9.7220233218e+01   3.3007244447e+01     1.057313    0.8851522  43.73  0.002884365    1.219    0.180
        21 -12.2398     68.5898    144.8998   9.8687449884e+01   3.7339465097e+01     1.655368    0.9063998  76.35  0.004585054    3.501    0.714
        22  -9.4572     32.8656    156.9948   1.1081305825e+02   3.8440080530e+01    0.3192154    0.2271027 -81.79   0.00123495    1.274    0.215
        23 -12.9471     31.1345    249.6731   1.1912621338e+02   1.7551540220e+01     3.245329      0.89914  25.62  0.009736154    7.625    0.869
        24  -9.3354     18.9879    147.0241   1.1351964042e+02   4.2180358218e+01    0.2036408    0.1351113  65.28 0.0005831357    1.595    0.373
        25 -11.6827     61.1057    157.5441   1.0296860639e+02   3.5108641652e+01    0.5284907    0.3143276 -41.27  0.001243647    1.943    0.485
        26  -9.1878     97.4279    141.0348   8.9404287710e+01   3.3841657147e+01    0.5310407    0.3241393 -23.63  0.001991261    2.590    0.614
        27 -10.5199     84.4959    140.0300   9.3007692950e+01   3.6224237838e+01    0.3146167    0.2806168 -44.17 0.0004786121    1.115    0.103
        28 -10.1686     70.9633    132.0080   9.5514845268e+01   4.0290349922e+01    0.5838669    0.3364348  74.63  0.001767268    3.299    0.697
        29  -9.2751    107.2396    131.0977   8.4338308166e+01   3.4538291307e+01     0.443817    0.3443909  30.20  0.002115688    1.358    0.263
        30  -8.1554     95.0347    126.5026   8.6890018374e+01   3.7850874192e+01    0.2321961    0.1533802  34.67 0.0005193901    1.573    0.364
        31 -14.0164     38.1554    191.4426   1.1317303044e+02   2.9416061329e+01     8.156301     2.983181  69.36   0.02243968    6.325    0.842
        32  -8.1618    105.8075    119.1985   8.1891624021e+01   3.7664112590e+01     0.206602    0.1777791 -13.48 0.0003089686    1.289    0.224
        33  -8.0188     35.3543    111.7162   1.0324681436e+02   4.9646324354e+01    0.1359694    0.1003193  65.07 0.0007018857    1.664    0.399
        34  -7.7665    205.5186    110.4488   5.6150183607e+01   1.8352663573e+01    0.1435444    0.1324299 -44.76  0.000124796    1.011    0.011
        35 -11.5189     29.8389    202.5233   1.1609318987e+02   2.7706994766e+01    0.4878755    0.4326541 -22.65  0.001146535    1.559    0.358
        36  -8.7900     33.0311     61.8200   9.2271289993e+01   6.1361216631e+01    0.1961678    0.1436201  53.60  0.001067963    2.027    0.507
        37  -9.4672     13.2586     60.2638   1.0066374808e+02   6.3311181819e+01    0.2224685    0.1767472 -49.30 0.0005213537    1.127    0.113
        38  -8.1399     35.1773     55.8979   8.9464397563e+01   6.2337325627e+01    0.1776221    0.1684474 -18.09 0.0005069508    1.226    0.184
        39  -8.7639     12.6415     53.3031   9.9063793553e+01   6.4799723499e+01    0.1109207   0.09368897  59.60 0.0007038596    1.719    0.418
        40 -10.3929      1.9267     49.0770   1.0303941457e+02   6.6276128924e+01    0.5122207     0.166833 -63.71   0.00219617    2.922    0.658
        41 -10.2781      1.8270     38.4114   1.0006759049e+02   6.8393231248e+01    0.6583394   0.09352663 -59.14  0.002071557    5.567    0.820
        42 -10.8549    219.8906     31.0705   3.5833337670e+01   2.7659047861e+01    0.4249108    0.3370929  53.59  0.001134011    1.529    0.346
        43 -12.0242    203.7896     43.5957   4.0459568372e+01   2.9581664093e+01    0.5980983    0.5498357  76.07  0.002888801    1.168    0.144
        44 -13.2501      6.5547    246.4027   1.2349936530e+02   2.0708793122e+01     1.729448     1.256868  40.97   0.01265156    1.400    0.286
        45 -10.6998     31.9928    234.8782   1.1802294731e+02   2.0418233727e+01    0.5426375    0.2945469  60.96  0.002521351    1.602    0.376
        46  -9.5255      2.0032     23.2708   9.4824732555e+01   7.1156012297e+01    0.2602829    0.1355859 -61.86   0.00139268    2.522    0.603
        47 -12.5465    112.6260    230.7701   1.0038481503e+02   1.0607016961e+01     1.596359    0.7496593  32.68   0.00721175    1.978    0.494
