#   1 NUMBER                 Running object number                                     
#   2 MAG_AUTO               Kron-like elliptical aperture magnitude                    [mag]
#   3 X_IMAGE                Object position along x                                    [pixel]
#   4 Y_IMAGE                Object position along y                                    [pixel]
#   5 X_WORLD                Barycenter position along world x axis                     [deg]
#   6 Y_WORLD                Barycenter position along world y axis                     [deg]
#   7 A_WORLD                Profile RMS along major axis (world units)                 [deg]
#   8 B_WORLD                Profile RMS along minor axis (world units)                 [deg]
#   9 THETA_WORLD            Position angle (CCW/world-x)                               [deg]
#  10 FWHM_WORLD             FWHM assuming a gaussian core                              [deg]
#  11 ELONGATION             A_IMAGE/B_IMAGE                                           
#  12 ELLIPTICITY            1 - B_IMAGE/A_IMAGE                                       
         1 -15.1712    242.4398     67.1910   2.7010122058e+01   1.8618159091e+01     1.995564    0.8093612 -29.83  0.009660966    2.018    0.505
         2 -15.2095    224.3679     65.6580   2.8366842703e+01   2.2048565087e+01      1.45584     1.166814  56.21  0.009409725    1.534    0.348
         3 -14.6628    229.0781     58.1289   2.6148103235e+01   2.2150470254e+01     1.344645     0.821052 -26.00  0.007585859    1.510    0.338
         4 -14.9096     64.9697     42.1592   5.3780466596e+01   6.2728408117e+01     1.017455    0.7986726 -20.85  0.005076946    1.462    0.316
         5 -14.7781     54.1287     53.8074   6.3876016069e+01   6.2369210171e+01     1.684137    0.7002473 -52.89  0.006167284    2.412    0.585
         6 -14.8787     38.3207     50.1391   7.0698613438e+01   6.5788125184e+01      1.27075     0.644431 -46.25  0.005371801    1.901    0.474
         7 -14.3502     72.6171     28.2724   4.3796387253e+01   6.3472464971e+01     2.200689     1.047025  68.53  0.007663722    3.131    0.681
         8 -14.1051     73.5748      4.7652   3.0271536506e+01   6.6226872964e+01      1.75605     0.517898  55.97   0.00631951    2.770    0.639
         9 -14.9256     69.0944     15.6379   3.8086412262e+01   6.6117838700e+01     1.962508    0.5519505  54.18  0.006627429    3.064    0.674
        10 -14.7675     86.1537     11.3805   3.0723567707e+01   6.2337785069e+01     1.174016    0.8242658  55.45  0.004754641    1.342    0.255
        11 -13.4508     92.8334      3.0692   2.4983309361e+01   6.1395393407e+01    0.8144575    0.3661336  76.40  0.003314917    2.206    0.547
        12 -12.8716    115.3984     12.6579   2.5533844729e+01   5.4496531203e+01    0.4228721    0.1935967 -41.36  0.001751554    2.104    0.525
        13 -12.2786    123.8378      9.8497   2.3123874504e+01   5.2534914125e+01    0.3046903    0.2455067 -62.66 0.0008661071    1.182    0.154
        14 -12.5607    103.7104      5.0210   2.4030086467e+01   5.8343187220e+01    0.2968548    0.2008101 -51.33 0.0007729097    1.507    0.337
        15 -13.0019    111.5174      4.9875   2.2807947070e+01   5.6267449492e+01    0.3108398    0.2592697  20.31  0.001051249    1.409    0.290
        16 -12.0423    138.4088      5.1920   1.9607713796e+01   4.9132282815e+01    0.2974375    0.1762388  81.95 0.0007376259    1.601    0.376
        17 -12.4445    209.5405    117.3593   4.2156792305e+01   1.7249809526e+01    0.4071352    0.1058543 -37.23  0.001447457    3.185    0.686
        18 -14.8322    195.3830    112.3207   4.3205499958e+01   2.0552959757e+01     1.154763    0.6097826 -42.28  0.005505345    1.717    0.418
        19 -12.7374    225.9851    110.3246   3.8327077329e+01   1.5543406825e+01    0.3603922    0.2357286 -54.42  0.002016941    1.842    0.457
        20 -11.2029    112.3022    109.6598   6.0481491642e+01   3.7782041401e+01     0.158863    0.1223336  89.30 0.0005910589    1.673    0.402
        21 -12.5811     42.8436     99.1982   8.2252246269e+01   5.2419364851e+01    0.3263467    0.2892875 -44.82  0.001490678    1.195    0.163
        22 -13.1923    205.6917     96.8665   3.8028725916e+01   2.1082899812e+01    0.3683215    0.2728479  14.12  0.002020413    1.774    0.436
        23 -13.0128    185.6500    114.6818   4.5378058221e+01   2.1969914643e+01    0.3699758    0.3369116 -13.74  0.002251431    1.078    0.072
        24 -12.4435    113.2541     96.4282   5.6639317576e+01   4.0573178403e+01    0.5166016     0.291637  67.17  0.001788713    2.881    0.653
        25 -14.0615    239.4195     91.4920   3.2640099146e+01   1.5957523358e+01    0.6004353    0.4463001 -33.67  0.002627854    1.046    0.044
        26 -15.0915    235.7007     81.5873   3.0858987292e+01   1.7900741769e+01     1.736931    0.9188526  64.13  0.009383245    2.490    0.598
        27 -11.1630    246.4697    183.5003   4.9577076201e+01   3.0046664265e+00    0.1110079   0.07912382 -10.70  8.56476e-05    1.047    0.044
        28 -10.9162    212.5037    148.5249   4.8225713659e+01   1.2063149361e+01    0.1255909    0.1021625 -15.33 9.484767e-05    1.028    0.028
        29 -12.9491    247.7083    144.8640   4.2498670709e+01   7.6549711176e+00    0.3315672    0.3029012  73.03  0.002499351    1.813    0.448
        30 -12.4214     40.1405     81.4836   7.9519071491e+01   5.7557406218e+01    0.3081827    0.2938628  14.58  0.001296217    1.143    0.125
        31 -12.8040     28.6217     80.9314   8.4875083274e+01   5.9036452443e+01    0.2913925    0.2172462  37.39  0.001482406    1.400    0.285
        32 -10.7140    176.6856     79.9849   3.8133670763e+01   2.9625171157e+01    0.2113403    0.1703192 -42.09 0.0007894372    1.109    0.098
        33 -12.7651     19.6530     77.7337   8.8685222104e+01   6.0748416660e+01    0.4544964    0.2208281  32.93  0.001951027    2.090    0.521
        34 -11.1561      2.3183    115.6671   1.0074936709e+02   5.1504908872e+01    0.1518702   0.08428416  58.38  0.000704827    1.693    0.409
        35 -10.9540    164.0117     71.5112   3.7872664810e+01   3.3859327962e+01    0.2172626    0.1454532  60.60 0.0009711644    1.609    0.378
        36 -10.6332    112.3158     89.3133   5.4834405355e+01   4.2347946236e+01    0.1558689    0.1267285  -1.04 0.0005521815    1.642    0.391
        37 -13.4018    149.2487     65.9865   3.8878835494e+01   3.8258247209e+01    0.4085389     0.389246 -89.02  0.002291787    1.072    0.067
        38 -12.9511     47.5054    141.5196   8.7312359126e+01   4.0427440570e+01    0.5099966    0.1890413  28.56  0.001881622    2.601    0.616
        39 -12.0489      3.3562    139.7106   1.0174221037e+02   4.5036435001e+01    0.4013476    0.2396696 -85.99  0.002058526    1.503    0.335
        40 -12.8821     47.1223     53.2166   6.7146078901e+01   6.3703080721e+01    0.4460758    0.3012582 -74.22   0.00179589    1.915    0.478
        41 -12.4761     43.6168     62.5012   7.2340300830e+01   6.2003763277e+01    0.2622547    0.2224917  31.01 0.0008307612    1.238    0.192
        42 -10.3560    169.2894     60.3432   3.3765831237e+01   3.4421341744e+01    0.1397671    0.1125851  10.72 0.0006219001    1.651    0.394
        43 -12.4254    155.0377     59.8022   3.5910463061e+01   3.7886189112e+01    0.6122565    0.2297836  65.71  0.002085896    3.166    0.684
        44 -15.0192    247.2491    110.5065   3.5779507175e+01   1.2212559885e+01     1.819056    0.6550744 -27.61  0.008067758    2.570    0.611
        45 -11.2464    151.5851     53.2049   3.4422191169e+01   3.9766601981e+01    0.2108446    0.1413446 -21.16 0.0009573795    1.726    0.421
        46 -11.8950    218.5620     38.5424   2.2343662058e+01   2.6613538864e+01    0.3525187    0.2368048 -49.96 0.0008307188    1.229    0.186
        47 -12.0379    209.5569     44.6164   2.4636307512e+01   2.7703328433e+01     0.484354    0.2085008  69.65   0.00222119    2.649    0.622
        48 -13.1976    214.5500     41.9267   2.3514355410e+01   2.7013411211e+01    0.4542135    0.2673728 -54.31   0.00247308    1.530    0.346
        49 -13.4686     32.2532     88.1662   8.4654658553e+01   5.6678304241e+01    0.7334368    0.3185564  20.49  0.002766357    2.648    0.622
        50 -12.6448    201.0718     32.3585   2.2203283767e+01   3.1010298215e+01    0.2726476    0.2556607 -60.69  0.001808035    1.161    0.139
        51 -12.3066    175.6683     33.0376   2.4839242382e+01   3.6717298403e+01    0.2831452    0.1973635  79.98 0.0006304652    1.487    0.327
        52 -14.2531    237.7093    118.9579   3.8654933599e+01   1.2499019241e+01    0.7439777    0.3303393 -37.11  0.003834783    1.799    0.444
        53 -15.2817    235.5705    128.6222   4.0901568602e+01   1.1491263176e+01     1.054924    0.7814416  -1.13    0.0068683    1.421    0.296
        54 -14.3243    224.0068    130.8334   4.2929008913e+01   1.2909399228e+01    0.5630325    0.4450095  76.80  0.003438661    2.121    0.529
        55 -11.7672    122.3151    126.8864   6.1942482556e+01   3.1917747090e+01    0.2676994    0.2093807  52.66  0.001181991    1.343    0.255
        56 -12.4714    218.1044     94.3939   3.5790215741e+01   1.9188878893e+01    0.3688442    0.3305982 -36.13  0.001865079    1.096    0.088
        57 -12.9960    177.6110     27.9677   2.3132549694e+01   3.6872617862e+01    0.3966604     0.215093 -83.42  0.001801871    2.114    0.527
        58 -11.2612    131.0000     23.9711   2.7604743923e+01   4.9097408748e+01    0.2351502   0.08091041 -26.74 0.0008027284    2.944    0.660
        59 -11.0868    136.3055     22.3496   2.6203277871e+01   4.7900384467e+01    0.1454184    0.1075519  32.63 0.0007041981    1.703    0.413
        60 -11.6303     27.9085    126.1230   9.2178034625e+01   4.6685942471e+01    0.2364951    0.1782208  64.95 0.0008636838    1.253    0.202
        61 -13.1859    205.4305    123.0886   4.4041112074e+01   1.7063721838e+01    0.4465875    0.2141756 -41.42  0.002110947    1.883    0.469
        62 -11.3296    141.5110    122.0112   5.6051338376e+01   2.9205210552e+01    0.2118629    0.1278801 -66.08 0.0008104582    2.559    0.609
        63 -13.8670    220.8833    119.2664   4.0939896325e+01   1.5078791606e+01    0.4308764    0.2991286 -34.77  0.001854006    1.203    0.169
        64 -13.6874    217.2870    112.3820   3.9945562087e+01   1.6686379197e+01    0.4861569    0.3164651 -48.36  0.002715841    1.591    0.371
