#   1 NUMBER                 Running object number                                     
#   2 MAG_AUTO               Kron-like elliptical aperture magnitude                    [mag]
#   3 X_IMAGE                Object position along x                                    [pixel]
#   4 Y_IMAGE                Object position along y                                    [pixel]
#   5 X_WORLD                Barycenter position along world x axis                     [deg]
#   6 Y_WORLD                Barycenter position along world y axis                     [deg]
#   7 A_WORLD                Profile RMS along major axis (world units)                 [deg]
#   8 B_WORLD                Profile RMS along minor axis (world units)                 [deg]
#   9 THETA_WORLD            Position angle (CCW/world-x)                               [deg]
#  10 FWHM_WORLD             FWHM assuming a gaussian core                              [deg]
#  11 ELONGATION             A_IMAGE/B_IMAGE                                           
#  12 ELLIPTICITY            1 - B_IMAGE/A_IMAGE                                       
         1 -15.0140     10.3045    153.2525   1.4542973178e+02   4.2211650472e+01     5.932917     1.738529 -84.69    0.0232315    3.570    0.720
         2 -13.4760      3.6162     11.7046   1.2097011697e+02   7.2838518117e+01     1.887506    0.7140467 -46.35   0.01050525    1.908    0.476
         3 -13.2476    191.9397     29.2081   7.0711967171e+01   3.3890671289e+01     1.341534     1.182739  65.15  0.006492686    1.123    0.110
         4 -13.6800    205.5012     10.3726   6.3773422339e+01   3.2558021685e+01     1.687161     1.122997  43.71  0.008606821    1.770    0.435
         5 -11.1037     11.0030    239.2360   1.5031215265e+02   2.5121957162e+01    0.3812011     0.144782  66.71  0.001893335    2.049    0.512
         6 -11.2648    242.9478    249.3052   1.1198692281e+02  -9.3909448417e+00    0.5303046    0.1309464  43.44  0.002175422    3.854    0.741
         7 -11.5298    139.5851    248.7972   1.2943033324e+02   6.4855077689e+00    0.3291733    0.3115782  86.52  0.002588127    1.287    0.223
         8 -10.6522    110.2196    250.2343   1.3466646985e+02   1.0745425302e+01    0.3486887    0.1100672  49.11  0.001624019    2.475    0.596
         9 -10.4789     98.1689    249.0136   1.3662017956e+02   1.2697501591e+01    0.2245553    0.1914903 -52.43   0.00168975    1.692    0.409
        10 -10.2378     97.0282    245.4890   1.3650232485e+02   1.3427575477e+01    0.1807102    0.1302882  72.85 0.0005734103    1.256    0.204
        11 -10.8820     31.8429    249.2870   1.4753641273e+02   2.1194650187e+01    0.3747987    0.2375834  35.93  0.002682935    1.969    0.492
        12 -10.5350     35.4322    243.7410   1.4667762066e+02   2.1725730723e+01    0.2914408     0.218671  41.57  0.001991328    1.624    0.384
        13 -11.0290      2.5666    248.6485   1.5195159713e+02   2.4361771340e+01    0.5458375    0.2061058  47.51  0.003648827    1.921    0.479
        14 -10.8952      1.9865    239.6791   1.5171312487e+02   2.5930447570e+01    0.4465702    0.1366302 -82.01  0.002515157    2.803    0.643
        15 -10.5387    234.9168    239.4086   1.1178417284e+02  -7.2102903912e+00    0.3824127    0.2037429 -53.73  0.001535021    6.158    0.838
        16 -10.1460    230.6196    231.8393   1.1131262928e+02  -5.7224445220e+00    0.2327637    0.1823071 -48.45  0.001057367    1.944    0.486
        17 -10.1545    228.5173    228.0364   1.1105880868e+02  -4.9571269183e+00    0.2697725    0.2008341 -56.17  0.001653351    2.345    0.574
        18  -8.9609     80.3373    240.6644   1.3897285938e+02   1.6586529437e+01    0.1229575   0.06483608  65.71 0.0007051734    1.748    0.428
        19 -14.1849      9.3753    206.6409   1.4905781977e+02   3.1236452041e+01     8.767279          nan  41.48   0.03325871    5.371    0.814
        20 -10.7419    125.1314    249.7500   1.3204522454e+02   8.5763132049e+00    0.5073416   0.08764981  40.10   0.00156169    5.592    0.821
        21 -11.1458      4.5386    228.5402   1.5087922444e+02   2.7634505609e+01    0.3498222     0.160408  62.14  0.002291538    1.569    0.363
        22 -11.1912    147.2006    229.7614   1.2578760770e+02   8.1344194184e+00    0.4630463    0.1425958  44.11  0.001925666    2.620    0.618
        23  -8.8061     94.7710    216.7721   1.3410281377e+02   1.8740160415e+01    0.1721379    0.1154108  68.69 0.0005117644    1.364    0.267
        24 -10.3370      8.0617    226.4479   1.5022536663e+02   2.7669766768e+01    0.2010476     0.164661  48.79  0.001496902    1.546    0.353
        25  -8.6850    152.5805    212.7916   1.2245568013e+02   9.9658202995e+00    0.1495041    0.1220622 -75.85  0.000270015    1.484    0.326
        26  -9.3099     34.5704    202.5672   1.4424882180e+02   2.9439637349e+01    0.1843095    0.1417198  57.60 0.0007030147    1.245    0.197
        27 -11.3077     65.3149    198.0789   1.3792203363e+02   2.6581274801e+01    0.3295024    0.2284511 -51.49  0.001221976    1.907    0.476
        28  -8.8395     51.0919    197.2080   1.4065444002e+02   2.8583839865e+01    0.1623511    0.1220916  67.80 0.0004247716    1.080    0.074
        29 -10.8439     13.2807    197.0929   1.4783414725e+02   3.2733587067e+01    0.3338985     0.176323  53.27  0.001068465    1.583    0.368
        30  -9.5054    192.0242    193.0578   1.1165570217e+02   6.0842885598e+00    0.2868541     0.187858 -67.42  0.001314194    2.738    0.635
        31 -11.5490     70.8811    190.3385   1.3598943162e+02   2.7416222253e+01    0.2535108    0.2154121 -73.09 0.0005321946    1.283    0.221
        32  -9.0157    102.2233    178.6078   1.2781092064e+02   2.5145737392e+01    0.2121088    0.1613945  87.34  0.001042709    1.314    0.239
        33 -10.7060     80.3398    177.6789   1.3247722930e+02   2.8752586308e+01    0.2334552    0.2036612 -84.74 0.0004041224    1.131    0.116
        34 -12.9999     67.3766    175.6617   1.3506361909e+02   3.1023967839e+01    0.4549131    0.2706713 -47.72   0.00154814    2.207    0.547
        35 -11.5948     87.5271    168.3584   1.2960381781e+02   2.9703695147e+01    0.6000991    0.5103646  58.12  0.003673455    1.144    0.126
        36 -12.4098     67.2020    144.0777   1.3083309453e+02   3.8182286736e+01    0.8785479    0.5283407  83.58  0.004222021    1.970    0.493
        37 -11.0743     58.3535    133.8468   1.3150250599e+02   4.1732214448e+01    0.5427426    0.2182769 -76.81  0.001956625    3.321    0.699
        38  -9.8711     99.5752    152.0238   1.2417902363e+02   3.1413516893e+01    0.3032243      0.24939 -62.80 0.0007696621    1.195    0.163
        39  -9.0773    102.4698    148.0001   1.2275873908e+02   3.1831932413e+01    0.2173041    0.1692773 -42.09  0.000507762    1.494    0.331
        40 -11.7371     88.2957    151.4918   1.2681669478e+02   3.3372374805e+01    0.2727286    0.2411712 -49.02 0.0005160963    1.309    0.236
        41 -12.4316     39.8815    232.6177   1.4530371801e+02   2.3156370570e+01    0.2781441    0.2167419 -78.73 0.0007446848    1.450    0.310
        42  -8.2811    192.0352    144.0048   1.0174026084e+02   1.4579425538e+01    0.1707673    0.1649943  17.07 0.0003823389    1.005    0.005
        43  -9.5962    110.6164    137.0472   1.1862423717e+02   3.2874683652e+01    0.3549303    0.2306333 -30.78  0.001224433    2.252    0.556
        44 -10.0899     85.8633    135.9581   1.2471003376e+02   3.7343115925e+01     0.235742    0.1878478  62.23 0.0004132948    1.261    0.207
        45 -10.3073     98.0188    134.4875   1.2129937786e+02   3.5691234452e+01    0.2620813    0.2246681 -41.63 0.0006764963    1.315    0.240
        46 -14.3123     45.8138    225.0060   1.4379308900e+02   2.3835223789e+01     2.137962     1.488048  37.25  0.006081126    1.719    0.418
        47  -9.5961    110.0168    225.2766   1.3215242116e+02   1.4876992613e+01    0.1783596    0.1375717  56.89   0.00117774    1.040    0.038
        48  -9.4313    107.3934    124.0305   1.1666577967e+02   3.6437356309e+01    0.2062243    0.1977246  41.41 0.0004155069    1.150    0.130
        49 -11.1668     54.0432    120.9632   1.3054492462e+02   4.5294289821e+01    0.5360821    0.2095397 -74.95  0.001903702    3.381    0.704
        50 -10.4786    173.5931    222.2859   1.1988525000e+02   4.8354895727e+00     0.299407    0.1793071  40.37  0.001119966    1.396    0.284
        51 -10.4899    168.1099    113.1388   9.9260978495e+01   2.5904280995e+01    0.3489371     0.296262 -89.34 0.0007310334    1.364    0.267
        52  -9.3232    203.2209    111.8243   9.1850753879e+01   1.7961560852e+01    0.2105671    0.1776606   8.77 0.0006153791    1.358    0.263
        53  -9.4659     75.0911     87.2643   1.1695905040e+02   5.0275553449e+01    0.2241134    0.1807366  65.03 0.0007553883    1.479    0.324
        54  -9.8033     30.5699     61.1444   1.2535759454e+02   6.1333382126e+01    0.2202979    0.1819821  25.47   0.00059753    1.457    0.313
        55 -11.8889      2.0763     38.7520   1.3102107587e+02   6.7919423600e+01    0.7498739    0.1194469 -62.40  0.002574261    4.686    0.787
        56  -9.1854     88.4051    249.2270   1.3829977340e+02   1.4050048447e+01    0.1400037   0.09175359  86.87 0.0005150358    1.576    0.365
        57  -9.5499     81.7771    248.8108   1.3938526561e+02   1.5035864858e+01    0.1634157   0.09890891  65.45  0.001078745    1.377    0.274
