#   1 NUMBER                 Running object number                                     
#   2 MAG_AUTO               Kron-like elliptical aperture magnitude                    [mag]
#   3 X_IMAGE                Object position along x                                    [pixel]
#   4 Y_IMAGE                Object position along y                                    [pixel]
#   5 X_WORLD                Barycenter position along world x axis                     [deg]
#   6 Y_WORLD                Barycenter position along world y axis                     [deg]
#   7 A_WORLD                Profile RMS along major axis (world units)                 [deg]
#   8 B_WORLD                Profile RMS along minor axis (world units)                 [deg]
#   9 THETA_WORLD            Position angle (CCW/world-x)                               [deg]
#  10 FWHM_WORLD             FWHM assuming a gaussian core                              [deg]
#  11 ELONGATION             A_IMAGE/B_IMAGE                                           
#  12 ELLIPTICITY            1 - B_IMAGE/A_IMAGE                                       
         1 -12.9224     42.7892     45.2859   7.9514206834e+01   6.3510236992e+01    0.8461651     0.668664  48.56  0.001110755    1.780    0.438
         2 -12.0832    119.6803     57.4450   5.7315056680e+01   4.7211591606e+01     2.705769     1.494334 -68.41  0.008153015    5.090    0.804
         3 -12.4209    125.1540     27.7945   4.6375311547e+01   4.9944961904e+01    0.7926821    0.4964398  52.93  0.001844292    1.407    0.289
         4 -11.1552    106.0776     20.5892   4.8077288057e+01   5.5083710543e+01      0.50092    0.4328241 -58.78  0.002614889    1.399    0.285
         5 -12.6365    119.4479     37.8308   5.0924293828e+01   5.0062799542e+01    0.8794711    0.6015058 -72.16  0.002812954    2.147    0.534
         6 -11.5938    165.4419     17.6434   3.6822435433e+01   4.1547120006e+01    0.6320246    0.3807653  26.38  0.002995911    2.782    0.641
         7 -12.1697    159.8887     30.2748   4.1014256847e+01   4.1458792779e+01    0.5000153    0.4411582 -74.25  0.001710292    1.110    0.099
         8 -12.3165    107.0598     31.6132   5.1767126049e+01   5.3638532591e+01     1.007619    0.5393559  14.71  0.003756108    3.668    0.727
         9 -10.9135     79.6440     33.4455   6.0353535160e+01   5.9190111348e+01    0.6857055    0.4388558  -0.77  0.003423942    1.968    0.492
        10 -11.1355    139.6717     30.0872   4.4305969261e+01   4.6271543490e+01    0.5810192    0.3116012 -13.59  0.001351513    2.804    0.643
        11 -11.8777    136.0995     23.0429   4.2790883871e+01   4.7896239741e+01     1.573629    0.9808131 -68.37  0.007732889    2.115    0.527
        12 -10.4842    147.8369     16.4242   3.8914859607e+01   4.5805490917e+01    0.5485364    0.2546433  37.63  0.002268218    3.098    0.677
        13 -12.0420    134.2930     15.1627   4.0673501226e+01   4.9115008709e+01     1.693265    0.5717966  73.89  0.005695998    3.936    0.746
        14 -10.8673     59.9011     23.8449   6.3412320151e+01   6.4080463204e+01    0.4787053    0.1907345 -26.17  0.002061086    2.851    0.649
        15 -11.7647     27.2326     27.7998   7.9866574265e+01   6.8304064672e+01    0.5928323    0.4228548   1.72  0.002476046    1.218    0.179
        16 -12.4863     36.1380     17.1815   7.0599139956e+01   6.8680349671e+01    0.5645363    0.3631942 -31.03  0.001741794    1.572    0.364
        17 -11.9449     48.6261     12.8808   6.2946809835e+01   6.7284057673e+01    0.6829117    0.2760924  44.25  0.002599585    2.265    0.559
        18 -12.0128     20.2904     21.4045   8.0698008135e+01   7.0051889973e+01    0.6641706    0.2403708 -38.33  0.002460304    2.484    0.597
        19 -12.7976     17.0173     12.6188   7.8372117073e+01   7.1672666276e+01    0.7083832    0.4679667 -12.66  0.003391479    1.266    0.210
        20 -12.0998     23.2453     11.3351   7.4289324135e+01   7.1129216758e+01    0.4725437    0.2836038   9.99  0.002173713    1.549    0.354
        21 -11.1134     90.8686     20.7941   5.2006608760e+01   5.8385490992e+01    0.5729068    0.3616211 -29.42  0.002437324    1.753    0.430
        22 -11.4377     85.7989     14.5790   5.0963676200e+01   6.0082409126e+01    0.5643978    0.3143972  -5.88  0.002285731    2.330    0.571
        23 -10.4160     84.3763      7.6423   4.8562092625e+01   6.1010964860e+01    0.3371122    0.2667638 -44.56  0.002131596    1.616    0.381
        24 -10.9767    178.9131     21.0093   3.6032230807e+01   3.8064093910e+01    0.4995803    0.2360447  48.05  0.001623121    2.514    0.602
        25 -11.9130    237.4206     16.0308   2.9549843308e+01   2.6068789431e+01    0.4519944     0.293004  68.93  0.002963959    1.606    0.377
        26 -11.6124    227.7949     15.5438   3.0163968048e+01   2.8042893074e+01    0.4061023    0.2499522 -80.86   0.00138636    1.447    0.309
        27 -11.9243     68.1539     18.1223   5.7911992469e+01   6.3245142097e+01    0.4759495    0.3731764  34.92  0.001499987    1.100    0.091
        28 -10.2770     47.2257     19.2818   6.6538740629e+01   6.6757013252e+01    0.3284481    0.2012319 -22.08  0.001371308    1.618    0.382
        29 -10.8154    218.8499      3.0909   2.8317032352e+01   3.1202182067e+01    0.3317701    0.2378915 -42.54 0.0009889575    1.426    0.299
        30 -10.1901    228.3876      2.7823   2.7605636916e+01   2.9294637464e+01     0.285213    0.2040063 -27.25  0.001843091    1.811    0.448
        31 -10.7223    223.9608      2.2733   2.7800739554e+01   3.0239341773e+01    0.2710266     0.180571  87.04 0.0006304808    1.285    0.222
        32 -10.5885    211.2041     16.5354   3.1719853613e+01   3.1382449215e+01    0.2895821    0.1718162 -37.96 0.0009216205    1.690    0.408
        33 -11.5624    211.6095     10.2292   3.0341532168e+01   3.1978213450e+01    0.4678005    0.3398147   7.16  0.002708299    2.570    0.611
        34 -10.9758    176.9950      5.9211   3.2510868481e+01   4.0037757911e+01    0.3887827    0.1813741  79.19 0.0009422126    1.963    0.491
        35 -11.7494    191.9743      8.3978   3.1639945629e+01   3.6429374380e+01    0.7722241    0.4582414 -26.97  0.004200388    2.026    0.506
        36 -11.8226    246.5585      8.1110   2.7454808860e+01   2.5189373553e+01    0.7432257    0.4446861 -15.92  0.003993751    3.340    0.701
        37 -10.3061    232.6163      7.4166   2.8221231937e+01   2.7965970809e+01    0.2689915    0.1971718 -87.80  0.001637943    1.171    0.146
        38 -10.6634    237.5510      5.3878   2.7512014616e+01   2.7211779505e+01    0.2316781    0.1605402 -75.18  0.001274155    1.134    0.118
        39 -10.7609    241.7659      3.5467   2.6907960134e+01   2.6591602187e+01    0.2472715    0.1758107  86.14  0.001143892    1.280    0.219
        40 -10.2734    233.0602      2.9674   2.7338943190e+01   2.8346354152e+01     0.215021    0.1354034 -84.98 0.0005307086    1.334    0.250
        41 -10.3310     88.7130      7.4646   4.7364719017e+01   6.0108415425e+01    0.2730778     0.203591  24.19 0.0009040754    1.326    0.246
        42 -12.3533    104.9766     12.9049   4.5566288090e+01   5.6073717888e+01    0.4954887    0.4199153 -20.76  0.001718072    1.349    0.259
        43 -10.2085    116.9207      2.4952   3.9587207496e+01   5.4235034969e+01    0.2149277    0.1959338  74.17  0.000852767    1.115    0.103
        44 -10.9457    106.4217      2.0117   4.1367611216e+01   5.6653046674e+01    0.9031491    0.2514266  68.23  0.002760325    3.841    0.740
        45 -10.0715      5.1823     12.7341   8.5426609574e+01   7.2785806183e+01    0.2946376    0.1676844  24.96  0.001859113    1.809    0.447
        46  -9.3359      5.4608      9.4488   8.3679288555e+01   7.3246290871e+01    0.1789373    0.1099004 -24.44 0.0006146936    1.309    0.236
        47  -9.3327     98.5002     11.9610   4.6700142536e+01   5.7596225521e+01    0.1709738    0.1251913 -20.90 0.0006733877    1.552    0.356
        48  -9.9953     65.8189     10.4325   5.5337825500e+01   6.4477955180e+01     0.247098    0.1729961  48.38 0.0009091588    1.330    0.248
        49  -9.7777     62.7924      6.8080   5.4734800630e+01   6.5389877616e+01    0.2343218    0.1624036  20.92  0.001449334    1.319    0.242
        50  -9.8473    168.8269      9.7705   3.4359967468e+01   4.1545416708e+01    0.3390811     0.142042  54.17   0.00157418    2.311    0.567
        51  -9.5515    163.1528     10.1278   3.5120906744e+01   4.2826282593e+01    0.2193367    0.1887567 -71.80 0.0007688496    1.137    0.120
        52  -9.5768     78.2505      7.4421   5.0171032132e+01   6.2296797530e+01    0.4977087    0.2263772  66.74  0.002117783    2.991    0.666
        53 -10.2511     76.5005      3.4981   4.9005835639e+01   6.2983038243e+01    0.2666499    0.2043239  20.04  0.001010166    1.248    0.199
        54 -10.1654     73.3184      2.6849   4.9570318067e+01   6.3692246862e+01    0.3086543    0.2105804  20.08  0.001521646    1.444    0.307
        55  -9.6342      1.2379      7.5368   8.5409638705e+01   7.3874001963e+01    0.2217116   0.07774647 -45.35 0.0005930493    2.692    0.629
        56 -11.0997      2.4589      1.9860   8.1778151167e+01   7.4549403398e+01    0.2850297    0.1547612   4.18  0.001646113    1.698    0.411
        57 -10.1241     12.4734      1.6491   7.5325597168e+01   7.3598996505e+01    0.4735253    0.1348016  33.43  0.002156791    3.300    0.697
        58 -10.4533    157.8344      2.1234   3.3626853536e+01   4.4780244309e+01    0.3001113    0.2397777  66.02  0.001957023    1.145    0.127
        59 -11.6825    134.5603      2.8470   3.6869441700e+01   5.0132683267e+01    0.5003043    0.2691082  79.01  0.002011834    1.807    0.447
        60  -9.3352    157.6635      7.0620   3.4972203014e+01   4.4387163382e+01    0.1581968    0.1513646  77.55  0.000510022    1.173    0.148
        61 -10.8983    205.5343      2.3319   2.9145972461e+01   3.4074271134e+01    0.5014305    0.1923261  82.07   0.00170793    2.504    0.601
        62 -10.8329    183.6330      5.4331   3.1735562868e+01   3.8582435839e+01    0.4377703    0.3517207  17.84    0.0028123    1.840    0.457
        63 -10.3581     41.2137      4.4568   6.1977195365e+01   6.9377976383e+01    0.3276995    0.1816337   3.55  0.001768031    2.092    0.522
        64  -9.6421    143.5236      3.6623   3.5847896517e+01   4.7978354382e+01     0.536835     0.211859  78.20  0.002239579    2.687    0.628
        65 -10.6382     82.1880      1.3225   4.6561650538e+01   6.1977734339e+01    0.1972644   0.09345072  56.09 0.0003182595    1.733    0.423
        66  -9.0341     33.7772      1.4314   6.3791991026e+01   7.0834732444e+01    0.1570836    0.0865353  28.63 0.0006615766    1.530    0.346
        67 -10.4124    105.1125    154.1657   8.7688726973e+01   2.9143193556e+01    0.4246896    0.3415588 -11.79  0.002014517    1.513    0.339
        68  -9.5494    216.9966    249.9993   7.9481177786e+01  -8.2160941929e+00     0.148616    0.1148875  -1.74  0.000668185    1.027    0.027
        69 -10.0148     33.2143    154.4090   1.0862471947e+02   3.9015069354e+01    0.2784806    0.2449073  36.15  0.001125161    1.268    0.211
        70 -10.3628     31.1945    151.6074   1.0884356938e+02   3.9934039093e+01    0.2796699    0.2421737 -16.46  0.001289164    1.389    0.280
        71  -9.4715     74.5203    154.0233   9.6479391208e+01   3.4097982332e+01    0.3003885    0.2194036  87.74  0.001400822    1.627    0.385
        72 -10.1257     73.1594    147.8462   9.5749720260e+01   3.5897206445e+01    0.7757319    0.2619615 -42.82  0.002259931    3.905    0.744
        73 -11.8453     16.0518    148.0275   1.1277930801e+02   4.2157264392e+01    0.7280433    0.4507431  86.00  0.002321557    1.626    0.385
        74 -12.0379     13.1396    139.0755   1.1259368332e+02   4.4657939895e+01     1.088035    0.6542976  78.08  0.005454293    1.839    0.456
        75 -11.0784     21.2661    150.6722   1.1159070762e+02   4.1061039195e+01    0.2225359    0.1815444  80.72 0.0002239643    1.188    0.158
        76 -11.5691     23.8432    148.2208   1.1055030773e+02   4.1472415155e+01    0.3330762    0.2254577 -57.83 0.0007076777    1.322    0.244
        77 -10.6556      3.3995    152.7487   1.1679343225e+02   4.1866313667e+01    0.3891406    0.2375683  72.86  0.002091134    1.659    0.397
        78 -12.3056      3.0326    143.3742   1.1600100329e+02   4.4243307460e+01    0.7076095    0.4318253  81.56  0.002815498    1.628    0.386
        79 -10.3802     49.7048    145.9925   1.0251950502e+02   3.9443327700e+01    0.2517642    0.2245821  88.73 0.0005554618    1.116    0.104
        80 -11.0917     46.5646    146.9008   1.0361426407e+02   3.9565620826e+01      0.88818    0.2750233 -59.89  0.003149279    2.639    0.621
        81  -9.9875     41.4609    149.0908   1.0547603031e+02   3.9553759657e+01    0.2440348    0.2161803 -29.31 0.0008544854    1.269    0.212
        82 -10.8822     63.4182    150.5743   9.9157436206e+01   3.6538413556e+01    0.5428417    0.3362491   0.91  0.002222538    2.523    0.604
        83  -9.4845    234.2786    150.3857   5.7812700214e+01   5.8367069566e+00    0.2138795    0.1522094  -6.77  0.001118883    1.747    0.428
        84  -9.5928    239.8168    146.8300   5.6192063462e+01   5.5661879031e+00    0.1994323    0.1624326 -20.31 0.0007458479    1.190    0.160
        85 -10.8332    249.6951    142.9624   5.3898270265e+01   4.6663265193e+00     0.598631    0.2118337 -39.85  0.002491889    2.306    0.566
        86 -10.9595     33.4836    144.4256   1.0718981172e+02   4.1575754901e+01    0.4387773    0.2855811  51.55   0.00164204    1.701    0.412
        87  -8.9698    233.6988    143.3324   5.6448154216e+01   7.1951064732e+00    0.1328588   0.09944164 -62.83 0.0007034066    1.652    0.395
        88  -8.7661    104.7302    142.3712   8.5281055832e+01   3.2164257845e+01    0.1595053    0.1235806  87.15 0.0006996225    1.672    0.402
        89  -8.9581     59.0112    142.7094   9.9114435253e+01   3.9163588555e+01    0.1686468    0.1335708  30.01 0.0006127819    1.368    0.269
        90  -9.4545    132.5184    140.0456   7.7048764140e+01   2.7446200802e+01    0.2528161    0.1538824 -49.31  0.001038804    1.614    0.380
        91 -10.4404    217.1562    138.5479   5.8207576236e+01   1.0967095637e+01    0.3053491    0.2551439 -61.56 0.0006337099    1.337    0.252
        92  -9.8732     80.2529    137.2008   9.1478437843e+01   3.7583097241e+01    0.4599777     0.279475 -23.54  0.001767511    2.469    0.595
        93 -10.1217     47.1145    135.2953   1.0153043559e+02   4.2526659090e+01    0.4920529    0.2183141 -66.98  0.001842511    2.148    0.534
        94 -10.1794     39.4681    137.5652   1.0431911228e+02   4.2761366465e+01    0.3951405    0.2030581  42.47  0.001743575    2.140    0.533
        95  -9.6964     38.5159    133.1623   1.0390717751e+02   4.4000551126e+01    0.2925082    0.2110763  83.72 0.0009214738    1.572    0.364
        96 -10.2230     22.9397    126.9780   1.0794047669e+02   4.7007866793e+01    0.2615333    0.1918632  27.71 0.0003311824    1.561    0.359
        97  -9.5279     32.8145    137.8114   1.0643109694e+02   4.3354411235e+01    0.2739042    0.2303879  77.33 0.0008748592    1.245    0.197
        98 -11.4512     22.9171    135.8145   1.0921041909e+02   4.4743438356e+01     0.667947    0.5143932  31.38    0.0037039    1.477    0.323
        99 -11.4458     30.1218    132.9030   1.0653545682e+02   4.4872422059e+01    0.4656642    0.3393244 -81.28 0.0004529115    1.331    0.249
       100  -9.9698    245.0326    134.7218   5.2920373149e+01   6.8309120798e+00    0.1801711    0.1571223 -36.98 0.0005150181    1.062    0.058
       101 -10.1720     92.8556    134.8209   8.7109424640e+01   3.6136568964e+01    0.3247228    0.2505296 -87.52  0.001315605    1.637    0.389
       102 -10.1788     93.0818    129.6782   8.5868491663e+01   3.7387503499e+01    0.3898807    0.2318884 -65.39  0.001555606    1.971    0.493
       103 -10.2922     73.8435    132.5381   9.2498456277e+01   3.9750832446e+01    0.3416194    0.2597843  -7.06  0.001618401    1.644    0.392
       104 -10.1379     61.2728    132.4777   9.6488259859e+01   4.1526856948e+01    0.4372269    0.2944672   5.45  0.001522363    1.947    0.486
       105  -9.5934    103.8034    130.9463   8.2938647209e+01   3.5166949721e+01    0.2314483    0.2049041 -22.71 0.0003395278    1.187    0.158
       106 -10.8070      9.4773    128.4491   1.1241837449e+02   4.7605265412e+01    0.4168913    0.2537861 -65.86  0.002214141    1.331    0.249
       107 -10.1924    240.4069    127.1277   5.2039420067e+01   8.9247871889e+00    0.3222528    0.2111339 -58.02  0.001687189    1.693    0.409
       108 -10.0822     82.4992    124.9350   8.8071552726e+01   4.0340535179e+01    0.5044882    0.2874779 -17.94  0.001664607    3.424    0.708
       109  -9.5541     53.4340    125.2688   9.7618365475e+01   4.4377044550e+01    0.3143523    0.1762712 -68.03  0.001233418    1.812    0.448
       110 -10.1177     49.5689    123.1427   9.8485317627e+01   4.5381978058e+01    0.3249367    0.2486632  -2.81   0.00104676    1.553    0.356
       111 -11.3872     44.6774    118.9603   9.9316108618e+01   4.7001782242e+01    0.6024745    0.3754793 -84.40  0.002031377    2.052    0.513
       112  -9.5849      2.0439    126.0418   1.1444121860e+02   4.8654696265e+01    0.2047346    0.1625885 -81.30  0.000754106    1.116    0.104
       113 -12.8720    103.8600    122.3036   8.0823886281e+01   3.7263933819e+01    0.4055533    0.3746574 -10.93 0.0004895365    1.123    0.109
       114  -9.7685     18.9580    122.7520   1.0860796287e+02   4.8392991069e+01    0.2709183    0.1609331 -62.21  0.001094008    1.385    0.278
       115  -8.8165    143.5153    122.4377   6.9903106149e+01   2.9227392065e+01    0.1556209    0.1522395 -32.29 0.0001775198    1.007    0.007
       116  -9.5062     56.6602    122.0700   9.5894781367e+01   4.4794295567e+01    0.2142864    0.1754255 -53.08 0.0006834685    1.108    0.098
       117  -9.3190     71.3189    120.9054   9.0766982399e+01   4.3079444345e+01    0.2154474     0.182602 -47.22 0.0005517594    1.099    0.090
       118  -9.0819    221.4771    120.5006   5.3541014378e+01   1.3506087001e+01     0.140328    0.1217548 -44.14 7.714536e-05    1.013    0.013
       119 -10.1951     33.7495    118.6339   1.0298209328e+02   4.8196921854e+01    0.2328531    0.1394798 -35.25 0.0009363277    1.786    0.440
       120  -8.8787     13.7402    118.9665   1.0977318854e+02   4.9719809343e+01    0.1639723   0.09755823 -66.84 0.0003021249    1.389    0.280
       121  -9.4568     57.5919    118.2045   9.4761420419e+01   4.5655964504e+01    0.2147107    0.1228451 -49.56 0.0003406373    1.577    0.366
       122  -9.2833    113.5968    116.3137   7.6422077233e+01   3.6809062511e+01    0.3058198    0.1509033 -51.85  0.001127754    2.075    0.518
       123 -10.5688      7.0540    114.7053   1.1139492299e+02   5.1204874604e+01    0.3716266    0.2058155 -64.89  0.001465957    1.438    0.305
       124 -12.5097      2.2567    111.5916   1.1257901273e+02   5.2238688343e+01    0.4634807    0.2469666 -71.23 0.0005725009    1.545    0.353
       125 -11.0748      4.0215    104.7848   1.1101766167e+02   5.3820863366e+01    0.4248024    0.3365965  54.96  0.002225883    1.519    0.342
       126  -9.3816     79.0953    114.3642   8.6651441294e+01   4.3507726514e+01    0.2835239    0.1926945 -43.23  0.001303397    1.408    0.290
       127  -9.5325     67.0137    114.4812   9.0723366956e+01   4.5310102917e+01    0.3456289    0.2131344  56.76  0.001441847    2.237    0.553
       128 -10.0405     65.6514    110.9889   9.0361858130e+01   4.6367379301e+01    0.4089587    0.2540271  26.99  0.001537371    1.743    0.426
       129 -10.6495     16.0613    109.6580   1.0755265265e+02   5.1893159019e+01     0.349556    0.2250632  53.20  0.001009134    1.940    0.485
       130 -11.9591      7.2635     89.0077   1.0722921982e+02   5.7449284184e+01    0.6462998    0.4387593  27.44   0.00186325    1.751    0.429
       131 -11.8451      9.5110     97.2179   1.0783047783e+02   5.5359881209e+01    0.5241901    0.4377607   0.20 0.0004333674    1.372    0.271
       132 -11.9045     42.3314     85.7558   9.2624627293e+01   5.5333710750e+01    0.8753567    0.4939937  17.22  0.002998306    1.997    0.499
       133 -10.4801     18.7831    106.0266   1.0597553957e+02   5.2602463631e+01      0.21253    0.1936011  -4.36 0.0002664087    1.241    0.194
       134 -11.3809     17.3980    100.6999   1.0552951960e+02   5.4009656428e+01     0.464278    0.2712625 -44.04 0.0006048616    1.505    0.335
       135 -11.9598     34.5474     93.6935   9.7614467517e+01   5.4284498346e+01     1.575492     0.704876 -62.65  0.006656026    2.141    0.533
       136 -11.2734     26.6233     86.2424   9.8999636881e+01   5.6758879250e+01    0.7325351    0.5277985  13.82  0.003039491    1.527    0.345
       137 -11.3301     23.0125     94.8047   1.0228241049e+02   5.5024294352e+01    0.3765527    0.2764652  -6.32 0.0009547492    1.512    0.339
       138 -11.3647     18.3900     90.5413   1.0319360283e+02   5.6387769531e+01    0.4562599    0.3021554 -65.34   0.00104789    1.381    0.276
       139 -11.8473     24.8036    108.0668   1.0418705397e+02   5.1636652480e+01    0.8715212    0.4474219 -21.23  0.003723111    2.644    0.622
       140 -11.1084     23.9117    102.3890   1.0344861653e+02   5.3110970376e+01    0.4106248    0.3963492 -85.43  0.002653059    1.180    0.152
       141 -11.5495     21.9305    114.3039   1.0628156939e+02   5.0303269081e+01     1.239137    0.4359069   5.16  0.003862001    5.464    0.817
       142 -10.8044     28.3208    113.1856   1.0387365964e+02   5.0063120600e+01    0.2949749    0.2418286  12.64  0.000827499    1.393    0.282
       143 -10.3640    107.9780    112.3262   7.7027262665e+01   3.8840892272e+01    0.3989848    0.3382797  87.32  0.001310586    1.467    0.318
       144  -9.4075    103.7169    112.3869   7.8325463272e+01   3.9648503881e+01    0.2731322    0.2438412 -87.12 0.0005613528    1.309    0.236
       145 -10.8853    102.6488    108.8752   7.7716654319e+01   4.0668952850e+01    0.6921524    0.4537411  14.88  0.002477094    2.118    0.528
       146  -9.9410     94.5233    112.1748   8.1114587978e+01   4.1405818320e+01    0.3479239    0.2975532  -2.15  0.001745415    1.287    0.223
       147 -10.2085     49.2011    112.2667   9.6373759519e+01   4.8178574916e+01    0.3457274    0.2772493 -26.69  0.001859932    1.287    0.223
       148 -10.4111    170.3689    110.5418   6.0649674569e+01   2.5928293346e+01    0.4060397    0.2978251 -40.24  0.001259385    1.313    0.238
       149 -11.0589    131.8573    110.2685   6.9747233225e+01   3.4404273857e+01    0.4927418    0.3467345  61.98  0.002146876    1.723    0.420
       150 -10.2104    120.1234    109.4149   7.2725016838e+01   3.7062583173e+01    0.3275018    0.2540218  -6.90 0.0006905484    1.633    0.388
       151 -11.5560     79.4860    108.0646   8.4933571060e+01   4.4970515864e+01    0.6171069    0.3487897  26.32  0.001095685    2.003    0.501
       152 -11.2876     88.3231    104.3816   8.1036516047e+01   4.4344064158e+01    0.6378557    0.3103111  34.87  0.001221402    2.150    0.535
       153 -10.8304    176.3780    107.4313   5.8621938062e+01   2.5231401781e+01      0.36346    0.2760168  17.58  0.001699597    1.778    0.438
       154 -11.5486    145.5681    100.2363   6.3562020611e+01   3.3525580836e+01     0.434779    0.3121195 -33.69  0.000471209    1.451    0.311
       155 -10.2769     43.0103     94.6696   9.4610654851e+01   5.3178097461e+01    0.3778931    0.3124514  -4.90  0.001704232    1.268    0.211
       156 -10.7366     48.9823     90.8988   9.1387267267e+01   5.3375014776e+01    0.5565726    0.4033116 -19.79   0.00288813    1.462    0.316
       157 -11.0316     48.8780    102.7259   9.4346577104e+01   5.0571641127e+01    0.7161874    0.3737328 -23.07  0.002719352    2.878    0.653
       158  -9.9001     52.4240     96.2039   9.1452342700e+01   5.1707049812e+01    0.3207779    0.2176607 -77.86  0.001476369    2.013    0.503
       159 -10.7942    143.4849    106.0067   6.5628118944e+01   3.2793474320e+01    0.3143829    0.2999142 -58.62  0.001312876    1.057    0.054
       160  -8.9763     73.6966    104.1912   8.5893120144e+01   4.6816923625e+01    0.2107157    0.1228054 -44.60 0.0002230788    1.616    0.381
       161  -9.8355     57.3681    102.5226   9.1221184671e+01   4.9562795526e+01    0.2940772    0.1681717 -51.40 0.0008545368    1.574    0.365
       162  -9.4217    120.5788    101.2578   7.0355974970e+01   3.8761345341e+01    0.2243402    0.1456034 -33.34 0.0009488952    1.660    0.398
       163 -11.3583     89.5913     89.7330   7.6469271197e+01   4.7405478261e+01     0.620273     0.368325 -32.65  0.002384906    1.843    0.457
       164 -10.7019     79.7412     97.7476   8.2086673164e+01   4.7347938533e+01    0.4500877    0.3231463  54.34  0.002107204    1.721    0.419
       165 -11.2700     79.7154     92.9112   8.0731801664e+01   4.8447655274e+01    0.8009698    0.3922097  38.02  0.003241382    2.098    0.523
       166 -10.6893     80.2978     83.7114   7.7809977530e+01   5.0353105153e+01    0.5319315    0.3487888 -37.82  0.002510444    1.489    0.328
       167 -11.8426     75.1930     80.3017   7.8564231575e+01   5.1941683751e+01    0.7521079    0.5948855 -62.09  0.001972675    1.533    0.347
       168 -11.1903     67.9416     95.7027   8.5651568535e+01   4.9689091596e+01    0.5119367    0.4077617  12.48  0.002128314    1.339    0.253
       169  -9.9256    210.2620     98.1373   5.0300287479e+01   1.9736571912e+01     0.257137    0.1983183  36.35  0.001122614    1.609    0.378
       170  -9.6463     57.8287     97.1727   8.9705372323e+01   5.0779074108e+01    0.2094033    0.1578513 -27.32 0.0007969192    1.339    0.253
       171  -9.3929    157.6625    105.7127   6.2194918901e+01   2.9711997501e+01    0.1538526    0.1223513   8.68 0.0007018428    1.634    0.388
       172  -9.0614    183.3899     95.2409   5.4206125923e+01   2.6008646440e+01    0.2093525    0.1279658 -49.85 0.0003786847    1.602    0.376
       173  -9.8577    117.0643     94.1132   6.9316745294e+01   4.1021382504e+01    0.4896645     0.338356  -2.47   0.00199617    2.223    0.550
       174 -11.1710    121.4173     88.8882   6.6576821891e+01   4.1162653412e+01    0.3672786    0.3475055  12.06  0.001287789    1.069    0.064
       175 -10.7587    126.0545     94.1578   6.6841582019e+01   3.9084182655e+01    0.3919283    0.3449899  24.26 0.0008045223    1.193    0.162
       176 -10.4862    122.3152     93.6671   6.7718961308e+01   3.9994531008e+01    0.3058729    0.2709677 -50.80 0.0007226293    1.158    0.137
       177  -9.4641    160.8047     93.9126   5.8380899395e+01   3.1336801446e+01    0.2942166    0.1999777  82.09  0.001231332    2.133    0.531
       178 -10.6438    153.3300     91.7352   5.9435845621e+01   3.3455929412e+01    0.5009306     0.359392  33.89  0.002186341    1.604    0.377
       179 -11.0990     98.4825     91.0529   7.3989546826e+01   4.5442423575e+01    0.3041753    0.2669099  36.74 -0.0001480631    1.153    0.133
       180 -10.6044    183.2332     83.9871   5.1403315352e+01   2.8065328308e+01     0.528856     0.235935 -50.97  0.002015438    2.423    0.587
       181 -10.1168     66.3887     88.8288   8.4297361692e+01   5.1488210572e+01    0.3540541    0.2369909   4.62  0.001394827    1.878    0.468
       182  -9.2256    111.4715     87.9590   6.9122324207e+01   4.3468257789e+01    0.3177176    0.1979876 -66.38  0.001212112    2.562    0.610
       183 -10.5413    104.7676     87.1086   7.0866125329e+01   4.5022409111e+01    0.5273964    0.3036817 -25.02  0.002035652    2.359    0.576
       184 -11.6449    112.7634     83.2819   6.7340233701e+01   4.4135383744e+01    0.7878469     0.509244  66.98  0.003231423    2.259    0.557
       185 -10.1749    165.6918     83.7376   5.4646249663e+01   3.2107437287e+01    0.3615806    0.2671007 -56.09   0.00127153    1.401    0.286
       186 -10.8369    142.5355     84.4616   5.9894281162e+01   3.7304811767e+01     0.586649    0.3114586  43.38  0.001186189    1.954    0.488
       187 -10.3780     67.0121     82.0694   8.2086285607e+01   5.2880190469e+01    0.3900198    0.3034081 -26.49   0.00205795    1.248    0.199
       188 -10.2879     60.5744     83.6198   8.4958160077e+01   5.3496997154e+01    0.2959874    0.2329548 -45.66 0.0002675686    1.209    0.173
       189 -11.8949     53.3115     75.8616   8.5466603721e+01   5.6182802612e+01    0.6609482    0.6107196  -4.37  0.004002085    1.095    0.087
       190 -10.9003     58.3910     77.5903   8.3998963515e+01   5.5114754184e+01    0.3243178    0.2690889 -44.49 0.0007521531    1.184    0.156
       191  -9.6215    127.6669     82.9574   6.3151902374e+01   4.0952342826e+01     0.271612    0.2025372  37.81 0.0009070832    1.375    0.273
       192 -10.9428    103.4218     76.0630   6.7865620827e+01   4.7490846997e+01    0.7110595    0.3535931 -44.16   0.00288222    2.063    0.515
       193 -11.9056      2.1619     71.4226   1.0586765170e+02   6.1753930373e+01    0.9720661    0.1904944 -63.89  0.003388755    3.737    0.732
       194 -10.9366     13.0251     57.9700   9.7680776039e+01   6.4039148200e+01    0.4407518    0.3313799 -29.45  0.002131007    1.103    0.094
       195 -13.1461      4.3388     61.7850   1.0271891919e+02   6.3756855019e+01     0.367213    0.2820256 -46.93 0.0005937345    1.070    0.065
       196 -11.7678     10.0532     62.4803   1.0027398742e+02   6.3282169859e+01    0.3195765    0.2825325 -40.50  0.001214343    1.144    0.126
       197 -11.5915     13.8982     74.5105   1.0152458347e+02   6.0400612985e+01    0.5741569    0.3769318 -70.38  0.002228232    1.617    0.381
       198 -10.0879     14.0065     67.5024   9.9774518046e+01   6.1943570571e+01    0.4763292    0.2303622   8.24  0.002326253    2.360    0.576
       199 -10.2050    232.9471     77.6100   4.2579163778e+01   1.8600485575e+01    0.2646329    0.1645786 -47.85 0.0009901028    1.363    0.266
       200 -10.2180     84.0203     61.0300   6.9115291589e+01   5.4094698372e+01    0.6335476    0.4640316  80.68  0.002842252    2.551    0.608
       201  -9.8746     94.3328     76.1187   7.0724801687e+01   4.9305541981e+01    0.5474355    0.4083527  34.09  0.002740364    1.328    0.247
       202 -11.7190     85.4843     73.1003   7.2677297991e+01   5.1580318073e+01    0.8616022    0.5047986  41.33  0.003414393    1.711    0.415
       203 -11.2512     78.8063     67.8346   7.3251071271e+01   5.3807941178e+01     0.690154    0.5193849 -79.78  0.003207389    2.320    0.569
       204 -11.6126     91.4646     62.8267   6.7263906745e+01   5.2337334129e+01     1.000979     0.373951  46.08  0.003672685    2.655    0.623
       205 -10.5875     87.6592     56.6399   6.6360641075e+01   5.4149067907e+01     1.194319    0.4483541 -49.20  0.003921248    3.956    0.747
       206 -10.9325     91.5798     56.9292   6.5190949188e+01   5.3323689867e+01    0.4726169    0.3633727 -14.45  0.002286601    1.397    0.284
       207 -12.7295     74.8359     53.8076   6.9765927519e+01   5.7036549912e+01    0.7998114     0.584765 -22.91   0.00123222    1.378    0.274
       208 -11.1114     72.8656     47.3436   6.8083499175e+01   5.8451271317e+01    0.3577953    0.2600227 -44.77  0.001562649    1.592    0.372
       209 -10.0138    126.9683     76.9466   6.1536142202e+01   4.2235257485e+01    0.2248695    0.2164155  28.89 0.0003447809    1.027    0.027
       210 -12.2175    186.1179     70.2617   4.7448366104e+01   2.9718692230e+01     1.035107    0.5653406 -42.92  0.004298861    1.735    0.424
       211  -9.9005     63.2117     74.5483   8.1199793889e+01   5.5049209318e+01    0.4636948    0.2940787  50.71  0.002103544    2.108    0.526
       212  -9.8698     24.4567     73.3771   9.6728085498e+01   5.9864441919e+01    0.4728645     0.192754 -65.83  0.001856449    2.970    0.663
       213 -11.3066     40.8021     71.8985   8.9377810939e+01   5.8574937750e+01    0.5287768    0.2807088 -53.78  0.001807433    1.809    0.447
       214 -11.4422     35.0318     72.0115   9.1842246710e+01   5.9175038661e+01    0.7527003     0.247594  26.43  0.002923619    3.158    0.683
       215 -10.2382    153.8134     72.4916   5.3987342549e+01   3.6834913028e+01    0.3621705    0.2376583  42.18  0.001085304    1.639    0.390
       216 -11.7591    123.0858     69.0981   6.0135322401e+01   4.4511118569e+01    0.5149111    0.4589621  31.59   0.00155643    1.121    0.108
       217  -9.5863    161.9033     71.0853   5.1966781357e+01   3.5179358865e+01    0.2317012    0.1917192 -77.42 0.0009765954    1.301    0.231
       218  -8.7345     19.6686     71.6931   9.8355478618e+01   6.0619190476e+01    0.1404426   0.07900321 -31.76 0.0007039435    1.663    0.399
       219  -9.6187    172.1853     68.7954   4.9434192212e+01   3.3157944423e+01    0.2935288    0.2197382 -39.16 0.0008919777    1.343    0.256
       220  -8.9712    172.2953     64.6677   4.8320545020e+01   3.3792047142e+01    0.2281537    0.1365711 -41.42   0.00055312    1.641    0.391
       221 -10.3993    168.7469     63.5980   4.8658305620e+01   3.4788680917e+01    0.3508857    0.2885348  85.11 0.0007624942    1.241    0.194
       222 -11.3374    219.8598     66.7550   4.1825997980e+01   2.2916573879e+01    0.6034121    0.3326614  55.22  0.002965271    2.001    0.500
       223 -11.4412    234.6591     60.9687   3.8864541584e+01   2.0784877742e+01    0.5255705    0.3768634  80.98   0.00256072    1.453    0.312
       224  -9.6393    192.4486     65.8736   4.5368652415e+01   2.8984125238e+01    0.2497592    0.1821164  89.22 0.0007010915    1.486    0.327
       225 -10.6625     59.1760     62.9884   7.8980304217e+01   5.7965498752e+01    0.4486508    0.3211841 -39.41  0.001901756    1.338    0.253
       226  -9.7010     64.9343     61.5276   7.6220736534e+01   5.7348493925e+01    0.2954781    0.2098186 -44.86 0.0009330806    1.465    0.318
       227 -11.7576     60.1219     46.6681   7.2687791470e+01   6.0737427381e+01    0.9902384    0.6151733 -36.10  0.005202916    1.590    0.371
       228 -11.8069     25.7893     58.2129   9.1805493927e+01   6.2965120311e+01     1.118165     0.683169 -13.42  0.005966621    1.725    0.420
       229 -11.0459     20.7959     46.2221   9.0262811263e+01   6.5766662481e+01    0.4154844    0.2674076 -33.18  0.001700718    1.293    0.226
       230  -9.4464     24.2168     38.3734   8.5705252009e+01   6.6875041867e+01      1.06958    0.7234201  58.74  0.005151479    3.488    0.713
       231 -10.4850     51.7123     49.1246   7.7080674517e+01   6.1608031959e+01    0.9479488     0.298056 -41.28  0.003592416    3.050    0.672
       232 -10.3149    142.9720    249.7272   9.4405546621e+01   1.9718216733e+00    0.1898358    0.1485825  29.95  0.001158871    1.092    0.084
       233 -11.2572     40.5406     57.0222   8.4753717559e+01   6.1636356592e+01    0.5194921    0.3066501  30.38  0.001443984    1.758    0.431
       234 -11.6566     52.1192     61.8293   8.1447120858e+01   5.9207341805e+01     0.422566    0.3947195 -83.76  0.002579612    1.492    0.330
       235 -11.9379     43.5413     62.1542   8.5168412724e+01   6.0264348819e+01    0.2895128    0.2283717 -30.21 0.0003503676    1.114    0.102
       236 -11.3915     46.6023     58.7829   8.2725475805e+01   6.0537633256e+01    0.3815702    0.2433595 -49.10 0.0006528678    1.614    0.381
       237 -11.0063     26.0378     47.8817   8.8282437234e+01   6.4963497516e+01    0.2564663    0.1651899 -29.16 0.0003175956    1.344    0.256
       238  -9.3948    201.1987     64.6054   4.3792394075e+01   2.7234687920e+01    0.2726152    0.1245075  58.96 0.0009468072    2.218    0.549
       239  -9.5067    198.4679     62.4924   4.3670958340e+01   2.8160353580e+01    0.2513161    0.1939115 -65.40 0.0008777701    1.234    0.190
       240  -9.7600    106.1817     64.0376   6.3155591039e+01   4.9096490192e+01    0.2723481    0.2074547  44.08  0.001398421    1.262    0.208
       241 -10.2894    159.2170     62.4502   5.0094757244e+01   3.7207548168e+01    0.5559517    0.2056393  47.92  0.001993402    2.824    0.646
       242  -9.2373    205.9010     61.7510   4.2479282750e+01   2.6639619962e+01    0.1806649    0.1558667 -80.94 0.0004486219    1.075    0.070
       243  -9.7807    174.8723    247.1371   8.7344586458e+01  -2.1796870762e+00    0.2356748    0.1962799  11.60  0.001521091    1.009    0.009
       244  -9.4511    163.5482    243.8545   8.9206832198e+01  -9.0228769486e-03     0.202152     0.164227  40.29 0.0007362606    1.302    0.232
       245 -11.5306    113.8912     37.8717   5.2256015881e+01   5.1325398036e+01     0.585815    0.3625896  37.27  0.001124603    1.657    0.396
       246 -11.5517    127.6278    241.7296   9.6634000044e+01   5.6837811867e+00    0.4063975    0.3713807  34.15  0.002143102    1.056    0.053
       247 -12.4176    117.6102     44.7135   5.3654037530e+01   4.9567125310e+01    0.7130401    0.5986543  54.05  0.003122074    1.116    0.104
       248  -9.9228     68.0019    240.4922   1.0950913253e+02   1.4349874554e+01    0.1916256    0.1118745  35.25 0.0007391029    1.565    0.361
       249 -11.7836    115.1101     24.8301   4.7514277798e+01   5.2591562597e+01    0.5362067    0.2678441  60.74  0.001695346    1.818    0.450
       250  -9.5902    150.7475     60.9946   5.1340436188e+01   3.9433389171e+01    0.2389801    0.1838106  59.37 0.0007191433    1.250    0.200
       251  -9.1588    147.0110     60.7742   5.2041010520e+01   4.0349004587e+01    0.2061917    0.1775298  61.15 0.0005043483    1.114    0.103
       252  -9.3974    113.5390     60.4199   5.9899618318e+01   4.8106050472e+01    0.2935286    0.1427663 -35.58 0.0009843102    2.159    0.537
       253 -10.7620    137.1562     50.1516   5.0934181422e+01   4.4266922917e+01    0.6943771     0.283118  37.52  0.002220489    3.943    0.746
       254 -10.8808    136.4471     57.1251   5.3219524770e+01   4.3397258329e+01    0.7114174    0.4528925   0.15  0.002883426    2.786    0.641
       255 -11.2325    145.7452     46.6998   4.8152735335e+01   4.2723175968e+01     1.041496    0.3969496 -28.11  0.003791053    3.256    0.693
       256 -10.4281    134.8589     45.8356   5.0091315220e+01   4.5414405162e+01    0.4014123    0.1958155  62.55   0.00091996    2.057    0.514
       257 -10.1110    139.0017     43.8412   4.8623754365e+01   4.4709473344e+01    0.3683836    0.2235701  35.84  0.001700216    1.973    0.493
       258 -10.9241    106.5742     58.6194   6.1240976351e+01   4.9920832895e+01    0.3782397    0.3107023  79.38  0.001126391    1.565    0.361
       259 -10.5999    147.2675    238.0235   9.1825344183e+01   3.4336165538e+00    0.2665016     0.217864 -57.76  0.001054284    1.485    0.327
       260 -11.7402    156.7453     42.6562   4.4980834005e+01   4.0658100160e+01    0.9982693    0.4314011  70.52  0.003867471    2.665    0.625
       261 -12.3808    153.0607     35.8867   4.3681170239e+01   4.2400545700e+01      0.41002    0.3180231  76.23 0.0003758956    1.221    0.181
       262 -10.2862    150.3400    237.3220   9.1054237625e+01   3.0997214460e+00    0.2600363    0.1903395 -17.04  0.001080326    1.574    0.365
       263 -11.5030    164.3865     27.5763   3.9618965973e+01   4.0711030200e+01    0.2760009    0.2321398  70.57 0.0006230355    1.087    0.080
       264  -9.6130    238.1004     55.9097   3.7455526524e+01   2.0837245102e+01    0.1811694    0.1500771 -60.26 0.0002806819    1.047    0.045
       265 -10.0555     66.9216     54.5908   7.2989708777e+01   5.8276419209e+01    0.3415422    0.1877342 -45.65  0.001442239    1.972    0.493
       266  -9.4521    187.4722     55.1400   4.3445948014e+01   3.1731082097e+01    0.2805238    0.1538741  51.73   0.00131588    1.933    0.483
       267 -11.3471    156.6474     52.8647   4.7883276213e+01   3.9263633317e+01    0.9550079    0.5343676 -46.50  0.004398495    1.857    0.461
       268  -9.5692    211.7041     52.9825   3.9731764367e+01   2.6667623774e+01    0.2399914    0.1572846 -85.91  0.001283263    1.638    0.389
       269 -11.2841    201.3072     48.4745   3.9962503167e+01   2.9566822892e+01    0.8528883    0.3725073 -42.72  0.003885504    2.084    0.520
       270 -10.1750    240.4449     50.6626   3.6154204701e+01   2.1115345749e+01    0.2436868    0.2070189 -34.33 0.0009667549    1.395    0.283
       271 -10.0692    244.9693     51.3078   3.5855307491e+01   2.0156470799e+01    0.1687132     0.137824 -75.37 0.0009276787    1.109    0.098
       272 -10.9072    174.3929     48.3414   4.3664198933e+01   3.5723395554e+01    0.5615348    0.3146091  70.35  0.002648609    1.803    0.445
       273 -10.4315    167.8180    237.8373   8.7386651335e+01   4.0211951082e-01    0.1716245    0.1528477  44.12  0.001075261    1.329    0.247
       274  -9.7370     91.4538     48.5709   6.2261647598e+01   5.4681541403e+01    0.2493242     0.221741 -67.23  0.001101098    1.456    0.313
       275 -10.9865     12.7509     47.9322   9.4819650274e+01   6.6085644236e+01    0.4318011    0.1812004 -32.52   0.00203332    2.223    0.550
       276  -9.7281     17.4307     42.0253   9.0486302761e+01   6.6844916729e+01    0.2638116    0.1533953 -24.61   0.00108357    1.559    0.359
       277  -9.8033      2.2321     48.6940   1.0030151030e+02   6.6590312539e+01    0.3217916    0.2166302 -63.43  0.001979682    1.554    0.356
       278  -9.6515      6.0031     42.9718   9.6675338431e+01   6.7504186315e+01     0.312491    0.1667052 -35.78  0.001780199    1.499    0.333
       279 -10.0502      5.9977     31.1430   9.2631807883e+01   6.9699143470e+01    0.7182329    0.2861088   1.48  0.003159282    3.297    0.697
       280  -9.0663      3.6937     39.3094   9.6713476591e+01   6.8345746658e+01    0.1781992    0.1704429 -55.76 0.0007420947    1.428    0.300
       281 -10.2031      5.9122     36.1626   9.4472607592e+01   6.8795942419e+01    0.2874621    0.2291684  19.06  0.001638118    1.467    0.318
       282 -10.4274    208.9481     46.7752   3.8648224508e+01   2.8127984119e+01    0.3594755    0.1827773 -82.37  0.001513008    2.827    0.646
       283  -9.4688    176.7753     43.3473   4.2005077614e+01   3.5847979184e+01    0.2147421    0.1548229 -89.54  0.001158534    1.419    0.295
       284 -10.7157     94.0197     41.2660   5.8821226943e+01   5.5216383877e+01    0.5902537    0.2650381  47.83  0.002545217    2.023    0.506
       285 -10.6004    189.0651     39.7751   3.9424884552e+01   3.3486555701e+01    0.4337914     0.218953 -22.88  0.001424631    2.827    0.646
       286  -9.6532     86.0428     30.9736   5.7353914477e+01   5.8223248725e+01    0.2617517    0.2135384   9.36  0.001125472    1.221    0.181
       287 -10.6039     80.8258     39.6543   6.2375624877e+01   5.8111901597e+01    0.5694509    0.3252622  68.27  0.002116145    3.885    0.743
       288  -9.3604    233.2752    236.0327   7.4174372434e+01  -8.2055970096e+00    0.1737236    0.1306571 -13.04 0.0007296607    1.076    0.071
       289  -9.9767    231.4610     39.4687   3.4717747399e+01   2.4396593207e+01    0.2151259    0.1524861 -67.59 0.0007387255    1.210    0.174
       290  -9.7264    217.0513     39.0453   3.6038833137e+01   2.7425708692e+01    0.2992529    0.1155089 -48.57   0.00134618    2.302    0.566
       291 -10.8619    189.2319     27.6966   3.6469024193e+01   3.4945954769e+01    0.3367019     0.296192  11.97  0.001921759    1.584    0.369
       292 -11.0224    183.4927     25.5958   3.6628361287e+01   3.6497940473e+01     0.573134    0.3108794  50.38   0.00287454    2.054    0.513
       293 -11.0940    176.7608     36.4531   4.0226542084e+01   3.6745340478e+01    0.3785662    0.2967455 -49.20  0.002241387    1.269    0.212
       294 -10.8631    175.3186     31.1629   3.9059830574e+01   3.7731146921e+01    0.5723646    0.2400251  49.79  0.001732301    2.631    0.620
       295 -11.0817     61.0759     35.9196   6.8052023323e+01   6.2249661808e+01    0.4546219    0.3142734 -11.90  0.001328274    1.492    0.330
       296 -10.2822     67.6417     32.4378   6.4128298577e+01   6.1589369614e+01    0.3440192    0.2782863  22.08  0.001507332    1.073    0.068
       297  -9.8556     65.0312     28.6665   6.3529863056e+01   6.2559843689e+01    0.2051693    0.1727074 -10.88 0.0004531913    1.173    0.148
       298  -8.6499    193.6840     38.7180   3.8589477041e+01   3.2577246133e+01    0.1211386   0.09750828  41.26 0.0001817016    1.578    0.366
       299  -9.4599    183.7914     38.1147   3.9699895674e+01   3.4907823391e+01    0.2000285    0.1543815 -74.13 0.0008560908    1.238    0.192
       300  -9.9275    133.8973     37.1046   4.7572055823e+01   4.6789492613e+01    0.5383398    0.2724371  73.33  0.002206388    2.479    0.597
       301 -10.1634    157.4949     20.2885   3.8606149828e+01   4.3135017892e+01    0.3646841    0.1906077  57.17  0.001823828    1.719    0.418
       302 -10.9249    198.4438    232.9167   8.0280093028e+01  -3.1785058261e+00    0.3817186    0.3079569  23.48  0.002411998    1.209    0.173
       303 -11.1093    152.1684     25.4569   4.0845222310e+01   4.3835021675e+01    0.6748832    0.3445888  50.77  0.003228868    1.894    0.472
       304  -9.4856     15.2228    233.7361   1.1994130582e+02   2.1830489394e+01    0.2232185    0.1374116 -71.47  0.001015569    1.596    0.373
       305 -10.3774    247.7435    232.0086   7.0932964051e+01  -9.3410925749e+00    0.2594287    0.2098698 -34.94  0.001416771    1.536    0.349
       306 -10.2435    143.7700     25.1986   4.2123989843e+01   4.5851918130e+01    0.4205209    0.2187063  60.90  0.001855091    1.671    0.402
       307 -10.4244    149.1603     21.9355   4.0302134896e+01   4.4928154916e+01    0.3149234    0.2966421 -35.52  0.002004082    1.215    0.177
       308 -10.4125    242.9419    232.1774   7.1797231247e+01  -8.8062882576e+00    0.2654377    0.2408561 -52.17  0.001843219    1.897    0.473
       309 -10.1380    126.9770     16.5295   4.2380031042e+01   5.0695439947e+01    0.2858455    0.1839766  53.41 0.0008936042    1.354    0.261
       310  -9.1503    206.7505     37.2008   3.6721940318e+01   2.9875551662e+01     0.155019    0.1454222  61.30 0.0007038565    1.306    0.235
       311  -9.3037     12.5568     36.6222   9.1080970811e+01   6.8232605281e+01    0.1913963    0.1122415 -62.06 0.0007138386    2.321    0.569
       312  -9.3957     94.0750     35.8939   5.6824392932e+01   5.5927812882e+01    0.1918377    0.1762397  75.99 0.0005267406    1.309    0.236
       313 -10.3963    239.9857     33.0041   3.2664766054e+01   2.3534965502e+01    0.3040157    0.2244685 -85.21  0.001480902    1.222    0.182
       314 -10.1052    240.8069     26.9082   3.1404493331e+01   2.4128625052e+01    0.2768079    0.1635235 -48.61   0.00127695    1.407    0.289
       315  -9.4808     23.8115    231.8340   1.1809496912e+02   2.1365779879e+01     0.174619    0.1113783  61.51 0.0006885183    1.323    0.244
       316 -12.2872     58.3210     29.7532   6.6573206794e+01   6.3582836456e+01    0.3719587     0.253701  13.34 0.0007395485    1.457    0.314
       317 -11.6995     49.2768     30.4703   7.0629639118e+01   6.4939561565e+01    0.6401561    0.2469525  35.79  0.002229484    2.446    0.591
       318 -10.7250    198.7652     28.8954   3.5687629152e+01   3.2664670838e+01    0.3646738    0.3564526  16.64  0.002392754    1.360    0.265
       319 -10.2566     13.9483     23.2909   8.5033393555e+01   7.0387083215e+01    0.2418976    0.1827863 -39.56  0.000598019    1.410    0.291
       320 -10.5617      5.7817     21.1775   8.8820839464e+01   7.1414213151e+01    0.3901811     0.205181   9.07  0.001214706    1.844    0.458
       321  -8.8436    190.2652    229.3919   8.1340693711e+01  -1.4330351648e+00    0.1370693   0.08887386 -11.09 0.0005073569    1.710    0.415
       322 -10.0311    233.5806    223.5421   7.1969569328e+01  -6.3919020184e+00    0.2927712    0.1333776 -30.40    0.0014445    2.020    0.505
       323  -9.0207    209.4595    223.5625   7.6503715406e+01  -3.1896376598e+00    0.1311031    0.1052946  -3.36 8.485156e-05    1.040    0.038
       324  -9.1836    153.1675    219.5907   8.7657453940e+01   6.0137235646e+00     0.197377    0.1234193  22.83  0.000677596    1.628    0.386
       325  -9.2208     10.2916    218.3304   1.2003170146e+02   2.5636349191e+01    0.1116958   0.08396769 -54.25 0.0003904566    1.627    0.386
       326  -8.8863      3.0241    213.0104   1.2123145661e+02   2.7468940237e+01    0.1420616    0.1129674  72.80  0.000407495    1.044    0.042
       327 -10.1386    230.4132     27.5547   3.2374573551e+01   2.6109560500e+01    0.3314241    0.1595137 -46.25  0.001808545    1.752    0.429
       328  -9.5142    250.5030     27.4938   3.0784300594e+01   2.2205722975e+01    0.1148616   0.08899283 -65.87 -0.0002067576    1.033    0.032
       329  -9.7180     97.1740     26.1659   5.2340159622e+01   5.6446163775e+01    0.2117889    0.1801863 -34.75  0.000809472    1.341    0.254
       330 -10.0186    214.0347     23.8515   3.3040004660e+01   2.9945906243e+01    0.2783423    0.2596978 -73.80  0.001998252    1.239    0.193
       331  -9.3787    216.5144     20.4789   3.2098619171e+01   2.9812866846e+01    0.2017032    0.1021933 -40.28 0.0005558872    1.833    0.454
       332  -9.0110     85.9906     23.9694   5.4633820397e+01   5.9062687514e+01    0.1581939    0.1233138  42.83 0.0003103089    1.123    0.110
       333 -10.0136    164.5892    212.2110   8.3862796037e+01   5.6253373227e+00    0.2466756    0.1828446  31.77  0.000643758    1.275    0.215
       334  -8.6969    199.3221    210.3403   7.6156075385e+01   5.2857396052e-01     0.143309   0.09404577  -7.40 0.0007050568    1.721    0.419
       335  -9.7273    153.4210    207.7726   8.5602961014e+01   8.3343155507e+00    0.2705837    0.2242975  62.58 0.0009078989    1.516    0.340
       336  -9.4755    169.3211     23.7549   3.7928813912e+01   3.9985284224e+01    0.2734166    0.1481768  60.44  0.001388769    1.670    0.401
       337  -9.4846     61.1242    206.5257   1.0758108019e+02   2.2763259927e+01    0.2006557    0.1729962 -85.40 0.0008453329    1.107    0.096
       338  -9.2499    223.7223     21.9417   3.1788968630e+01   2.8142772677e+01    0.1972878    0.1401421  74.06 0.0009145409    1.376    0.273
       339 -10.2667    125.3782     20.9430   4.4103565501e+01   5.0628765752e+01    0.4146473    0.1814436  69.78  0.001729097    2.432    0.589
       340  -9.5323     74.1744     19.5356   5.6495093226e+01   6.1932653520e+01    0.2656155    0.1666065  40.10 0.0008877168    1.366    0.268
       341  -9.7863    123.9867    205.9665   9.2213482379e+01   1.3572332005e+01    0.2018571     0.190737  16.46            0    1.048    0.046
       342  -9.5760    238.4925    204.5505   6.7679802704e+01  -4.0636634407e+00    0.2646913    0.1067892 -38.61   0.00121179    2.168    0.539
       343 -11.3232      6.0016    198.9711   1.1973608092e+02   3.0419576740e+01    0.4058557    0.1814298 -73.00  0.002049768    1.902    0.474
       344 -10.2691     17.0004    203.2792   1.1757923346e+02   2.8435914154e+01    0.2926256    0.1374012 -68.24  0.001468441    1.904    0.475
       345 -10.6088    245.8197    200.8905   6.5738197807e+01  -4.4430718238e+00    0.1961065    0.1427329 -12.48 0.0006780726    1.189    0.159
       346  -9.1536    196.3340    204.7208   7.5729368873e+01   1.9944014778e+00    0.1226991    0.1104531  66.87   0.00033862    1.610    0.379
       347 -10.3430    234.1963    196.9907   6.7033035350e+01  -2.2495320255e+00    0.3422588    0.2533467 -13.68   0.00159584    1.196    0.164
       348  -8.5497    195.3133    199.6812   7.4994071289e+01   3.0807109964e+00    0.1256233    0.1134239  86.07 0.0003768219    1.649    0.393
       349  -9.5892     82.5869    196.2292   1.0098420553e+02   2.2282925857e+01    0.3549097    0.2105682  18.97  0.001542137    2.163    0.538
       350 -10.0578    186.4462     15.1638   3.3768531970e+01   3.6973930503e+01    0.2527905    0.1830489  80.55 0.0004204644    1.203    0.169
       351 -10.5796    246.5585    193.7100   6.4279882039e+01  -3.3940153120e+00    0.2482524    0.1015108 -35.46  0.001017503    2.072    0.517
       352  -9.7810    170.0795    191.3925   7.8822080284e+01   8.8788592533e+00    0.3693593     0.213635  15.87  0.001491016    2.377    0.579
       353  -8.9123     16.4666    191.5080   1.1680257448e+02   3.1273567269e+01    0.1272116    0.1068592 -89.63 -2.421652e-05    1.050    0.048
       354 -12.0104      4.6082    185.5869   1.1914057669e+02   3.3698879614e+01    0.5811527    0.4484023  83.72  0.003750478    1.065    0.061
       355 -10.2957      2.6780    181.3272   1.1929152188e+02   3.4872592273e+01    0.2453645    0.1484726  55.63   0.00112508    1.583    0.368
       356  -9.8782    239.8890    184.5795   6.3679997661e+01  -9.7630339567e-01    0.2432995    0.1796773 -25.44  0.000532372    1.120    0.107
       357  -8.3444    173.3030    184.3015   7.6716938939e+01   9.7774417801e+00    0.1490703    0.1093502  -7.75  0.000464717    1.590    0.371
       358  -9.0691    205.4805     17.4927   3.2439681124e+01   3.2506632080e+01     0.122329   0.09972454 -78.40 1.560902e-05    1.002    0.002
       359  -9.7533    250.2742    179.0967   6.0901623835e+01  -1.5160179551e+00    0.3593485    0.1214192 -30.49  0.001285628    3.505    0.715
       360 -10.4314     52.1034    173.5706   1.0587080493e+02   3.2013438697e+01     0.547565    0.2824032 -88.92  0.002166107    2.529    0.605
       361  -9.8309     27.7188    175.8649   1.1260582380e+02   3.4070443971e+01     0.248957    0.1836872  45.17  0.001101061    1.385    0.278
       362  -9.4007    230.3407    175.4609   6.3556305692e+01   1.9984852156e+00    0.2076127    0.1276596  30.58 0.0004909411    1.818    0.450
       363  -9.3226     75.0401     13.7683   5.3792408593e+01   6.2359748909e+01    0.2749242    0.1432901  65.42 0.0008350172    2.685    0.627
       364  -9.8440    247.5629    173.9516   6.0350318398e+01  -2.8223549089e-01    0.4096366    0.1771375  23.53  0.001484704    4.514    0.778
       365 -10.3306     38.3118    173.0219   1.0951089924e+02   3.3715481254e+01    0.5120188    0.2132155  48.14  0.002086806    2.539    0.606
       366 -10.4135     35.2666    169.3912   1.0990176117e+02   3.4958098676e+01    0.2810417     0.220991  29.94 0.0008564974    1.420    0.296
       367  -8.9997    170.5434    172.0047   7.4834717162e+01   1.2852245577e+01    0.2220337     0.142128 -44.19 0.0006176821    1.517    0.341
       368 -10.0998      9.4254    155.3441   1.1540132490e+02   4.0796398367e+01    0.2596393    0.1685385 -79.13  0.001250891    1.294    0.227
       369 -11.8265      9.5733    166.9013   1.1643600781e+02   3.7886663210e+01    0.6359681     0.400206 -67.86  0.003095741    1.359    0.264
       370 -10.1305     13.5431    159.4746   1.1469182368e+02   3.9443264203e+01    0.2783433    0.2304718 -81.13  0.001154041    1.010    0.009
       371 -10.0135     13.5157    156.4480   1.1439476685e+02   4.0210987144e+01      0.21108    0.1935244  36.04 0.0005958123    1.278    0.217
       372  -9.1441    198.2462    167.9911   6.8078260719e+01   8.6757518088e+00    0.2055941    0.1738001 -29.74 0.0006110597    1.072    0.067
       373  -9.2477    156.4706    166.1297   7.6860214064e+01   1.6757322366e+01    0.2243026    0.1474016 -46.11 0.0005150005    1.493    0.330
       374  -8.9238    152.4406    166.5432   7.7912872984e+01   1.7425707981e+01    0.1523168    0.1454372 -15.97 0.0001300594    1.005    0.005
       375 -10.0904     18.8535    164.9981   1.1382262825e+02   3.7614096344e+01    0.3207672    0.2485647 -45.84  0.001395719    1.422    0.297
       376 -10.1644     39.3874    162.1155   1.0787256096e+02   3.6395657210e+01    0.4953659    0.2625533  69.30  0.002046607    2.477    0.596
       377  -9.9855    205.0772    162.9897   6.5677502178e+01   8.4526884232e+00    0.2472583    0.2044341  17.60 0.0006075512    1.286    0.222
       378  -9.5127    208.4574    160.4876   6.4500048070e+01   8.3436352892e+00    0.2530305    0.1245741 -41.42  0.001081984    1.830    0.454
       379  -8.9515    188.6768    163.6579   6.9126381354e+01   1.1261025118e+01    0.1549002    0.1106378  -8.76 0.0007050692    1.729    0.422
       380 -10.6906     28.1439    162.0592   1.1098865238e+02   3.7531607432e+01    0.4040337    0.2228779 -52.69   0.00195486    1.752    0.429
       381  -9.1628     79.1091    160.2086   9.6252087291e+01   3.1824499874e+01     0.210917    0.1734934  73.44 0.0006933335    1.325    0.245
       382  -9.2643    224.1674    157.8078   6.1063854061e+01   6.1629167771e+00     0.372674    0.1497448 -52.22  0.001285318    3.467    0.712
       383  -9.2242    215.3943    157.7981   6.2636837462e+01   7.6513212613e+00    0.2106359    0.1179781 -31.68 0.0009497951    1.733    0.423
       384  -9.0461     53.3148    156.6441   1.0312248958e+02   3.6237516665e+01    0.1536962    0.1034835  70.92 0.0003105536    1.742    0.426
