#   1 NUMBER                 Running object number                                     
#   2 MAG_AUTO               Kron-like elliptical aperture magnitude                    [mag]
#   3 X_IMAGE                Object position along x                                    [pixel]
#   4 Y_IMAGE                Object position along y                                    [pixel]
#   5 X_WORLD                Barycenter position along world x axis                     [deg]
#   6 Y_WORLD                Barycenter position along world y axis                     [deg]
#   7 A_WORLD                Profile RMS along major axis (world units)                 [deg]
#   8 B_WORLD                Profile RMS along minor axis (world units)                 [deg]
#   9 THETA_WORLD            Position angle (CCW/world-x)                               [deg]
#  10 FWHM_WORLD             FWHM assuming a gaussian core                              [deg]
#  11 ELONGATION             A_IMAGE/B_IMAGE                                           
#  12 ELLIPTICITY            1 - B_IMAGE/A_IMAGE                                       
         1 -12.1630     12.4136     49.2699   9.8562961159e+01   6.5736908146e+01     1.817985    0.6204909 -58.48  0.007816488    2.716    0.632
         2 -13.2692     37.1529     50.0294   8.7084554312e+01   6.3362897495e+01    0.8011369    0.6290392 -18.50  0.003495325    1.075    0.070
         3  -9.9869     31.0127     12.9494   7.4178567660e+01   7.0082465126e+01    0.5943768     0.385222 -46.19  0.003186755    2.307    0.566
         4 -12.2317      8.7312      8.8255   8.4615180669e+01   7.3102555998e+01    0.4445894    0.2360022  26.90  0.002398579    1.949    0.487
         5 -10.1401     14.9713     13.9690   8.3446127770e+01   7.1768868888e+01    0.1990878    0.1464054 -15.13 0.0006360564    1.045    0.043
         6 -11.9257     13.3033      3.7920   7.9194604114e+01   7.3357202818e+01    0.4978539    0.4790881 -40.03  0.003748421    1.966    0.491
         7 -12.0920     17.1535     18.9442   8.4559356405e+01   7.0804500417e+01     1.349247    0.5947291  -7.82  0.005222423    4.165    0.760
         8 -10.9811      8.3399     34.1282   9.5648203566e+01   6.8934347296e+01    0.7736573    0.5287578  64.91  0.003882743    3.650    0.726
         9 -11.9089     17.2502     31.6451   8.9946156222e+01   6.8698827102e+01    0.5974388    0.4490307   6.26  0.002941316    1.279    0.218
        10 -11.7808     21.8586      5.3463   7.5087269118e+01   7.2198761922e+01    0.5350717    0.3409235 -42.42  0.003269029    2.152    0.535
        11 -11.0962     26.3125      2.6053   7.1165056532e+01   7.1965441315e+01    0.2754107    0.1820215  33.09 0.0009316967    1.526    0.345
        12 -12.1390      4.0603     17.6207   9.1577567895e+01   7.2110025752e+01    0.4857028    0.4085421 -43.86  0.002544439    1.490    0.329
        13 -11.2592      9.7632     15.7498   8.7338866968e+01   7.1969568350e+01    0.2784831    0.1655525 -21.84 0.0007004752    1.376    0.273
        14 -11.4978    108.2185     17.7680   4.8888299646e+01   5.5061917243e+01    0.4143799    0.2653683  15.85  0.002105654    1.902    0.474
        15 -11.8967    237.9945     18.0527   3.1488497582e+01   2.4808547892e+01    0.2859792    0.2109986 -60.58  0.000346457    1.107    0.097
        16 -11.4031    233.8634     12.0965   3.0588634454e+01   2.6330707660e+01    0.3136705    0.1556017 -33.30  0.001488576    2.073    0.518
        17 -12.2686    129.2633     19.2207   4.4967448021e+01   4.9960056713e+01      0.27735    0.2494704  43.76 0.0004754269    1.090    0.082
        18 -10.6034     43.5453      8.5532   6.5922449922e+01   6.8805290238e+01    0.3232316    0.2061128 -26.34  0.001030846    1.600    0.375
        19 -11.2495     48.2807     16.2607   6.7653190034e+01   6.7161954005e+01    0.4875664    0.2839122  14.91  0.002513946    1.794    0.443
        20 -12.0789     40.9893     16.6721   7.1145233128e+01   6.8221682527e+01    0.5091357    0.4333809 -35.18  0.002569506    1.578    0.366
        21 -10.2344     39.7116     11.0201   6.8934770096e+01   6.9108539928e+01    0.2210698    0.1613648  15.71 0.0004642158    1.114    0.102
        22 -10.6548    157.2449     11.7518   3.8146765471e+01   4.3893382249e+01    0.2887646    0.2032526 -70.92 0.0009235122    1.520    0.342
        23 -11.5563     76.9578     11.1765   5.4639686559e+01   6.2482693028e+01    0.6539097     0.277601  52.75  0.002624157    2.082    0.520
        24 -12.2819    128.7846     11.6437   4.2537166238e+01   5.0793857615e+01    0.3882946    0.2737909  84.63  0.002134791    1.524    0.344
        25 -10.2214    117.8354     11.6079   4.4587239399e+01   5.3399867465e+01    0.4835207    0.2274285 -17.48   0.00219816    2.600    0.615
        26 -10.3257    100.0324     12.2859   4.8753474779e+01   5.7439253014e+01    0.2669634    0.1824243   5.17  0.000828187    1.687    0.407
        27 -10.7613     25.1268     20.2907   8.0829955662e+01   6.9767171668e+01    0.4233338    0.2474883   3.01  0.001492241    1.736    0.424
        28  -9.8217    138.9203     11.9307   4.0911219313e+01   4.8324922402e+01    0.2136038    0.1460548 -67.18  0.001134285    1.740    0.425
        29  -9.5095     65.4883     11.9553   5.8808366626e+01   6.4648116366e+01    0.1681245    0.1151889 -11.84 0.0003731318    1.480    0.324
        30 -11.3716    146.0338      7.3200   3.8410277873e+01   4.7012271082e+01    0.4006207    0.2599416  18.38  0.001341825    2.127    0.530
        31 -10.8139    148.5008      1.9244   3.6468155666e+01   4.6868345661e+01    0.3428699    0.1715133  86.90  0.001567442    2.221    0.550
        32 -12.5764    213.5307      5.5691   3.0759927434e+01   3.1363366652e+01    0.7607696    0.4011739 -71.40  0.004078278    1.839    0.456
        33 -11.3238    164.3225      7.8691   3.6150469072e+01   4.2543451698e+01    0.3626684    0.2441646  -0.86 0.0009256797    2.140    0.533
        34  -9.9967    246.2828      8.3631   2.9001403998e+01   2.4224687126e+01   0.09728955   0.08843171  38.64 0.0007017324    1.682    0.405
        35 -11.0121    190.6952      6.8357   3.3034771318e+01   3.6395106216e+01    0.3601559    0.3246907 -44.21  0.002133284    1.270    0.212
        36 -11.1516    195.0437      2.2608   3.1549941820e+01   3.5831749506e+01    0.3450883    0.2062674 -88.54  0.001948356    1.514    0.339
        37 -10.8850     91.1917      7.0622   4.8877455396e+01   5.9850051475e+01    0.4180103    0.1817722  41.21  0.001914441    2.029    0.507
        38 -10.7833    230.8993      6.4124   2.9647627392e+01   2.7559712368e+01    0.1899202    0.1278473 -58.41 0.0003677669    1.237    0.192
        39 -11.8603     98.1616      4.7217   4.6249339707e+01   5.8499868030e+01    0.3229021    0.2699296   1.51  0.001172091    1.304    0.233
        40 -12.3645    179.1299      4.3844   3.3576326802e+01   3.9332060407e+01    0.3256099    0.2287365 -88.13 0.0003341931    1.272    0.214
        41 -10.3626     81.2135      5.2912   5.0815320196e+01   6.2129452525e+01    0.2174887    0.1637621 -35.00  0.001329144    1.628    0.386
        42 -11.9162     67.8270      3.7134   5.4179219113e+01   6.4970486337e+01    0.2208309    0.1718814  32.53 0.0003113372    1.033    0.032
        43 -10.5594    243.0245      2.8086   2.8141712991e+01   2.5466200238e+01    0.1854687    0.1378646 -55.07 0.0004104143    1.175    0.149
        44 -10.5894    169.7159      2.4593   3.4074627251e+01   4.1735485729e+01    0.2376395    0.1601274 -67.93 0.0006443736    1.495    0.331
        45 -10.2942    126.3617      2.7879   4.0016012670e+01   5.2110512158e+01    0.2335704    0.1547001  35.33 0.0005204832    1.590    0.371
        46  -9.9287     74.2901      2.3799   5.1544960549e+01   6.3793713500e+01    0.2222656     0.174076 -68.88  0.001244909    2.065    0.516
        47 -10.7015    230.7472      1.5660   2.8681068487e+01   2.8093903378e+01    0.1847344    0.1146703  70.98 0.0001903022    1.564    0.360
        48 -10.9123    108.1190      1.6192   4.2931702552e+01   5.6474395351e+01    0.2078008    0.1443403  53.50 0.0005083021    1.180    0.152
        49  -9.6974     33.2210      1.7993   6.7190246755e+01   7.1096713522e+01    0.1876172    0.1614048  33.75  0.001066408    1.530    0.346
        50  -9.3355    156.4543      6.4720   3.6745655965e+01   4.4566289854e+01    0.1289746    0.1098565  74.40 0.0001621246    1.020    0.019
        51  -9.7048     61.6474    184.8500   1.0768354902e+02   2.8119212817e+01    0.2029065    0.1216587 -81.79 0.0009469528    1.770    0.435
        52 -10.6882    249.0748    247.9693   7.6572481556e+01  -1.2084243042e+01    0.4319151     0.203878  -4.58  0.002016719    2.947    0.661
        53 -12.4404    226.5141    245.4730   8.0216184707e+01  -9.0052894767e+00    0.6837689    0.3447384  -1.52  0.003138124    2.827    0.646
        54 -12.3965    232.6865    245.2248   7.9041183598e+01  -9.7556618204e+00    0.5070067    0.2201898 -25.85  0.002524414    2.381    0.580
        55 -10.1290     72.6086    250.1272   1.1212215028e+02   1.2402539576e+01    0.1959036    0.1641628   3.98  0.001266771    1.697    0.411
        56 -12.9138     19.2410    237.7894   1.2168518050e+02   2.1164119898e+01    0.6840266    0.3845077  52.04  0.004279186    1.435    0.303
        57 -11.8082      4.9993    235.9447   1.2424482523e+02   2.2934963309e+01     0.487098    0.3162729  49.05  0.002111289    1.329    0.248
        58 -13.3324      5.8383    245.2272   1.2452219968e+02   2.1027394793e+01    0.8877347    0.5268888  38.98  0.004618784    1.606    0.377
        59 -12.2858     22.1175    248.9636   1.2176938413e+02   1.8663691407e+01    0.4833493    0.2396366  39.99  0.001576268    1.735    0.424
        60 -11.0408     17.4800    247.4856   1.2253706707e+02   1.9432660064e+01    0.1894776    0.1709128  58.41 -7.703114e-06    1.330    0.248
        61 -10.0540    168.3636    183.9809   8.1001542978e+01   1.0505853525e+01    0.2951141    0.1625492  52.76  0.001165139    2.378    0.580
        62  -9.6451     58.5982    182.2236   1.0812499024e+02   2.9154465569e+01    0.1947395    0.1166059 -57.58 0.0009410995    1.632    0.387
        63  -9.4054      1.5388    180.5299   1.2182300718e+02   3.5328678034e+01    0.1226593   0.09652639  87.26 0.0002126511    1.006    0.006
        64  -9.8983    244.4534    178.5197   6.4702992486e+01  -1.4125759408e+00    0.2417427    0.1045931 -28.77  0.001025238    2.310    0.567
        65 -10.7632     46.4997    177.7683   1.1066859552e+02   3.1722825870e+01    0.3216463    0.2436862 -78.17  0.001213501    1.197    0.165
        66  -9.7012     69.5899    178.1988   1.0474803496e+02   2.8685988746e+01    0.1935377    0.1221785 -53.52  0.000533465    1.595    0.373
        67 -11.1254     34.2327    174.1731   1.1339000215e+02   3.3951902109e+01    0.2599953    0.1997547 -69.77 0.0003708878    1.189    0.159
        68 -10.8194     18.0135    172.9500   1.1732882725e+02   3.5795529053e+01    0.3751795    0.2011421  66.54   0.00187228    1.929    0.482
        69  -9.0263     74.3435    171.3280   1.0247156894e+02   2.9726469843e+01    0.1484298    0.1099091 -28.72 0.0007050925    1.745    0.427
        70 -12.2661     36.1952    165.7555   1.1193795382e+02   3.5841974721e+01    0.8677484    0.4580894 -77.72  0.004085102    1.780    0.438
        71 -11.2065     40.0578    162.7212   1.1053781539e+02   3.6198763112e+01    0.4085198    0.2686912 -69.97  0.001298844    1.347    0.258
        72 -12.3178     50.0538    161.6539   1.0767081431e+02   3.5346933823e+01    0.5283007    0.3838503  63.43 0.0005724212    1.437    0.304
        73 -11.3782     44.8646    163.1161   1.0928595104e+02   3.5572495837e+01    0.3394005    0.2316131 -83.28   0.00109642    1.407    0.289
        74  -9.5154      4.6800    168.7103   1.2023048618e+02   3.7897100447e+01    0.1201928   0.08233797 -51.01 0.0003903974    1.601    0.375
        75  -9.9162     99.1675    164.9098   9.4641969100e+01   2.7461897919e+01    0.2233635     0.198284  79.63 0.0003628753    1.186    0.157
        76 -10.5729     10.1180    162.8379   1.1839869380e+02   3.8909991227e+01    0.3073419     0.141528  39.36 0.0009109833    2.210    0.548
        77  -8.8664    200.3229    162.6540   6.9618390567e+01   8.8338710690e+00    0.1425032    0.1183722 -77.26 0.0007049916    1.738    0.425
        78 -12.5862     22.0159    157.0779   1.1473804274e+02   3.9363046049e+01    0.5964805    0.5179757   4.28 0.0008975785    1.467    0.318
        79  -9.5451    157.5134    154.9844   7.7402095512e+01   1.8806664303e+01    0.2343654    0.1306617 -24.89 0.0008104415    2.669    0.625
        80 -10.2126     11.3453    153.8418   1.1724963787e+02   4.1029550793e+01    0.2183064    0.1982675   5.17  0.001459034    1.406    0.289
        81  -9.8794    177.2120    150.7677   7.1880762044e+01   1.5728452369e+01    0.2423545     0.204341  67.11  0.001198682    1.469    0.319
        82  -9.3938    216.4591    155.4309   6.4903968696e+01   7.2374841683e+00    0.1418046    0.1271542 -25.17 7.379778e-05    1.046    0.044
        83  -9.6102      5.6705    149.9825   1.1838932956e+02   4.2387625957e+01    0.1715201    0.1296262 -80.68   0.00032028    1.071    0.067
        84 -10.9295     33.1181    148.1347   1.1059466258e+02   4.0605811365e+01    0.2143834    0.1850403 -71.16 0.0002996636    1.038    0.036
        85 -10.3469     17.8633    146.9013   1.1475387102e+02   4.2257245332e+01    0.2900092    0.1962971 -24.34  0.001238032    1.965    0.491
        86 -10.1317    207.0539    146.4972   6.4716273583e+01   1.0676360887e+01    0.2069881    0.1456701  42.74 0.0006622403    1.538    0.350
        87  -9.5023     41.1628    146.1955   1.0800131601e+02   4.0288468362e+01    0.1841997    0.1480316  71.73 0.0003436383    1.293    0.227
        88 -10.3235     10.5172    144.5891   1.1654455976e+02   4.3386588929e+01    0.2389642    0.1522649 -56.09 0.0007103274    1.436    0.304
        89  -9.5609    220.4701    143.9418   6.1652880437e+01   8.6258245734e+00    0.2174513    0.1271276 -38.73 0.0008548644    1.526    0.345
        90  -9.7113     82.3991    139.8111   9.4551173164e+01   3.6524176985e+01     0.219294    0.1321066 -47.71 0.0008577022    1.610    0.379
        91 -10.4685     54.5794    138.1866   1.0270662553e+02   4.0824322132e+01    0.2521797    0.1905316 -39.04  0.001300453    1.398    0.285
        92 -10.5484      2.7227    137.1445   1.1795973546e+02   4.5743415957e+01    0.3215125    0.1388283 -76.86  0.001089695    1.910    0.476
        93 -10.0598      9.4563    136.8884   1.1601871243e+02   4.5378047702e+01    0.1982855    0.1056568 -72.71 0.0004086761    1.525    0.344
        94  -9.8013     32.1515    135.7303   1.0915828937e+02   4.3861095760e+01    0.2028006    0.1677717  89.05 0.0006906223    1.186    0.157
        95  -9.8041    123.0055    135.2913   8.1732725875e+01   3.0348955524e+01    0.2244024    0.2109643  41.22 0.0004997214    1.084    0.077
        96  -9.3727     40.0377    135.1922   1.0666934581e+02   4.3226914480e+01    0.1649697    0.1112198  23.96 0.0003435004    1.703    0.413
        97  -9.7653     20.6805    135.2328   1.1253750192e+02   4.4973783408e+01    0.1996308   0.09637132 -62.82 0.0009357731    1.678    0.404
        98 -10.1502    249.3003    134.0139   5.4774679685e+01   5.2699003743e+00    0.1967812    0.1485083 -34.92 0.0006784502    1.102    0.093
        99  -9.4301    104.5191    134.5479   8.6821861569e+01   3.4075283660e+01    0.1559962    0.1511771 -33.96 0.0001023287    1.021    0.020
       100  -9.9617    127.9913    132.6960   7.9736108804e+01   2.9959364290e+01    0.2147244    0.2072569  36.89 0.0004838943    1.054    0.051
       101 -10.3826    111.5929    132.3146   8.4242948538e+01   3.3297129561e+01    0.3147013    0.1535464 -55.25  0.001137291    2.154    0.536
       102 -10.3364     55.1680    132.5979   1.0152354040e+02   4.2189292696e+01    0.3383093    0.2271727  50.79  0.001272451    1.686    0.407
       103 -11.1838     74.0760    129.7019   9.5001594477e+01   4.0368719530e+01    0.3229634    0.3037349  76.98  0.001013692    1.132    0.116
       104 -11.5596     37.2216    128.7125   1.0650322522e+02   4.5167747855e+01    0.7011803    0.2753569 -51.84  0.002845089    2.205    0.546
       105 -10.4931     24.2389    126.0062   1.1017717985e+02   4.7021141526e+01    0.1954226    0.1896059 -62.10 0.0004004145    1.148    0.129
       106 -11.2406     21.7688    121.2055   1.1025016977e+02   4.8427057342e+01    0.2923108    0.2090638 -27.04 0.0008925535    1.603    0.376
       107 -10.5767     13.4556    126.0284   1.1353415427e+02   4.7820812576e+01    0.2317049    0.2060648  84.35 0.0006031638    1.162    0.140
       108 -10.9870     10.9929    123.2344   1.1393488699e+02   4.8681860929e+01    0.2903885    0.2225979 -83.60  0.001455394    1.191    0.160
       109  -9.7585    220.4393    124.4879   5.7292797528e+01   1.2203192525e+01    0.1438452    0.1269803 -36.63 0.0001020363    1.009    0.009
       110 -10.4047      2.8444    122.8889   1.1639565762e+02   4.9255726760e+01    0.2174488    0.1358482 -60.85 0.0003972315    1.298    0.230
       111  -9.8555      1.3943    119.0117   1.1639045116e+02   5.0287946387e+01    0.1921564    0.1010156 -73.95 0.0003326574    1.540    0.351
       112  -9.3561     32.4475    121.5267   1.0684590734e+02   4.7447418653e+01    0.1401321    0.1167557 -55.59 1.886894e-05    1.064    0.061
       113 -10.5349     86.1071    116.7781   8.8212259050e+01   4.1700501899e+01    0.2711447    0.2395597 -71.91 0.0007973464    1.222    0.182
       114 -10.3342     72.4133    116.8202   9.2672392797e+01   4.3858819671e+01    0.3414333    0.1471833 -64.38  0.001149153    2.873    0.652
       115 -10.4019     17.9773    125.5087   1.1206601657e+02   4.7630836416e+01    0.3210833    0.1993393 -28.74  0.001657416    1.945    0.486
       116  -9.9196    213.9857    115.6629   5.6359668804e+01   1.5107677385e+01    0.1902656    0.1817548  42.50 0.0004726846    1.157    0.136
       117  -9.9023     16.4731    115.5299   1.1112091744e+02   5.0235040352e+01    0.2089876     0.122378  -8.21 0.0009219042    2.298    0.565
       118 -11.1580    249.3293    112.1267   5.0134944318e+01   8.9394838207e+00    0.2562222    0.1978797 -45.47 0.0004205183    1.114    0.102
       119 -10.0165     94.8749    112.1707   8.4255012547e+01   4.1286673798e+01    0.2350333    0.2175182  84.88  0.001037504    1.231    0.187
       120 -11.6619     55.2370    109.7241   9.6846832889e+01   4.7970749831e+01    0.4811024    0.2474908 -49.82  0.001352365    1.717    0.417
       121 -11.5149     36.5083    109.9735   1.0339661959e+02   4.9972157945e+01    0.3545623    0.2821575  72.79  0.001018401    1.510    0.338
       122 -10.4403      1.3344    108.8189   1.1515174761e+02   5.2784028784e+01    0.3478252     0.155111 -83.99  0.001409908    2.319    0.569
       123 -10.5057      2.5094    105.4997   1.1431851459e+02   5.3532728009e+01    0.4237412    0.1434494  28.01  0.001851265    3.283    0.695
       124 -12.2561     14.2764    109.1621   1.1088644976e+02   5.1960771696e+01    0.4427634     0.322072  12.47  0.002613008    1.654    0.395
       125  -9.9041     82.4733    108.9455   8.7418460944e+01   4.4209172310e+01    0.2327747    0.1444265 -52.07 0.0005660062    1.540    0.351
       126 -10.6773    243.9524    104.7327   4.9285129206e+01   1.1149865130e+01    0.1831878    0.1631933 -47.17  0.000558968    1.057    0.054
       127  -9.2177    186.4909    104.4325   5.8649908752e+01   2.3131471090e+01    0.1502235    0.1428314 -54.74 6.340487e-05    1.028    0.027
       128 -10.9841    120.4052    100.9589   7.3463608332e+01   3.8797256636e+01    0.7920882    0.3006283 -31.05  0.001876078    5.581    0.821
       129 -10.3384     51.2908    104.1312   9.6957529881e+01   4.9828963415e+01    0.2456752    0.1549153 -42.88  0.001178462    1.465    0.317
       130 -10.9725     37.1155    102.0760   1.0158255721e+02   5.1865115303e+01    0.4401705    0.2442451  13.81  0.002046743    2.190    0.543
       131  -9.6634     25.7086    102.3358   1.0573455262e+02   5.2812057888e+01    0.1976979    0.1031261 -56.85 0.0005529316    1.550    0.355
       132  -9.6438     24.1787     99.1761   1.0568359831e+02   5.3704237772e+01    0.1674374    0.1496611  67.63 0.0003971682    1.328    0.247
       133 -10.9234      3.9571     98.5193   1.1281599091e+02   5.5147692607e+01    0.2856723    0.2635558 -48.20  0.001980347    1.165    0.142
       134 -10.4743      1.4273     96.0278   1.1333411526e+02   5.5866661572e+01    0.4295662    0.2082658  74.45 0.0003952543    3.394    0.705
       135 -11.4000    143.6272     98.3666   6.6508347994e+01   3.4184165602e+01    0.5554062    0.4483061  50.84  0.002679959    1.260    0.206
       136 -10.7657     62.1063     99.0730   9.1868598987e+01   4.9666431783e+01    0.3604823    0.2927513   6.43  0.001067852    1.340    0.254
       137 -10.0600     66.5335     98.0986   9.0039553979e+01   4.9273642088e+01    0.2082365    0.1731491 -42.37 0.0004917559    1.101    0.091
       138 -11.4523    162.0656     98.7585   6.2256941001e+01   2.9838865337e+01    0.3440137    0.2931548  78.02  0.001703398    1.330    0.248
       139 -10.2005     50.8595     99.1237   9.5933672727e+01   5.1097143790e+01    0.2116119    0.1876903 -38.90 0.0005502578    1.020    0.020
       140 -11.1891     14.7949     97.7596   1.0882541178e+02   5.4713572272e+01    0.5104662    0.1775345 -68.90   0.00174684    2.558    0.609
       141 -10.6623     10.9533     90.9981   1.0903319586e+02   5.6570490323e+01    0.3686235     0.188647  12.80  0.001253153    2.331    0.571
       142  -9.2822     10.3090     87.6965   1.0867125241e+02   5.7389525291e+01    0.2106934    0.1116123 -68.09 0.0009242942    1.646    0.393
       143  -9.6680    250.1767     95.8247   4.6555591425e+01   1.1453458900e+01    0.1668806    0.1446708 -22.63 0.0004494229    1.278    0.217
       144 -10.5775     38.3719     95.4560   9.9670245415e+01   5.3347606306e+01    0.3945456    0.1926492  38.66  0.001742759    2.388    0.581
       145 -11.4071     26.2351     91.6284   1.0339261254e+02   5.5359938490e+01    0.6600198    0.2965336 -73.07  0.002656819    2.689    0.628
       146 -11.9144     21.8298     87.9389   1.0429588426e+02   5.6577122151e+01    0.8174798    0.1039044 -58.33  0.002517458    4.055    0.753
       147 -12.5022    158.2719     89.7724   6.0621832679e+01   3.2468093538e+01    0.7303157    0.4539219 -51.23  0.003000576    1.728    0.421
       148 -12.4619    165.3893     83.9188   5.7451295800e+01   3.1867838056e+01     1.020914    0.7572843  64.13  0.004887037    1.427    0.299
       149 -11.3937    155.7310     83.3304   5.9364352752e+01   3.4276228957e+01    0.7738341    0.4028328  33.67  0.002749657    2.736    0.634
       150 -10.3364    135.2259     93.8709   6.7367344918e+01   3.7020591116e+01    0.3299876    0.2496677 -76.20   0.00144517    1.815    0.449
       151  -8.9959    113.2995     93.3334   7.3310248341e+01   4.1945423833e+01     0.160392    0.1219969  -4.13 0.0003209659    1.651    0.394
       152  -9.6153     31.4442     93.0446   1.0172794193e+02   5.4579291166e+01    0.2012383    0.1172172 -59.85  0.000350538    1.495    0.331
       153  -9.4229    127.6715     92.7087   6.9042012063e+01   3.8959266260e+01    0.1593879    0.1232124   7.86 0.0003735628    1.622    0.384
       154 -10.7748    152.2886     91.2621   6.2406153659e+01   3.3590420079e+01     0.421245    0.2030673  45.55  0.001582671    2.105    0.525
       155  -9.4735     87.9859    104.0295   8.4303963880e+01   4.4440407735e+01    0.1835011    0.1724448 -30.14 0.0003957309    1.006    0.006
       156 -10.4414     96.7689     89.5883   7.7297125752e+01   4.6083710069e+01    0.3567649    0.2238635  30.21    0.0015433    1.719    0.418
       157 -10.4187     57.9340     89.8826   9.0961304650e+01   5.2389632634e+01    0.3749365    0.2137514  27.40  0.001408585    1.888    0.470
       158 -10.3957     82.9631     88.8616   8.1678861544e+01   4.8773255533e+01    0.2301756    0.1889711 -13.66  0.000511949    1.270    0.212
       159 -10.5252     78.5496     88.0629   8.2973111644e+01   4.9701932716e+01    0.3499024    0.2399075 -52.19  0.001529019    1.487    0.328
       160 -10.0967     65.2260     87.4651   8.7586605413e+01   5.1924312757e+01    0.2411902    0.2097315  30.46  0.001060696    1.237    0.192
       161 -10.9788     45.4461     86.4778   9.4787506977e+01   5.4714674483e+01    0.5428197    0.3693206 -79.14  0.002589539    2.068    0.516
       162  -9.2334    120.7141     87.3173   6.9361758132e+01   4.1599869691e+01    0.1518112    0.1249671 -81.17 0.0004735508    1.588    0.370
       163 -11.6374      5.5774     83.8286   1.0977425612e+02   5.8550045735e+01    0.6136339    0.4615117 -45.56  0.003901613    1.117    0.105
       164 -12.1252     37.0084    244.0285   1.1867310405e+02   1.7992273133e+01    0.6205661    0.3142813 -89.86  0.002703499    2.021    0.505
       165 -11.7313      6.2616     51.8586   1.0228219219e+02   6.5581954076e+01    0.6243892    0.2311285 -42.07  0.003001905    2.048    0.512
       166 -11.5482     43.4255     38.0438   7.9596062513e+01   6.4725028237e+01    0.5347622    0.3085059  48.28  0.002536095    2.736    0.634
       167 -12.3553     31.1741     63.4692   9.4202846189e+01   6.1290363649e+01     1.205146    0.8421561  66.60  0.005939291    2.689    0.628
       168 -12.8974     11.4847     75.2263   1.0569067484e+02   6.0210391916e+01     1.020298    0.5673057  25.37  0.005110806    2.092    0.522
       169 -10.9282     15.0751     59.6880   1.0032164047e+02   6.3402724612e+01    0.2592223      0.18425 -23.42 0.0002205449    1.278    0.218
       170 -11.8687     35.4212     42.6484   8.5146502791e+01   6.4921902249e+01    0.7656222    0.3562261  12.00  0.003251899    2.915    0.657
       171 -11.3517     89.0254    249.6583   1.0874170834e+02   1.0253586919e+01    0.2971686    0.2082006  36.31 0.0008390333    1.280    0.219
       172 -13.7594     16.2498     67.7716   1.0192407940e+02   6.1576533614e+01    0.4722561     0.281862 -40.06 0.0007833954    1.380    0.276
       173 -11.1931     22.1012     66.8296   9.9134423677e+01   6.1356345658e+01    0.2656288    0.2122297  51.61 0.0007287606    1.729    0.422
       174 -11.9545      6.1686     67.9151   1.0631274617e+02   6.2143696818e+01    0.2519097    0.1726741 -52.85 0.0003335997    1.151    0.131
       175 -12.5251      3.2429     63.0199   1.0647936354e+02   6.3363578722e+01    0.4081509    0.3292643 -82.65  0.001922451    1.492    0.330
       176 -12.1030      5.1880     58.8871   1.0462087059e+02   6.4160409634e+01    0.2554373    0.2440557  71.68 0.0003182983    1.404    0.288
       177  -9.1422    139.2877     87.6930   6.4522586733e+01   3.7320752205e+01    0.1533533    0.1236566 -78.66 0.0006988131    1.571    0.364
       178 -10.3190    115.3979     84.2378   6.9941917744e+01   4.3379433304e+01     0.330399     0.170927  35.39  0.001020772    2.148    0.535
       179 -10.4764     67.9994     83.9635   8.5543338525e+01   5.2293610755e+01    0.2489455    0.1670228 -17.13  0.001140748    1.781    0.439
       180  -9.8203     73.4761     82.9775   8.3249411518e+01   5.1651672305e+01    0.2241991    0.1373523 -46.58 0.0007883728    1.557    0.358
       181 -11.1298     30.3074     81.9669   9.9597530199e+01   5.7282115239e+01    0.3084367    0.2624896   6.36  0.001234383    1.279    0.218
       182 -10.0953     86.1504     80.4562   7.8003405052e+01   5.0011470129e+01    0.2735614    0.2041594  16.00   0.00100984    1.470    0.320
       183 -11.2369     21.2878     80.1732   1.0279751722e+02   5.8428022256e+01    0.5130125    0.3298077 -21.63  0.002532173    1.630    0.386
       184 -10.2272     21.8614     73.3582   1.0093014242e+02   5.9933038072e+01    0.2815875    0.1566055 -63.00 0.0009387692    1.715    0.417
       185 -11.0477     61.0191     78.4888   8.6515242689e+01   5.4520463952e+01      0.30856    0.2147605 -53.13 0.0003556562    1.465    0.317
       186 -11.8849     62.2839     71.6348   8.3879608693e+01   5.5792232139e+01    0.3970612    0.2418596 -30.22 0.0003055962    1.671    0.401
       187  -9.4347    134.7788     78.4151   6.2882823419e+01   4.0135970930e+01     0.204739    0.1412359  39.10 0.0002365883    1.487    0.328
       188 -12.7381     44.5912     75.2250   9.2021855672e+01   5.7349934207e+01    0.3252206    0.2803908  49.66 0.0005254772    1.484    0.326
       189  -9.3926    121.5727     76.1703   6.5673315470e+01   4.3582427554e+01    0.2023025    0.1462155 -24.40 0.0005726556    1.525    0.344
       190  -9.8820     74.3184     75.2306   8.0514564782e+01   5.3157727319e+01    0.2328287    0.1654115 -27.00 0.0007710633    1.415    0.293
       191 -10.0545     47.8665     56.3971   8.4612271056e+01   6.0843130687e+01    0.2689318    0.1838423  -4.04  0.001423796    1.555    0.357
       192 -10.9163     54.0499     73.9996   8.7857626637e+01   5.6446155049e+01    0.3009799     0.263989  60.66 0.0004925455    1.528    0.345
       193  -9.7351     48.9925     60.2448   8.5468142866e+01   5.9945214384e+01    0.1841128     0.160624  -0.88 0.0003483976    1.100    0.090
       194 -11.6539     50.3129     68.5135   8.7646206782e+01   5.8093035665e+01    0.3620658    0.2292747 -36.82 0.0006890796    1.426    0.299
       195 -10.7081     51.5400     62.8510   8.5287224209e+01   5.9091597644e+01    0.3521611    0.2114388 -31.75  0.001083863    1.590    0.371
       196 -10.9473    207.5449     73.3785   4.7258213400e+01   2.3833291150e+01    0.2341613    0.2288811   2.28 0.0002166625    1.204    0.170
       197  -9.7132    145.6179     74.1993   5.8985491556e+01   3.8338283819e+01    0.2109183    0.1460749 -24.94 0.0008354408    1.641    0.391
       198 -10.4829     93.7009     73.5153   7.3222554391e+01   4.9986817877e+01    0.3613875     0.259505 -61.59 0.0009343824    1.874    0.466
       199 -10.8983    100.8342     72.3243   7.0536059714e+01   4.8784993970e+01    0.3826909    0.2702917  72.12 0.0005922813    2.255    0.557
       200  -9.5236    129.2252     71.5938   6.2188928460e+01   4.2668873745e+01    0.2187981    0.1364845  40.47 0.0004716107    1.624    0.384
       201  -9.9768     73.8227     71.3950   7.9441962978e+01   5.4023579089e+01    0.2145485    0.1793802  17.62 0.0007050223    1.176    0.150
       202 -10.6621     77.3507     69.8740   7.7648367910e+01   5.3726135669e+01    0.3801669    0.2596018  52.95  0.001402514    1.879    0.468
       203 -10.5572     76.8364     64.3299   7.5938019847e+01   5.4888884375e+01    0.3915299    0.2664288 -44.67  0.001945231    1.522    0.343
       204  -9.7756    194.5269     70.1060   4.8430278058e+01   2.7331767229e+01    0.2083686    0.1364022 -35.91 0.0007763559    1.517    0.341
       205 -11.3340    167.6590     69.9538   5.3090708672e+01   3.3749140306e+01    0.2530502    0.2071701  60.43 0.0003031981    1.204    0.170
       206 -10.0151     42.5783     68.5307   9.0853030225e+01   5.9025693141e+01    0.2386736    0.2060928 -25.87   0.00102744    1.027    0.026
       207  -9.4817    189.4773     68.4974   4.8826952241e+01   2.8770236489e+01    0.1435404    0.1328178 -71.71 0.0008102233    1.012    0.012
       208  -9.4207    123.0000     67.9123   6.2648600763e+01   4.4755092535e+01    0.2461068   0.08572534 -37.24  0.000803952    2.953    0.661
       209  -9.7068    127.6952     66.6860   6.1024938096e+01   4.3883342614e+01    0.1967566    0.1747003 -78.46  0.001024521    1.318    0.242
       210 -11.3144     93.7797     66.5821   7.0866870042e+01   5.1288803423e+01    0.3605362    0.2641941  10.80  0.001738106    1.579    0.367
       211  -9.3938     99.3390     65.3188   6.8651427951e+01   5.0391327484e+01    0.1554244    0.1115238   8.40 0.0007049455    1.710    0.415
       212  -9.8531    202.0017     62.4714   4.5381820000e+01   2.6796947191e+01     0.208551    0.1743318 -49.64 0.0004669548    1.126    0.112
       213  -8.8065    222.5000     62.4981   4.2658987672e+01   2.2226332634e+01    0.1367893    0.1145677 -63.74 -0.000206533    1.058    0.055
       214 -10.7185    155.0837     60.2409   5.2772715851e+01   3.8371261161e+01    0.2510513    0.2079358 -46.63            0    1.240    0.194
       215 -10.4762    119.7494     61.0999   6.1286678952e+01   4.6660991390e+01    0.3223049    0.1990006  44.69 0.0007775391    1.547    0.354
       216  -9.0146    113.3258     61.6599   6.3237859475e+01   4.8019153718e+01    0.1480301    0.1190145 -79.35 0.0007051359    1.730    0.422
       217  -9.3748     98.4077     60.4264   6.7252551167e+01   5.1448035985e+01    0.1442456    0.1333043  10.74 1.830066e-05    1.007    0.007
       218 -11.2712     59.3457     58.4714   8.0574370119e+01   5.8843762233e+01    0.3307988    0.2751282 -39.07  0.001299616    1.237    0.192
       219  -9.9741    147.0227     56.9765   5.3456834945e+01   4.0841606731e+01     0.213855    0.2087248  82.77 0.0003692113    1.035    0.034
       220  -9.4176    112.0178     57.4849   6.2186761972e+01   4.9003733880e+01    0.2213761    0.1126194  31.08 0.0008104601    2.587    0.613
       221 -10.1890    105.1948     56.7787   6.3908097089e+01   5.0621373115e+01    0.2570761    0.1977483 -24.50 0.0004483105    1.349    0.259
       222 -11.9464    104.9700     52.7139   6.2543479370e+01   5.1324076594e+01    0.2822718    0.2362361  40.70 0.0002226566    1.127    0.113
       223 -10.9376     75.3147     56.2532   7.3609291656e+01   5.6637957038e+01    0.2279738    0.2087606  -7.99 0.0003238569    1.081    0.075
       224  -9.8392     68.4700     56.4457   7.6249801191e+01   5.7779350668e+01    0.1392446    0.1238895  -3.07 1.255223e-05    1.031    0.030
       225 -10.1635    132.0246     54.5201   5.6035901047e+01   4.4835907403e+01    0.3453945    0.1842697  40.26  0.001100916    1.991    0.498
       226  -9.7215     99.1692     55.6282   6.5322486456e+01   5.2098470798e+01    0.2176097    0.1233631  36.68  0.000948421    1.761    0.432
       227  -9.6001     83.0703     53.8493   6.9953352493e+01   5.5627611797e+01    0.2608496    0.1709095  -6.62  0.000739213    1.939    0.484
       228 -11.4843     88.3081     51.3087   6.7233278606e+01   5.5028873181e+01    0.3070515    0.2498265  17.20 0.0006528431    1.181    0.153
       229 -10.9222     62.6709     52.2467   7.6962755267e+01   5.9474702661e+01    0.4129664     0.284785 -40.51  0.002202607    1.461    0.316
       230 -10.3836    120.2408     52.3580   5.8225754703e+01   4.7938352615e+01    0.2831063    0.2079681  21.53 0.0005435544    1.565    0.361
       231 -10.3839     57.0277     46.2437   7.6960446493e+01   6.1399108165e+01    0.1878515    0.1571339   9.80            0    1.090    0.082
       232  -9.8748     56.5564     52.9610   7.9710622588e+01   6.0282801189e+01    0.2014859    0.1206624 -36.57  0.000525231    1.560    0.359
       233 -10.4544     53.2828     49.8790   7.9925332221e+01   6.1316845128e+01    0.3226383    0.2128233  23.52  0.001424614    1.494    0.331
       234 -12.0683     26.7810     49.8712   9.1854122268e+01   6.4466429572e+01    0.5989002    0.3371061 -51.16  0.002118072    1.671    0.401
       235  -9.5961     95.9869     52.4656   6.5176619613e+01   5.3279116705e+01    0.2032911    0.1326961  42.27 6.569689e-05    1.449    0.310
       236 -10.0948    237.7520     51.4011   3.8472933913e+01   2.0616015751e+01    0.1665283    0.1128198  59.75 0.0009547338    1.650    0.394
       237 -11.3646    129.1618     49.2578   5.4991726199e+01   4.6302256656e+01    0.5124942    0.3543392  -7.92  0.002410767    1.870    0.465
       238 -10.4814    199.7322     49.6295   4.2509380149e+01   2.9199339852e+01    0.2530197    0.2013472 -84.22 0.0008494493    1.217    0.178
       239  -9.6516    181.2223     49.2428   4.5053322453e+01   3.3635279282e+01    0.2050083    0.1534246 -69.65  0.001072221    1.398    0.285
       240 -10.1807    152.5938     47.3759   4.9422480299e+01   4.0885243086e+01    0.3028391    0.1352728  43.56  0.000751603    2.515    0.602
       241  -9.3142    119.7386     47.3376   5.6644646707e+01   4.8799304285e+01    0.1383716    0.1113019 -67.73 0.0006966385    1.584    0.369
       242 -10.1154    110.5232     46.4890   5.8767049578e+01   5.1034440366e+01    0.4947862    0.1629322  47.81  0.001739872    2.731    0.634
       243 -10.4791     77.9993     46.1890   6.8845783503e+01   5.7838249419e+01    0.3322114    0.2280847 -55.95  0.001493561    2.167    0.539
       244 -10.4968    142.9967     45.4368   5.0723820901e+01   4.3503207889e+01    0.2604721     0.220973 -66.19 0.0009249097    1.302    0.232
       245 -10.5592      4.3183     46.2981   1.0165749866e+02   6.6821376340e+01    0.1997983   0.09537214 -52.58  0.000561926    1.632    0.387
       246 -11.0458      6.7511     41.3501   9.8922852399e+01   6.7664210742e+01     0.294954     0.172647 -35.80 0.0007349735    1.333    0.250
       247 -10.7266     91.8083     43.4202   6.3137924234e+01   5.5537504790e+01    0.3539368    0.2779222 -51.85  0.001657275    1.625    0.385
       248 -10.2426     95.9379     42.8428   6.1638541567e+01   5.4756568960e+01    0.2252206    0.1682048  24.03 0.0007043994    1.334    0.251
       249 -11.7344     57.2154     34.0630   7.1914651237e+01   6.3320457962e+01    0.4051095    0.3133678 -35.42  0.001929139    1.420    0.296
       250 -10.4649     50.8431     44.8297   7.9024808359e+01   6.2554080890e+01    0.2446072    0.1516923 -47.29 0.0008183128    1.816    0.449
       251 -11.5362     52.1444     40.4622   7.6720394727e+01   6.3100685525e+01    0.3279509    0.2347017  31.53  0.001131706    1.404    0.288
       252 -10.1784    107.6151     42.6412   5.8186014303e+01   5.2236996497e+01    0.3601638    0.2024656  34.00  0.001098065    1.916    0.478
       253 -12.9502     74.5881    238.1118   1.1060298497e+02   1.4482694687e+01      0.82116    0.5040441 -68.90  0.004644976    1.758    0.431
       254  -9.2885     50.3191    240.3168   1.1578623914e+02   1.7163196824e+01     0.106195    0.0937745 -30.75 0.0004220009    1.657    0.397
       255 -10.0645    195.3121    238.7705   8.5123920985e+01  -3.7633911014e+00    0.2276756    0.1614458  20.15  0.001360171    1.197    0.164
       256 -10.6683    243.9003    237.3862   7.5706248681e+01  -1.0108769202e+01    0.1944497    0.1451447 -25.61 0.0008834137    1.359    0.264
       257 -11.0442     23.9381     41.8590   9.0404443681e+01   6.6257495268e+01    0.6483925    0.2741759  27.79  0.003142316    2.469    0.595
       258  -9.8500     30.0833     33.2047   8.3965151508e+01   6.7163591133e+01    0.4697465    0.3087496 -40.52  0.002799579    1.465    0.317
       259 -11.6452     22.2684     25.3921   8.4662653083e+01   6.9279274390e+01    0.2720439    0.2188991   0.38 0.0006896912    1.154    0.134
       260  -9.7606    135.9920    237.0124   9.7271119639e+01   5.6104448247e+00    0.1945231     0.142036  -0.48  0.001041562    1.757    0.431
       261 -10.4360     31.3827    237.1486   1.1931110211e+02   2.0000451360e+01    0.2310839    0.1015012 -82.23  0.001176795    2.273    0.560
       262 -10.3996     29.7919    232.9788   1.1934945258e+02   2.1027172898e+01    0.2650076     0.152752  66.54  0.001564086    1.511    0.338
       263  -9.7507    159.6727    236.2845   9.2087540190e+01   2.0371333275e+00    0.1268075   0.09663109  54.87 0.0003480948    1.606    0.377
       264 -10.4357    109.5465    242.7392   1.0369180617e+02   8.5886855231e+00     0.252559    0.1664655  50.70 0.0007012076    1.399    0.285
       265 -10.4435    220.8065    235.3809   7.9596022482e+01  -6.8494249600e+00     0.178921   0.09765869  20.52 0.0006870244    1.725    0.420
       266  -9.9837    177.4997    235.0017   8.8143231959e+01  -5.0440086217e-01    0.1803686    0.1020366 -18.18 0.0008097668    2.470    0.595
       267 -11.9268     27.7343     38.0756   8.7093275412e+01   6.6573455903e+01    0.3425391    0.1992768  26.25   0.00117056    1.778    0.438
       268 -11.7486     24.2178     35.0337   8.7664544441e+01   6.7462804192e+01    0.3634981     0.232715  -9.15 0.0007312645    1.484    0.326
       269  -9.2220     70.1997     51.3776   7.3705251724e+01   5.8381533720e+01    0.1848769    0.1253838  46.06 0.0009311301    1.667    0.400
       270 -11.8520     75.1575     35.6400   6.5666119029e+01   5.9950873539e+01    0.5887053    0.3472978  11.22  0.001885175    2.273    0.560
       271 -10.7049     71.1895     41.0756   6.9317644296e+01   5.9881656654e+01    0.2465155    0.1935014  -0.71 0.0008127958    1.213    0.176
       272 -11.3033     68.3309     39.5543   6.9781816786e+01   6.0621372690e+01    0.6706296     0.358498  -7.69  0.002588871    3.207    0.688
       273  -9.3166    232.4895     39.9741   3.6542467733e+01   2.3254131180e+01    0.1765194    0.1102926 -40.89 0.0003710842    1.467    0.318
       274 -10.9922    152.6301     39.0683   4.6916739547e+01   4.1990174572e+01    0.2547386    0.2399823  43.52 0.0004531906    1.115    0.103
       275  -9.7232    142.1782     40.6508   4.9386690404e+01   4.4346157333e+01    0.1999532    0.1171589  51.95 0.0002936642    1.565    0.361
       276  -9.7503     62.4619     40.6181   7.2504313452e+01   6.1458691604e+01     0.224058    0.1193983  38.04  0.001074869    1.821    0.451
       277 -10.8487    225.2045     38.2998   3.6896361970e+01   2.5021326676e+01    0.2352466    0.1810715 -78.16 0.0003808417    1.169    0.145
       278  -9.4931    116.8001     39.6210   5.4708119294e+01   5.0551229898e+01    0.1949079    0.1291636  64.23 0.0005357187    1.600    0.375
       279  -9.7781     99.9902     39.5094   5.9185597977e+01   5.4354537536e+01    0.2162903    0.1291624  51.13  0.001027192    1.582    0.368
       280 -11.3463     81.0619     35.3730   6.3506738606e+01   5.8850699391e+01    0.4036627    0.2679295 -25.93  0.002137787    1.548    0.354
       281  -9.6337    160.0846     38.4466   4.5434924133e+01   4.0238426562e+01    0.2029338    0.1266815  62.87 0.0003014524    1.474    0.321
       282 -10.6566      1.9118     37.2946   1.0014827041e+02   6.8721115406e+01    0.2486654    0.1533511 -41.63  0.001048321    1.223    0.183
       283  -9.8414     99.9877     35.7889   5.7789352829e+01   5.4852694213e+01    0.2507535    0.1796912 -67.62 0.0008573341    2.254    0.556
       284 -10.1101     95.4837     34.9606   5.8780125322e+01   5.5936506918e+01    0.2375485    0.1746077 -14.90 0.0007740541    1.454    0.312
       285 -10.4399     97.4218     31.1700   5.6760117163e+01   5.5999038528e+01    0.4055803    0.2350601  58.69  0.001928701    1.805    0.446
       286 -11.3409    102.0376     28.7472   5.4559539956e+01   5.5274544807e+01    0.4039414    0.3083061  77.23 0.0007004488    1.674    0.403
       287  -9.5698    134.5441     35.4945   4.9284301549e+01   4.6860384723e+01    0.1393098     0.127815  58.06 0.0001206891    1.013    0.013
       288  -9.6281     63.9718     35.2764   6.9703355787e+01   6.2017521933e+01     0.183376    0.1468506  18.74  0.001092041    1.101    0.092
       289  -9.5474    214.1698     34.4195   3.7158556100e+01   2.7937109880e+01    0.1721854    0.1095397 -89.03 0.0003344742    1.582    0.368
       290  -9.6273    201.8183     34.1742   3.8463684742e+01   3.0769445655e+01    0.1651699    0.1478066  58.10 0.0003687757    1.271    0.213
       291  -9.9173    108.2747     34.4098   5.5016249888e+01   5.3182181786e+01    0.3441204    0.1513744  48.21  0.001445627    2.000    0.500
       292 -11.2073    221.7046     32.1218   3.5875663351e+01   2.6566044536e+01    0.2148165    0.1761766 -76.84  0.000270059    1.046    0.044
       293 -10.2367    205.8621     32.5457   3.7617496546e+01   3.0045389271e+01    0.1941232    0.1704363 -38.53 0.0003502619    1.268    0.211
       294  -9.6114    184.6942     33.3200   4.0359164733e+01   3.4900348629e+01     0.141204   0.09209186 -67.99 0.0002721315    1.635    0.388
       295  -9.9477    166.4751     33.0383   4.2862340032e+01   3.9345546732e+01    0.1971911    0.1359404 -30.71   0.00102998    1.588    0.370
       296 -10.5945     89.5483     31.8471   5.9355879596e+01   5.7594376389e+01    0.2478528    0.1893546  38.68 0.0001112567    1.165    0.142
       297 -11.2806     48.0556     31.9000   7.4915638131e+01   6.5054185469e+01    0.3199355    0.2000102  31.00            0    1.527    0.345
       298 -10.4907     50.1793     27.8480   7.2199081982e+01   6.5332474948e+01     0.335315    0.1598645  29.08   0.00159549    2.074    0.518
       299 -10.5750    236.1310     30.3492   3.4167615527e+01   2.3722948958e+01    0.2335092    0.2017917  85.41 0.0008234994    1.209    0.173
       300  -9.6226    145.5172     31.0120   4.5741141836e+01   4.4726598008e+01    0.1989288    0.1352877 -33.26  0.001026255    1.593    0.372
       301 -11.3394     69.7002     26.7610   6.3906928383e+01   6.2162922924e+01    0.4110001    0.2996044  16.77  0.002358191    1.277    0.217
       302 -10.4953     68.4263     21.9348   6.2263869442e+01   6.2995094971e+01    0.3407015    0.1684863  49.76 0.0008584643    2.034    0.508
       303  -9.7752    111.5379     27.9401   5.1833875685e+01   5.3213542782e+01     0.189077    0.1354998 -21.23 0.0003642953    1.540    0.351
       304 -11.4633     58.8206     22.1984   6.6037494579e+01   6.4684390118e+01    0.5333264    0.2690027  25.16  0.002042077    2.161    0.537
       305 -10.2376     60.1332     27.1280   6.7720598962e+01   6.3819179624e+01    0.2048786    0.1781195 -21.19 -0.0006383859    1.275    0.216
       306 -10.2956     62.2967     23.6584   6.5328212042e+01   6.3895601536e+01     0.213776    0.1512228 -34.10   0.00123563    1.582    0.368
       307 -11.0409    128.8581     26.7503   4.7561860803e+01   4.9261252818e+01    0.4972942    0.2308516  65.96  0.001829562    2.148    0.534
       308 -10.2833    169.0262     25.9962   4.0524651476e+01   3.9549071326e+01    0.1970994    0.1758096 -89.80  0.001210714    1.032    0.031
       309 -11.6669    164.8925     23.1127   4.0304889949e+01   4.0876172216e+01    0.2746517    0.2180998  62.88   0.00161023    1.160    0.138
       310  -9.3178    144.2917     26.6315   4.4600793536e+01   4.5528005677e+01    0.1408866    0.0982401 -66.52 0.0007025874    1.716    0.417
       311 -10.1563      1.4981     25.7699   9.6376724649e+01   7.0879038140e+01    0.2057363    0.0829082 -47.08 0.0003930095    1.893    0.472
       312  -9.7311    193.3015     25.6404   3.7356611917e+01   3.3781330751e+01     0.141157   0.08498069 -64.84 0.0007037197    1.718    0.418
       313  -9.8860    203.8353     25.8507   3.6251845288e+01   3.1318143766e+01    0.1877784    0.1293757 -63.88 0.0005582814    1.354    0.261
       314 -10.3766     89.5457     20.7908   5.4919508559e+01   5.8893651094e+01    0.2664382    0.1503672  39.29 0.0007848687    1.580    0.367
       315 -10.7939     97.8053     23.6720   5.3752159858e+01   5.6790900118e+01      0.52329    0.1738254  51.06  0.001681213    2.490    0.598
       316 -10.7618     94.1324     22.3050   5.4224369533e+01   5.7743667901e+01    0.5984532    0.2160505  43.52  0.002392234    2.468    0.595
       317 -10.0888     63.0287    242.6477   1.1340783938e+02   1.5106137176e+01    0.1780629    0.1342758  52.30 0.0004871621    1.097    0.088
       318 -11.1618    103.0399     19.4688   5.0774224675e+01   5.6070054516e+01     0.430469    0.2476986  54.62  0.001951177    1.515    0.340
       319 -10.2268    186.1278     23.0034   3.7528673172e+01   3.5774058887e+01    0.2001351    0.1676363 -79.47  0.000472306    1.074    0.069
       320  -9.5529    226.2945     22.0748   3.3267214961e+01   2.6790474465e+01    0.1666804    0.1347642 -70.29 0.0005226704    1.013    0.012
       321 -10.0576    192.6703     21.6178   3.6434839506e+01   3.4388240931e+01    0.1967105    0.1421229  44.67  0.001109286    1.678    0.404
       322 -10.1193     38.2417    232.8092   1.1765127076e+02   2.0119619299e+01     0.177439    0.1307927  68.67 0.0006197057    1.117    0.105
       323 -10.1239     24.1114    232.4518   1.2043206871e+02   2.1743682052e+01    0.1910632    0.1676939 -67.43 0.0006882906    1.419    0.295
       324 -10.4887     88.8483    241.2855   1.0791972707e+02   1.1877599763e+01     0.225012    0.1565599 -33.86  0.001227212    2.129    0.530
       325  -9.4080    172.6504     20.2721   3.8476113404e+01   3.9301441966e+01    0.1370696   0.09002578 -74.36 0.0006997823    1.629    0.386
       326  -9.3068     50.5361     18.5241   6.7759411256e+01   6.6522450195e+01    0.1663054    0.1067166 -14.49 9.117738e-05    1.515    0.340
       327 -11.1763      4.6130    226.6463   1.2386382195e+02   2.4863244365e+01    0.3004835     0.166928  58.51  0.001880418    1.454    0.312
       328  -9.7839    190.5607    226.6554   8.4068498045e+01  -1.1329699060e+00    0.2268807     0.120459 -35.55 0.0009052783    1.961    0.490
       329 -11.1094    120.5584    226.2717   9.9174415706e+01   1.0081791657e+01    0.2193212    0.2007048  75.71 0.0009837606    1.192    0.161
       330 -10.1523     65.9941    226.1901   1.1127569542e+02   1.8092180363e+01    0.2051516    0.1722769 -88.87 0.0006171407    1.171    0.146
       331  -9.1781    181.4956     19.5092   3.7181873530e+01   3.7260770312e+01    0.1296946    0.1138775  80.06 1.241124e-05    1.068    0.063
       332  -9.7340     54.8024     19.0575   6.6219290296e+01   6.5755793365e+01    0.1751776    0.1575452  17.86   0.00117597    1.252    0.201
       333  -9.8584    143.1867     17.1506   4.1846947237e+01   4.6793493433e+01    0.1785364    0.1446085 -78.99 0.0002631887    1.314    0.239
       334 -10.4934    159.1541     15.9492   3.9083769994e+01   4.3022158935e+01    0.2597474    0.1418539 -57.25 0.0004671908    2.141    0.533
       335 -11.9561     29.0408    247.9534   1.2043187378e+02   1.8114121234e+01    0.5348389    0.2691428  78.94  0.003029846    1.937    0.484
       336 -10.8284     74.6529     15.9895   5.7489574132e+01   6.2463555646e+01    0.4146263    0.1942879  50.95 0.0009997417    1.953    0.488
       337 -10.4732     70.7076     13.6457   5.7766552279e+01   6.3478913469e+01    0.2824952    0.1306676  36.67  0.001324902    1.952    0.488
       338 -11.5112     21.1506    222.3077   1.2037878654e+02   2.4175649049e+01     0.273624    0.1785514  84.70  0.001000886    1.315    0.239
       339  -9.9624     62.3155     14.9670   6.1361707414e+01   6.4916495454e+01    0.2089243     0.184351  62.98   0.00132074    1.598    0.374
       340  -9.5601    126.5416    221.5517   9.7156303203e+01   1.0068198004e+01     0.247874    0.1684416  80.18 0.0008506545    2.305    0.566
       341  -9.7495    123.6968    221.6796   9.7819012244e+01   1.0499960540e+01    0.2236933    0.1643683 -26.90   0.00108254    1.731    0.422
       342  -9.5325     96.5239     13.9360   5.0272242526e+01   5.8068411006e+01    0.2220321    0.1749092  47.96  0.001338005    1.095    0.087
       343 -11.6547      9.8910    217.2930   1.2233304681e+02   2.6345858978e+01    0.3250267    0.1908825  60.03  0.001849438    1.423    0.297
       344  -9.7872     37.9797    217.5451   1.1654066150e+02   2.3399750143e+01    0.1784752    0.1120938  36.64 0.0009808518    1.571    0.363
       345 -11.2577     29.8394    215.9346   1.1814440677e+02   2.4647499384e+01    0.3953542    0.2634237  27.32  0.001683562    1.755    0.430
       346 -10.1601     23.7030    216.3055   1.1945616094e+02   2.5208908550e+01    0.2432875    0.1611559  -8.31  0.001249952    3.045    0.672
       347 -10.2284     21.3934    212.5542   1.1967895754e+02   2.6265244343e+01    0.2803147    0.1406198  59.08  0.001494989    1.792    0.442
       348 -11.8582    235.9411    214.3484   7.3066468735e+01  -5.8241224347e+00    0.3586707    0.2039575 -21.02   0.00100771    1.673    0.402
       349 -10.4848    155.0182    227.5165   9.1735057891e+01   4.3255910571e+00    0.1976642    0.1018379  52.34 0.0008104641    2.615    0.618
       350  -9.8917     66.9994    215.2224   1.0993290637e+02   2.0334380388e+01    0.1957921     0.152788 -13.67 0.0008983553    1.954    0.488
       351  -9.9223    208.8618    211.9270   7.7762866729e+01  -1.5121444469e+00    0.2077847    0.1538087  -4.11 0.0005474334    1.269    0.212
       352  -9.4570     76.3201    212.3113   1.0747747929e+02   1.9704690862e+01    0.1266015    0.1047646 -23.38 0.0003268932    1.647    0.393
       353 -10.1017      1.5203    211.5370   1.2368481741e+02   2.8335585390e+01    0.2018607    0.1507658 -89.41 0.0009602389    1.137    0.121
       354 -11.6250      5.6192    209.4683   1.2274434987e+02   2.8428695652e+01    0.4178972    0.1722886 -73.52  0.002160965    2.085    0.520
       355 -11.2253      2.9978    205.4995   1.2305343204e+02   2.9527810663e+01    0.2778888    0.1722339  66.54  0.001737878    1.350    0.259
       356 -10.2748    107.9947    209.9808   9.9762060615e+01   1.5461341557e+01    0.2285769    0.1586001  65.36   0.00084931    1.677    0.404
       357 -10.4857     10.9608    208.3309   1.2157828475e+02   2.8198341496e+01    0.2127968    0.1462257 -75.55 0.0005786356    1.341    0.254
       358 -11.5217     19.6113    201.1765   1.1925020044e+02   2.8990120380e+01    0.6026098    0.2277894 -68.23   0.00282468    2.304    0.566
       359 -10.2996    175.4414    202.7803   8.3033090159e+01   5.5402033519e+00    0.2464267    0.1835397  32.83 0.0005212962    1.267    0.211
       360 -10.4063    243.8982    202.4568   6.9436078761e+01  -5.1185461518e+00    0.1794786    0.1155509  29.74  0.001031195    1.599    0.375
       361  -9.3351    188.2555    205.3460   8.0757842059e+01   2.9090723310e+00    0.1408708   0.09827272  -9.00 0.0003211076    1.590    0.371
       362  -9.5512    215.6380    194.7054   7.3169272593e+01   3.2883565612e-01    0.1434056   0.09481052  -0.35 0.0007030887    1.707    0.414
       363 -10.8950     16.8650    193.1900   1.1926448125e+02   3.1085687170e+01    0.2832098    0.2369983  29.50  0.001396326    1.446    0.308
       364  -9.5651    211.4921    188.5163   7.2759934834e+01   2.0764441904e+00    0.1401453    0.1199328  -7.78 0.0008104069    1.007    0.007
       365  -9.4281      1.9927    187.9848   1.2221079438e+02   3.3562212359e+01    0.1500017     0.114429  86.81 0.0005900445    1.035    0.034
       366 -11.5451     16.0213    183.1417   1.1867451053e+02   3.3521714979e+01    0.5265188    0.2523811  84.79  0.002504352    2.096    0.523
