#   1 NUMBER                 Running object number                                     
#   2 MAG_AUTO               Kron-like elliptical aperture magnitude                    [mag]
#   3 X_IMAGE                Object position along x                                    [pixel]
#   4 Y_IMAGE                Object position along y                                    [pixel]
#   5 X_WORLD                Barycenter position along world x axis                     [deg]
#   6 Y_WORLD                Barycenter position along world y axis                     [deg]
#   7 A_WORLD                Profile RMS along major axis (world units)                 [deg]
#   8 B_WORLD                Profile RMS along minor axis (world units)                 [deg]
#   9 THETA_WORLD            Position angle (CCW/world-x)                               [deg]
#  10 FWHM_WORLD             FWHM assuming a gaussian core                              [deg]
#  11 ELONGATION             A_IMAGE/B_IMAGE                                           
#  12 ELLIPTICITY            1 - B_IMAGE/A_IMAGE                                       
         1 -15.5455    206.8512    133.1422   4.0063977180e+01   1.6505539523e+01      3.52919     1.466592 -38.95   0.01611237    2.338    0.572
         2 -16.5203    202.5606     82.6740   3.1253521392e+01   2.5582575965e+01     2.904557     2.211296 -35.14   0.01763033    1.556    0.357
         3 -17.3882    242.5900     67.0077   2.4582591067e+01   2.1446033451e+01     3.905921     1.970292 -63.90   0.02484163    1.783    0.439
         4 -14.5430    194.0843    101.9956   3.6043807888e+01   2.3927194512e+01     1.447192    0.7190281 -60.26  0.003052621    2.209    0.547
         5 -17.7787    245.3942    118.4518   3.2718382578e+01   1.3562598927e+01     4.114933     1.514374 -42.02   0.02128724    2.192    0.544
         6  -8.6463    212.0265     12.5873   1.7624346970e+01   3.3000587218e+01    0.3507987     0.173163  81.88  0.001452432    1.817    0.450
         7 -10.4469    192.0351     10.5061   1.8555132381e+01   3.6787715435e+01    0.2132467    0.1738326 -86.32 0.0003626594    1.220    0.180
         8  -9.8388    136.8121      8.0765   2.2942575398e+01   4.8025025076e+01    0.2175776    0.1529951 -89.37 0.0007086667    1.167    0.143
         9  -8.0946    217.6327      7.2493   1.6390832163e+01   3.2599654272e+01    0.1622578   0.09710273 -64.58  0.000297796    1.208    0.172
        10 -10.8684    237.6532      3.3114   1.4759505649e+01   2.9744883355e+01    0.2899536    0.2258744 -88.05  0.001737921    1.378    0.274
        11  -7.8377    200.4146      6.7559   1.7312866725e+01   3.5646017691e+01    0.1160807    0.0905913 -44.56  0.000521287    1.511    0.338
        12  -9.1780    129.1067      6.2979   2.3395406716e+01   4.9825874979e+01     0.188277    0.1189026  60.62  0.001029925    1.477    0.323
        13  -7.9434    227.5385      4.5282   1.5428664510e+01   3.1235767561e+01    0.1520843    0.1129954 -79.03  0.000753757    1.184    0.155
        14  -9.5677    225.9456      1.4030   1.5004101997e+01   3.1809769049e+01    0.1638781   0.08668727 -78.73 0.0004108111    1.484    0.326
        15  -8.0312    185.9398      3.8571   1.7716863330e+01   3.8586829288e+01    0.1409244    0.1136125 -86.78 0.0002746527    1.203    0.169
        16  -9.4636    195.0997    201.7598   5.3978436251e+01   5.5130467060e+00    0.2167608    0.1704667 -39.46 0.0002976147    1.143    0.125
        17 -12.2489    243.9971    195.8337   4.5240256944e+01   1.3600496259e+00    0.2989187      0.21857  10.60 0.0004528482    1.642    0.391
        18 -11.9416    227.7249    242.6459   5.4719106578e+01  -4.5201414061e+00     1.174758    0.7174479   3.75  0.003903004    1.635    0.388
        19 -10.1955    235.0879    245.0855   5.3899486413e+01  -5.4676436867e+00    0.2906806    0.1820332 -35.20 0.0003202417    1.247    0.198
        20  -9.5352    239.9085    223.8933   5.0073343559e+01  -2.6647019506e+00    0.2975679    0.2121213 -16.26  0.001208738    1.208    0.173
        21 -10.6618    237.2911    206.5926   4.7854179408e+01   2.7752646696e-01    0.4718455    0.3138938  22.24  0.001926874    1.806    0.446
        22 -10.3434    233.0010    232.1819   5.2353467587e+01  -3.3580490542e+00    0.3495359     0.272541  -2.03            0    1.278    0.217
        23 -10.8155    248.7748    220.3856   4.8260331295e+01  -2.8675823627e+00    0.3298175    0.2654815 -16.06 0.0002677624    1.216    0.178
        24 -10.6133    248.5919    214.8090   4.7462513677e+01  -2.0074173143e+00    0.4079355    0.2666959  -6.47 0.0008603586    1.628    0.386
        25 -10.5031    242.9280    212.5809   4.7940005492e+01  -1.1765568151e+00     0.497818    0.2346444 -28.85  0.001681507    1.931    0.482
        26 -10.6217    245.7112    205.5632   4.6484106559e+01  -3.3069998100e-01    0.4871866    0.2402093 -49.58  0.001646488    1.907    0.476
        27 -10.2319    235.2882    226.8247   5.1207896013e+01  -2.7255822200e+00    0.2505901    0.2265037  -0.85 0.0006977569    1.436    0.304
        28 -10.5218    230.0476    225.8602   5.1877576860e+01  -2.1238234063e+00    0.2767901    0.1612466 -40.48 0.0003144877    1.373    0.272
        29  -8.5739    213.7657    250.2272   5.8138984702e+01  -4.5283924261e+00    0.1628199   0.09856568 -20.91 0.0009160416    1.344    0.256
        30 -15.0531    238.9452    175.4958   4.2749902605e+01   5.1586052420e+00     2.492004     1.329082  25.65   0.01455866    2.714    0.632
        31 -10.5767    244.5675    231.0364   5.0428879356e+01  -4.1250588328e+00    0.7191688    0.3300356 -30.25  0.003093351    1.751    0.429
        32 -11.7373    245.1260    241.4858   5.1849549885e+01  -5.7039022575e+00      1.06075    0.6711861 -32.09  0.007148605    1.142    0.124
        33 -15.7145    223.5916     75.9047   2.7764405677e+01   2.3118058148e+01     1.492256    0.5953364 -42.11  0.007893492    2.176    0.540
        34  -8.8783    200.2223    239.8680   5.9014481623e+01  -1.6782612934e+00    0.1872678    0.1384481 -38.92 0.0005471813    1.310    0.236
        35  -8.8115    156.9019    201.6555   6.1535807074e+01   1.0284732936e+01    0.2309489    0.1799218 -47.53 0.0003391947    1.265    0.209
        36  -8.8104    207.9715    197.4190   5.1020068229e+01   4.8265680173e+00    0.2826703    0.1556129 -49.35  0.000368137    1.679    0.404
        37  -8.6298    212.4514    196.0826   5.0057117668e+01   4.5627752390e+00     0.380061     0.216382 -26.32  0.002114095    1.768    0.434
        38  -9.0973    250.4129    197.3879   4.4596779133e+01   5.1713514891e-01    0.2154243    0.1069727 -41.13  0.001345279    1.455    0.313
        39  -6.9999    132.3083    198.6953   6.6654306262e+01   1.4273033696e+01    0.1357197    0.1131211  67.71 0.0007017136    1.608    0.378
        40 -10.0384    183.0460    194.8841   5.5065240806e+01   8.2585457050e+00    0.2111902    0.1870372 -22.54  0.001371716    1.074    0.069
        41 -14.9156    247.3414    159.0381   3.9035785312e+01   6.9089651655e+00     1.594741    0.6970111 -44.42  0.009131079    1.677    0.404
        42  -9.2213    200.3849    192.7523   5.1547515969e+01   6.5398023353e+00    0.3519907    0.2676323  81.98   0.00191831    2.614    0.617
        43  -7.8363    250.7268    191.0897   4.3596590559e+01   1.4710128914e+00     0.150012   0.06882539 -39.74 0.0003794685    1.586    0.369
        44  -8.7087    158.7914    190.1667   5.9153615754e+01   1.2412861233e+01    0.2262121    0.1952434 -13.17 0.0002736296    1.107    0.097
        45  -9.2234    204.6092    188.2649   5.0072893010e+01   6.8529565197e+00    0.2849117     0.215053 -25.93 0.0009558887    1.187    0.157
        46  -7.7638    199.8485    186.2201   5.0541862932e+01   7.8006268713e+00     0.210924    0.1383592 -33.30 0.0008520791    1.326    0.246
        47  -7.7172    193.7418    188.6119   5.2022138013e+01   8.1108077018e+00    0.2139759    0.1381624 -59.23 0.0008900677    1.861    0.463
        48 -14.8795    215.4020    139.6397   4.0003879797e+01   1.4140378494e+01     1.547749    0.7205589 -44.30  0.008083001    1.730    0.422
        49  -7.3166     89.9824    184.7720   7.5426094312e+01   2.3677954262e+01     0.195485     0.123626  27.07 0.0003685262    1.568    0.362
        50  -7.5847    181.5521    182.7234   5.3250569343e+01   1.0809532984e+01    0.1670351    0.1148182 -50.69  0.000279186    1.384    0.278
        51  -7.2361    166.2505    181.9783   5.6138418052e+01   1.3063356338e+01    0.1757902    0.1054687 -47.38 0.0003971835    1.508    0.337
        52  -7.5591    154.2474    180.9810   5.8500336961e+01   1.4997470118e+01    0.1871412    0.1102133 -48.72 0.0008813368    1.574    0.365
        53  -7.4604    191.9738    179.9978   5.0856625535e+01   9.9572604137e+00    0.1494644    0.1243487 -34.59 0.0009456405    1.000    0.000
        54  -8.9202    181.7846    173.6283   5.1593493850e+01   1.2558457832e+01    0.2884553    0.1980355 -40.73 0.0003394983    1.257    0.204
        55  -9.3738    172.1195    173.2037   5.3373048930e+01   1.4013693231e+01    0.2181148    0.1987813 -45.76  0.000233605    1.112    0.101
        56  -9.0010    157.9922    172.1399   5.6072262434e+01   1.6318877547e+01      0.30857    0.2287953 -28.15 0.0005026899    1.368    0.269
        57  -8.8928    156.0356    168.7557   5.5858323544e+01   1.7334403725e+01    0.3895706    0.1910576  38.52  0.001701119    2.206    0.547
        58  -8.3698    148.5253    172.7680   5.8255912000e+01   1.7624972603e+01    0.3272205    0.2048527 -25.86 0.0009814694    1.929    0.482
        59  -9.0200    189.6089    166.4767   4.8886309133e+01   1.2851901910e+01    0.2514167    0.1835292 -53.70  0.000590194    1.321    0.243
        60  -8.2158    179.5828    167.7152   5.0936449227e+01   1.4034299172e+01    0.1956888    0.1608821  70.18 0.0005890974    1.668    0.400
        61  -8.5197    162.7253    166.1469   5.3961669814e+01   1.6857736742e+01    0.2878682    0.1816008  34.46 0.0009293196    1.752    0.429
        62  -8.9307    187.7191    159.1313   4.7887582401e+01   1.4529154969e+01    0.3870492    0.2316247 -61.92  0.001436183    2.036    0.509
        63  -8.2623    177.7193    159.0132   4.9679274010e+01   1.6030551074e+01    0.2018906    0.1894633  23.09 0.0005226047    1.204    0.169
        64  -7.8595    181.1813    155.6214   4.8407952298e+01   1.6176501663e+01    0.2215997    0.1650362  20.77   0.00124522    1.679    0.404
        65 -10.5186    171.1699    148.0403   4.8827346531e+01   1.9234789793e+01    0.3417173    0.2882595 -72.14 0.0003293189    1.320    0.243
        66 -12.2285    165.6724    154.8639   5.1216851391e+01   1.8730727896e+01    0.3640898    0.3384195   9.16 0.0004051594    1.180    0.153
        67  -9.1617    166.5094    148.6530   4.9846666817e+01   1.9863747669e+01    0.2498095    0.2151125 -68.65 0.0005911033    1.246    0.197
        68  -9.1291    137.0165    151.5030   5.6766710411e+01   2.4184745659e+01    0.3092496     0.272542  -6.22  0.001079098    1.248    0.199
        69  -8.6986    140.9963    150.9131   5.5721964827e+01   2.3638079995e+01    0.2310052    0.1935255 -48.82 0.0003276468    1.124    0.110
        70  -8.3995    132.9624    147.9432   5.7004845179e+01   2.5677063352e+01    0.2195091    0.2088312 -42.05 0.0004908788    1.004    0.004
        71  -9.9108    172.7371    140.0202   4.6969148885e+01   2.0571646149e+01    0.4965515    0.3130145 -73.46  0.001316259    2.427    0.588
        72  -9.0911    132.3351    141.1099   5.5733562661e+01   2.7312043705e+01    0.4437474    0.2332512 -57.62  0.001255958    2.058    0.514
        73  -7.3134    177.8293    240.5925   6.3361205960e+01   3.9267245232e-01    0.1569541    0.1057674  29.74 0.0006804847    1.631    0.387
        74  -8.6094    166.8172    138.1348   4.7709467101e+01   2.1931186371e+01    0.3237111    0.1414778 -42.36  0.001349305    2.164    0.538
        75  -8.4492    181.2103    137.0695   4.4875302589e+01   1.9761440386e+01    0.1939363    0.1602994 -32.09 0.0004208224    1.248    0.198
        76  -9.3945     40.2363    134.5399   8.2860055314e+01   4.3743240832e+01     0.522939    0.2080095 -47.39  0.001853703    2.456    0.593
        77  -7.9767    116.2475    129.6447   5.7282751597e+01   3.2801549772e+01    0.2480234    0.2077332 -47.59  0.000526964    1.171    0.146
        78 -11.4461     62.2147    117.8380   7.1334807980e+01   4.5044342234e+01    0.6382182    0.6345339 -38.69  0.002707816    1.049    0.047
        79 -10.2189     45.7050    117.6079   7.7451197654e+01   4.7477476706e+01    0.4174912    0.3165904  81.61  0.001971119    1.720    0.419
        80 -10.6748    146.1244    110.2286   4.5922556613e+01   3.1204142213e+01     0.433613    0.3596479  20.57  0.002261755    1.577    0.366
        81  -9.5507    140.7889    115.9206   4.8318941240e+01   3.1099291188e+01    0.2634316    0.2385854 -29.20 0.0008103958    1.220    0.181
        82 -10.1048    140.4750    112.4493   4.7608208464e+01   3.1855104721e+01    0.3792617    0.1947621  51.50  0.001389347    2.059    0.514
        83 -10.4184    149.4671    103.5560   4.3761497098e+01   3.1833171398e+01    0.7703841    0.4311066 -76.51  0.002520001    3.647    0.726
        84  -9.3198    158.1402     95.0521   4.0255896136e+01   3.1698368021e+01    0.3432691    0.2311951  80.71   0.00176228    1.820    0.450
        85 -10.4434    169.4592    114.6756   4.2449051473e+01   2.6005893963e+01    0.6289187    0.4702178  69.70  0.003559938    1.527    0.345
        86 -10.9286    172.4429    101.1606   3.9136597653e+01   2.7912351150e+01    0.3862392    0.2617035 -51.01 4.508021e-05    1.321    0.243
        87 -10.3214    165.6042    105.6223   4.1227890466e+01   2.8379741063e+01    0.6585227    0.4293083 -86.60   0.00317292    2.195    0.544
        88 -11.1287    165.9488     98.3786   3.9626812606e+01   2.9614584088e+01    0.3769812      0.26012 -56.95 0.0002652491    1.345    0.256
        89 -10.9126    157.4908    109.4180   4.3511053358e+01   2.9195405274e+01    0.5528977     0.445396  37.93  0.001302586    1.474    0.322
        90 -11.3167    158.9242    102.7482   4.1799932187e+01   3.0162438567e+01     0.386911    0.2780674 -45.24 0.0003048397    1.334    0.251
        91 -10.3665     54.5643    118.3832   7.4260166599e+01   4.6054742655e+01    0.4620648    0.2778973  12.35  0.001903317    2.018    0.504
        92  -8.1708    128.7662    111.6083   5.0046638486e+01   3.4298845422e+01    0.2032519     0.132443  57.58 0.0006892742    1.671    0.402
        93 -16.2027    214.9581    117.6954   3.6165086747e+01   1.7944928663e+01     2.088697     1.406245 -69.57    0.0127754    1.637    0.389
        94  -9.3191    134.0241    111.9785   4.8923166849e+01   3.3198892405e+01    0.2699726    0.2248344 -63.33 0.0003579058    1.190    0.160
        95  -9.3123     54.8159    107.6067   7.1678707103e+01   4.8662008245e+01    0.2401672     0.214251  70.45  0.001274405    1.299    0.230
        96  -8.7772     57.2387    105.0049   7.0126646972e+01   4.8911813350e+01    0.2081297     0.192482 -39.70 0.0004501776    1.089    0.082
        97  -9.5853    141.9901     99.3261   4.4296364799e+01   3.4095166601e+01    0.2430184    0.2037793  22.04   0.00103977    1.573    0.364
        98  -9.3820    134.9877     95.8655   4.4949721052e+01   3.6145017322e+01      0.25364     0.202177 -53.43 0.0002812301    1.221    0.181
        99  -8.8971    146.6116     94.8826   4.2354220898e+01   3.3995383732e+01    0.2477964    0.1824435  28.70  0.001271131    1.924    0.480
       100 -10.5753    142.4364     88.6484   4.1721729031e+01   3.5951286111e+01    0.4956073    0.3103831 -26.86  0.001423506    2.360    0.576
       101  -8.9565    147.9157     88.9616   4.0746032892e+01   3.4790953492e+01    0.2589808    0.1972285 -87.97 0.0004235862    1.428    0.300
       102  -7.6131    157.3275     87.2898   3.8677374695e+01   3.3206978569e+01    0.1201596    0.1056214  14.89 0.0004254388    1.617    0.382
       103  -8.4346    127.6071     85.8264   4.4109500035e+01   3.9494964968e+01    0.2513801    0.1804856  55.03 0.0006526707    1.361    0.265
       104  -7.7800      3.5565     85.9115   8.9129100591e+01   5.9589513486e+01    0.2013199    0.1227378 -59.85 0.0005643669    1.547    0.354
       105 -10.2898    158.0790     73.1567   3.5386415758e+01   3.5377165012e+01    0.2701742    0.2165218 -50.61 0.0003704604    1.228    0.186
       106  -9.0220    152.9667     76.0025   3.6869542306e+01   3.5954719906e+01    0.2960926    0.2187837  60.98 0.0003544806    1.350    0.259
       107 -10.2297    151.9189     84.2725   3.8941794488e+01   3.4796525677e+01    0.3494897    0.2448055  57.73 0.0002553586    1.444    0.308
       108  -8.7283    150.5307     79.4974   3.8091504631e+01   3.5876833425e+01     0.311244    0.1984219 -65.70  0.001436347    1.707    0.414
       109  -9.1136    132.9306     83.9030   4.2500471243e+01   3.8735047787e+01    0.2196302    0.2005016  88.98            0    1.015    0.014
       110  -8.5602    157.2592     79.5438   3.6955314172e+01   3.4515521679e+01    0.3559161    0.1872589 -44.76  0.001228791    1.821    0.451
       111  -8.1011    126.4257     79.6030   4.2809493880e+01   4.0837842825e+01    0.2396655    0.1310087 -31.96  0.001030194    2.446    0.591
       112  -8.5476    133.3890     77.2378   4.0769462409e+01   3.9785421428e+01     0.181835    0.1187248 -55.79 0.0003756428    1.561    0.359
       113 -10.2932    170.1671     70.0798   3.2899210299e+01   3.3458579407e+01    0.2780846    0.2072169 -48.68 0.0004641543    1.290    0.225
       114  -8.8326    139.4496     67.7202   3.7276100026e+01   4.0060246928e+01    0.2362771    0.1169958 -47.53  0.001109829    2.003    0.501
       115 -10.0535    156.6827     61.8173   3.3037254466e+01   3.7386839180e+01     0.248476     0.207779 -79.97 0.0003612199    1.040    0.038
       116  -7.7633    168.1293     55.8552   3.0109235423e+01   3.5936881302e+01    0.2198362    0.1303744  77.45  0.001226733    1.693    0.409
       117  -9.8262    140.6043     53.6213   3.3630717897e+01   4.1910828465e+01    0.3591271    0.2048324 -67.00  0.000571487    2.088    0.521
       118 -14.9815    229.1152    115.5897   3.4055629812e+01   1.6223625355e+01    0.6369759     0.396791 -62.08  0.002524255    1.549    0.354
       119  -7.8079    160.5239     51.4629   3.0152627748e+01   3.8072430939e+01    0.1227605    0.1019722 -81.73 2.851881e-05    1.005    0.005
       120  -8.2588    152.8910     52.1526   3.1379834025e+01   3.9543000908e+01    0.1915851    0.1439926 -77.97 0.0004991363    1.232    0.188
       121 -15.7824    232.7258     96.5010   3.0396911594e+01   1.8678287071e+01     1.017946    0.7314216 -20.57  0.006391691    2.341    0.573
       122  -7.5462    177.3677     44.2557   2.6539257602e+01   3.5678616036e+01    0.1597583   0.09009329 -52.34 0.0006257267    1.570    0.363
       123  -9.2452    162.4879     40.8119   2.7529756531e+01   3.9073952835e+01    0.2311584    0.2044047 -77.91 0.0007051082    1.154    0.134
       124  -8.3643    165.4982     36.9517   2.6325969780e+01   3.8946927032e+01    0.1981116    0.1346622 -86.03 0.0003479354    1.315    0.239
       125  -9.3382    162.9073     28.6448   2.4802858295e+01   4.0459100703e+01    0.1991714    0.1581205 -70.19 0.0002353019    1.103    0.094
       126  -9.8810    143.9415     21.3307   2.5313903020e+01   4.5193883509e+01    0.2880259    0.1625502 -39.47 0.0009739194    1.895    0.472
       127  -9.6098    187.3880    237.7760   6.1085695011e+01  -8.3555684169e-02    0.2448592    0.1781778 -30.72 0.0002587441    1.157    0.135
       128  -8.8106    204.2607     17.4181   1.8978214170e+01   3.3842635579e+01    0.1696114    0.1223309 -58.74 0.0006629283    1.192    0.161
       129  -7.9695    207.2361     13.9942   1.8170567280e+01   3.3685134247e+01    0.1351954    0.1122449 -76.60 0.0002163031    1.256    0.204
       130  -8.3753    182.7086    239.0659   6.2178344591e+01   1.6338507371e-01    0.1731844    0.1318432 -25.45   0.00055733    1.090    0.082
       131 -15.8855    245.4030     94.2451   2.8771911774e+01   1.7207092909e+01    0.6827055    0.6137695 -16.38  0.005500424    1.711    0.415
       132  -7.0592    181.4922     15.4062   2.0291870089e+01   3.8257968019e+01    0.1082735   0.08256376 -81.31 0.0005445635    1.045    0.043
       133  -7.4098    186.2151     13.8678   1.9620258267e+01   3.7523657954e+01     0.130933    0.1070478  82.55 0.0004469587    1.293    0.227
       134  -7.3968    218.0166     13.4883   1.7418931693e+01   3.1882587505e+01     0.127263   0.07982529  88.27 0.0003204022    1.379    0.275
       135  -7.4640    134.9720    236.5225   7.1922747655e+01   5.8902356989e+00    0.1946718    0.1044364  -2.52 0.0008099388    2.531    0.605
       136  -8.7774    177.2945    231.0185   6.2025033307e+01   2.1555874677e+00    0.2090668    0.1653839   8.80 0.0001749666    1.216    0.178
       137  -8.4654    194.9934    229.1463   5.8352017397e+01   6.4125926830e-01    0.2044378    0.1439066 -34.26 0.0003707072    1.187    0.158
       138  -7.3994    167.0005    222.9914   6.2867448011e+01   4.7953059291e+00    0.1600041    0.1243858 -33.26 0.0003337648    1.147    0.128
       139  -9.1420    225.8918    216.7615   5.1155213068e+01  -2.9470588723e-01    0.2154907    0.1533478 -31.63 0.0002688715    1.058    0.055
       140 -15.9070    240.8320     84.8832   2.7661561092e+01   1.9212430819e+01    0.7105272     0.508434  77.91  0.005354139    1.601    0.376
       141  -9.4617    230.1551    214.3520   5.0119583404e+01  -3.0275616144e-01    0.3257896     0.221625 -50.29  0.001015167    1.589    0.371
       142  -7.4172     34.5263    217.5353   9.5535740067e+01   2.2068682691e+01    0.1370019    0.1324251  38.62 0.0008087342    1.038    0.037
       143  -9.0259    162.4904    212.5252   6.2139774200e+01   7.3713812160e+00    0.2395052    0.2186805 -32.57 8.836803e-05    1.171    0.146
       144  -9.6672    124.2471    205.8157   6.9793200667e+01   1.3792130139e+01    0.3074296    0.2134533 -10.57  0.001486345    1.649    0.394
