#   1 NUMBER                 Running object number                                     
#   2 MAG_AUTO               Kron-like elliptical aperture magnitude                    [mag]
#   3 X_IMAGE                Object position along x                                    [pixel]
#   4 Y_IMAGE                Object position along y                                    [pixel]
#   5 X_WORLD                Barycenter position along world x axis                     [deg]
#   6 Y_WORLD                Barycenter position along world y axis                     [deg]
#   7 A_WORLD                Profile RMS along major axis (world units)                 [deg]
#   8 B_WORLD                Profile RMS along minor axis (world units)                 [deg]
#   9 THETA_WORLD            Position angle (CCW/world-x)                               [deg]
#  10 FWHM_WORLD             FWHM assuming a gaussian core                              [deg]
#  11 ELONGATION             A_IMAGE/B_IMAGE                                           
#  12 ELLIPTICITY            1 - B_IMAGE/A_IMAGE                                       
         1 -14.5172    216.0528      4.0644   4.3495651881e+01   2.9235661334e+01     2.952868     1.636563  47.23   0.01090195    2.084    0.520
         2 -13.9469    176.9492     47.5472   6.1521874405e+01   3.4408153751e+01     1.581008       1.1844  25.14  0.004729117    1.552    0.356
         3 -13.9001    189.8184     35.8634   5.5839506714e+01   3.2579585481e+01     1.040799    0.8454222 -33.34  0.003497634    1.185    0.156
         4 -14.2969    195.4464     28.3616   5.2764235364e+01   3.2006836773e+01     1.315317     1.063339  32.61  0.001467119    1.375    0.273
         5 -11.7760     44.3769     13.6257   8.7707283938e+01   7.0736272820e+01    0.3303696    0.2060451   9.83  0.001561054    2.257    0.557
         6  -7.2870     48.6902    217.4554   1.2345231532e+02   2.6030136664e+01    0.2899947    0.1373372  44.41  0.001844489    1.494    0.331
         7 -16.6453     71.0632    146.9267   1.1254918089e+02   3.6770662077e+01     9.052807     4.058373  72.47   0.02830612    4.221    0.763
         8 -19.4143     13.4132    136.9658   1.2692279232e+02   4.5114884932e+01     17.12238     1.902042 -81.46   0.04076676    9.795    0.898
         9  -9.3497     98.4907    213.5096   1.1344222744e+02   2.0566857588e+01    0.1158951   0.08703293  47.10 0.0008105393    1.006    0.006
        10 -11.5583     70.6961    210.0381   1.1867630105e+02   2.4715017265e+01    0.1899506    0.1258932  48.10 0.0002703441    1.126    0.112
        11 -10.0233     32.0694    211.3406   1.2635540398e+02   2.8796739088e+01    0.1347948   0.06515979  46.72  0.000373917    1.456    0.313
        12  -9.7567     35.7318    206.1102   1.2540370927e+02   2.9326489864e+01       0.1624   0.08798362  53.26 0.0006124154    1.347    0.258
        13 -11.8844    193.1060    194.9066   9.2938338768e+01   8.9823949416e+00    0.7103472    0.4252138 -62.25  0.002855372    5.694    0.824
        14 -12.4910     35.4173    199.5085   1.2514556514e+02   3.0524233957e+01    0.1921349    0.1431585  53.28 0.0005458309    1.075    0.070
        15 -10.9000    208.6403    196.7900   9.0518600691e+01   6.3651337503e+00    0.1716588    0.1425295 -22.40 0.0004590508    1.437    0.304
        16 -10.2013     82.1622    195.2214   1.1510217877e+02   2.5799100623e+01    0.3200925    0.2142148  27.27  0.001971867    1.635    0.388
        17 -13.0785     68.5662    189.9484   1.1754712569e+02   2.8498346392e+01    0.5877776    0.5384108  70.27  0.004186095    1.223    0.182
        18 -11.8971    141.1117    198.5358   1.0330914126e+02   1.6672452938e+01    0.2652532    0.2258586  54.37  0.001228883    1.231    0.188
        19 -11.9483    152.8257    193.1822   1.0026441699e+02   1.5622761594e+01    0.3610911    0.2077148  56.97  0.001853929    2.224    0.550
        20 -16.7761     63.8868    247.7766   1.2227632135e+02   1.9710836455e+01     8.459085     2.426347  28.37   0.02866934    7.041    0.858
        21 -10.7516    136.6334    185.2037   1.0242096556e+02   1.9448670966e+01    0.1527728     0.116612 -33.94  0.000451406    1.650    0.394
        22 -12.3544     42.2821    212.0105   1.2440765968e+02   2.7630088317e+01    0.4439839    0.2730092  21.63   0.00284698    2.123    0.529
        23 -13.5544     59.5382    203.7642   1.2048423403e+02   2.7122431719e+01    0.6263072    0.4102854  47.51  0.002217481    1.158    0.136
        24 -11.9643    149.4159    180.5218   9.9098546792e+01   1.8099906793e+01    0.3020294    0.2269286  84.81  0.001628051    2.105    0.525
        25 -11.8430     99.3985    180.7462   1.0985554434e+02   2.5986985793e+01    0.2383107    0.2030684  60.68 0.0006162658    1.090    0.082
        26 -10.2265     60.9813    187.6648   1.1900665540e+02   2.9851294490e+01     0.217067    0.1579019  89.05  0.001470437    1.387    0.279
        27 -11.7812     55.8753    211.4650   1.2171395537e+02   2.6227007552e+01    0.1940912     0.137083  56.99 0.0004324383    1.075    0.069
        28 -10.5106    164.8531    171.2855   9.4478124247e+01   1.6905352667e+01    0.2029624    0.1888144  51.06  0.000479384    1.233    0.189
        29 -10.6063    201.7835    169.1073   8.7048539593e+01   1.0833731344e+01    0.3156922    0.2188436 -47.28  0.001761439    2.013    0.503
        30 -10.9066    204.4459    165.4050   8.5895850091e+01   1.0861974646e+01    0.3875435    0.2530703 -39.67  0.001564236    1.833    0.454
        31 -11.2724    193.6477    166.3269   8.8029576500e+01   1.2603038891e+01    0.2789527    0.2598352  13.73 0.0007426924    1.200    0.167
        32 -10.0633    191.6865    162.3082   8.7656821510e+01   1.3503048808e+01    0.2246286    0.1733066  21.66 0.0006820156    1.149    0.129
        33 -10.8949    230.0012    165.9960   8.1654932462e+01   6.5402229902e+00    0.1525069    0.1209022   9.56 0.0006646613    1.023    0.022
        34 -10.3550    159.0263    163.3070   9.4303204756e+01   1.9185864919e+01    0.1878558    0.1525911  38.04 0.0004130489    1.071    0.067
        35 -12.1085     52.4747    208.9948   1.2223785525e+02   2.7030697792e+01    0.2241431    0.1410251  55.16 0.0005839683    1.197    0.165
        36 -13.1375     96.3375    153.8526   1.0707737228e+02   3.1629307692e+01     0.645735    0.5940664 -15.13  0.004082753    1.391    0.281
        37 -11.1110    189.0254    154.9773   8.6773292941e+01   1.5026190093e+01     0.390385    0.3269253  44.91  0.002391618    1.263    0.208
        38 -11.8980    133.7865    145.0289   9.6582853030e+01   2.6977267736e+01     1.054849     0.298589 -54.94   0.00303523    5.528    0.819
        39 -10.6562    113.1905    151.4444   1.0259703531e+02   2.9376780989e+01     0.256624    0.1930871  74.37 0.0008691449    1.534    0.348
        40 -10.4077    174.5965    149.1331   8.8468774200e+01   1.8590764643e+01    0.2534328    0.1774774  40.75  0.000697822    1.287    0.223
        41 -11.7165    144.1374    147.0946   9.4591656316e+01   2.4678132932e+01    0.3978333    0.2867612 -75.04  0.001983251    2.049    0.512
        42  -9.8579    159.9618    147.0211   9.1100700943e+01   2.1709064224e+01    0.2103759    0.1687568  79.23 0.0008120466    1.746    0.427
        43 -12.6539    107.3541    140.2067   1.0216827799e+02   3.2633651474e+01    0.6408045    0.4200096 -27.19  0.002928674    2.450    0.592
        44 -10.9607    114.2238    143.0829   1.0094325460e+02   3.0864279531e+01    0.4279397    0.2107414  64.06  0.001451169    3.858    0.741
        45 -12.6376     95.6571    139.8396   1.0511586678e+02   3.4648106614e+01    0.3074656    0.2877108  54.87 0.0005806346    1.083    0.076
        46 -10.2707    128.4061    139.4855   9.6822505546e+01   2.9031426705e+01    0.2681735    0.1888174  42.63 0.0007316897    1.291    0.226
        47 -11.5268    106.0814    130.4692   1.0075527898e+02   3.4893278052e+01    0.4216901    0.3292519 -76.49  0.001716704    1.421    0.296
        48 -11.3271    102.3838    126.3706   1.0097227074e+02   3.6414032426e+01    0.2893057    0.2334321 -31.95  0.001088343    1.538    0.350
        49 -11.1636    135.8465    128.1484   9.2756710089e+01   2.9822585432e+01     0.502825    0.1938298 -48.53  0.001861627    2.834    0.647
        50 -11.5971    114.8141    130.2635   9.8440875018e+01   3.3381410006e+01    0.3224756    0.2911401  16.39 0.0008828848    1.253    0.202
        51 -11.9905     48.5216    206.5082   1.2287997054e+02   2.7897902569e+01    0.2235542    0.1548785  66.17 0.0008416771    1.201    0.167
        52 -10.2323    160.5794    127.8221   8.6986659519e+01   2.4911300316e+01    0.2737954    0.2268106 -80.47  0.001435148    1.634    0.388
        53 -11.7136    120.1344    123.9825   9.5806789102e+01   3.3695511016e+01     0.469129    0.3096085 -22.72  0.002029922    2.387    0.581
        54  -9.8689    135.0000    119.9496   9.1181716628e+01   3.1599877610e+01    0.2324792   0.08402043 -46.15 0.0008018817    2.939    0.660
        55 -10.4971    110.1032    119.0546   9.7427743872e+01   3.6610410598e+01    0.2315344    0.1957771  45.48 0.0002972351    1.127    0.113
        56 -10.1921    167.9182    112.8637   8.1934015816e+01   2.5988966962e+01    0.3630399    0.2532513 -82.36  0.001495316    2.665    0.625
        57 -10.2443    135.0000    112.5024   8.9467669002e+01   3.3078115101e+01    0.3178522   0.08498734 -45.23 0.0009336842    3.926    0.745
        58 -11.9096    120.1693    110.1941   9.2757718070e+01   3.6565452938e+01    0.4155329    0.3718219  67.92  0.001974155    1.138    0.122
        59 -10.2170    205.6023    110.0918   7.3975786463e+01   1.8362599836e+01     0.260461    0.1914043  36.10 0.0006622605    1.326    0.246
        60 -11.9681     53.0473     90.8416   1.0938396821e+02   5.2128334945e+01    0.3498845    0.2382975 -71.54   0.00106953    1.371    0.271
        61 -11.3319     41.7429     91.7283   1.1355135746e+02   5.3200902624e+01    0.2490262    0.2100946  60.12 0.0004761145    1.181    0.154
        62  -9.5986     69.4381     71.9834   9.9007153067e+01   5.4374609938e+01    0.2089354    0.1834046  44.13 0.0002657019    1.196    0.164
        63 -11.8030    164.3904     65.0830   6.9426388285e+01   3.4994141530e+01    0.4530441    0.3247363 -76.32 0.0005403778    1.928    0.481
        64 -10.5111     53.6321    230.6072   1.2321500385e+02   2.3387608922e+01    0.2388756     0.134419 -87.89  0.001670913    1.992    0.498
        65 -10.1185     60.7724    230.7668   1.2191311241e+02   2.2563872097e+01    0.1319597    0.0836895  61.35 0.0003829059    1.304    0.233
        66 -10.0062     72.2280    230.1512   1.1975985773e+02   2.1325545944e+01    0.1375815   0.09559727  52.71  0.000418681    1.072    0.067
        67 -10.1093     60.1258    216.8763   1.2121597701e+02   2.4840277234e+01    0.2466703    0.1786115 -82.57   0.00134379    1.557    0.358
