#   1 NUMBER                 Running object number                                     
#   2 MAG_AUTO               Kron-like elliptical aperture magnitude                    [mag]
#   3 X_IMAGE                Object position along x                                    [pixel]
#   4 Y_IMAGE                Object position along y                                    [pixel]
#   5 X_WORLD                Barycenter position along world x axis                     [deg]
#   6 Y_WORLD                Barycenter position along world y axis                     [deg]
#   7 A_WORLD                Profile RMS along major axis (world units)                 [deg]
#   8 B_WORLD                Profile RMS along minor axis (world units)                 [deg]
#   9 THETA_WORLD            Position angle (CCW/world-x)                               [deg]
#  10 FWHM_WORLD             FWHM assuming a gaussian core                              [deg]
#  11 ELONGATION             A_IMAGE/B_IMAGE                                           
#  12 ELLIPTICITY            1 - B_IMAGE/A_IMAGE                                       
         1 -10.9914     60.0759     21.8219   3.5551661937e+01   6.5671003376e+01    0.3281474    0.2510284  24.07  0.001308953    1.351    0.260
         2 -12.2382     34.6938     14.9440   4.3324539680e+01   7.1688136687e+01    0.4132292     0.199695  41.41  0.001976944    1.842    0.457
         3 -13.7013    227.7888     25.3286   1.0762188838e+01   2.7868228844e+01    0.7761077     0.616223 -49.95  0.003806732    1.114    0.102
         4 -10.7005    250.1149     10.8697   6.8421590116e+00   2.5564308071e+01     0.168129   0.09693197 -54.66 0.0006947899    1.247    0.198
         5 -10.7114     38.0103      2.0000   3.3385606838e+01   7.2518255444e+01     0.266493   0.09256014  54.92  0.001109669    2.520    0.603
         6 -11.3967     38.0649    189.9803   8.7399621372e+01   2.9446060883e+01    0.7583711     0.350733 -60.83  0.002362487    2.147    0.534
         7  99.0000    120.6920    235.3242   7.1426988330e+01   1.0039390342e+01     10.53356     4.868073  42.44   0.04869568    2.400    0.583
         8  -9.6590    192.5216    194.0082   4.9991132563e+01   8.2470886014e+00    0.1635672    0.1078504 -59.83 0.0008100283    2.672    0.626
         9  -8.4162     47.0000    193.0769   8.5175525683e+01   2.7764366669e+01    0.3837185   0.07795058 -70.07   0.00107653    5.166    0.806
        10 -11.6155     30.9794    187.2790   8.9179058311e+01   3.0802661382e+01    0.4825246    0.3515694  36.31  0.001660935    1.274    0.215
        11  -9.2354     72.2442    186.2109   7.7240536531e+01   2.6465786602e+01    0.1871977    0.1468933  44.56 0.0005887054    1.247    0.198
        12 -17.7793      1.5051     88.6131   8.9148366350e+01   5.9350828466e+01     15.41282          nan -74.19   0.01711261   29.836    0.966
        13 -11.4653    141.7606    183.2073   5.8624970153e+01   1.7250206837e+01    0.2719876     0.238041  26.46  0.001293193    1.171    0.146
        14  -8.7889     78.5831    183.7793   7.5115519225e+01   2.6227024217e+01    0.1728305    0.1405196 -82.89 0.0003898899    1.408    0.290
        15 -11.1570    173.5724    178.6288   5.0878509417e+01   1.3460265620e+01    0.6074818    0.3360283 -54.65  0.002772194    2.402    0.584
        16 -11.7563    115.8803    181.9331   6.4733068379e+01   2.1373075860e+01    0.4358022    0.2485703  15.10  0.001848537    2.102    0.524
        17 -10.6438     96.9841    180.0214   6.9426003372e+01   2.4571111515e+01    0.2852163    0.2323813 -88.03  0.000453015    1.537    0.349
        18 -10.7750     96.9051    175.6674   6.8733967937e+01   2.5598749401e+01    0.3035863    0.2441527 -55.90 0.0004087424    1.301    0.231
        19  -9.6837     62.9282    181.1749   7.9252073922e+01   2.8856149361e+01     0.216183    0.1756643  52.80 0.0005622691    1.240    0.194
        20 -11.9280    113.8752    172.5088   6.3599459707e+01   2.3772670536e+01    0.4624409    0.3371357  78.76  0.002100264    2.167    0.538
        21 -11.1868    110.8577    167.0396   6.3403151293e+01   2.5486002756e+01    0.4984844    0.3131666 -65.99  0.001685827    2.001    0.500
        22 -18.6004      9.6795    219.9561   9.6899321453e+01   2.4981529625e+01     9.258113     2.335263 -76.91    0.0316278    3.898    0.743
        23 -11.0833    140.0384    172.2394   5.7007075538e+01   1.9753057519e+01    0.3486052    0.2828925 -78.73  0.001061875    1.774    0.436
        24  -9.4988     46.6147    229.0759   8.8416772574e+01   1.9650178282e+01    0.3548236    0.1491652  26.50  0.001632249    2.023    0.506
        25  -9.3308     69.5169    173.1784   7.6218219684e+01   3.0011773440e+01    0.2084348    0.1451303 -66.25  0.000548644    1.504    0.335
        26 -11.6435    179.6552    169.2224   4.7890889621e+01   1.4275361514e+01    0.5842848    0.4044501 -39.94   0.00290544    1.339    0.253
        27 -15.9588     67.2679    144.5698   7.2291305729e+01   3.7655664523e+01     5.454813     3.757603  36.15   0.02545483    1.433    0.302
        28  -9.7195     51.1136    200.5247   8.4779709113e+01   2.5543213234e+01    0.2866857    0.1472375 -72.04  0.001252816    2.108    0.526
        29 -10.0477     37.3421    199.6792   8.8457044184e+01   2.7172948609e+01     0.220963    0.1675638  58.42 0.0005889164    1.270    0.212
        30 -11.5693    133.6757    144.9383   5.3000128648e+01   2.6616327574e+01     1.169068    0.2845711 -53.09  0.002732003    6.259    0.840
        31  -9.6831    121.2736    147.6107   5.6749538733e+01   2.8200636786e+01    0.2392385    0.2185821  58.74 0.0005423923    1.240    0.194
        32 -11.2521    109.1050    145.0079   5.9512562927e+01   3.0906001646e+01    0.4293559    0.3044659 -38.19  0.001460228    1.437    0.304
        33 -10.1213    147.8816    144.1491   4.9447851991e+01   2.4273499404e+01    0.2062748    0.1953533 -64.09 0.0002781876    1.205    0.170
        34  -9.5841    128.5846    138.7773   5.2916644035e+01   2.8873093088e+01    0.2580389    0.1805568 -54.06 0.0008429566    1.495    0.331
        35 -10.7071     89.3888    222.0060   7.7183777156e+01   1.6359742847e+01    0.3568937    0.2578408  72.91  0.001753989    1.882    0.469
        36 -11.8418    105.4057    131.5819   5.7601113532e+01   3.4724934613e+01    0.6206351    0.4131384 -38.58  0.001746599    1.553    0.356
        37 -11.6342     92.6242    131.8743   6.1519770858e+01   3.6908281749e+01    0.3188174    0.3053297 -49.20 0.0004248939    1.049    0.047
        38 -11.5574    135.1596    124.4203   4.7928049134e+01   3.0743713209e+01    0.8456903    0.2335162 -50.13  0.002363523    4.156    0.759
        39 -10.5274    113.0618    125.9175   5.4076777659e+01   3.4632626047e+01    0.3399031    0.2498368  18.31 0.0009722703    1.598    0.374
        40 -10.7273    101.5455    121.4564   5.6338996698e+01   3.7821405178e+01    0.5682649    0.3045171  50.41   0.00210063    2.177    0.541
        41  -9.0071    198.3219    215.1792   5.2477266882e+01   4.2169568248e+00    0.1516615   0.09770992 -41.00 0.0003603743    1.625    0.385
        42  -9.1984    165.1156    210.8416   5.8203769652e+01   8.8857821275e+00    0.1763116    0.1623676 -20.97 0.0007149482    1.276    0.217
        43 -10.1413    108.8531    116.2985   5.2894984444e+01   3.7630481466e+01    0.2792366    0.2171314 -41.26 0.0003467938    1.272    0.214
        44  -9.8880    211.0215    198.7228   4.7520069857e+01   5.2630374204e+00    0.1969151    0.1398312 -25.21 0.0004892261    1.142    0.124
        45 -11.1578    114.7647    107.7825   4.9002847988e+01   3.8356687629e+01    0.4098432    0.2665017  79.00   0.00149818    2.943    0.660
        46 -11.0166    132.5215    103.4051   4.3242363738e+01   3.5623590998e+01    0.5200476    0.3424764 -78.22  0.001222991    2.637    0.621
        47 -11.1063     66.2747    103.8482   6.3816139414e+01   4.8329624519e+01    0.3739424    0.2830652  57.11  0.001750003    1.538    0.350
        48 -10.3414     67.6698    101.3101   6.2622900626e+01   4.8730627778e+01    0.3295977     0.237531  63.27 0.0009317031    1.784    0.440
        49 -11.4959    117.2540    102.0694   4.6776768889e+01   3.9072540212e+01    0.3800986    0.2071451 -42.36  0.001440546    1.814    0.449
        50  -9.5638    149.4220     98.6230   3.8189265968e+01   3.3029921426e+01    0.3717798     0.210382 -65.63  0.001379483    2.957    0.662
        51 -11.7946     46.5730    236.9367   8.9006341000e+01   1.8030686989e+01    0.1796794    0.1533702 -57.10 0.0008705494    1.371    0.271
        52  -8.7949    135.2993     96.2996   4.0673774861e+01   3.6445032015e+01    0.1445025    0.1169638   2.25 0.0002288478    1.579    0.367
        53  -9.4120    113.5237     94.5084   4.5673478708e+01   4.1435664873e+01    0.1496124    0.1467519 -20.01 0.0003559091    1.027    0.027
        54 -11.7676     51.0832     92.5630   6.6942223568e+01   5.3492421878e+01    0.5195132    0.2859376  46.07  0.001326096    2.062    0.515
        55 -11.4482     27.5563     87.5986   7.6327965787e+01   5.7677249907e+01    0.3468268    0.2595394 -21.72 0.0006444671    1.403    0.287
        56 -11.3722     38.0102     87.7564   7.1462793301e+01   5.6459667656e+01    0.3123301    0.2637454 -17.58  0.001245572    1.207    0.172
        57 -10.4884     20.2487     75.4153   7.7053224816e+01   6.1485232152e+01    0.2412509    0.2314378  53.28 0.0004103889    1.179    0.152
        58 -10.2922     58.4682     85.4507   6.1817001425e+01   5.4090078805e+01    0.2832369    0.2522752  66.62 0.0001390593    1.297    0.229
        59 -10.2046     82.1860     71.9200   4.8294591769e+01   5.2666899597e+01    0.5080097    0.2106055  37.63  0.001781399    2.642    0.622
        60  -9.3936     56.4698    235.4377   8.6531465766e+01   1.7324233326e+01    0.1241298    0.1084191  22.98 0.0008049678    1.091    0.083
        61 -11.0171    171.3485     68.9059   2.6503751363e+01   3.3418763727e+01    0.3071826    0.1794686  59.85  0.001534364    1.813    0.449
        62 -12.0804    181.9855     64.1345   2.3803971422e+01   3.1895324054e+01     0.391033    0.3518885 -34.06 0.0007642761    1.184    0.155
        63  -8.7673    163.5583     64.4918   2.6527382495e+01   3.5761379704e+01    0.1371008    0.1197148 -62.37 0.0005266647    1.057    0.054
        64 -13.5463    198.7954     52.1488   1.8953280221e+01   3.0138512871e+01     1.021225       0.8255  40.25  0.004140832    1.656    0.396
        65 -12.4582    204.6523     46.7697   1.7141172811e+01   2.9680431072e+01    0.4481924    0.3997726 -78.72  0.001597204    1.157    0.136
        66 -10.4140     68.5287     56.2032   4.7602328639e+01   5.8508064622e+01    0.3222175    0.2197721  57.96 0.0006317447    1.706    0.414
        67  -9.8511     46.6462     56.3209   5.7247047854e+01   6.2513661990e+01      0.25178    0.1630701  43.65 0.0007599628    1.624    0.384
        68 -10.7736    249.1453    233.4311   4.7004069085e+01  -3.2382845325e+00    0.1705777   0.09616597 -31.66 0.0007811283    1.472    0.321
        69  -9.5285     69.0886    195.5991   7.9315150215e+01   2.4629717294e+01    0.3866622      0.18494 -53.98  0.001672701    2.149    0.535
        70 -12.1740     27.5217     29.9621   5.6055976869e+01   7.0563469642e+01    0.4570751    0.3460459  71.95  0.002263368    2.420    0.587
        71 -10.7714    164.7368    248.0853   6.3777974365e+01   2.9457139003e+00    0.2162258    0.1722608 -17.63 0.0004164406    1.206    0.171
        72  -8.3560     52.2899    248.9715   8.8530976745e+01   1.5090475210e+01    0.2213879      0.12458 -80.04 0.0008077814    2.205    0.547
        73  -5.1032     50.4215    245.4992   8.8714786981e+01   1.5945785779e+01    0.2993745          nan  36.62 0.0008929493    4.940    0.798
        74 -11.7110    241.8271    246.0388   4.9952063862e+01  -4.1387667925e+00    0.2911128    0.1429159 -35.05  0.001190842    1.809    0.447
        75 -10.4872     48.9024     20.8791   3.9662205688e+01   6.8143941915e+01    0.2155392    0.1645202  23.19  0.001087999    1.292    0.226
