#   1 NUMBER                 Running object number                                     
#   2 MAG_AUTO               Kron-like elliptical aperture magnitude                    [mag]
#   3 X_IMAGE                Object position along x                                    [pixel]
#   4 Y_IMAGE                Object position along y                                    [pixel]
#   5 X_WORLD                Barycenter position along world x axis                     [deg]
#   6 Y_WORLD                Barycenter position along world y axis                     [deg]
#   7 A_WORLD                Profile RMS along major axis (world units)                 [deg]
#   8 B_WORLD                Profile RMS along minor axis (world units)                 [deg]
#   9 THETA_WORLD            Position angle (CCW/world-x)                               [deg]
#  10 FWHM_WORLD             FWHM assuming a gaussian core                              [deg]
#  11 ELONGATION             A_IMAGE/B_IMAGE                                           
#  12 ELLIPTICITY            1 - B_IMAGE/A_IMAGE                                       
         1 -12.6896      2.2984    127.0321   1.3821848585e+02   4.8623122977e+01     1.246675     0.237843 -71.04  0.004017715    4.473    0.776
         2 -12.7570    196.6765     33.2539   6.4135425692e+01   3.2413817100e+01    0.7013074    0.5953302 -13.28  0.004268509    1.610    0.379
         3 -13.6796    214.3051     15.1778   5.8121336168e+01   3.0554237730e+01     1.054053    0.8627138  42.39  0.006832422    1.682    0.405
         4 -11.7081      2.0000     14.0164   1.1191711500e+02   7.0700664710e+01    0.6684002    0.1154543 -45.79  0.002630285    4.805    0.792
         5 -11.6295      2.0000      4.1014   1.0776248226e+02   7.2012923240e+01    0.4600959    0.2705112 -21.73  0.003354972    1.301    0.231
         6  -9.8927    132.4121    223.8086   1.2038214179e+02   8.5964481160e+00    0.2560889    0.1921244 -40.03  0.001171594    1.578    0.366
         7 -11.5378    199.3753    246.3556   1.1012310278e+02  -6.8422585134e+00    0.4631736    0.2840424  48.07  0.002459611    1.834    0.455
         8 -10.6725    184.7339    250.0137   1.1358729104e+02  -5.0941619128e+00    0.3258331    0.2127283  14.92  0.001379016    1.762    0.433
         9 -10.6244    169.2910    248.8834   1.1649298038e+02  -2.3952298451e+00    0.2686653    0.2051699  -6.26 0.0009011088    1.616    0.381
        10 -11.1627    149.9864    248.1084   1.2027847105e+02   9.4494297940e-01    0.4114376    0.2778732 -69.68  0.002190113    2.025    0.506
        11 -10.5414    143.9271    249.5687   1.2171152385e+02   1.6947313456e+00    0.3793621    0.1996456  53.96  0.001781744    2.045    0.511
        12 -11.4927    100.2159    247.8238   1.3029007370e+02   9.1320116351e+00    0.6776932    0.3367459  45.86  0.002772226    1.704    0.413
        13 -12.0801    134.2572    248.8921   1.2357653534e+02   3.4214634320e+00     1.368902    0.2744923  37.34  0.003875015    5.155    0.806
        14 -11.3611     84.7762    230.8199   1.3145859619e+02   1.4973865833e+01    0.6054861    0.2905194 -73.07  0.002738984    2.375    0.579
        15 -11.8230     98.7226    232.6757   1.2878666560e+02   1.2412045156e+01     0.546196     0.428601  80.25   0.00287057    1.247    0.198
        16 -10.6385     97.0244    238.9733   1.2990084565e+02   1.1389286030e+01    0.2978402    0.2495281  74.47   0.00107011    1.088    0.081
        17 -11.5112    122.1356    245.1719   1.2554817940e+02   6.1178417810e+00    0.6877387    0.3785756  63.66  0.003140335    2.317    0.568
        18 -12.2349    124.4581    240.3297   1.2443129378e+02   6.6626644863e+00    0.7231811    0.4340006  37.42  0.003712764    1.551    0.355
        19 -11.4215     92.2203    241.7415   1.3119484861e+02   1.1578236745e+01    0.5807425    0.3538009 -64.03  0.003174351    1.746    0.427
        20 -10.6955     89.9553    238.0750   1.3123424903e+02   1.2671458422e+01    0.4913801    0.2981659 -40.81  0.002393251    2.557    0.609
        21 -11.2162    114.6691    250.1998   1.2768821915e+02   6.3811828523e+00    0.7917377    0.3707261  35.65  0.003382587    2.094    0.522
        22 -11.6326    109.0472    246.1469   1.2832388113e+02   8.0580108072e+00    0.5203045    0.3730929 -84.59  0.001580182    1.578    0.366
        23  -9.8406     90.9167    250.2495   1.3239213750e+02   1.0095289645e+01    0.3656127    0.1905054  38.21  0.001864202    1.822    0.451
        24 -10.9286     86.8052    248.2786   1.3298542290e+02   1.1102393334e+01    0.4400269    0.3688927  86.99 0.0009547516    1.159    0.137
        25 -10.2371     81.4272    247.2133   1.3392342091e+02   1.2115340061e+01    0.5022675    0.2147692 -66.64  0.002368219    2.495    0.599
        26 -10.6470     84.9781    241.5168   1.3262008764e+02   1.2727881863e+01    0.3753495    0.3258796 -75.01  0.002460791    1.259    0.205
        27  -8.2059     75.3239    250.6796   1.3544626020e+02   1.2322828054e+01    0.1329951   0.07695118  66.93 0.0007045957    1.677    0.404
        28 -11.2037     60.5571    246.3675   1.3784428099e+02   1.5254578989e+01    0.5166427    0.3309723  67.26  0.002224847    1.351    0.260
        29  -9.4537     67.1288    243.9801   1.3637085228e+02   1.4826932997e+01     0.278031     0.169067  30.68  0.001326553    2.048    0.512
        30 -12.3410     18.1463    217.3395   1.4348586623e+02   2.6525879418e+01      1.21198    0.9040415 -19.15  0.007027497    2.663    0.624
        31 -14.4600     10.1287    209.2825   1.4441906508e+02   2.9091519922e+01     4.180731     1.224862 -77.51   0.01763702    2.982    0.665
        32 -13.1381     28.6311    246.7021   1.4369330536e+02   1.9232631069e+01      1.26671    0.7498085  48.81  0.007201457    1.491    0.329
        33 -13.1136     13.7200    239.1473   1.4579959136e+02   2.2418113866e+01    0.8906958    0.6158366  80.46  0.003858935    1.077    0.072
        34 -10.9799     51.6838    219.1165   1.3700609982e+02   2.2201306266e+01    0.3590518    0.2384842  83.13 0.0003012477    1.375    0.273
        35 -12.7301     30.7162    226.8418   1.4183418603e+02   2.3093696052e+01    0.6140428    0.2900319 -68.63 0.0008125998    1.914    0.478
        36 -13.8111     36.8649    218.6657   1.3995081127e+02   2.4143982017e+01     1.066192    0.9812818  53.40  0.007551708    1.359    0.264
        37 -12.8354    135.7746    241.1895   1.2220948574e+02   4.5984027896e+00     1.076671    0.4267649  43.66  0.004539523    2.191    0.544
        38 -11.7297    135.2438    236.5793   1.2166548364e+02   5.5682693967e+00    0.4275327    0.3786234  15.29  0.001389933    1.298    0.230
        39 -11.1402    176.0293    242.5870   1.1416228215e+02  -2.4473134998e+00    0.3590545    0.2077716  58.06  0.001626785    2.493    0.599
        40 -10.8144    158.3565    242.1134   1.1769010997e+02   6.0368573573e-01    0.3231741    0.2316668 -79.21   0.00168212    2.097    0.523
        41 -11.0429    166.4930    242.1483   1.1603090663e+02  -7.7584847062e-01    0.4097472    0.1747984  39.39   0.00179066    2.058    0.514
        42  -9.7215     53.9527    240.9355   1.3860931272e+02   1.7246741868e+01    0.1879661    0.1508469  73.83 0.0005973576    1.038    0.037
        43 -11.0396    116.6600    238.6099   1.2581665878e+02   8.2938519393e+00    0.4172969    0.2792895 -33.27  0.001565539    2.266    0.559
        44 -10.9390    128.9733    235.1057   1.2277011103e+02   6.9221699061e+00    0.3696287    0.2512822  68.50  0.001895576    1.734    0.423
        45 -11.0083    122.8397    233.6618   1.2385802753e+02   8.2464897050e+00    0.4145452    0.3108578  47.61  0.001239575    1.179    0.152
        46 -11.0425    105.3251    237.4931   1.2801761333e+02   1.0367389440e+01    0.3654439    0.2811594 -35.50  0.002058349    1.820    0.450
        47  -8.9299     61.4117    239.0335   1.3700459415e+02   1.6633272129e+01    0.1918964    0.1363637  51.71 0.0007451897    1.251    0.201
        48  -9.7475    172.8940    236.0740   1.1376099520e+02  -7.9141895708e-01    0.1885312    0.1686125  55.93            0    1.232    0.188
        49 -10.7502    244.8225    240.6547   1.0060400403e+02  -1.2686591876e+01    0.1752591    0.1322916  -8.61  0.001147632    1.138    0.122
        50  -9.9083     55.0130    235.8593   1.3794801092e+02   1.8158358284e+01    0.3502644    0.1763865  60.83  0.001167213    1.860    0.462
        51  -8.7173     70.6443    235.2251   1.3481215966e+02   1.6132268559e+01    0.1595674    0.1090385 -64.52 0.0004903924    1.532    0.347
        52 -10.8924    113.3134    231.4119   1.2556029821e+02   1.0297154436e+01     0.375277    0.2634186 -50.40   0.00204002    1.631    0.387
        53 -11.9129    106.2405    228.4017   1.2665686952e+02   1.2087856864e+01    0.7626839    0.4547752  71.40  0.003534103    2.127    0.530
        54 -10.5762     97.8579    223.6234   1.2781784218e+02   1.4463058260e+01    0.3430797    0.2520265  24.73  0.001254042    1.725    0.420
        55  -9.6537     94.4509    219.2352   1.2797795515e+02   1.5961260580e+01    0.3381978    0.1874892  65.14  0.001022685    2.128    0.530
        56 -10.1491    156.7538    232.0717   1.1647286243e+02   2.7162616574e+00    0.2473619    0.2099422 -39.72 0.0005877104    1.313    0.238
        57  -9.9304    250.3889    231.2061   9.7950769130e+01  -1.2098344146e+01    0.1622537      0.10517 -40.32 0.0006680235    1.664    0.399
        58 -11.1754    134.8247    231.4790   1.2101243226e+02   6.6355133204e+00    0.4017618    0.2734049 -29.59  0.001313189    2.098    0.523
        59  -7.7894     57.4428    231.4549   1.3705799727e+02   1.8762145076e+01    0.1272755    0.1010365  74.39 0.0003414417    1.015    0.015
        60  -9.1269     45.9913    231.0114   1.3925684687e+02   2.0353224346e+01    0.2034693    0.1152493  68.75  0.001110383    1.639    0.390
        61 -10.3587     79.3257    225.5950   1.3198526209e+02   1.6912924035e+01    0.4590076    0.2621619 -77.96  0.001404054    1.868    0.465
        62  -8.9832     77.2281    220.9319   1.3188191537e+02   1.8241994847e+01    0.1898549    0.1532853  68.02 0.0004469132    1.073    0.068
        63 -10.5427    117.1786    224.4470   1.2377046939e+02   1.1090985918e+01    0.2874376    0.2553498  55.17  0.000352507    1.035    0.034
        64 -10.2480     92.6407    225.9679   1.2922871065e+02   1.4789794576e+01    0.2516735    0.1743941  53.80 0.0006604943    1.290    0.225
        65  -9.0664     64.8689    224.7171   1.3488157506e+02   1.9193376158e+01    0.2611795    0.1778091 -43.78  0.001403186    2.093    0.522
        66 -10.5374    142.1875    221.5067   1.1790630857e+02   7.3416601577e+00     0.293922    0.2338686  39.13 0.0009801799    1.171    0.146
        67  -9.4287    110.8500    219.6944   1.2446894373e+02   1.3169715771e+01    0.3192712    0.1655933 -66.55  0.001320643    2.216    0.549
        68 -10.2387     70.4137    218.6747   1.3306178137e+02   1.9735811275e+01    0.4882131    0.2850028 -85.86   0.00243481    1.838    0.456
        69  -9.6842    245.5182    218.4906   9.6518704285e+01  -9.5137058008e+00    0.1278102    0.1043434  -6.60 0.0008100743    1.036    0.035
        70  -8.7285     89.0362    218.5216   1.2905796285e+02   1.6973594484e+01    0.2009736    0.1204666  45.12  0.000718989    1.537    0.349
        71  -8.7619     63.0358    217.3366   1.3446665694e+02   2.1073877460e+01    0.2078729    0.1397531 -28.01 0.0009629874    2.985    0.665
        72  -8.6814    137.2035    214.3815   1.1785271290e+02   9.7029201456e+00    0.1991331    0.1216829  49.68 0.0002618757    1.580    0.367
        73  -9.3702     88.1402    212.8099   1.2851072732e+02   1.8385183170e+01    0.2657357    0.1738011 -82.80  0.001010776    1.642    0.391
        74 -10.7172     63.0861    209.7599   1.3360459573e+02   2.2774816530e+01    0.8662726    0.5986834   9.39   0.00424464    2.622    0.619
        75 -10.7030     55.7064    208.3133   1.3502960783e+02   2.4102634756e+01    0.3874784    0.2587242 -86.37  0.002162408    1.383    0.277
        76 -10.3361     54.0045    205.6854   1.3510516950e+02   2.4928354378e+01    0.4082581    0.2384314  27.86  0.001425901    2.206    0.547
        77  -9.2270    101.7333    211.7476   1.2535001294e+02   1.6434014407e+01     0.360949    0.1315805  56.20  0.001084387    4.282    0.766
        78  -8.5725    130.9673    211.4702   1.1876742437e+02   1.1440345357e+01    0.2076917    0.1319945  42.37 0.0003935663    1.468    0.319
        79  -9.7796    156.1266    208.0621   1.1259827844e+02   7.5637331423e+00    0.2074922    0.1963865  40.13 0.0003342587    1.003    0.003
        80  -9.2598    106.8356    209.8170   1.2392678483e+02   1.6012581646e+01    0.2011791    0.1946552 -51.44 0.0005930525    1.208    0.173
        81  -9.2953    112.6037    208.0571   1.2236083430e+02   1.5421543575e+01    0.2251195    0.1946166  27.82 0.0007208581    1.312    0.238
        82  -8.8304     74.3614    208.2545   1.3096240578e+02   2.1511495920e+01    0.1824198    0.1167624 -80.53 0.0003831144    1.566    0.361
        83  -8.9124    125.7980    206.8125   1.1917584969e+02   1.3378199859e+01     0.201607      0.16261  84.72  0.001055689    1.368    0.269
        84  -8.9885     32.9107    207.0451   1.3969454755e+02   2.7193908324e+01    0.1746615    0.1322398 -55.27 0.0004854191    1.562    0.360
        85 -10.1568    246.6106    206.2023   9.4030353059e+01  -7.7332001715e+00    0.2839761    0.1395818  17.27  0.001103953    3.490    0.713
        86  -9.7500     91.7822    204.7459   1.2659390167e+02   1.9641176253e+01    0.3508738    0.2179457  33.02  0.001407857    1.784    0.440
        87  -9.2625    103.2954    202.9113   1.2369738311e+02   1.8171248223e+01    0.3562523    0.2301019  47.03  0.001475485    1.465    0.317
        88  -9.8267     84.1926    201.3639   1.2784702596e+02   2.1619031434e+01    0.3188398    0.2439824 -39.86  0.001384899    1.678    0.404
        89  -9.2961     43.4605    200.0082   1.3676789909e+02   2.7566039330e+01    0.3408755      0.20571 -44.86  0.001659743    2.248    0.555
        90  -8.4016    107.3264    200.6852   1.2242662272e+02   1.7997182282e+01    0.1515444    0.1042919  72.15  0.000629204    1.670    0.401
        91 -10.9759     27.6209    195.3002   1.3969260529e+02   3.0459275830e+01    0.4734086    0.2603792 -89.13 0.0001712076    1.686    0.407
        92 -11.4318    103.1429    196.0774   1.2267649597e+02   1.9775767344e+01    0.2727558    0.2703135  40.18 0.0003318657    1.177    0.150
        93  -8.8840     97.6964    196.2858   1.2398352705e+02   2.0639969128e+01     0.210385    0.1741642  53.26 0.0002115137    1.156    0.135
        94  -9.7831     53.7671    198.3923   1.3432909808e+02   2.6650428246e+01    0.3018031    0.1702141  38.50  0.001009758    1.839    0.456
        95 -11.6069     58.3029    194.2599   1.3281551901e+02   2.7026350855e+01    0.3749302    0.2976812 -48.79  0.001146117    1.490    0.329
        96 -10.9596    249.6645    194.5151   9.1255625956e+01  -6.2812303179e+00    0.3461308    0.2631838 -21.64  0.002074304    1.169    0.145
        97 -10.6727    250.1445    187.9118   8.9887185305e+01  -5.2486441845e+00    0.4687098    0.1604385 -33.31  0.001724583    3.112    0.679
        98  -9.4575     20.9280    194.9827   1.4107735930e+02   3.1227890531e+01    0.2135382    0.1451612 -63.51 0.0009052912    1.426    0.299
        99  -9.5779    112.7951    192.9762   1.1990184069e+02   1.8827432250e+01    0.2917204    0.1866294 -37.11  0.001284468    2.038    0.509
       100 -10.9431     15.5348    192.0649   1.4194702958e+02   3.2426936126e+01     0.231013    0.1705835 -85.51  0.000315884    1.067    0.063
       101  -9.3106    191.2935    191.3324   1.0183991221e+02   4.3580741133e+00     0.227994    0.2018386 -39.03  0.000719622    1.137    0.120
       102  -8.4508     72.6396    192.7436   1.2932050791e+02   2.5386959378e+01    0.1268231    0.1090541 -22.05 0.0002492066    1.621    0.383
       103  -9.0301     38.6054    192.1998   1.3699334292e+02   2.9960550854e+01    0.1730526    0.1033326 -64.84 0.0003416976    1.505    0.336
       104  -8.9885     19.8791    190.8809   1.4092390369e+02   3.2274984282e+01    0.1885823    0.1392719 -65.78  0.001197012    1.313    0.238
       105  -9.3206     32.1450    190.0638   1.3819103945e+02   3.1186949501e+01    0.3279252    0.1352669  44.33  0.001538437    2.360    0.576
       106  -9.2174     77.0206    188.5290   1.2769792262e+02   2.5747219467e+01    0.2022535    0.1698328 -80.42 0.0001517592    1.088    0.081
       107 -10.2541     10.1714    187.8600   1.4270617758e+02   3.3887434209e+01    0.2598881    0.1814375  77.03 0.0007318601    1.236    0.191
       108 -10.0365     72.1586    186.7307   1.2859437303e+02   2.6896206722e+01    0.3798962    0.2402288 -41.91  0.001246355    2.019    0.505
       109 -11.4051     64.9378    186.5749   1.3028268264e+02   2.7958434743e+01    0.3489711    0.2457323 -58.97 0.0006192554    1.386    0.278
       110  -9.2792     41.1165    188.3024   1.3600215171e+02   3.0587009757e+01    0.2516733    0.1515183  57.51  0.001334254    1.652    0.395
       111  -9.9936     83.6464    186.7792   1.2585848299e+02   2.5156783055e+01    0.2430811    0.2042397  77.82 0.0002962195    1.125    0.111
       112  -9.2642     29.7714    184.2262   1.3810571108e+02   3.2813063560e+01    0.2829095    0.1798276 -43.10  0.001517911    2.060    0.515
       113  -9.7282     24.2821    184.0681   1.3931097016e+02   3.3417383221e+01    0.2506956    0.1652479  46.99 0.0008272007    1.570    0.363
       114  -9.5534    127.8864    182.7924   1.1450464353e+02   1.8446172404e+01    0.2381003    0.2062067 -64.16 0.0003702342    1.161    0.138
       115  -8.9095    107.9248    182.8790   1.1934670782e+02   2.2065707554e+01    0.2329279    0.1697938  79.54 0.0007262796    1.606    0.377
       116  -9.1907     36.4901    182.5074   1.3639634246e+02   3.2490449651e+01    0.2541255    0.1086173 -68.58  0.001154948    1.986    0.497
       117 -12.2854     44.1222    208.1904   1.3747508075e+02   2.5608141807e+01     1.239165    0.5787551  69.71  0.005411736    2.594    0.615
       118  -9.0139     86.1373    180.1732   1.2422328838e+02   2.6363100142e+01    0.1964802    0.1557521  72.72 0.0003131493    1.271    0.214
       119  -8.4678     27.2183    180.3675   1.3827044489e+02   3.3989339923e+01    0.1620046    0.1045358  50.91 0.0005081429    1.576    0.366
       120  -8.9506     47.5446    179.6867   1.3348682649e+02   3.1880351409e+01    0.2063407    0.1207257  35.09 0.0008292808    1.886    0.470
       121 -12.1108    248.1755    172.5407   8.7172489738e+01  -2.2776471106e+00    0.7364393    0.4535541 -42.95     0.003823    1.480    0.325
       122 -11.5817    245.1393    162.2398   8.5594151131e+01   7.2477344120e-02    0.4417479    0.2219935 -42.03   0.00202758    1.761    0.432
       123 -11.9276    246.8135    158.2046   8.4485002713e+01   5.1155076611e-01    0.9347977    0.6477157 -88.87  0.004201782    2.854    0.650
       124  -8.3330    125.7265    177.3015   1.1399175707e+02   2.0140228736e+01    0.1506194    0.1161473  81.27 0.0001827412    1.535    0.348
       125 -11.0212     65.2424    175.6521   1.2866528372e+02   3.0566320903e+01    0.2797352    0.2399672  58.31 0.0003816656    1.179    0.152
       126 -10.7384     61.5312    172.5431   1.2912516129e+02   3.1832605991e+01    0.3085156    0.2792159 -40.74  0.001049399    1.314    0.239
       127  -9.6105    103.0480    175.9955   1.1933507718e+02   2.4572301092e+01    0.2169459    0.2036725 -83.48  0.001203127    1.028    0.027
       128 -10.6645     75.4133    174.6862   1.2600218728e+02   2.9346490585e+01    0.2876828    0.2353166  77.62 0.0004853312    1.200    0.167
       129 -10.2186     19.1631    173.5864   1.3938729942e+02   3.6378422835e+01    0.4261022    0.2226717  80.84  0.001713599    2.073    0.518
       130 -10.9652     14.7087    167.1418   1.3974071315e+02   3.8299528211e+01    0.3274166    0.3089518 -62.36  0.001653061    1.291    0.226
       131 -10.6414     11.8993    173.4308   1.4101525044e+02   3.7068810670e+01     0.360076    0.1368214 -58.54  0.001690388    2.272    0.560
       132  -8.2472    107.6629    173.2647   1.1769116861e+02   2.4423244826e+01    0.1533102    0.1113379  70.85 0.0002506691    1.588    0.370
       133  -8.7691     46.1907    172.3766   1.3286743878e+02   3.3811994256e+01     0.176158    0.1688163 -27.90 0.0003770293    1.327    0.246
       134  -9.1819     48.1288    168.6577   1.3189191198e+02   3.4486313300e+01    0.2838324    0.1519526  42.84  0.001374058    1.947    0.487
       135 -10.5077     44.9302    165.4283   1.3224227598e+02   3.5651830282e+01    0.4535635    0.1421364 -54.52  0.001594191    2.823    0.646
       136 -13.0995     40.1272    243.7709   1.4141869113e+02   1.8439276492e+01     1.107535    0.8227032  84.68  0.006047486    1.116    0.104
       137 -11.4381     83.4277    166.1567   1.2256620860e+02   3.0224694179e+01    0.6457305    0.5198869  30.74  0.003421959    1.411    0.291
       138  -8.7929     64.9779    167.2967   1.2746912378e+02   3.2653969538e+01    0.1840903    0.1654381  77.45  0.001077839    1.087    0.080
       139  -9.1386     60.0331    163.9015   1.2820284474e+02   3.4155970690e+01    0.4150045    0.1988435  64.74  0.001462523    3.409    0.707
       140 -13.0519      5.2795    142.5542   1.3932407946e+02   4.4823228499e+01     1.118629     0.600167 -85.17  0.005981265    1.747    0.428
       141 -10.3728     10.9396    150.0505   1.3876958878e+02   4.2644299191e+01    0.2273796     0.163195 -69.05 0.0003315336    1.118    0.106
       142  -9.8788     16.0698    158.2544   1.3844925649e+02   4.0284020563e+01    0.2081934    0.1465908 -72.95 0.0004129897    1.137    0.120
       143  -8.4472     36.5659    162.5477   1.3393794296e+02   3.7284885653e+01    0.1331044    0.1098374 -82.41 0.0002170404    1.034    0.033
       144  -9.5141     27.8804    171.0407   1.3708647864e+02   3.6138713064e+01    0.3560648    0.1585206 -54.15  0.001351329    2.148    0.534
       145 -10.4286     32.1994    154.8179   1.3400878069e+02   3.9611307855e+01    0.3893547    0.1799032 -50.85  0.001004925    2.085    0.520
       146 -11.1150     25.0262    155.0087   1.3584952872e+02   4.0259503757e+01    0.3871506    0.2435113  39.27  0.001629226    1.781    0.439
       147 -10.9578     23.1917    149.5045   1.3560939720e+02   4.1747983003e+01    0.2929594    0.2441267  72.08  0.001586874    1.243    0.195
       148  -8.7395    228.3743    155.2523   8.7052408384e+01   4.3933433157e+00    0.2026403    0.1226761 -48.82 0.0005426736    1.614    0.381
       149 -10.1091     84.9181    155.2910   1.2021738018e+02   3.2675609678e+01    0.1946722    0.1842968  64.21 0.0003201124    1.097    0.089
       150  -9.2682     89.9365    153.3347   1.1850612303e+02   3.2348670935e+01    0.1980805     0.183792  50.34  0.000185283    1.133    0.117
       151 -10.8986    249.6141    150.9333   8.2529554308e+01   1.3364540699e+00    0.4776304    0.2734482 -43.22  0.002355964    1.527    0.345
       152 -11.9558    247.8442    142.4620   8.1058739306e+01   3.1848044389e+00    0.5965737    0.5331314  27.28  0.003426682    1.295    0.228
       153 -12.5795    248.6367    133.2453   7.9011534975e+01   4.7141136531e+00     1.166898    0.4498592 -37.69  0.004579303    2.422    0.587
       154  -9.6976    235.9893    145.9805   8.3749730108e+01   4.7147584374e+00    0.2154021    0.1941128 -34.74 0.0005838797    1.033    0.032
       155 -11.8813     68.3559    144.3125   1.2265870862e+02   3.7864929098e+01    0.6856143    0.4799134  84.92  0.002247387    1.756    0.430
       156  -9.5156    133.3320    140.6147   1.0433249870e+02   2.7328280023e+01    0.3600911    0.2360767 -68.20  0.001125612    1.910    0.476
       157 -10.2017     32.5591    140.4166   1.3185777301e+02   4.3058837822e+01    0.2832035    0.1643285  77.42  0.001141707    2.309    0.567
       158 -11.1276     16.3090    139.6569   1.3611037084e+02   4.4678884987e+01    0.2678109    0.2345211 -71.51  0.001821088    1.097    0.088
       159 -10.7904     13.0054    137.2558   1.3666932640e+02   4.5503188031e+01    0.2139921    0.1479646 -71.81 0.0003007234    1.162    0.140
       160 -11.1346     19.5161    141.5165   1.3551112208e+02   4.3975048559e+01    0.3721929    0.1812938 -76.95  0.001790145    1.905    0.475
       161 -10.1408     96.2583    150.8801   1.1632915984e+02   3.1892837647e+01    0.3436371    0.2487758 -43.69  0.001245726    1.430    0.301
       162 -10.2481     41.3493    147.5519   1.3057378717e+02   4.0421707013e+01    0.2350093    0.2137842  69.99 0.0007459301    1.175    0.149
       163 -11.3893     59.9329    136.4029   1.2353876101e+02   4.0939357041e+01    0.2984156    0.2367813 -65.11 0.0003436879    1.136    0.119
       164  -9.3419    108.7138    136.1708   1.0979600752e+02   3.3238135072e+01    0.3318725    0.2283179  -7.89  0.001312003    2.467    0.595
       165 -10.5177    192.4701    248.9831   1.1189960184e+02  -6.1646132911e+00    0.2414933    0.1649575  48.07  0.001361154    1.589    0.371
       166 -10.0679     47.6656    135.9855   1.2694135299e+02   4.2535107837e+01    0.2495827    0.1842738 -28.72  0.001344803    1.628    0.386
       167  -9.7074    240.4827    131.4841   7.9920444971e+01   6.5639417363e+00    0.1402629    0.1239351 -42.32 0.0008100206    1.031    0.030
       168 -10.2976     45.0493    130.4168   1.2670119093e+02   4.4175323808e+01    0.3417271    0.2051863  60.09  0.001610652    2.217    0.549
       169 -10.0101     59.0515    128.0278   1.2217116191e+02   4.3083213689e+01    0.2115426    0.1901645 -50.42 0.0004819212    1.059    0.055
       170 -11.4930     23.6413    126.6451   1.3221706760e+02   4.7156219177e+01    0.2414839    0.2255099   7.92  0.001649201    1.309    0.236
       171  -8.4388     51.7069    126.6881   1.2406589844e+02   4.4309832357e+01    0.1398413   0.09501903 -36.14 0.0001741436    1.591    0.372
       172  -9.6966    209.9701    125.7863   8.3888870614e+01   1.3843343923e+01    0.2589982    0.1987569 -44.27 0.0005808958    1.216    0.178
       173 -10.7133     12.3744    154.1987   1.3888944923e+02   4.1551270430e+01    0.3241739    0.1934706 -69.91  0.001491954    1.324    0.244
       174  -9.4790    238.5971    122.1672   7.8223579872e+01   8.6470779811e+00    0.2055651    0.1233429 -32.65 0.0009507947    1.735    0.424
       175 -10.9457    243.8137    120.9112   7.7150751683e+01   7.8614315047e+00    0.4192802    0.2110622 -54.39  0.001799231    2.105    0.525
       176 -11.1137      7.2669    120.2900   1.3592774299e+02   4.9858466223e+01    0.2311929    0.1778186   1.91  0.001517961    1.674    0.403
       177 -10.2127    249.7063    117.9312   7.5646696011e+01   7.2715104850e+00    0.2708088    0.2242559 -54.10 0.0006174031    1.071    0.066
       178 -11.8210    248.2303    112.9280   7.4811169398e+01   8.4444439076e+00    0.4888867    0.4674966 -68.32  0.003114587    1.132    0.116
       179  -9.8982    231.9842    116.3478   7.8003606500e+01   1.1043191499e+01    0.1910417    0.1824077 -81.15 0.0006003461    1.104    0.094
       180 -11.4720      8.9864    107.4996   1.3346972865e+02   5.2658597603e+01    0.2195047    0.2037747 -18.80  0.001512493    1.270    0.212
       181 -11.2935     11.7153    160.0562   1.3969345155e+02   4.0222739455e+01      0.87887    0.3453017  80.41  0.002924904    4.856    0.794
       182 -11.4276     11.1868    115.8455   1.3413588090e+02   5.0617402471e+01    0.2404096    0.1912825 -36.44 0.0008814796    1.312    0.238
       183 -11.7034      9.3314    112.5685   1.3417464966e+02   5.1489436432e+01    0.3810873    0.1589492 -49.84   0.00187835    1.946    0.486
       184  -9.7728    167.8999    113.1171   8.9302413710e+01   2.5830253392e+01     0.347653    0.2690492 -83.34  0.001193439    1.597    0.374
       185  -8.6484    203.5233    111.4993   8.1749109929e+01   1.8045035472e+01    0.1482258    0.1403809 -54.84 0.0003191608    1.049    0.046
       186  -8.9338     35.2547    107.3801   1.2526658652e+02   5.0597243349e+01     0.159513    0.1204035  38.15 0.0004645922    1.559    0.359
       187 -12.6444    247.9033    100.1152   7.2167048409e+01   1.0759044224e+01    0.9384639    0.5534341 -33.21  0.004565415    1.815    0.449
       188 -10.0871     16.9980     99.0049   1.2946064125e+02   5.4012674300e+01    0.1843616    0.1516432 -54.65            0    1.033    0.032
       189 -10.0944     21.4353     93.3434   1.2688172827e+02   5.4925837118e+01    0.2405574      0.14191 -42.38 0.0007497935    1.457    0.314
       190  -8.4543     71.7476    100.0132   1.1189523882e+02   4.7836241851e+01    0.1719399    0.1124273 -50.11 0.0002446685    1.416    0.294
       191 -11.0159      5.2095    108.3992   1.3475581894e+02   5.2690575407e+01    0.2895015    0.1311151  42.24  0.001440421    2.854    0.650
       192 -10.2070     73.7097    243.4816   1.3504752252e+02   1.3991335510e+01     0.271836     0.231072  80.82  0.001814962    1.108    0.097
       193 -13.2374      4.8939    245.5586   1.4767715660e+02   2.2057884706e+01     1.128752    0.5552679  77.35 0.0009042026    1.678    0.404
       194 -10.7270     17.6626     25.9029   1.0918695299e+02   6.7742451525e+01     0.278828    0.1274672  36.66  0.001508528    2.866    0.651
       195 -11.0280    136.0370    224.9210   1.1976894137e+02   7.7356790773e+00    0.3861454    0.2754996 -54.88 0.0009978249    1.529    0.346
