#   1 NUMBER                 Running object number                                     
#   2 MAG_AUTO               Kron-like elliptical aperture magnitude                    [mag]
#   3 X_IMAGE                Object position along x                                    [pixel]
#   4 Y_IMAGE                Object position along y                                    [pixel]
#   5 X_WORLD                Barycenter position along world x axis                     [deg]
#   6 Y_WORLD                Barycenter position along world y axis                     [deg]
#   7 A_WORLD                Profile RMS along major axis (world units)                 [deg]
#   8 B_WORLD                Profile RMS along minor axis (world units)                 [deg]
#   9 THETA_WORLD            Position angle (CCW/world-x)                               [deg]
#  10 FWHM_WORLD             FWHM assuming a gaussian core                              [deg]
#  11 ELONGATION             A_IMAGE/B_IMAGE                                           
#  12 ELLIPTICITY            1 - B_IMAGE/A_IMAGE                                       
         1 -11.9714     42.8799     81.0479   9.8624147417e+01   5.5492175242e+01     1.162955    0.8737355 -28.40  0.006054587    1.277    0.217
         2  -9.8329     38.8707      8.2349   7.2210424577e+01   6.9028645586e+01    0.5337788    0.2900974 -12.82  0.002929824    1.805    0.446
         3 -10.5256     39.7392     29.3564   8.2000589562e+01   6.5972853271e+01    0.5974973    0.3283351 -37.51  0.002639271    1.623    0.384
         4 -11.8687     44.8470     22.2229   7.6530559981e+01   6.6364664842e+01     1.049194    0.8241488 -47.39  0.006470266    1.836    0.455
         5 -12.2597    129.0460     15.3099   4.8586574572e+01   5.0587966958e+01     1.328461      1.22268  34.71  0.008208022    1.036    0.035
         6 -11.4960    108.7221      4.9904   4.8785421661e+01   5.6143809785e+01     1.601726    0.5311837  66.52  0.005873557    3.406    0.706
         7 -11.0004    120.8276      4.1496   4.6098885427e+01   5.3458337617e+01    0.6562374    0.4664605  65.53  0.002608883    1.336    0.252
         8 -11.4025    131.2140      3.6960   4.4134315627e+01   5.1076378267e+01     1.410791    0.3002461  63.04   0.00478851    3.594    0.722
         9 -11.7481    156.0346     20.8873   4.5818902452e+01   4.3595621236e+01    0.9192166     0.568454  58.30  0.002864016    1.479    0.324
        10 -13.9488    166.7099     11.3809   4.1410997313e+01   4.1953846115e+01     3.442912     1.764338  66.07   0.01667925    1.761    0.432
        11 -11.1744     78.1099     16.2926   6.1452991497e+01   6.1522746884e+01     1.278982    0.5571496 -17.55  0.005585358    2.553    0.608
        12  -9.8724     71.5687      5.6175   5.8594751846e+01   6.3832744657e+01    0.4584791     0.283117  42.42  0.001876125    1.425    0.298
        13 -10.8795    117.1226     17.7602   5.1886519967e+01   5.3109127253e+01    0.9459156    0.3888087 -39.15  0.003895057    2.791    0.642
        14 -11.2801     84.0994      3.9611   5.4199574793e+01   6.1506549961e+01    0.8986391    0.3984752  55.96  0.003267905    2.105    0.525
        15  -9.1710     94.1904     17.6237   5.7363467828e+01   5.8149230643e+01    0.3746693    0.3258821 -83.37  0.002253903    1.624    0.384
        16  -9.1707     69.8483     14.4629   6.3295523165e+01   6.3271243016e+01     0.316482    0.2555467 -14.00  0.002014943    1.214    0.176
        17  -8.8040     20.4377     14.1760   8.4126729641e+01   7.0508061897e+01    0.4514768    0.1988726 -23.25  0.002201386    2.371    0.578
        18  -9.6302    104.3944     12.2469   5.2608294900e+01   5.6483588465e+01    0.4117226    0.2691832 -15.43  0.001918729    1.598    0.374
        19 -10.5175    249.7157      6.3855   3.2497307244e+01   2.3823521685e+01     0.618224    0.2229277 -32.54  0.002991876    2.482    0.597
        20  -8.0969     52.5732      2.1209   6.3380486284e+01   6.7556577094e+01    0.3324463    0.1375486  39.33  0.001647777    2.118    0.528
        21  -9.3424     60.5122      9.9344   6.4388543345e+01   6.5419321587e+01    0.3420743    0.2489154 -23.53  0.002134476    1.397    0.284
        22 -10.0670     60.5309      2.6758   6.0791972948e+01   6.6129787758e+01     0.577385    0.3874676  18.95  0.003541639    1.289    0.224
        23  -9.6326    222.2225      3.3346   3.3779427104e+01   2.9887621420e+01    0.3670984    0.1513302 -34.16  0.001810821    2.207    0.547
        24  -8.5963     17.3244      2.3339   7.9555133723e+01   7.2472119660e+01    0.2301887    0.1734272 -41.17  0.001558849    1.892    0.472
        25  -8.2296     40.0231      1.9993   6.8378555790e+01   6.9558796883e+01    0.1871108    0.1404482   8.46  0.000767629    1.032    0.031
        26  -8.7132     78.4247     77.6687   8.5092679669e+01   5.1499430836e+01    0.2773116    0.1856791  29.04  0.001356723    1.620    0.383
        27  -9.8335     75.3080     68.8413   8.3274536789e+01   5.3807108941e+01    0.5661787    0.3910127 -13.86  0.002784514    1.635    0.389
        28  -8.7936     83.9403     69.2010   8.0473903969e+01   5.2299470971e+01    0.3631675    0.2066629 -44.66  0.001640409    1.689    0.408
        29  -9.3646     45.6928     62.8966   9.2223536157e+01   5.9108213102e+01    0.6321824    0.3485734 -13.37  0.002758431    2.599    0.615
        30  -8.4491     76.4817     58.9872   7.9432690998e+01   5.5511003423e+01    0.2181004    0.1275069 -39.20  0.001028823    1.581    0.368
        31  -8.6555    138.5605     79.2319   6.8075952138e+01   3.9317190012e+01    0.3701981    0.2578593 -16.76  0.001091651    1.675    0.403
        32  -9.5805    198.8734     56.1299   4.9558197165e+01   2.8900230107e+01    0.3334256    0.3197263  54.05  0.001119762    1.116    0.104
        33  -8.7397     66.4333     54.7080   8.1458985801e+01   5.7909728649e+01    0.2640176    0.1230242 -45.09 0.0009204402    2.095    0.523
        34  -9.1815    227.8645     79.5332   5.1416149943e+01   1.8872678122e+01    0.4113943    0.2875228  -7.72  0.001999855    1.921    0.479
        35  -7.7244     34.7197     52.9787   9.3374185859e+01   6.2305494114e+01    0.1670927   0.09584974 -45.75 0.0008809543    1.452    0.312
        36 -10.9397      5.1657     76.6573   1.1150678033e+02   5.9425699816e+01    0.6752431     0.464615  57.24  0.004025885    2.034    0.508
        37 -10.1391     83.7879     47.4257   7.2622590259e+01   5.6237799077e+01    0.6510034    0.5477861  60.95  0.003648787    1.611    0.379
        38  -7.9584    202.4136     46.4749   4.6486672810e+01   2.9419873292e+01    0.1341622    0.1267606 -55.15  0.000186511    1.036    0.035
        39  -8.3871    111.0190     45.9984   6.3933010564e+01   5.0994818759e+01    0.2379674    0.1646861  15.81  0.001139845    1.665    0.399
        40 -10.0576     82.0225     37.6641   6.9331988136e+01   5.8067115765e+01    0.5515553    0.2850092 -38.98  0.002546154    2.012    0.503
        41 -10.1780      3.3632     41.0832   1.0344103446e+02   6.7123347669e+01    0.4236824    0.3808177  79.90  0.002872727    1.662    0.398
        42  -9.5983    163.6497    244.2139   9.8335276686e+01   1.7958500132e+00    0.1736465    0.1357032  34.83  0.001124009    1.112    0.101
        43  -9.5642     52.4119     39.7237   8.1042093759e+01   6.2599200620e+01    0.4527253    0.2790249 -30.97   0.00245771    1.420    0.296
        44 -10.0289     48.1966     34.7819   8.0714687178e+01   6.3995497367e+01    0.4177538    0.3460093  27.03  0.002673841    1.374    0.272
        45  -9.8712    201.2712    225.5990   8.8202996222e+01  -1.0801540305e+00     0.239187    0.1434948  25.49  0.001299284    1.529    0.346
        46  -9.1418    213.4016    224.1825   8.5676422800e+01  -2.6919124192e+00     0.164155    0.1142593 -41.82 0.0009548333    1.725    0.420
        47  -8.7111      6.4573     35.8884   1.0027555878e+02   6.7951390484e+01    0.2541627    0.2261297  85.29  0.001797345    1.772    0.436
        48  -8.9982     11.7912     33.7149   9.6907952441e+01   6.7998480296e+01     0.311484     0.191538 -38.19  0.001326315    1.222    0.182
        49  -9.4063     86.3921     31.8300   6.5541184382e+01   5.8047543649e+01    0.3928644    0.2387454  -9.25  0.001899499    1.854    0.461
        50 -10.1765     91.3428     28.8130   6.2799825107e+01   5.7454460884e+01     0.396264    0.3451492  36.23  0.002412512    1.159    0.137
        51 -10.2553    225.1749     29.0581   3.9497781948e+01   2.6465377898e+01    0.5232209    0.2919664  65.65  0.002742015    1.809    0.447
        52  -8.9132    245.7538    205.9990   7.6537234552e+01  -4.8016919722e+00    0.1667647   0.09183618 -30.41 0.0008954792    1.628    0.386
        53  -8.1496    238.9897    203.0000   7.7148495839e+01  -3.3974203494e+00    0.1944666   0.06708622  38.02 0.0008013175    2.935    0.659
        54 -10.7581    101.0033    176.0011   1.0133273573e+02   2.4882616066e+01     0.196197    0.1870237  89.16            0    1.004    0.004
        55 -10.9113      8.4907    141.1922   1.1975529896e+02   4.3949790823e+01    0.5132813    0.3100862  31.16  0.003031509    1.971    0.493
        56 -12.6810    241.7592    131.9208   6.1721064651e+01   7.4928899753e+00     1.342772     1.259736  14.62  0.005791893    1.197    0.164
        57  -8.9515     40.7083    142.0002   1.1139554778e+02   4.1018439922e+01    0.1978511    0.1549627 -70.02  0.001165294    1.077    0.071
        58  -9.1695     66.4242     29.6896   7.1371481517e+01   6.1977256523e+01    0.2860938    0.1476019 -24.59  0.001370103    1.898    0.473
        59  -8.7991    103.7186     26.0846   5.8276001918e+01   5.5195427626e+01     0.271815    0.2355937  30.19  0.001633131    1.045    0.043
        60  -9.3428     17.9778    127.5011   1.1561706221e+02   4.6567173837e+01    0.1662849    0.1294425  23.03  0.001040062    1.611    0.379
        61 -10.4724     12.9196    125.2672   1.1673968981e+02   4.7471152781e+01    0.3936357      0.16944 -60.79   0.00193287    1.764    0.433
        62  -9.1539     58.8183    124.1960   1.0323444972e+02   4.3399662532e+01    0.1984747    0.1531524 -38.41 0.0006050644    1.324    0.245
        63  -7.8934     22.1603     24.3724   8.8014201221e+01   6.8746237210e+01    0.1527778    0.1035386  29.72 0.0009536243    1.763    0.433
        64  -8.8223      2.3938    116.6055   1.1863328184e+02   5.0207813916e+01     0.213567   0.07567856  38.86  0.000957345    3.293    0.696
        65  -9.1422     21.7453    108.6328   1.1169740480e+02   5.0864040154e+01     0.541912    0.2544626  79.38  0.001786199    5.005    0.800
        66  -9.3102     64.7046     16.3396   6.5949093028e+01   6.3981233616e+01      0.36623    0.1959074  55.50  0.001745919    2.553    0.608
        67  -8.8466     16.7582    103.7663   1.1245707803e+02   5.2393695755e+01    0.3095371    0.2555536 -69.13  0.002011241    1.084    0.077
        68  -9.1211     30.0682    102.3426   1.0791141746e+02   5.1714628034e+01    0.3484418    0.1829318 -43.11  0.001713215    1.764    0.433
        69  -9.4892     46.3968    100.7660   1.0221411581e+02   5.0526421205e+01    0.4293128    0.1882129 -50.66  0.001870598    1.860    0.462
        70  -8.5288     63.8512     98.3908   9.5883449429e+01   4.9001607059e+01    0.2543499    0.1497808 -48.73   0.00119607    1.464    0.317
        71  -8.0548     83.5996     89.8308   8.7093178013e+01   4.8039605566e+01    0.2181012    0.1336408 -56.36 0.0008333168    1.753    0.430
        72 -10.0581    182.7216    245.9730   9.4962183600e+01  -1.2942611197e+00    0.2627445    0.1338727  35.30  0.001406401    1.663    0.399
        73  -9.2217      2.4329     88.0220   1.1454037724e+02   5.6954670555e+01    0.4164055    0.1931389 -69.86  0.002127941    1.735    0.424
        74  -8.8249     43.4934     39.0100   8.4447397773e+01   6.3904052616e+01    0.3118664    0.1692795  41.87  0.001550751    2.420    0.587
        75 -10.0861     25.0971     65.4339   1.0116389590e+02   6.0602579572e+01     0.619946     0.244605 -51.89  0.002271741    1.922    0.480
        76 -11.5021     15.0554     73.4332   1.0711275327e+02   5.9575325035e+01     0.764886    0.6726369  20.37    0.0052707    1.419    0.295
