#   1 NUMBER                 Running object number                                     
#   2 MAG_AUTO               Kron-like elliptical aperture magnitude                    [mag]
#   3 X_IMAGE                Object position along x                                    [pixel]
#   4 Y_IMAGE                Object position along y                                    [pixel]
#   5 X_WORLD                Barycenter position along world x axis                     [deg]
#   6 Y_WORLD                Barycenter position along world y axis                     [deg]
#   7 A_WORLD                Profile RMS along major axis (world units)                 [deg]
#   8 B_WORLD                Profile RMS along minor axis (world units)                 [deg]
#   9 THETA_WORLD            Position angle (CCW/world-x)                               [deg]
#  10 FWHM_WORLD             FWHM assuming a gaussian core                              [deg]
#  11 ELONGATION             A_IMAGE/B_IMAGE                                           
#  12 ELLIPTICITY            1 - B_IMAGE/A_IMAGE                                       
         1 -12.0941     41.5443     29.5777   9.6613519378e+01   6.7941721738e+01    0.7552776    0.4649237   1.42  0.003490724    2.443    0.591
         2 -11.7748     77.2825     21.7127   7.5982924479e+01   6.3389512219e+01    0.7517228    0.4164445 -38.31  0.002784695    1.750    0.429
         3 -11.1670     42.3532     18.0203   9.0755547985e+01   7.0207553170e+01    0.7691495    0.4830403 -28.05  0.003927901    1.681    0.405
         4 -10.1569     37.1690      4.3135   8.5951327170e+01   7.3477865466e+01    0.3967457    0.1493184 -34.89  0.001581081    2.737    0.635
         5 -11.6217     34.7423     12.7128   9.2501556197e+01   7.2258772230e+01    0.4237538    0.3133337 -42.73  0.001572211    1.199    0.166
         6 -11.5138     30.1302      7.1687   9.2370788517e+01   7.3897788184e+01    0.4041496    0.3311439  35.37  0.002044177    1.426    0.299
         7 -10.5876     39.7536     10.6391   8.8232238421e+01   7.1975862545e+01     0.188207    0.1596658 -16.10 0.0004517916    1.087    0.080
         8 -11.2085     40.5777      7.5291   8.5869461955e+01   7.2416332549e+01    0.3147066    0.2161247 -27.14 0.0005655096    1.374    0.272
         9 -10.4627     10.0938      1.9487   1.0472166031e+02   7.6872956349e+01    0.3779172    0.2254636 -34.52  0.002163308    1.508    0.337
        10 -10.7056      4.0519      9.9987   1.1314391336e+02   7.5498077007e+01    0.2132923     0.165963 -34.92 0.0007710332    1.200    0.166
        11 -10.2892      2.4037      6.5181   1.1318238703e+02   7.6335148462e+01    0.3359456    0.1704807 -15.68    0.0017883    2.288    0.563
        12 -10.7711     14.0319     16.0811   1.0805632597e+02   7.3585929807e+01    0.3125125    0.2184947  30.48   0.00121695    1.682    0.405
        13 -10.4661     14.8951      8.8637   1.0432084502e+02   7.5078328708e+01    0.3073442    0.1669935 -33.02 0.0005878229    1.807    0.446
        14 -10.5586     11.2085      6.7967   1.0620438711e+02   7.5783438293e+01    0.3229204    0.2064945  60.27  0.001720173    2.507    0.601
        15 -11.3666    234.5848     15.0129   4.4661976640e+01   2.3913471317e+01    0.2604869    0.2202642 -78.26 5.242235e-05    1.216    0.178
        16 -11.0658     89.1796     13.8349   6.7633298992e+01   6.1949072286e+01    0.5166484    0.3680633 -56.24  0.002134868    1.768    0.434
        17 -11.2621     93.3300      7.7963   6.3164404610e+01   6.1738945536e+01    0.4194664    0.2555323 -19.74 0.0008475363    1.693    0.409
        18 -10.5581     91.7642      2.3892   6.0699996348e+01   6.2743589076e+01    0.5089437    0.2322323  55.34   0.00210725    2.015    0.504
        19  -9.8024    156.1223     14.1060   5.2749744303e+01   4.4300163718e+01    0.2418158    0.1996809  30.96 0.0009819709    1.305    0.234
        20  -9.9963    203.6131     11.8259   4.6353779300e+01   3.1761129236e+01     0.192328    0.1733113  72.12 0.0005127028    1.147    0.128
        21 -11.9448     57.2022      3.9284   7.4551187279e+01   7.0167029095e+01    0.6606985    0.3292316 -25.11  0.002932548    2.090    0.522
        22 -10.5134     22.3086      9.4635   9.9140605906e+01   7.4305571654e+01    0.2916178    0.2259412  -7.01  0.001589333    1.358    0.264
        23 -10.3393     65.4899      6.4668   7.2368737909e+01   6.8171019170e+01    0.3576264    0.2367332  10.08  0.001344402    1.867    0.464
        24  -9.7205     67.0386      1.6114   6.8700471622e+01   6.8506545643e+01    0.1874593    0.1647542  32.80  0.000414691    1.112    0.101
        25  -9.9300     71.0000      7.4996   7.0697509511e+01   6.6882600736e+01     0.262599    0.2060174 -54.13 0.0006826497    1.578    0.366
        26 -10.2379     70.2705      4.6267   6.9267773876e+01   6.7428012268e+01    0.2837485     0.192059  66.23 0.0004882212    1.865    0.464
        27 -10.1023    117.8300     12.0754   5.8959720377e+01   5.4981991837e+01     0.316253    0.1913898  69.77 0.0005423388    1.728    0.421
        28  -9.7573     88.6822      7.4994   6.4417895269e+01   6.2895180771e+01    0.2481899    0.1278825 -26.44 0.0009579675    1.924    0.480
        29  -9.8428     24.3990      3.4839   9.4218915012e+01   7.5265450710e+01    0.3528439   0.08006224 -45.24  0.001237696    3.569    0.720
        30  -9.0649     28.0240      1.1813   9.0092691200e+01   7.5263518465e+01    0.2199631    0.1102037  20.93 0.0003648001    2.546    0.607
        31 -10.1225    235.4991      4.4907   4.1823472339e+01   2.4698153390e+01    0.1310323     0.114268 -45.75 0.0002183375    1.006    0.006
        32  -9.9374    230.7530      4.0023   4.2001974834e+01   2.5842018665e+01    0.1765434    0.1027038 -24.25 0.0005809045    1.585    0.369
        33 -10.1495    194.2910      4.6666   4.5012898560e+01   3.4863266349e+01    0.1539794   0.09337552 -53.75 0.0002848175    1.632    0.387
        34  -9.8377    104.4585      4.4881   5.8452747247e+01   5.9322398153e+01    0.2079771    0.1312745 -32.90 3.111676e-05    1.612    0.379
        35  -9.8727    100.7970      1.9978   5.8080211027e+01   6.0521850776e+01    0.2360957    0.1748296 -66.10  0.001149763    1.689    0.408
        36 -11.2371     16.9408      3.5238   9.9967057252e+01   7.6005883000e+01     0.275492    0.2033729 -56.84  0.001117519    1.324    0.245
        37 -10.9532     20.4825      2.0576   9.6319934301e+01   7.5955564878e+01    0.2462746    0.2094042   3.08   0.00143646    1.226    0.184
        38  -9.4877    173.2491      2.9810   4.6538721445e+01   4.0672261433e+01    0.1829655    0.1227494 -22.13 0.0003848182    1.518    0.341
        39  -9.7640    161.0000      2.9849   4.7947101573e+01   4.4049542613e+01    0.2360263   0.08387511 -19.24 0.0005882132    2.918    0.657
        40 -10.7717    130.2080      3.2362   5.2540393928e+01   5.2567900555e+01    0.2913452    0.1992907  83.79 0.0008772679    1.564    0.361
        41  -9.6510      1.9523      2.7119   1.1206059326e+02   7.7179571316e+01    0.1817212    0.1246889 -26.21  0.001162249    1.421    0.296
        42  -9.5657    112.3126      2.7260   5.5772083716e+01   5.7451870675e+01    0.1452873    0.1098813 -64.04 0.0001583627    1.557    0.358
        43 -11.3419     80.1104      1.7700   6.3951819939e+01   6.5592949525e+01    0.3781874     0.186088  52.49  0.001651953    1.916    0.478
        44  -9.8713    187.1205      1.2832   4.4590299962e+01   3.7068717833e+01    0.1946751    0.1208186 -89.54 0.0008971666    1.663    0.399
        45  -9.2892     48.9469      2.0000   7.7486516824e+01   7.1963796128e+01    0.2059014   0.07355978  45.80 8.738876e-05    2.940    0.660
        46  -9.6035     20.5869    125.3509   1.2378543213e+02   4.7096123221e+01    0.1873793    0.1073873  60.87  0.001048506    1.560    0.359
        47 -10.4352     11.9625    249.9951   1.3072905169e+02   2.4440422960e+01    0.1125535    0.1120927  78.89  0.001132527    1.726    0.421
        48 -12.0913      1.8841    248.2598   1.3233603471e+02   2.5572129499e+01    0.6483335    0.2827221  87.88  0.004759662    2.255    0.557
        49 -12.2380     10.8737    244.3873   1.3078975699e+02   2.5360620747e+01    0.4011049    0.2311191  15.73  0.002641505    2.997    0.666
        50 -12.0538      6.0939    241.4521   1.3152693849e+02   2.6219146038e+01    0.3003131    0.2370429 -75.20  0.002743878    1.751    0.429
        51 -12.0540      4.1214    232.4756   1.3169110402e+02   2.7763790781e+01    0.2717046    0.1241928  56.26 0.0002765477    1.434    0.302
        52 -13.1640      9.7145    228.6041   1.3063888661e+02   2.7888360735e+01    0.6545546    0.3083449  57.11  0.004729013    1.437    0.304
        53  -9.1569    134.4882    124.4705   9.1783141174e+01   3.0781178467e+01    0.1444376    0.1351906  37.76 0.0002706247    1.031    0.030
        54 -11.8347     23.6167    121.3893   1.2258753735e+02   4.7761317160e+01    0.5768452    0.2047053  63.09   0.00229317    3.216    0.689
        55 -10.7718     17.8464    121.9657   1.2432632586e+02   4.8094309088e+01    0.1686574    0.1439384 -74.96            0    1.216    0.177
        56 -10.1883      8.0235    121.2575   1.2712827718e+02   4.8968019330e+01    0.1640182    0.1290857  69.98 0.0004015891    1.067    0.062
        57  -9.3754     96.6424    114.3232   9.9697715759e+01   4.0029404130e+01    0.1537238    0.1063086  72.00 5.154514e-05    1.770    0.435
        58 -10.5764     72.2126    112.9680   1.0669554651e+02   4.4236148396e+01    0.2118127    0.1862805  55.44 0.0003161971    1.102    0.092
        59 -10.8236     65.4492    110.9711   1.0843761258e+02   4.5657940778e+01    0.3409036    0.2085665 -71.40  0.001680253    1.614    0.381
        60  -9.5744     20.2950    112.6643   1.2284599185e+02   5.0075314010e+01    0.1328409   0.07550137  65.10 0.0007028299    1.646    0.392
        61 -11.4181      3.5005    109.1292   1.2777727659e+02   5.2048553960e+01    0.3410822    0.1912481  22.25  0.001513258    2.047    0.511
        62 -11.3178     57.2642    107.9560   1.1052291307e+02   4.7450687310e+01    0.2829481    0.1973929  24.70  0.001163031    1.669    0.401
        63 -10.5192     12.7428    108.4644   1.2485988863e+02   5.1620053760e+01    0.2154706    0.1042314  31.36   0.00113587    2.096    0.523
        64 -10.3313     18.1875    104.6443   1.2280042792e+02   5.2139449671e+01    0.1541245    0.1185787   1.05 0.0009461264    1.738    0.425
        65  -9.4782    187.0204    103.2818   7.5158209696e+01   2.3420614204e+01     0.202068    0.1778719  42.78  0.000572625    1.137    0.121
        66  -9.3143    194.4750     98.5874   7.2578319889e+01   2.2513044140e+01    0.1434277    0.1331551  10.19 0.0001286116    1.019    0.019
        67 -10.3824     61.9851     97.9923   1.0721042172e+02   4.9231508617e+01     0.219192    0.1615291 -35.96   0.00113306    1.668    0.400
        68  -9.8599    100.6756     96.0523   9.4367156479e+01   4.3407551887e+01    0.3279121    0.2309751 -76.16  0.001503092    1.765    0.434
        69 -12.0548     11.1660     90.5644   1.2388610764e+02   5.5994613759e+01     0.897791    0.1819723 -77.22  0.003038269    3.977    0.749
        70 -10.3546      3.4422     95.5069   1.2694451255e+02   5.5252720387e+01      0.20652    0.1678773 -89.08   0.00023189    1.036    0.035
        71 -10.9563     18.4380     94.9672   1.2177282261e+02   5.4447160021e+01     0.239643    0.1464429  48.10 0.0008963881    1.623    0.384
        72  -9.2722     62.9882     93.0279   1.0588521457e+02   5.0291938666e+01    0.1596516    0.1491852  79.73            0    1.045    0.043
        73 -10.4226     42.0401     89.3197   1.1259985389e+02   5.3743004444e+01    0.8205026    0.3841027  73.73  0.002311103    3.535    0.717
        74 -10.8595     57.7935     91.9050   1.0746130745e+02   5.1257379330e+01    0.2611195    0.2212373 -17.51 0.0007679659    1.495    0.331
        75  -9.8393     29.4741     92.0367   1.1753871912e+02   5.4285404500e+01    0.2165968    0.1622803  49.89 0.0006630949    1.353    0.261
        76 -10.4725     25.0149     89.6981   1.1883232433e+02   5.5229070374e+01     0.279082    0.1916997  63.69  0.001292649    1.443    0.307
        77 -11.3993     18.6193     87.8333   1.2092728295e+02   5.6166025832e+01    0.4901808    0.2726582  89.61   0.00215488    1.663    0.399
        78 -10.1798     76.6148     89.1220   1.0036391203e+02   4.9202999016e+01    0.2504024    0.2122273  29.21 0.0007216153    1.303    0.232
        79  -9.8603     64.9537     88.5212   1.0424492868e+02   5.1103285520e+01    0.2299787    0.1725286 -64.27 0.0009000281    1.254    0.202
        80  -9.3196    150.0257     87.9967   7.8901973782e+01   3.4511423264e+01    0.1817102    0.1757755  37.52  0.000394558    1.014    0.014
        81  -9.9030     33.1205     88.2342   1.1567615892e+02   5.4890561120e+01    0.1846572    0.1519989 -64.51 0.0005854922    1.150    0.131
        82  -9.6920    123.7986     87.1629   8.5320711637e+01   4.0613854062e+01    0.2142954    0.1863822   1.47  0.001078146    1.352    0.260
        83 -10.2458    113.8686     85.7092   8.7706383017e+01   4.3043959965e+01    0.2685027    0.2031342 -31.53  0.001274433    1.483    0.326
        84 -11.2095     54.9384     84.8117   1.0703636777e+02   5.3346926196e+01    0.3161684    0.2311999 -79.04 0.0009625839    1.350    0.259
        85  -9.4697     71.9945     85.5098   1.0108752100e+02   5.0782559054e+01    0.2056131    0.1408694  36.71 0.0005096179    1.530    0.346
        86  -8.9052     25.6374     85.2881   1.1801647616e+02   5.6258296953e+01    0.1356984   0.08352696  62.15 0.0007024126    1.693    0.409
        87  -9.1879     43.3377     83.9133   1.1115860941e+02   5.4929898989e+01    0.1971714    0.1011116 -56.47 0.0006787762    1.771    0.435
        88 -10.7573      3.8136     82.5041   1.2583731319e+02   5.8341313246e+01    0.3642685    0.1771932  87.85  0.001481829    1.802    0.445
        89 -10.5811      6.3608     75.5838   1.2423884264e+02   5.9885838093e+01    0.4658604    0.1318675 -51.21  0.001822623    3.439    0.709
        90  -9.9731    100.4159     83.2715   9.1068011577e+01   4.6306263491e+01    0.2580558    0.1796999  64.48 0.0008501983    1.728    0.421
        91 -10.2846     89.5255     80.7219   9.3862713183e+01   4.8942737725e+01    0.2911421    0.2159725 -87.95 0.0003940926    1.734    0.423
        92 -11.1108     64.3484     79.3088   1.0232459649e+02   5.3402002240e+01     0.420603    0.3037387 -72.74  0.001437929    1.403    0.287
        93 -11.1263     78.8795     95.0172   1.0097697025e+02   4.7451109084e+01    0.2437525    0.2057866 -59.09 0.0003144324    1.158    0.136
        94  -9.3650    124.4868     79.0250   8.2755330042e+01   4.2121641705e+01    0.2094793    0.1322933 -66.50  0.000628693    2.302    0.566
        95  -9.3727     85.4284     79.4886   9.4895818045e+01   4.9962635664e+01    0.1451144    0.1389181 -55.65 0.0001174058    1.045    0.043
        96 -11.2808     17.0633     75.8165   1.2003672256e+02   5.9207903282e+01    0.3712063    0.2927797  24.69  0.002351813    1.482    0.325
        97 -10.3120    176.9810     76.9916   6.9993151647e+01   2.9988072698e+01    0.2375484    0.2339437  -9.68  0.001317795    1.028    0.027
        98 -10.7605     28.1485     77.0498   1.1581494086e+02   5.8075436790e+01    0.1882288    0.1751381 -88.44  0.000319843    1.090    0.083
        99  -9.2778    170.4490     76.4717   7.1125772923e+01   3.1659353865e+01    0.1497004    0.1471785 -12.11 0.0008076969    1.020    0.019
       100 -11.1491     55.8189     75.4154   1.0459751778e+02   5.5512422812e+01    0.3668284    0.3112001  11.77  0.001430472    1.408    0.290
       101  -9.3111    160.5601     75.4679   7.2882000573e+01   3.4242310814e+01    0.1517062    0.1482436   7.43 2.186871e-05    1.013    0.012
       102  -9.4580     70.3084     75.3375   9.9110945603e+01   5.3452027279e+01    0.1462079    0.1089616 -26.90  0.000306434    1.681    0.405
       103 -11.8600     34.1831     73.0171   1.1267867982e+02   5.8531026861e+01    0.5811855    0.3609749  27.18  0.003081221    1.805    0.446
       104  -8.8195    224.3356     74.2911   6.1520948482e+01   1.9370750805e+01    0.1423866    0.1007679  19.98 0.0004186449    1.638    0.389
       105  -9.1367    136.5448     74.4515   7.8175128846e+01   4.0230019810e+01    0.1529345    0.1500691  23.81  0.000132132    1.022    0.022
       106 -10.2448     92.4097     72.3707   9.0467435525e+01   5.0274928318e+01    0.4807079    0.2789944 -68.45   0.00184108    2.519    0.603
       107  -9.2861     81.4200     73.2086   9.4502466679e+01   5.2107203937e+01    0.2077682    0.1371027 -64.77 0.0009437522    1.649    0.393
       108  -9.4848    217.0142     72.0744   6.1965699447e+01   2.1287309589e+01    0.1695598    0.1519222 -19.28 0.0004769854    1.030    0.029
       109 -10.1860    106.0819     71.9227   8.5924447033e+01   4.7610464524e+01    0.2560058    0.2127312  47.59 0.0004768797    1.213    0.176
       110  -9.5090     99.8285     70.5729   8.7471701771e+01   4.9195961002e+01    0.1977036    0.1431263  57.84 0.0004226765    1.513    0.339
       111 -10.0357     79.9047     68.8287   9.3742034894e+01   5.3370441296e+01    0.2673718    0.1830103  29.11  0.001257181    1.681    0.405
       112  -9.8516     46.5867     69.4608   1.0684835443e+02   5.8097322651e+01    0.2476754    0.1371211  27.83 0.0009818873    2.031    0.508
       113 -10.3759     10.7498     67.4343   1.2152785973e+02   6.1637159852e+01    0.3428395    0.1920196 -87.64  0.001367197    1.611    0.379
       114 -11.8029      8.6209     61.6887   1.2169447780e+02   6.3147147062e+01    0.5792003    0.2282525 -51.24  0.002472479    2.310    0.567
       115 -11.4685     14.2397     64.1352   1.1957438309e+02   6.2242260333e+01    0.4244238     0.226269  79.67 0.0004021488    2.045    0.511
       116 -13.7644     19.8439     57.5343   1.1594902077e+02   6.3491649686e+01    0.5085264    0.2789016 -72.11  0.001221799    1.557    0.358
       117 -10.4487     34.9711     64.7627   1.1066286131e+02   6.0476780792e+01    0.5776887    0.3187256 -42.25  0.002782827    1.945    0.486
       118 -10.9280     39.1701     62.6402   1.0835657711e+02   6.0571310804e+01    0.6554048    0.2233283 -43.64   0.00227522    3.551    0.718
       119 -10.8098     75.7547     64.8635   9.4049196350e+01   5.4988658185e+01    0.2796606    0.2019895  42.53 0.0002966198    1.448    0.309
       120 -10.9122     64.5833     61.5316   9.7354920627e+01   5.7561760588e+01     0.471794    0.3223876  16.89  0.002187358    1.911    0.477
       121  -9.8570    100.6933     61.5941   8.4232198599e+01   5.0909429094e+01      0.25378    0.1817649 -64.51 0.0006496527    1.681    0.405
       122  -9.7291     54.5437     61.1780   1.0137902679e+02   5.9086617017e+01    0.3278936    0.1889786   8.57  0.001319922    2.977    0.664
       123 -10.6395     83.5017     56.8412   8.8508306017e+01   5.5366781673e+01      0.28247    0.2096494 -61.53 0.0009723122    1.464    0.317
       124 -11.8801     88.0838     53.3333   8.5587852041e+01   5.5216383558e+01    0.5562431    0.4963049   0.01  0.001618454    1.241    0.194
       125  -9.2122     48.4572     58.4083   1.0319734322e+02   6.0527567310e+01    0.1348058    0.1238351 -63.96 0.0001593452    1.024    0.023
       126 -10.3145     33.7591     54.8159   1.0887552604e+02   6.3003301532e+01    0.4930898    0.1294424 -54.02  0.001790661    2.950    0.661
       127 -13.5977      6.2128     50.5565   1.2123137746e+02   6.5956144887e+01    0.5345871    0.3565038 -34.89  0.001085897    1.630    0.387
       128 -11.4892     18.1044     32.7153   1.1104126089e+02   6.9536996946e+01    0.8314533    0.3506758 -17.76  0.003009639    4.524    0.779
       129 -10.6192     25.9397     29.5674   1.0543784494e+02   6.9634157181e+01    0.2424543    0.1671477 -70.71 0.0003557921    1.471    0.320
       130 -11.0264     18.4865     44.7173   1.1393949786e+02   6.6678984295e+01    0.4889502    0.3354931  43.14  0.001829231    1.678    0.404
       131 -10.6677     13.1366     41.1619   1.1596199321e+02   6.7861696342e+01    0.3398894    0.1893315 -70.28  0.001197101    1.503    0.335
       132 -10.6614     22.7703     38.5635   1.1008580671e+02   6.7825764889e+01    0.2213753    0.1849516  64.59 0.0005907735    1.394    0.283
       133 -11.6094     26.7232     35.6671   1.0704063637e+02   6.8171179895e+01    0.4676999    0.2345413 -47.09  0.002294844    1.752    0.429
       134  -9.4111    157.9452     56.4602   6.7457751511e+01   3.8064370898e+01    0.2105258    0.1372973 -87.67 0.0007966598    2.345    0.574
       135  -9.6319    225.6363     54.5405   5.6143436200e+01   2.1587648562e+01    0.2788185    0.1255753 -10.02 0.0009533019    3.385    0.705
       136 -11.2822    114.6279     53.8254   7.7178036079e+01   4.9327145858e+01    0.3380257    0.3262461 -23.92 0.0007482694    1.036    0.035
       137  -9.8365     96.8276     55.1880   8.3240694806e+01   5.3039133929e+01    0.2034183    0.1772571   0.48 0.0003763516    1.307    0.235
       138 -12.3933     66.0178     52.7106   9.3889081475e+01   5.9341160661e+01    0.5554353    0.2692124  34.52  0.001362796    2.279    0.561
       139 -11.0500     77.1935     47.4909   8.7466414941e+01   5.8531397149e+01    0.5600331    0.3692527 -12.44  0.002333464    2.415    0.586
       140  -9.1484    205.6056     53.5185   5.8454265177e+01   2.6424702996e+01    0.1449177    0.1319899 -36.04 0.0001251144    1.048    0.046
       141  -9.9355    105.9397     53.1307   7.9539667418e+01   5.1457393304e+01    0.2322249    0.2064812  82.66 0.0006634221    1.271    0.213
       142  -9.4117    231.5246     51.5421   5.4658178185e+01   2.0625457250e+01      0.13629    0.1232551 -24.54 0.0001447305    1.016    0.016
       143  -9.2858     54.3795     55.4811   9.9748317156e+01   6.0443630046e+01    0.1385805    0.1237537 -60.32 9.336138e-05    1.045    0.043
       144  -9.6685     47.3117     50.0210   1.0119995525e+02   6.2638795003e+01    0.1890201    0.1642002 -58.69  0.001112499    1.056    0.053
       145  -9.6114     57.6177     47.0032   9.5490247093e+01   6.1914235276e+01    0.3698963    0.2140868 -74.51  0.001033077    2.803    0.643
       146  -9.4818     53.5914     48.1865   9.7717050462e+01   6.2227772228e+01    0.2024495    0.1155882 -45.18 0.0009395109    1.642    0.391
       147  -9.4832    154.5906     47.5736   6.5148425620e+01   4.0326208972e+01    0.1509346    0.1489439  14.42 6.436566e-05    1.021    0.020
       148  -9.0629    135.4871     46.4353   6.8942752506e+01   4.5478514017e+01     0.153055    0.1509375  85.25 7.841551e-05    1.031    0.030
       149  -9.8560    104.4827     46.4801   7.7464513731e+01   5.3049295267e+01    0.1500536    0.1474661 -13.28 0.0008101044    1.000    0.000
       150 -11.1936     27.5008     43.6459   1.0899618523e+02   6.6238916856e+01     0.428628    0.3074869  39.74  0.002304084    1.590    0.371
       151 -10.8921      4.1082     41.6053   1.2087389655e+02   6.8191138013e+01    0.4415363     0.220515 -49.12  0.002357761    1.770    0.435
       152 -10.5180    181.1694     40.9980   5.8237716767e+01   3.4258934811e+01    0.3540051    0.3018787 -57.86  0.001139533    1.209    0.173
       153  -9.3611    159.7500     41.9884   6.2213152523e+01   3.9789894860e+01    0.2036599    0.1310158 -28.25 0.0006357094    1.559    0.359
       154 -10.0857     70.0187     41.8932   8.8165035018e+01   6.0997185587e+01    0.2694142    0.2116215 -32.03 0.0009620187    1.269    0.212
       155 -10.3837     35.1064     41.5125   1.0443254633e+02   6.6013271946e+01    0.3286166    0.2109145   6.48  0.001677427    2.023    0.506
       156  -9.0770    187.6139     41.7485   5.7504240898e+01   3.2482884546e+01    0.1557428    0.1065205  35.80 0.0003179721    1.667    0.400
       157 -10.7797    139.5692     40.6210   6.5849464846e+01   4.5338247593e+01    0.3651624     0.251555  79.27  0.001106644    1.762    0.433
       158  -9.7895     51.3574     39.8493   9.5739422434e+01   6.4401490053e+01    0.2089265    0.1607723 -63.92 0.0007481991    1.356    0.263
       159  -9.5067     42.8139     40.6357   1.0022161016e+02   6.5345205823e+01    0.1680054    0.1232605  42.40 0.0003927185    1.544    0.352
       160 -12.0686    121.6875     37.5041   6.8954088295e+01   5.0445549343e+01    0.4979892    0.4280864  60.87  0.001397139    1.180    0.152
       161 -10.0817    131.4666     38.5598   6.6934895587e+01   4.7771176886e+01    0.2827343    0.2381017  44.35  6.05671e-05    1.185    0.156
       162  -9.7270    127.9839     38.7584   6.7855668849e+01   4.8639757620e+01    0.2208187    0.1951158  59.90 0.0004719288    1.135    0.119
       163 -11.0111      3.8664     34.9828   1.1981738638e+02   6.9772990627e+01    0.3608336    0.2383735 -35.69  0.001715916    1.544    0.352
       164 -10.1634     38.6208     35.5373   1.0053583549e+02   6.6988959699e+01    0.2201032    0.1592245  20.39 0.0001463768    1.572    0.364
       165 -11.4516     18.0176    248.9784   1.2971006142e+02   2.4038390143e+01    0.2026925    0.1425217  18.30  0.001609109    2.095    0.523
       166  -9.4814     96.8627     33.7692   7.4647247718e+01   5.7067896655e+01    0.4357837   0.08090665 -39.47 0.0009625853    4.942    0.798
       167 -10.4415    134.2732     34.1798   6.4581749995e+01   4.7698130199e+01    0.2401872    0.1934899  44.30 0.0003731751    1.243    0.195
       168  -9.0452     50.2576     33.6085   9.3781019756e+01   6.5905658713e+01    0.1344333    0.1051621 -80.75 0.0006966406    1.692    0.409
       169  -9.7518    205.5045     30.9996   5.1889993483e+01   2.9229239592e+01    0.2249655   0.08780055 -45.28  0.000810591    2.576    0.612
       170 -10.4316    166.3173     31.0148   5.7257109167e+01   3.9514645258e+01    0.2350907    0.2157552  81.77 0.0004088485    1.098    0.089
       171  -8.9373    145.2454     33.0060   6.1790551462e+01   4.4943217326e+01    0.1868772    0.1308706 -27.44 0.0008406918    1.446    0.309
       172  -9.0856    126.2997     31.3154   6.5297079672e+01   5.0209824062e+01    0.1587625    0.1158908  23.86 0.0003284115    1.612    0.380
       173 -10.6844      7.8795     28.5081   1.1602029027e+02   7.1118809903e+01     0.301635    0.2144808  55.49  0.001538327    1.707    0.414
       174  -9.4324     70.0360     28.7123   8.2390831744e+01   6.3595433530e+01    0.1926992    0.1826237   6.06 0.0005729918    1.058    0.055
       175  -9.7961    229.5075    247.9977   9.3865703327e+01  -1.5037105752e+00    0.1220314   0.08609451 -11.05 0.0006936293    1.524    0.344
       176 -10.2255    114.0752     24.9632   6.5676389346e+01   5.4283927924e+01    0.3309577    0.2603323  41.31  0.001172165    1.268    0.211
       177  -9.3006     18.3427     26.2904   1.0889445473e+02   7.0996582610e+01    0.1330255   0.07923268 -36.07 0.0007025277    1.652    0.395
       178  -9.6998    153.7339     25.5976   5.7427141099e+01   4.3620359470e+01    0.2110851    0.1460784  81.98 0.0009390218    1.598    0.374
       179 -10.3450     59.0221     24.1714   8.5162591947e+01   6.6429041560e+01    0.2724473    0.2188513  22.82  0.001253655    1.324    0.244
       180 -10.5234      1.8761     21.9749   1.1823765568e+02   7.2881798459e+01    0.2721351     0.143898 -72.46 0.0007725912    1.577    0.366
       181 -11.4927     30.6318     21.1858   9.9266034287e+01   7.1012701642e+01    0.2639318    0.2008189 -48.61 0.0004886528    1.144    0.126
       182 -10.9490     14.3262     21.3547   1.0978916735e+02   7.2392576161e+01    0.3044005    0.2164083  40.80  0.001841879    1.710    0.415
       183  -9.6761     84.7245     21.3778   7.3019746744e+01   6.1845079204e+01    0.1989765    0.1295565  40.52 0.0004145946    1.562    0.360
       184  -9.5068    224.9566    246.5388   9.4374131257e+01  -8.2529613375e-01    0.1451007   0.05949423  22.71 0.0008062465    2.350    0.575
       185  -9.3690    187.3320    246.3040   1.0032750683e+02   4.0057062038e+00    0.1067496   0.06209477  18.21 0.0003516096    1.658    0.397
       186  -9.7588     36.4127     18.2850   9.4375916686e+01   7.0942287288e+01     0.358821      0.16837 -44.13  0.001486926    1.871    0.466
       187  -9.7193    202.4143    240.6791   9.7190552501e+01   2.5734187813e+00    0.1242789   0.08646549  -3.52 0.0007438771    1.536    0.349
       188  -9.7918     60.6268    240.8923   1.2206455580e+02   2.0886293074e+01    0.2438626   0.08591089  33.05  0.001285758    2.407    0.585
       189  -9.8781     50.0123    241.1978   1.2396198932e+02   2.2001486441e+01    0.1503305   0.07872012  63.56  0.001049818    1.633    0.388
       190  -9.8554    148.5231    239.0061   1.0613847202e+02   1.0021782097e+01    0.1275472    0.1096065 -41.83  0.001039674    1.613    0.380
       191  -9.9094     99.9690     18.7998   6.6766283960e+01   5.8678879260e+01    0.2939254    0.1803267 -54.98  0.001231983    2.131    0.531
       192  -9.4286    199.5496     17.4695   4.8466201991e+01   3.2233858958e+01    0.1426274    0.1321268 -53.08 0.0001519709    1.015    0.015
       193 -11.2769    108.5349     16.2777   6.3174481480e+01   5.6882417681e+01     0.242154    0.2337577  33.04 0.0002774071    1.014    0.014
       194  -9.5568    146.9940     26.4537   5.8967989571e+01   4.5349162450e+01     0.218269    0.1481752  64.66 -4.769183e-06    1.452    0.311
       195  -9.9144     26.8483     16.9135   9.9712901722e+01   7.2311967769e+01    0.1756427      0.15035  77.63 0.0006411099    1.563    0.360
       196 -11.2596     14.2003    238.8043   1.3010290503e+02   2.5901674111e+01    0.1694848    0.1048183  55.74 0.0004267185    1.068    0.063
       197 -12.4885     25.6733    235.8130   1.2803607575e+02   2.5290369157e+01    0.3887701    0.2552959  32.70  0.002797166    1.534    0.348
       198  -9.3823     91.4737    237.0173   1.1624747683e+02   1.7800423050e+01    0.1227079   0.08586685 -31.82 0.0008100002    2.587    0.613
       199  -9.4736     20.1220     16.8355   1.0415856995e+02   7.2955281292e+01    0.2171546    0.1627575  31.46 0.0007880707    1.556    0.357
       200  -9.2446    210.6064    236.1766   9.5298195278e+01   1.9257358510e+00    0.1297607   0.08430621  -5.09 0.0005394998    1.651    0.394
       201  -9.9065    249.1362    234.0081   8.9074268575e+01  -2.7521967240e+00    0.1537815    0.1015637  17.47 0.0004924823    1.010    0.010
       202  -9.0882    209.5286    229.5210   9.4596886440e+01   2.7087091007e+00    0.1090555   0.07718723  23.73 0.0001833397    1.012    0.011
       203 -10.7709    140.3584    228.1800   1.0646182566e+02   1.2508250240e+01    0.2286603     0.187081 -56.25  0.001572448    1.684    0.406
       204  -9.9931     33.9323    225.3896   1.2618021843e+02   2.6121201574e+01    0.2107684   0.04995021  40.37  0.001088657    2.450    0.592
       205 -11.6899      8.4286    218.1061   1.3062282070e+02   2.9704584869e+01    0.2556368    0.1816348  19.90  0.001970181    1.902    0.474
       206 -10.2931     20.1946    209.8256   1.2818145599e+02   3.0048094363e+01     0.167707   0.09553505  56.20 0.0006992794    1.246    0.197
       207  -9.7734     49.1474     15.9330   8.5870715025e+01   6.9589729870e+01    0.1917025    0.1775765 -50.13 0.0004924536    1.225    0.183
       208 -10.0263    175.8176     14.9156   5.0341987324e+01   3.8804776676e+01    0.2139485    0.1949596  30.34 0.0002673461    1.181    0.153
       209  -9.2155     64.3181     15.3388   7.8050957325e+01   6.7036147353e+01    0.1451699    0.1035249   3.33 0.0007049153    1.707    0.414
       210 -10.2350    190.5004     13.7327   4.8253485256e+01   3.4985634282e+01    0.2537525    0.1955653  75.03 0.0006694237    1.298    0.230
       211 -10.0699      2.9728    205.6743   1.3135049677e+02   3.2277161653e+01    0.1361935   0.08013847  -2.37 0.0007047339    4.445    0.775
       212  -9.5424    162.2485     13.3584   5.1585615397e+01   4.2687484602e+01    0.1993884    0.1384682  83.73 0.0003816237    1.502    0.334
       213  -9.4499     94.9896     13.4904   6.5626448183e+01   6.0613844235e+01    0.2071901    0.1408634  55.82 -3.505886e-05    1.458    0.314
       214  -9.1516    196.7197    204.3132   9.3203339669e+01   7.2277381997e+00    0.1006152   0.08556136  50.10 0.0004156154    1.569    0.363
       215 -11.0348      9.6337    203.6373   1.3002421631e+02   3.2071730336e+01    0.1964977   0.09922387  38.97  0.000796514    1.570    0.363
       216 -10.0260     23.0787    197.3654   1.2714901391e+02   3.1981568281e+01    0.1606375    0.1279885  83.85 0.0004860031    1.271    0.213
       217  -9.5510    140.0421     26.7804   6.0448159736e+01   4.7190940567e+01    0.2055717    0.1239972  64.25 0.0006037675    1.646    0.393
       218 -10.8196     14.0009    192.9277   1.2882893402e+02   3.3617994398e+01    0.1654347     0.111921  59.46 0.0005205541    1.065    0.061
       219  -9.1906     19.2998    192.6332   1.2773385569e+02   3.3197918528e+01    0.1204478   0.05336775  59.48  0.000154152    1.732    0.423
       220 -10.6658      6.5260    191.5331   1.3030304733e+02   3.4511724539e+01    0.1934988     0.135067  61.48  0.001483999    1.018    0.018
       221 -10.0838     15.5945    185.9607   1.2825118187e+02   3.4776818705e+01    0.2864555   0.06707218  82.32 0.0009515108    6.256    0.840
       222  -9.2926     22.6572    179.7119   1.2647558192e+02   3.5337568834e+01   0.09407505   0.08458386 -40.77 0.0002509909    1.647    0.393
       223 -10.9665      5.4686    167.6276   1.2980369219e+02   3.9186758235e+01     0.269476    0.1349143  76.41  0.001332068    1.643    0.391
       224  -9.4485    226.5946    164.1484   8.1327863309e+01   7.2969720628e+00    0.1649441    0.1022853 -11.37  0.000521285    1.637    0.389
       225  -8.9683     41.3116    157.7006   1.2077672155e+02   3.7964330242e+01    0.1291688   0.07121322  60.76 0.0003119575    1.603    0.376
       226  -9.8597    247.4818    155.4906   7.6398654167e+01   4.9533920730e+00    0.1219928   0.09463751   6.08 0.0001052341    1.018    0.018
       227 -10.8246      3.2830    153.8788   1.2984200605e+02   4.2159825054e+01    0.2037119    0.1202171  47.55  0.001331682    1.406    0.289
       228 -10.6339     23.7795    150.8602   1.2466867413e+02   4.1142451583e+01    0.1757137     0.157095  34.46 0.0005031064    1.341    0.254
       229  -9.5391    248.3346    144.3163   7.4079750622e+01   6.0649492222e+00    0.1296514   0.07882112  11.44 0.0005625554    1.692    0.409
       230 -10.3179     22.7017    142.9799   1.2444389240e+02   4.2950949134e+01    0.1723126    0.1277735  85.35 0.0007066752    1.153    0.133
       231  -9.3793    236.3296    139.3286   7.4884619797e+01   8.6503852122e+00    0.1345776    0.0839477  11.38 0.0006229648    1.710    0.415
       232 -10.7938     12.0551    141.3829   1.2712220421e+02   4.4174067029e+01    0.2094887    0.1363822  82.43 0.0005922554    1.271    0.213
       233 -10.7506      8.9557    135.6331   1.2764243696e+02   4.5669438531e+01    0.2133883    0.1349021  80.02   0.00031404    1.296    0.229
       234 -10.4505    213.6593    134.5195   7.7578619684e+01   1.3339760756e+01    0.3947844    0.2376456  65.15  0.001715166    2.992    0.666
       235 -10.5247      2.6999    133.0309   1.2918583812e+02   4.6676252018e+01    0.2997094    0.1313861  53.50  0.001637305    1.892    0.471
       236 -10.0127     35.1899    130.5137   1.2005567657e+02   4.4596703629e+01    0.2090206    0.1466228 -71.52 0.0005971685    1.364    0.267
       237 -11.1136     11.9707    129.6523   1.2650079248e+02   4.6784597112e+01    0.3490036    0.1565632  55.43  0.001833983    1.937    0.484
       238 -10.1647     29.0028    128.7347   1.2165233068e+02   4.5591532394e+01    0.3065701    0.1476417  86.81  0.001024146    2.044    0.511
       239 -10.6123    248.0006    129.2596   7.1035208185e+01   7.8532268718e+00    0.1565008    0.1014874  41.73 0.0009002924    1.588    0.370
