#   1 NUMBER                 Running object number                                     
#   2 MAG_AUTO               Kron-like elliptical aperture magnitude                    [mag]
#   3 X_IMAGE                Object position along x                                    [pixel]
#   4 Y_IMAGE                Object position along y                                    [pixel]
#   5 X_WORLD                Barycenter position along world x axis                     [deg]
#   6 Y_WORLD                Barycenter position along world y axis                     [deg]
#   7 A_WORLD                Profile RMS along major axis (world units)                 [deg]
#   8 B_WORLD                Profile RMS along minor axis (world units)                 [deg]
#   9 THETA_WORLD            Position angle (CCW/world-x)                               [deg]
#  10 FWHM_WORLD             FWHM assuming a gaussian core                              [deg]
#  11 ELONGATION             A_IMAGE/B_IMAGE                                           
#  12 ELLIPTICITY            1 - B_IMAGE/A_IMAGE                                       
         1 -19.1488    221.9267     84.8405   5.4159397264e+01   1.8679641786e+01     7.758627     5.815392 -44.25   0.04098999    1.215    0.177
         2  -9.8954    198.3217      7.0096   3.7473296616e+01   3.4776108132e+01    0.2458657    0.1664806  89.86 0.0005743524    1.370    0.270
         3  -9.2786    101.0605    175.9212   1.0190068106e+02   2.4881809032e+01    0.2005337    0.1708348  73.49  0.001107221    1.172    0.147
         4 -13.9623    239.4443    244.2815   8.4414817633e+01  -9.7078290994e+00     1.932306    0.8820322  27.13   0.01049014    1.931    0.482
         5 -10.0687    123.9983    206.0399   1.0123880217e+02   1.4565126088e+01     0.195244    0.1733871  49.71            0    1.019    0.018
         6 -10.3833    136.0179    121.3226   8.1494365058e+01   3.1060732204e+01    0.2805994    0.2236643 -73.22 0.0007049526    1.522    0.343
         7  -9.0746    132.2782    120.6514   8.2301390347e+01   3.1996345604e+01    0.1584019    0.1253071 -82.82 0.0003800506    1.639    0.390
         8 -11.2531    140.2589    117.5700   7.9435823891e+01   3.0991092434e+01    0.3014598    0.2128559 -45.04 0.0007368836    1.390    0.281
         9  -9.8284    134.5575    116.2946   8.0579658085e+01   3.2493625067e+01    0.2956192    0.1516585 -49.16 0.0009405559    1.966    0.491
        10 -10.4960    138.8784    144.0898   8.6224617548e+01   2.5325641033e+01    0.3670056    0.2206182 -59.57  0.001031612    1.942    0.485
        11 -10.6242    162.5894    150.2610   8.1907735673e+01   1.9132331923e+01    0.3520027     0.246981 -70.18  0.001065802    2.033    0.508
        12 -11.3902    148.4109    143.5821   8.3754668267e+01   2.3498817363e+01    0.3869925    0.3223926  80.21  0.001559286    1.482    0.325
        13 -11.3496    143.5112    137.9987   8.3665326019e+01   2.5751526370e+01    0.5186265    0.3234577 -72.37  0.001895023    2.684    0.627
        14 -11.1407    133.9321    109.2993   7.8885778396e+01   3.4173426024e+01    0.4207852    0.2249847 -55.59  0.001381754    2.215    0.549
        15 -10.9148    159.5351    142.3402   8.0806022959e+01   2.1458147785e+01    0.3111259    0.2166857 -61.87  0.001041279    1.755    0.430
        16 -10.3503    127.4600    108.7838   8.0475612192e+01   3.5665115025e+01    0.3008446    0.1510735 -49.44 0.0007464065    2.018    0.504
        17 -11.3410    141.9187    105.0743   7.5664312675e+01   3.3336144433e+01    0.3861616    0.2146544 -52.14  0.001156701    1.973    0.493
        18 -10.5369    146.8513    154.9155   8.6653169323e+01   2.1312400064e+01    0.2803997    0.2083856 -52.95 0.0008205043    1.396    0.283
        19  -9.6785    121.2282     99.7964   7.9705934543e+01   3.8949329232e+01    0.2895854    0.1903729 -47.56   0.00126409    1.503    0.335
        20 -11.1102    172.4591    155.4659   8.0827938937e+01   1.6030832513e+01    0.2467101    0.2053281 -89.15 0.0006229445    1.618    0.382
        21 -10.5105    138.3687    137.2743   8.4786420380e+01   2.6971592779e+01    0.4637924    0.1866302 -53.79  0.001503637    2.859    0.650
        22 -10.1675    151.7291    152.6170   8.4983326210e+01   2.0838252979e+01    0.2560619    0.1883911 -68.42  0.000668763    1.719    0.418
        23 -11.2097    143.1596     90.8344   7.1306431139e+01   3.5996719399e+01    0.4364005      0.24299 -47.25  0.001145651    1.853    0.460
        24 -10.8101    134.1684     97.3031   7.5483618057e+01   3.6698580282e+01    0.3106149    0.2271958 -47.73 0.0009531286    1.373    0.272
        25  -9.9107    129.5260     87.9441   7.3974692874e+01   3.9660054140e+01      0.24289    0.1507453 -42.05  0.001028599    1.587    0.370
        26 -10.7335    156.1782    136.5985   8.0245778046e+01   2.3405441237e+01    0.3175532     0.238814 -70.34 0.0008487415    1.715    0.417
        27 -11.5005    143.1851     81.5855   6.8552140183e+01   3.7797247449e+01    0.3888502    0.2832298 -41.89  0.001628861    1.368    0.269
        28 -11.5525    149.9106    136.8668   8.1821165483e+01   2.4669608917e+01    0.5294746    0.3531026 -89.79  0.001908284    2.933    0.659
        29 -10.6514    153.0374    130.5007   7.9523411227e+01   2.5400973871e+01    0.3852892    0.2243274 -45.06 0.0009416491    1.695    0.410
        30 -10.1349    146.2594    131.4574   8.1418068251e+01   2.6634557901e+01    0.2994768    0.2158511 -44.96  0.001059622    1.369    0.269
        31 -11.2154    139.9887     73.2531   6.6778417377e+01   4.0097640850e+01    0.3351617    0.2039705 -45.47 0.0008388949    1.705    0.413
        32 -10.6897    133.8446     69.8927   6.7249436535e+01   4.2140305248e+01    0.2759666    0.2053971 -44.24 0.0008352621    1.380    0.276
        33 -11.6967    146.0416     67.5764   6.3560422135e+01   3.9664724904e+01    0.4325912    0.2173989 -40.89  0.001201802    1.998    0.500
        34 -10.0929    136.6154    131.2635   8.3804356071e+01   2.8693627984e+01    0.2736008    0.1963812 -55.99 0.0009456136    1.462    0.316
        35 -11.2225    136.9182    126.6855   8.2607444603e+01   2.9665774057e+01    0.4097624    0.2260659 -45.50 0.0009028747    1.781    0.438
        36 -10.9098    133.4956    148.9990   8.8663563575e+01   2.5278634642e+01    0.3359055     0.218016 -67.49  0.001252018    1.975    0.494
        37 -10.4024    143.2921    149.0060   8.6228679171e+01   2.3333928035e+01    0.2224957    0.1947401 -50.69 0.0007819803    1.153    0.133
        38 -10.5642    158.5072    154.9350   8.3893495162e+01   1.8968992981e+01    0.2606355    0.2119495 -87.54 0.0008898598    1.634    0.388
        39 -10.9035    164.5380    144.8103   8.0215284339e+01   1.9884455450e+01    0.2944959    0.2463743  83.36 0.0009130056    1.532    0.347
