#   1 NUMBER                 Running object number                                     
#   2 MAG_AUTO               Kron-like elliptical aperture magnitude                    [mag]
#   3 X_IMAGE                Object position along x                                    [pixel]
#   4 Y_IMAGE                Object position along y                                    [pixel]
#   5 X_WORLD                Barycenter position along world x axis                     [deg]
#   6 Y_WORLD                Barycenter position along world y axis                     [deg]
#   7 A_WORLD                Profile RMS along major axis (world units)                 [deg]
#   8 B_WORLD                Profile RMS along minor axis (world units)                 [deg]
#   9 THETA_WORLD            Position angle (CCW/world-x)                               [deg]
#  10 FWHM_WORLD             FWHM assuming a gaussian core                              [deg]
#  11 ELONGATION             A_IMAGE/B_IMAGE                                           
#  12 ELLIPTICITY            1 - B_IMAGE/A_IMAGE                                       
         1 -18.2588    215.5431    107.7628   9.2680613980e+01   1.6963978709e+01     7.027282     4.745883 -52.79   0.03453219    1.980    0.495
         2 -15.6621    177.8926    100.0176   9.7605473506e+01   2.6225135102e+01     2.303425     1.081613 -33.03  0.009193946    2.168    0.539
         3 -17.1784    136.8891     69.2690   9.7942200146e+01   4.1048913237e+01     3.393809     3.019608   9.32   0.01776317    1.203    0.169
         4 -16.6155    142.8525     87.8444   1.0202472864e+02   3.6252911995e+01      4.12213     1.751905  37.91   0.01408066    2.843    0.648
         5 -14.0796     84.4149     21.4181   9.4785049287e+01   6.1057635921e+01     0.925392    0.5930973  29.88  0.004401121    1.731    0.422
         6 -15.3465    102.1868      6.3496   8.2135142013e+01   5.8979298664e+01      2.09302    0.9030771  58.31  0.007657311    2.185    0.542
         7 -11.0055      1.4983    249.6413   1.5351257577e+02   2.5493074180e+01   0.09496201   0.07116666  78.28  0.000892202    1.345    0.256
         8 -14.6227    246.5897    241.1217   1.1213701894e+02  -3.1146328722e+00     1.154241    0.5452588 -18.51  0.007679807    2.294    0.564
         9 -11.3282    100.1004    250.8036   1.3727246010e+02   1.4974003923e+01    0.3196291   0.07042547  34.35  0.001235621    4.439    0.775
        10 -19.5414     56.1498    152.2569   1.3748608539e+02   3.7423605367e+01     17.87693     1.974743 -68.37   0.04321737    9.208    0.891
        11  -9.4411     97.5644    247.4385   1.3745628248e+02   1.5735315089e+01    0.1036371    0.0741898  45.18 7.258145e-05    1.016    0.016
        12 -12.7373     19.1129    243.6251   1.5054965157e+02   2.4820953932e+01    0.2619996    0.1907982  31.77  0.001954976    1.582    0.368
        13 -11.5043     89.3254    243.8293   1.3862066323e+02   1.7240030842e+01    0.1568887    0.1001337  50.11  0.001165647    1.171    0.146
        14 -10.5983     18.4698    236.6819   1.5043890615e+02   2.5927238654e+01    0.1007608   0.07935224  87.47  0.000895989    1.407    0.289
        15 -13.8312    124.9245    227.9112   1.3087031212e+02   1.4840462903e+01    0.4904967    0.3997868  57.38  0.002452857    1.248    0.199
        16 -12.1992     93.5795    228.2060   1.3665480190e+02   1.8962381504e+01    0.2415554    0.1776167  64.18  0.001070093    1.303    0.233
        17 -10.6646     98.7950    226.2196   1.3552394330e+02   1.8587121791e+01     0.527108    0.3220949  24.90  0.003301295    1.901    0.474
        18 -12.0732     33.5656    222.9882   1.4729602393e+02   2.6640189352e+01     0.239278    0.1763055  35.69  0.001908803    1.419    0.295
        19 -10.7408     15.0136    220.4914   1.5050568361e+02   2.8803422250e+01    0.1389946   0.07860046  37.15  0.001013215    1.550    0.355
        20 -14.0839    120.6113    202.6404   1.2893763267e+02   1.9199876819e+01     1.140195    0.8040607  48.83  0.005555606    1.206    0.171
        21 -13.7031    117.4480    192.6442   1.2837405431e+02   2.1289095015e+01     0.611906    0.3815031  47.28  0.002043291    1.361    0.265
        22 -13.7310    130.7645    193.3739   1.2575191917e+02   1.9149674902e+01    0.7605647    0.4853171  89.97  0.003805587    2.956    0.662
        23 -15.2563    141.3375    189.5244   1.2309361977e+02   1.8107553269e+01     1.683248    0.6628681  41.44  0.007636569    2.096    0.523
        24 -10.7381    137.4061    212.9562   1.2690063757e+02   1.5179819651e+01    0.1453961    0.1151941 -53.08 0.0007924759    1.617    0.381
        25 -10.6916    105.5507    207.6899   1.3247425608e+02   2.0543200578e+01    0.1962653    0.1260394  33.80  0.001230433    1.407    0.289
        26 -12.1048     31.7110    205.4685   1.4680951754e+02   2.9769255488e+01    0.3551952     0.204624 -57.20  0.002334044    2.325    0.570
        27 -12.0541     10.8731    206.1508   1.5077159327e+02   3.1579189572e+01    0.3164093    0.2052778  23.27   0.00222465    1.939    0.484
        28 -10.9038     83.4980    205.4953   1.3663392947e+02   2.3857025629e+01    0.1424927    0.1044724 -55.55 0.0005456044    1.723    0.420
        29 -12.0946    105.5100    200.2502   1.3169234281e+02   2.1760131787e+01    0.3182943     0.216049 -61.24  0.001890703    1.764    0.433
        30 -11.0954     41.5054    194.0490   1.4423288182e+02   3.0808815444e+01     0.159544     0.118801  52.29 0.0003904473    1.101    0.091
        31 -11.0130     84.5083    178.3806   1.3372079178e+02   2.8556769444e+01    0.2219269    0.1723742  40.81  0.001103191    1.189    0.159
        32 -10.5124     97.5491    176.6156   1.3063271191e+02   2.7051494343e+01    0.2797213   0.09764808 -50.41   0.00116366    3.441    0.709
        33 -10.8269     99.5101    171.9447   1.2960503041e+02   2.7637123712e+01    0.2394848    0.1130241 -52.03  0.001135182    2.416    0.586
        34 -14.1288     76.1408    168.9937   1.3455949936e+02   3.1490003979e+01    0.5248718    0.4372543 -55.17  0.002085744    1.421    0.296
        35 -12.3361     94.1194    165.9160   1.3004399761e+02   2.9584547992e+01    0.5206687    0.2572958  33.74  0.001837343    1.990    0.497
        36 -14.2189     86.0097    161.2026   1.3132236528e+02   3.1684206657e+01    0.7353544    0.4982548 -62.19  0.002893648    1.575    0.365
        37 -11.7725    181.4895    164.0055   1.1094042606e+02   1.5251000939e+01    0.3117755    0.2026444  -7.42  0.001580914    2.040    0.510
        38 -10.9179    175.5052    159.9398   1.1135941562e+02   1.6936990558e+01    0.1868876    0.1296405 -36.63  0.001030774    1.585    0.369
        39 -14.4410    190.6947    149.5769   1.0640006529e+02   1.5727840316e+01    0.9648086    0.8848528  10.31  0.003499924    1.088    0.081
        40 -16.2273    222.8870    210.1463   1.1133492180e+02   2.8507966145e+00     4.710833      2.18313  24.11   0.02544862    2.108    0.526
        41 -15.2662    145.5249    236.2501   1.2804402800e+02   1.0898076109e+01     0.945896    0.7830571  60.26  0.005393055    1.424    0.298
        42 -15.4891    159.0797    240.1170   1.2610712275e+02   8.5637994302e+00    0.8530852    0.7226942  52.49  0.004822277    1.389    0.280
        43 -14.2648    152.8035    133.1339   1.1079735477e+02   2.5712420062e+01     1.096579    0.7721298  64.80   0.00461385    1.828    0.453
        44 -11.5773    105.1801    140.4887   1.2354194368e+02   3.2962730665e+01    0.2364148    0.2178327  55.19 0.0005267511    1.015    0.014
        45 -12.0041     32.5375    134.2677   1.4172154722e+02   4.3846606567e+01    0.2018541    0.1571912  39.14 0.0006721794    1.339    0.253
        46 -17.0039    179.9182    222.8305   1.2040534340e+02   7.6539453054e+00      2.66733     1.132743 -33.65   0.01419443    3.129    0.680
        47 -12.2143     18.9702    249.6948   1.5075529642e+02   2.3943664320e+01    0.2134636     0.093538  49.67  0.001228944    1.464    0.317
        48 -15.7403     83.4096    132.6470   1.2783777187e+02   3.8037595079e+01     1.368747     1.173398  -3.39  0.004658098    1.538    0.350
        49 -12.5937     93.4553    157.4852   1.2905582978e+02   3.1345774637e+01    0.3235071    0.2644355  13.90 0.0007932528    1.549    0.354
        50 -13.0232    160.3833     31.9449   8.0335700231e+01   4.0957176155e+01    0.4908442    0.2418908  71.54  0.001860181    2.345    0.574
        51 -14.1554    168.6435     31.7756   7.8886207488e+01   3.8810825991e+01    0.6551062    0.5557759  53.02  0.002621241    1.168    0.144
        52 -12.7311    172.8442     24.7101   7.5864622387e+01   3.8552974178e+01    0.5005647    0.3201953   9.02  0.001102202    2.045    0.511
        53 -16.5086    158.8957    214.5327   1.2308698356e+02   1.1781475398e+01     2.039937     1.600253   6.68   0.01245931    1.429    0.300
        54 -11.0196     11.8107    248.2175   1.5185706088e+02   2.4806065227e+01    0.1037571   0.08343469  73.09 0.0004052258    1.320    0.243
