#   1 NUMBER                 Running object number                                     
#   2 MAG_AUTO               Kron-like elliptical aperture magnitude                    [mag]
#   3 X_IMAGE                Object position along x                                    [pixel]
#   4 Y_IMAGE                Object position along y                                    [pixel]
#   5 X_WORLD                Barycenter position along world x axis                     [deg]
#   6 Y_WORLD                Barycenter position along world y axis                     [deg]
#   7 A_WORLD                Profile RMS along major axis (world units)                 [deg]
#   8 B_WORLD                Profile RMS along minor axis (world units)                 [deg]
#   9 THETA_WORLD            Position angle (CCW/world-x)                               [deg]
#  10 FWHM_WORLD             FWHM assuming a gaussian core                              [deg]
#  11 ELONGATION             A_IMAGE/B_IMAGE                                           
#  12 ELLIPTICITY            1 - B_IMAGE/A_IMAGE                                       
         1 -14.5901     68.3524    144.2299   1.1121551007e+02   3.7795097529e+01     4.732625     1.871074  60.97  0.003820889    4.221    0.763
         2 -14.4320    199.1421     32.5849   5.2823750113e+01   3.0669963799e+01     2.303209     1.423844  26.04  0.008436337    2.137    0.532
         3 -14.0221    213.4610     16.3925   4.6621489938e+01   2.8876557877e+01     1.133037    0.8973025  13.75  0.002976729    1.477    0.323
         4 -14.0434      3.3768      9.3510   1.0798995791e+02   7.5508342986e+01     2.377655     1.046223 -53.67   0.01254382    1.716    0.417
         5 -10.6050     60.3576      7.8254   7.2971027607e+01   6.8184824312e+01    0.2140948    0.1838064  55.45 0.0005890114    1.355    0.262
         6  -8.5582    140.7125      1.3353   4.9528614494e+01   4.9285208571e+01     0.152287    0.1014945 -54.51 0.0004047641    1.629    0.386
         7 -16.5406     11.0389    242.4054   1.2989601698e+02   2.5866470350e+01     3.544703     1.570507  28.81   0.02326545    2.352    0.575
         8 -10.2265    174.1689    249.9395   1.0258658195e+02   5.6946696512e+00    0.1943765    0.1286959  57.46  0.001321249    2.254    0.556
         9 -15.3541    102.7222    248.4024   1.1450624853e+02   1.5087772568e+01     6.279932     2.097116  29.52   0.02693059    4.000    0.750
        10  -8.9291    180.2868    192.6436   9.3976411787e+01   1.1562420727e+01     0.107708   0.09251172  67.69  0.000702303    1.675    0.403
        11  -9.1936    167.4915    188.5043   9.5702634476e+01   1.4165110062e+01    0.1934856    0.1175517 -55.73  0.001031517    2.464    0.594
        12 -16.5494      7.2043    205.5002   1.2952211876e+02   3.2199603432e+01     6.253752     1.375594 -77.79   0.02915128    4.188    0.761
        13 -10.8790    208.1183    182.7355   8.7456696564e+01   8.4236169626e+00    0.2727499    0.2118491  53.21  0.001747067    1.723    0.419
        14 -12.0649     68.7055    181.3730   1.1533518869e+02   3.0176211381e+01    0.3335983    0.2511063 -41.03  0.001559897    1.880    0.468
        15 -11.9335     73.2703    175.6326   1.1373859125e+02   3.0689982021e+01    0.2872833    0.2513235 -31.37   0.00058928    1.580    0.367
        16  -9.6665     99.5098    180.7513   1.0850044436e+02   2.6081203420e+01    0.2223324     0.146327  40.04 0.0006072742    1.318    0.241
        17  -9.8751    211.5096    178.9332   8.6226190660e+01   8.3483365932e+00    0.1679018    0.1106694 -26.06 0.0007927347    1.572    0.364
        18 -11.8653    193.4467    194.1414   9.1866202928e+01   9.3163299680e+00      0.63563    0.4419248 -58.15   0.00366025    2.627    0.619
        19  -8.9885    166.5460    173.7961   9.3502553440e+01   1.6470032090e+01    0.1559184    0.1228289 -57.57 0.0009328311    1.693    0.409
        20 -13.4135     69.6998    161.9581   1.1306798786e+02   3.3881089148e+01     0.422673    0.3341296 -46.72  0.001114433    1.588    0.370
        21 -13.9235     67.6475    242.9176   1.2023140591e+02   2.0027798356e+01     1.360985    0.6863279  46.90  0.005328701    1.393    0.282
        22 -10.6614    195.4055    169.5305   8.7351450972e+01   1.2182445567e+01     0.296803    0.2540194 -24.15  0.001359105    1.280    0.219
        23 -10.5542    137.3007    170.9662   9.8977145970e+01   2.1865767490e+01    0.1743602    0.1651465  38.33 0.0008860365    1.087    0.080
        24 -10.2584    145.9448    168.4889   9.6762100885e+01   2.0822177999e+01    0.2014333    0.1133522  40.64  0.000719159    1.558    0.358
        25 -10.6955     32.4357    165.2658   1.2222510519e+02   3.7513164953e+01    0.1999416   0.09760309 -72.54 0.0005997279    1.965    0.491
        26  -9.8292    229.3176    171.3338   8.1956256099e+01   6.4416497004e+00    0.1262982   0.07690381  10.52  0.000704815    1.694    0.410
        27 -10.5054    189.3758    155.1799   8.5759717158e+01   1.5235551907e+01     0.251394    0.2125818  48.18  0.001508524    1.316    0.240
        28 -10.9424    133.7877    144.3843   9.5131528388e+01   2.7230556673e+01    0.9431006    0.2250796 -52.05  0.002642734    5.675    0.824
        29  -9.9415    174.8580    149.0878   8.7332935081e+01   1.8803860438e+01     0.193993    0.1823072  54.19 0.0005313728    1.232    0.188
        30 -11.4342     53.3941    147.4279   1.1546745760e+02   3.8993802219e+01     0.349888    0.2582995  78.62  0.002149209    1.254    0.203
        31 -10.3559     40.9916    146.5109   1.1856162274e+02   4.0597427971e+01     0.227905    0.1547269 -60.72  0.001368911    1.567    0.362
        32 -10.9269     45.5132    144.8472   1.1722537891e+02   4.0466113742e+01    0.3104064    0.1386777  42.64  0.001047497    1.982    0.496
        33 -10.3624    101.3136    143.6936   1.0274970344e+02   3.2998442634e+01    0.2459918    0.2184119 -64.96 0.0007269574    1.186    0.157
        34 -10.3948    103.3465    141.3155   1.0183960056e+02   3.3153742507e+01    0.3269615    0.2304597 -27.16  0.001628055    2.058    0.514
        35 -12.4914     89.5524    142.9645   1.0558403682e+02   3.5013669978e+01    0.3560435    0.2878955   1.05 0.0006861286    1.741    0.425
        36 -10.0621    111.5783    131.8037   9.8032758616e+01   3.3704942586e+01    0.2720077     0.219725  -1.08  0.000831653    1.673    0.402
        37 -10.0832    105.9874    130.6770   9.9235488976e+01   3.4917530465e+01    0.2870044    0.2432318 -73.10   0.00131468    1.239    0.193
        38 -10.9851     32.1477    130.9193   1.1939363778e+02   4.4976843312e+01    0.2605765    0.1789968 -53.43  0.001256619    1.638    0.390
        39 -13.6049     43.6714    210.1049   1.2271048639e+02   2.7882010164e+01    0.5062051    0.4118656  43.24  0.001323265    1.256    0.204
        40 -10.9414    160.2224    128.2861   8.5959385576e+01   2.5081284852e+01    0.4061099    0.1985612 -24.86  0.001466041    3.253    0.693
        41 -13.2838     80.3288    162.3964   1.1058542092e+02   3.2351088453e+01     1.946085    0.7232536  55.33  0.007343438    3.426    0.708
        42 -11.2369    135.3012    123.3131   9.0450238060e+01   3.0963103062e+01    0.5615207    0.1329112 -47.28  0.001611761    4.547    0.780
        43 -10.9049    117.4955    126.3356   9.5447824549e+01   3.3759233044e+01    0.4548848    0.2726805 -40.70  0.002105988    1.875    0.467
        44 -11.1612     98.7954    128.3755   1.0066609737e+02   3.6632935623e+01    0.3012279    0.2507434   4.51  0.001391732    1.575    0.365
        45 -10.2378    125.8611    127.3196   9.3585760586e+01   3.1998351560e+01    0.2658108    0.1892046 -77.15 0.0008835457    1.936    0.484
        46 -12.6126     88.5099    158.5288   1.0812875461e+02   3.1957461710e+01    0.7886916     0.543575 -62.62   0.00173866    1.545    0.353
        47  -9.8036    107.9704    120.1284   9.6598027238e+01   3.6791427790e+01    0.2012127    0.1914029  57.36 0.0003563939    1.025    0.024
        48 -10.3035    167.9236    112.6397   8.0700065815e+01   2.6199591384e+01    0.3463137    0.2710735 -87.45  0.001613463    1.873    0.466
        49 -11.1247    119.5825    109.9804   9.1281665587e+01   3.6728016005e+01    0.4195594    0.2944695 -79.70  0.001888319    2.038    0.509
        50 -11.9675     52.3060    108.7343   1.1053449477e+02   4.7930768957e+01    0.4831447    0.2848589 -72.98  0.002218044    1.623    0.384
        51 -10.0205    205.4732    110.1335   7.3073848505e+01   1.8715742539e+01    0.2883778    0.1887549  37.23 0.0009803816    1.543    0.352
        52 -11.4417     43.8943    109.2054   1.1324576263e+02   4.8800161030e+01    0.2723152     0.246162 -11.18   0.00129086    1.415    0.293
        53 -10.6163     46.0305    170.7309   1.1949419856e+02   3.4965202802e+01    0.3561601    0.1673937  59.79   0.00185372    2.013    0.503
        54  -9.9452    134.7309    102.5229   8.5614682748e+01   3.5136581720e+01    0.2736853    0.2020143 -43.56 0.0008290991    1.374    0.272
        55  -9.1634     85.8839     99.1072   9.8173941733e+01   4.5288561182e+01    0.2047123    0.1772748  80.02  0.001129257    1.202    0.168
        56  -8.7023     89.6614    101.2928   9.7547853930e+01   4.4151898744e+01    0.1469671    0.1082961  75.29 0.0006068136    1.648    0.393
        57  -9.1007     51.3309     93.3157   1.0808864490e+02   5.1712954469e+01    0.1359872   0.09876142 -34.89  0.000476253    1.682    0.406
        58  -9.0208     24.9876     82.4748   1.1556288268e+02   5.7073404346e+01    0.1594109     0.127613  28.45 0.0003254497    1.444    0.308
        59  -9.3072    157.4763     79.5540   7.4022125289e+01   3.4259009378e+01    0.1483234    0.1457848  -3.17 0.0001251929    1.008    0.008
        60  -9.4622     96.4090    193.7612   1.1066741036e+02   2.4216924978e+01     0.140755     0.110686 -50.55 0.0003168311    1.584    0.369
        61 -10.5211     13.4675     59.8896   1.1634932181e+02   6.3381955653e+01    0.2089843    0.1914888  89.67 0.0003925865    1.131    0.116
        62 -10.5741    151.0327     54.6291   6.7537376668e+01   3.9944250636e+01    0.3275809    0.2508385 -76.31 0.0008697058    1.634    0.388
        63 -12.2592    190.5870     38.4343   5.5672985036e+01   3.2119202951e+01    0.5641679    0.4759428  63.35  0.001099919    1.228    0.186
        64 -10.7779     78.2532    236.8454   1.1796049282e+02   1.9676289872e+01    0.1979146    0.1227236  51.79 0.0005104911    1.230    0.187
        65 -12.2909    207.9190     22.8731   4.9003416798e+01   2.9566499517e+01    0.4563771    0.3540285  30.83  0.001112626    1.492    0.330
        66 -11.8805    181.8938    233.3378   9.9363815295e+01   6.4296662784e+00    0.3461787    0.1544584  45.82  0.001941547    2.186    0.542
        67 -10.7101      2.4035     50.2528   1.1974384416e+02   6.6303157604e+01    0.2492627   0.08950021 -69.18  0.001138772    2.109    0.526
        68 -11.2913    152.3756     47.7503   6.4935421973e+01   4.0652215077e+01    0.3849457    0.2968851 -76.39  0.001023935    1.577    0.366
        69 -10.9209     70.6259    229.9925   1.1887319804e+02   2.1605704787e+01    0.3188933     0.106614  36.35  0.001672923    2.306    0.566
        70 -15.5579     52.8057    200.9101   1.2031158367e+02   2.8483120214e+01     3.445642     1.396222  53.88   0.01855976    2.079    0.519
        71 -10.3713    189.7938     15.0691   4.8487001652e+01   3.4921346504e+01    0.2272796    0.1803564 -52.43 0.0006400065    1.224    0.183
