#   1 NUMBER                 Running object number                                     
#   2 MAG_AUTO               Kron-like elliptical aperture magnitude                    [mag]
#   3 X_IMAGE                Object position along x                                    [pixel]
#   4 Y_IMAGE                Object position along y                                    [pixel]
#   5 X_WORLD                Barycenter position along world x axis                     [deg]
#   6 Y_WORLD                Barycenter position along world y axis                     [deg]
#   7 A_WORLD                Profile RMS along major axis (world units)                 [deg]
#   8 B_WORLD                Profile RMS along minor axis (world units)                 [deg]
#   9 THETA_WORLD            Position angle (CCW/world-x)                               [deg]
#  10 FWHM_WORLD             FWHM assuming a gaussian core                              [deg]
#  11 ELONGATION             A_IMAGE/B_IMAGE                                           
#  12 ELLIPTICITY            1 - B_IMAGE/A_IMAGE                                       
         1 -14.8860    163.6424     43.6034   7.7461743990e+01   3.9142962692e+01     1.369563     1.140591 -10.59  0.004051561    1.371    0.270
         2 -14.9164    179.1364     10.4383   6.4820816395e+01   3.9051863258e+01     2.142331     1.095322  65.08  0.006787407    1.722    0.419
         3 -10.5049     15.5123    246.7285   1.4909844499e+02   2.3163270897e+01      0.13779   0.06862693  77.49 0.0009255864    1.598    0.374
         4 -19.9770     74.8891    170.3819   1.3132667283e+02   3.1166146739e+01     17.42077      7.53728 -67.55   0.07605927    2.304    0.566
         5 -10.4336    149.8188    229.8452   1.2341210396e+02   7.3316505715e+00    0.1823379    0.1653817 -30.59  0.001244487    1.382    0.276
         6 -10.3764     30.4827    182.8591   1.4257210403e+02   3.3915788159e+01    0.1629785    0.1465175  63.45 0.0005446777    1.289    0.224
         7 -14.1215    136.9474    170.8582   1.1690867105e+02   2.0495598649e+01     1.130157    0.7189348  66.70  0.005029535    2.000    0.500
         8 -14.2088    143.3035    167.3526   1.1481202900e+02   1.9983866627e+01     1.051021     0.665533  83.61  0.004078181    2.898    0.655
         9 -11.5867    187.8920    174.7535   1.0665029502e+02   9.6749181175e+00    0.2653907    0.1927485 -71.71  0.001248232    2.161    0.537
        10 -11.3548    167.2088    175.0656   1.1101810952e+02   1.3723775698e+01    0.2232999    0.1675958 -80.52 0.0008827916    1.923    0.480
        11 -10.5597     11.8815    173.9237   1.4580413607e+02   3.7622792241e+01    0.1513775    0.1200449 -78.74  0.000266816    1.239    0.193
        12 -12.1481    125.7838    171.8316   1.1963831247e+02   2.2398556856e+01    0.3571521      0.30493 -76.62  0.001213539    1.226    0.184
        13 -11.2364    163.8136    169.8220   1.1073256065e+02   1.5402132323e+01    0.2023513    0.1695141  69.14  0.001045418    1.341    0.254
        14 -10.7927     34.2378    169.7609   1.4061712908e+02   3.6372710282e+01    0.1978728    0.1778573  74.90 0.0007166103    1.208    0.172
        15 -11.9910    230.3670    167.3390   9.7039306871e+01   2.7081445946e+00    0.4363809    0.1851819 -46.54  0.001684924    3.077    0.675
        16 -10.4999    185.2866    169.6201   1.0615540541e+02   1.1108834450e+01    0.1410074    0.1146201 -85.71 0.0007014851    1.732    0.423
        17 -11.0200     25.2396    165.0745   1.4221073554e+02   3.8322030533e+01    0.1792213    0.1530388  68.50 0.0006525979    1.179    0.152
        18 -10.8420     16.8146    225.3057   1.4789053899e+02   2.6849186072e+01    0.1232122   0.08828764 -83.99 0.0005677281    1.348    0.258
        19 -12.2416     22.4758    220.7878   1.4666539238e+02   2.7108365785e+01    0.2291128    0.1412213 -72.87  0.001578503    1.636    0.389
        20 -11.4854     23.4852    215.3531   1.4617513704e+02   2.8039452146e+01    0.1485305    0.1126303 -88.04  0.001108952    1.245    0.197
        21 -11.4593    188.6556    158.5762   1.0316875017e+02   1.2427492766e+01     0.362193    0.2757175  13.98   0.00104219    1.535    0.349
        22 -11.0471    189.0430    154.4933   1.0221031244e+02   1.3096729255e+01    0.3005998    0.2318183  43.27 0.0008700897    1.251    0.201
        23 -12.6924    125.1104    241.4955   1.2951592794e+02   9.4980931875e+00     0.438899    0.1587977 -55.22  0.002041826    3.395    0.705
        24 -11.2826     22.6418    156.2172   1.4200819831e+02   4.0544996864e+01    0.2755376    0.2129902 -13.05  0.001740313    2.100    0.524
        25 -10.1166    138.9695    243.2507   1.2714267370e+02   7.0180719978e+00    0.1710435    0.1572609 -84.13 0.0006719337    1.316    0.240
        26 -10.2723    176.9533    154.9290   1.0483570827e+02   1.5561899531e+01    0.2186534    0.1799321  86.77 0.0005098513    1.576    0.366
        27  -9.9682     16.5707    155.7185   1.4337152539e+02   4.1198063575e+01    0.1130508   0.07974815 -44.98    0.0006943    1.853    0.460
        28 -12.5722    161.2532    153.2143   1.0790122992e+02   1.9212147364e+01    0.3566837    0.2699604  51.63 0.0009259832    1.297    0.229
        29 -13.4834    107.8698    208.1644   1.2896097725e+02   1.8139787844e+01    0.6673753    0.4347344  82.32  0.003555231    1.845    0.458
        30 -11.9750    174.2097    148.5482   1.0403222784e+02   1.7381627201e+01    0.3574664    0.3348488 -79.87  0.001183927    1.183    0.155
        31 -11.0597    138.6678    250.5295   1.2803684113e+02   5.9700665255e+00    0.1873851    0.1133333  37.52  0.001123389    1.404    0.288
        32 -11.2539     12.7522    242.5015   1.4935736711e+02   2.4175911974e+01    0.1530408    0.1241218 -69.52  0.001262856    1.729    0.422
        33 -11.7488     27.3204    136.1490   1.3877398403e+02   4.4704899895e+01    0.3208303    0.2065429   7.77  0.001474904    2.422    0.587
        34 -10.0419      1.8834    139.8565   1.4550994979e+02   4.5878247175e+01    0.1604171    0.1265585 -70.41 0.0003450879    1.221    0.181
        35 -11.3846      8.0171    138.2631   1.4388173177e+02   4.5802667716e+01    0.2555554    0.2207181  -6.12  0.001039376    1.666    0.400
        36 -10.8715    171.0040    137.3042   1.0217675970e+02   2.0303779079e+01     0.220844    0.1912084  48.65 0.0005811423    1.134    0.118
        37 -12.8065    160.3919    127.9691   1.0234359862e+02   2.4568901542e+01    0.5097986    0.3808602 -53.25  0.001758141    1.414    0.293
        38 -13.1193     11.3133    206.0441   1.4786704869e+02   3.1071716118e+01    0.3637486    0.2414658  35.51  0.002094036    1.768    0.434
        39 -10.3456    151.2198    241.7803   1.2469034286e+02   5.2625794942e+00    0.1507114    0.1216655  26.75 0.0005106279    1.286    0.223
        40 -10.6811    139.3986    199.9558   1.2123306630e+02   1.4304453606e+01    0.3505526     0.182371  40.01  0.001639478    1.731    0.422
        41 -12.1317    109.2188    240.0093   1.3231227483e+02   1.2211381852e+01     0.199855     0.139375  51.09 0.0005286176    1.116    0.104
        42 -11.0210    167.4554    112.5688   9.6862784883e+01   2.6070208125e+01    0.3448594    0.2502301 -88.26  0.001347509    2.004    0.501
        43  -9.8053    112.5522    196.4220   1.2642430597e+02   1.9669609875e+01    0.4229425     0.288173   5.86  0.001842159    3.142    0.682
        44 -10.7802    205.3506    110.2401   8.8549217376e+01   1.7587209968e+01     0.315899    0.2087451  46.47 0.0009608826    1.551    0.355
        45 -11.4953    153.3320    193.8150   1.1732210041e+02   1.2896259258e+01    0.3132187    0.2491013  61.21 0.0007312718    1.298    0.230
        46 -11.3236     28.6303    239.7543   1.4663290098e+02   2.2973589659e+01    0.1403834   0.08837183  69.03 0.0004571439    1.151    0.131
        47 -11.2882     21.6309    238.3874   1.4772657077e+02   2.3974647654e+01    0.1140927   0.09153388  78.02 0.0009255919    1.259    0.206
        48 -10.6154    131.2454    235.6489   1.2769111777e+02   9.4609675702e+00    0.1566258    0.1053428 -55.85 0.0004630538    1.826    0.452
        49 -12.3681    153.4818    186.0405   1.1596484225e+02   1.4319436293e+01    0.3403773    0.2675039 -64.65  0.001143814    1.493    0.330
        50 -14.4407    152.3247     58.0757   8.4372613596e+01   3.9869281287e+01     1.375741     1.154868  40.42 0.0009723639    1.209    0.173
        51 -10.4312    133.6039    248.8908   1.2877423908e+02   7.0105824172e+00    0.1158581   0.05937615  36.86 0.0001972985    1.718    0.418
        52 -13.0331    167.7710     35.1884   7.4068478787e+01   3.9200691325e+01    0.4395862    0.3984851  52.12 0.0007812598    1.097    0.088
        53 -11.2372     13.5415     59.8824   1.3070963311e+02   6.3084221374e+01    0.1787441    0.1719065  21.46 0.0004759257    1.301    0.231
        54 -11.3631    151.0336    181.2811   1.1565374857e+02   1.5698473346e+01    0.2422215    0.1963018  88.19 0.0004716024    1.509    0.337
        55 -10.9665    134.1368    244.6535   1.2819921957e+02   7.5731796031e+00    0.1702253    0.1335144 -34.54  0.001119695    1.809    0.447
        56 -10.3168    142.0670     32.8627   7.8113465347e+01   4.6137455613e+01    0.2121308    0.1883479 -86.92 0.0002874994    1.224    0.183
