#   1 NUMBER                 Running object number                                     
#   2 MAG_AUTO               Kron-like elliptical aperture magnitude                    [mag]
#   3 X_IMAGE                Object position along x                                    [pixel]
#   4 Y_IMAGE                Object position along y                                    [pixel]
#   5 X_WORLD                Barycenter position along world x axis                     [deg]
#   6 Y_WORLD                Barycenter position along world y axis                     [deg]
#   7 A_WORLD                Profile RMS along major axis (world units)                 [deg]
#   8 B_WORLD                Profile RMS along minor axis (world units)                 [deg]
#   9 THETA_WORLD            Position angle (CCW/world-x)                               [deg]
#  10 FWHM_WORLD             FWHM assuming a gaussian core                              [deg]
#  11 ELONGATION             A_IMAGE/B_IMAGE                                           
#  12 ELLIPTICITY            1 - B_IMAGE/A_IMAGE                                       
         1 -15.7779    139.4496     22.7631   6.5146222655e+01   4.7731799692e+01     10.56248     8.293548 -53.04   0.05548254    1.465    0.317
         2 -14.2727    220.1665     29.6903   5.5040846168e+01   2.6336896759e+01     1.946398    0.8316561 -17.40  0.007095156    3.246    0.692
         3 -15.2363    217.3968     73.7367   6.7144814950e+01   2.0953156649e+01     3.994702     1.435602 -49.04   0.01234177    3.720    0.731
         4 -10.6311     79.3264     14.9846   7.7624843936e+01   6.2088693655e+01    0.4828661    0.2194067 -25.67   0.00179861    2.176    0.540
         5  -8.7855    186.3097     14.5270   5.4851389612e+01   3.6591586461e+01    0.3475586    0.1400642 -14.54  0.001213731    3.466    0.712
         6 -17.9899    241.8340     41.8395   5.5743601080e+01   1.9704561372e+01     10.16316     2.696276 -27.22   0.01957892    3.958    0.747
         7  -9.5549    244.7950      3.1050   4.6173206056e+01   2.3468870250e+01    0.2823471    0.0949317  51.74  0.001065341    3.781    0.736
         8 -10.9027    236.5263      1.3486   4.6372046304e+01   2.5534676076e+01    0.1786191    0.1088072  71.90 0.0003769698    1.589    0.371
         9 -11.6380     48.8941    156.0510   1.2465454942e+02   3.7241198815e+01    0.3641284    0.3516305  73.59 0.0009492652    1.256    0.204
        10 -11.9387    233.9586    249.0875   1.0073230021e+02  -7.1104028179e+00    0.1991222    0.1515631  23.88 0.0003328031    1.116    0.104
        11 -13.1232     56.5377    151.4779   1.2228318426e+02   3.7364276119e+01     1.989303     1.322178  -1.05  0.009149722    2.977    0.664
        12 -13.2779     63.0276    147.8087   1.2021155372e+02   3.7385286187e+01     1.306219    0.9371497 -50.69  0.004863032    1.514    0.339
        13  -9.9949    187.0612    156.2124   9.2992662691e+01   1.3657601105e+01     0.224451    0.1859217  14.56 0.0006425682    1.242    0.195
        14 -11.7471    168.5155    154.7831   9.6563878634e+01   1.7667683494e+01    0.7246394    0.3016503  49.69  0.002702349    2.490    0.598
        15 -11.7046    191.2495    152.1057   9.1270698937e+01   1.3528307490e+01    0.7684283    0.3169089 -48.80  0.002744299    3.116    0.679
        16  -9.0339     95.9142    166.0522   1.1503565447e+02   2.8669915431e+01    0.1890263    0.1730903  75.95 0.0002838851    1.037    0.036
        17 -12.0298    174.1891    148.6229   9.4045439395e+01   1.7661234708e+01    0.5400452    0.4254307 -28.56  0.001800903    1.348    0.258
        18 -11.8580    179.1370    146.9043   9.2626658710e+01   1.6954898226e+01    0.6972713    0.4512911  75.12  0.002711342    2.918    0.657
        19 -10.3719    151.4587    150.4443   9.9410682980e+01   2.1938690230e+01    0.3506703    0.2725852  86.96  0.001718238    1.724    0.420
        20  -8.0937     94.8226    150.8000   1.1286757003e+02   3.2160997350e+01    0.1734334    0.1425008  77.31 0.0002368615    1.216    0.178
        21  -8.2587     87.5138    151.5122   1.1476584227e+02   3.3137104017e+01    0.1371199    0.1195057  80.42 7.851636e-05    1.070    0.065
        22  -9.5887    133.6516    146.1013   1.0262546488e+02   2.6325203542e+01    0.6101063    0.1981419 -53.01  0.001965198    3.498    0.714
        23  -9.7027    132.3592    137.7061   1.0118061771e+02   2.8347809230e+01    0.6551142    0.2008512 -54.43   0.00189171    4.224    0.763
        24  -9.8475    143.7399    145.7077   1.0018621338e+02   2.4432955062e+01    0.3445619    0.2140151 -61.82  0.001503263    1.995    0.499
        25  -9.9916    191.3866    143.9500   8.9452459348e+01   1.4935579066e+01    0.3187505    0.2328893  57.00 0.0006749451    1.546    0.353
        26 -10.7333    188.7430    139.0293   8.8876398314e+01   1.6371001590e+01    0.4756504    0.3552158  41.52   0.00126239    1.303    0.233
        27 -10.4293    161.7114    142.4373   9.5405158201e+01   2.1429885642e+01    0.3583033    0.2419235 -15.94 0.0009567909    2.117    0.528
        28 -10.3960    156.8687    140.4134   9.6042370602e+01   2.2834666222e+01    0.2875242    0.2225455 -33.76 0.0007955594    1.377    0.274
        29 -10.5479    160.8356    137.1633   9.4422311043e+01   2.2649649983e+01    0.3281208    0.2328118  18.90   0.00099964    1.805    0.446
        30  -9.2786    165.6061    136.7477   9.3266708001e+01   2.1722625454e+01    0.2023989    0.1409661 -52.69 0.0003126341    1.592    0.372
        31 -11.5625    159.5043    129.1124   9.2860307639e+01   2.4529371523e+01    0.6763771    0.4560525  25.25  0.002971482    1.830    0.453
        32  -7.9247     97.2937    129.7066   1.0836267507e+02   3.6494868430e+01    0.1412616     0.106633  79.37  0.000221794    1.556    0.357
        33  -8.5851    126.4505    127.2401   1.0032987329e+02   3.1749603858e+01    0.2052757    0.1415597 -61.57 0.0009425721    1.600    0.375
        34  -9.2257    200.9145    124.3735   8.3010887293e+01   1.6346551518e+01    0.4399522    0.2927857 -86.58  0.001621178    3.300    0.697
        35 -10.6938    153.8577    124.6034   9.3081277447e+01   2.6648951371e+01    0.3570049    0.2762749  45.91   0.00135967    1.276    0.216
        36 -13.3250      5.6224    176.1408   1.3569181219e+02   3.7146745952e+01     1.903028    0.5845655 -83.59  0.008922437    2.890    0.654
        37 -11.7124    160.5042    117.5868   8.9826172649e+01   2.6602397859e+01    0.7301085    0.4943139 -79.21 0.0002366506    2.580    0.612
        38  -9.9075    142.3991    121.7775   9.5116756937e+01   2.9669449869e+01    0.4428723    0.1969072  57.37  0.001434477    3.223    0.690
        39 -13.1918     21.7926    170.0073   1.3199709330e+02   3.7006156637e+01     0.818378    0.6556462  82.03  0.003939047    1.056    0.053
        40  -9.5876    174.9268    115.0682   8.5998327764e+01   2.3851659054e+01    0.4714602    0.3117833 -80.74  0.001729657    2.968    0.663
        41  -8.8595     98.9518    114.9188   1.0475741738e+02   3.9566169542e+01    0.4293096    0.1905471 -65.38  0.001410132    3.453    0.710
        42 -10.5878    239.0904    212.6644   9.4095853597e+01  -3.9010741902e+00    0.3904788    0.1649896  33.58  0.001938113    2.082    0.520
        43 -10.5854    167.6242    114.1571   8.7358641090e+01   2.5679490415e+01    0.5765562    0.4363679  32.67  0.001953468    1.400    0.286
        44  -8.6225     84.9634    104.3955   1.0629925987e+02   4.4264574611e+01    0.2986778    0.1710468 -72.45  0.000927142    2.407    0.584
        45 -11.1577    166.1682     97.5441   8.3278960701e+01   2.9197903510e+01    0.9310906    0.5190296 -59.02  0.003348522    2.673    0.626
        46  -9.3343    169.7027     94.7277   8.1729683368e+01   2.8890894160e+01    0.2656348    0.2346731  57.35  0.001352623    1.170    0.145
        47 -10.2915    169.7652     90.6790   8.0586775635e+01   2.9622865918e+01    0.5245435    0.3719935  27.46  0.001353018    1.678    0.404
        48  -9.5841    186.2476     93.5687   7.7986410971e+01   2.5155492338e+01    0.5859336    0.2662435 -52.05  0.001935588    3.042    0.671
        49 -11.4047    152.1745     89.9148   8.4326915025e+01   3.3929133096e+01    0.4412233    0.3624567 -24.13  0.002166665    1.278    0.217
        50  -8.9375     83.1924     88.7746   1.0294286385e+02   4.8054544491e+01    0.1887716    0.1589978 -19.86 0.0003026733    1.313    0.238
        51  -9.7841    175.7888     87.2451   7.8349948615e+01   2.8793679388e+01    0.2509553    0.2347275 -12.82 0.0005053733    1.081    0.075
        52 -12.1101    166.0095     78.3507   7.7841178125e+01   3.2752642801e+01    0.6019725    0.4139469  39.34  0.002703803    1.532    0.347
        53  -9.5773     80.8823     80.7508   1.0147580529e+02   5.0176811409e+01     0.261065     0.178277 -74.60 0.0007713015    2.055    0.513
        54  -9.8847    191.3680    181.4660   9.7157094741e+01   8.5663392580e+00    0.2792617    0.2247156 -55.67 0.0008460018    1.595    0.373
        55  -9.7414    103.6384     52.1278   8.5056270097e+01   5.1703215365e+01    0.2791131    0.2094326  32.88  0.001026325    1.363    0.266
        56 -10.5359    195.2878    168.5236   9.3880871844e+01   9.9338158642e+00    0.2881584    0.2268213  78.52  0.001473172    1.951    0.488
        57 -10.0507     91.8820     25.4538   7.8218075983e+01   5.8262555407e+01    0.3505929    0.2323187 -42.58  0.001407495    1.713    0.416
        58 -10.1534    145.9371    225.4865   1.1294146297e+02   9.4988925798e+00    0.1953793    0.1804184  48.42 7.067364e-06    1.138    0.121
        59 -12.9323     10.9276    209.4438   1.3650727508e+02   3.0211415162e+01    0.9397231     0.513925  76.14  0.006489526    1.433    0.302
        60 -10.0535    208.9555    160.0695   8.9510592285e+01   8.6624233037e+00    0.2274339    0.1952417  30.48 0.0003528046    1.103    0.093
        61  -9.0564    211.0289     15.1359   5.2157708750e+01   3.0250530887e+01    0.1435174     0.132304 -53.65 0.0003091911    1.076    0.071
        62 -11.2582    200.1463    164.6117   9.2140417697e+01   9.6371968212e+00    0.5745268    0.3620102  67.65  0.002381783    2.883    0.653
        63  -9.4592    157.1134    160.4218   1.0017421470e+02   1.8869185050e+01    0.3806347    0.2341457 -72.11  0.001495151    2.952    0.661
        64 -11.0997    192.6958    194.3502   9.9240914353e+01   6.3079581222e+00    0.9054381    0.4768648 -61.70  0.003007726    5.694    0.824
        65 -10.4194    204.2684    161.9838   9.0803065523e+01   9.2648837873e+00    0.4406442    0.2819811 -54.70   0.00143326    2.201    0.546
        66  -9.3239    162.0287    163.9293   9.9800575774e+01   1.7241996208e+01    0.2116422    0.1938448  37.02 0.0002849845    1.016    0.016
        67  -9.0756    147.7287    158.2618   1.0182076678e+02   2.1121516916e+01    0.2692877    0.1779044 -66.01  0.001180749    1.977    0.494
