#   1 NUMBER                 Running object number                                     
#   2 MAG_AUTO               Kron-like elliptical aperture magnitude                    [mag]
#   3 X_IMAGE                Object position along x                                    [pixel]
#   4 Y_IMAGE                Object position along y                                    [pixel]
#   5 X_WORLD                Barycenter position along world x axis                     [deg]
#   6 Y_WORLD                Barycenter position along world y axis                     [deg]
#   7 A_WORLD                Profile RMS along major axis (world units)                 [deg]
#   8 B_WORLD                Profile RMS along minor axis (world units)                 [deg]
#   9 THETA_WORLD            Position angle (CCW/world-x)                               [deg]
#  10 FWHM_WORLD             FWHM assuming a gaussian core                              [deg]
#  11 ELONGATION             A_IMAGE/B_IMAGE                                           
#  12 ELLIPTICITY            1 - B_IMAGE/A_IMAGE                                       
         1 -10.8503     74.5046     11.8246   4.8931621757e+01   6.2143548381e+01    0.2390029    0.1518408  49.65  0.001295402    1.316    0.240
         2 -10.0385     85.1784     11.4248   4.5807334172e+01   5.9980759492e+01    0.2363037    0.1459984  70.70  0.001044972    1.877    0.467
         3 -10.0972     40.4396     10.7229   6.0854117154e+01   6.8462850459e+01    0.2042349    0.1071464 -32.26  0.001135867    2.112    0.527
         4 -10.5980     95.7098    224.8106   9.7249795857e+01   1.3406497108e+01    0.3504283    0.1849842  51.13  0.001520278    2.090    0.521
         5 -10.3185     83.3437    220.3382   9.9681374792e+01   1.6156628152e+01    0.2929414    0.1747046  61.46  0.001288027    2.031    0.508
         6 -12.4306      1.5019    193.6436   1.1709924169e+02   3.1633011740e+01    0.9119879    0.2525106 -79.48  0.003360366    3.281    0.695
         7 -11.8993      3.5133    205.0060   1.1738331055e+02   2.8743923102e+01    0.4827005    0.2157295 -66.34  0.001970586    1.999    0.500
         8 -12.2165      3.8459    213.2000   1.1782264073e+02   2.6793054863e+01    0.3897828    0.2906233  42.64  0.001731923    1.333    0.250
         9 -13.3679      7.2153    205.1576   1.1654398900e+02   2.8400881921e+01      1.25933    0.3758518 -75.09  0.005033101    2.884    0.653
        10 -12.1772     35.1147    204.6898   1.0984357714e+02   2.5860991527e+01    0.5351189     0.260134  41.27  0.002511665    1.922    0.480
        11 -12.7804     44.4927    200.8271   1.0710880815e+02   2.5783166194e+01      0.67878     0.426869 -79.33  0.002610941    1.565    0.361
        12 -12.2837     16.8016    203.6182   1.1418695784e+02   2.7928827635e+01     0.523157    0.3028044  51.26 0.0005691512    1.631    0.387
        13 -12.7349     15.4936    193.6899   1.1371009577e+02   3.0474470890e+01    0.6833135    0.4566806 -72.88  0.002475939    1.333    0.250
        14 -13.0946     23.9736    190.1389   1.1126751478e+02   3.0588865256e+01    0.4772186    0.3845038 -69.54 0.0009325172    1.166    0.143
        15  -9.8512    149.8081    199.2266   8.0010306825e+01   1.0708316318e+01    0.2397452    0.1636377  73.34 0.0009559551    2.813    0.645
        16 -10.2145     89.0359    199.0297   9.5313590400e+01   2.0402791253e+01    0.2480902    0.1706573  65.68  0.001140639    1.763    0.433
        17  -9.8448    139.3175    189.9749   8.0839772902e+01   1.4512657164e+01    0.2366526     0.129474 -73.52 0.0007048952    4.325    0.769
        18  -9.8038    129.9937    188.5192   8.2904138243e+01   1.6421803957e+01    0.2170299    0.1210875  54.64  0.000809168    2.493    0.599
        19 -10.1404    156.4031    187.1995   7.6178665952e+01   1.2234061826e+01    0.2142123    0.1416148 -58.81 0.0009548748    1.792    0.442
        20 -10.2165     94.7001    186.6864   9.1862236695e+01   2.2602738447e+01    0.3082541     0.185598 -85.63   0.00116879    2.603    0.616
        21  -9.9005    109.4882    185.9932   8.7775871968e+01   2.0430118803e+01    0.2121917    0.1366578 -87.41 0.0008102867    2.536    0.606
        22 -10.2763    174.3975    183.1836   7.1270416018e+01   1.0048937817e+01    0.2150046    0.1352441 -55.01 0.0009593823    1.821    0.451
        23 -10.2928    147.8301    180.6091   7.6940601102e+01   1.5180838856e+01     0.217392    0.1375445  45.76 0.0007829598    1.735    0.423
        24  -9.8738    191.9952    178.4897   6.6571510732e+01   8.0866703340e+00    0.1860454    0.1254364  62.17 0.0008100198    2.501    0.600
        25 -12.3704     77.7628    174.9172   9.4612393779e+01   2.8132360846e+01     0.661301    0.4988011  74.07  0.003165945    1.562    0.360
        26 -10.6066    159.6514    175.3333   7.3048935935e+01   1.4285925797e+01    0.2330405    0.1913468  83.15  0.001125295    1.737    0.424
        27  -9.8756    106.3207    175.6531   8.6754832853e+01   2.3506378208e+01    0.1604016    0.1202447  72.30 0.0007049311    1.734    0.423
        28  -9.4684    116.3717    210.6843   9.0132170227e+01   1.3509840495e+01    0.1527929     0.108064  61.75 0.0007034051    1.788    0.441
        29 -10.7603    121.5983    169.8475   8.1494265295e+01   2.2334516520e+01    0.3081456    0.2051987 -69.70  0.001285743    1.913    0.477
        30  -9.8325    168.4862    169.4926   6.9804699866e+01   1.3996816384e+01    0.1491473    0.1400007 -26.61 0.0008100272    1.048    0.045
        31 -10.2668    183.0000    175.9901   6.7951576248e+01   1.0094744512e+01     0.244186   0.07743161 -45.37 0.0008025173    2.943    0.660
        32  -9.9563    159.3423    164.6596   7.0896822204e+01   1.6714048757e+01    0.1533735    0.1236252  85.88 0.0007048885    1.775    0.437
        33 -11.0266    139.4081    164.9580   7.5838813696e+01   2.0306338399e+01    0.5466431    0.3448044 -78.66   0.00192847    3.062    0.673
        34 -10.5348    178.0119    160.8290   6.5865704040e+01   1.4143819457e+01    0.2358087    0.1786895  73.77  0.001086114    2.018    0.505
        35 -10.3456     92.9796    160.3270   8.7606147699e+01   2.9585210746e+01    0.2978256    0.2255324  85.55  0.001339752    1.699    0.411
        36 -12.7979     23.4506    197.0921   1.1203098637e+02   2.8904786128e+01     0.666362     0.303715  43.46  0.001947393    2.083    0.520
        37 -10.4797    167.9798    157.7354   6.7416142120e+01   1.6647529759e+01    0.2646005    0.1705987 -81.04 0.0008971175    3.581    0.721
        38 -10.2405    105.7079    158.3600   8.3546240530e+01   2.7960880860e+01    0.2566349    0.1903713  70.70  0.001116487    1.791    0.442
        39  -9.9066    196.3272    157.6705   6.1415467387e+01   1.1540516985e+01    0.1402509    0.1135895 -77.12 0.0004662279    1.707    0.414
        40 -10.2002    120.0285    156.1942   7.9089636077e+01   2.5962002071e+01    0.2695614     0.183375  64.73  0.001089122    2.076    0.518
        41 -10.1897     49.7685    155.1664   9.9686805962e+01   3.7007812663e+01    0.2586797    0.1389798  65.84 0.0009498568    2.827    0.646
        42  -9.9816    144.4928    154.5163   7.2301623325e+01   2.1797684119e+01    0.1546138    0.1497104 -34.54 -1.70772e-05    1.042    0.040
        43 -10.8893    133.3128    153.1001   7.4852937291e+01   2.4247581722e+01    0.3831072    0.2594245  81.97  0.001416705    2.741    0.635
        44  -9.6770     68.9944    154.6754   9.3711400640e+01   3.4679135997e+01    0.2558556   0.08731404  48.10 0.0007045439    4.256    0.765
        45 -10.0277    189.9602    150.4854   6.1149970887e+01   1.4129442433e+01    0.1959331    0.1297278  69.44   0.00080992    2.583    0.613
        46 -10.1142     39.3844    147.5896   1.0172879111e+02   4.0163116696e+01     0.356891    0.1573827  63.30  0.001030349    4.850    0.794
        47 -11.6560    149.1454    145.4645   6.9113466534e+01   2.2982050840e+01    0.4942279    0.3374451  79.12  0.001893321    2.642    0.621
        48 -11.0370    107.3914    145.2170   8.0254714142e+01   3.0969086574e+01    0.6739181    0.3814354  68.00  0.002006001    4.082    0.755
        49 -12.1596     55.4919    142.5619   9.5753015067e+01   3.9660029012e+01    0.9349524    0.3666237 -67.68  0.003177785    2.810    0.644
        50 -10.9598    125.1936    143.2422   7.4799343519e+01   2.8149282967e+01    0.4042827    0.2598718 -82.46  0.001406912    2.984    0.665
        51 -10.5743     88.1290    143.9411   8.5725583107e+01   3.4594724038e+01    0.3458278     0.232057  73.13  0.001368655    2.285    0.562
        52 -11.1569     22.6485    137.4332   1.0555995310e+02   4.4392159898e+01    0.5443774    0.2411281  77.30  0.001603961    5.045    0.802
        53 -10.1866    208.0001    138.5019   5.5162350009e+01   1.3251985376e+01    0.1824685     0.124607  77.62 0.0008102164    2.511    0.602
        54  -9.9843    113.5124    134.0144   7.5908176443e+01   3.2599131078e+01    0.3260603    0.1948018  69.71  0.001036182    3.508    0.715
        55 -10.4217     83.7090    132.2918   8.4557701451e+01   3.8289775824e+01    0.4620185    0.3007392  71.87  0.001764441    2.551    0.608
        56 -10.3097    143.6562    132.3253   6.7392478166e+01   2.7053819242e+01    0.2476266    0.1941684 -89.63  0.001111968    1.752    0.429
        57 -10.9098    131.8852    130.9519   7.0091182634e+01   2.9739022487e+01    0.4894749    0.2829176 -64.88  0.001778972    2.495    0.599
        58 -10.1959    153.4795    129.9935   6.4440980003e+01   2.5574273644e+01    0.2200562    0.1337462 -67.00 0.0008096242    2.503    0.600
        59 -11.7706     98.6501    126.8283   7.8596508743e+01   3.7096520243e+01    0.9353999    0.4190081 -65.07  0.002689075    3.958    0.747
        60 -10.5009     12.1058    128.1206   1.0771239446e+02   4.7592252493e+01    0.4307414    0.1952825  84.11  0.001534377    3.510    0.715
        61 -12.1190     45.1584    123.5712   9.5619394056e+01   4.5845174355e+01     0.999724    0.5511228  73.21  0.003391535    3.777    0.735
        62 -10.4897    118.5585    126.0928   7.2544016521e+01   3.3516805697e+01    0.4207352     0.205726  57.08  0.001320747    3.337    0.700
        63 -10.9949     59.9238    125.2035   9.0855086636e+01   4.3617674091e+01    0.5293171    0.2972663  61.52  0.001917077    3.030    0.670
        64 -10.9391     27.6683    121.3173   1.0133077103e+02   4.8160692011e+01    0.6440187    0.3166279  75.94  0.001994935    4.779    0.791
        65 -10.1647    158.6749    121.8339   6.1262553542e+01   2.6259168397e+01     0.334902    0.1878431 -65.77  0.001155057    3.001    0.667
        66 -10.6584    141.7271    119.2292   6.4652360043e+01   3.0358621040e+01    0.3697111    0.2195138 -66.00  0.001355739    2.562    0.610
        67 -10.3901      2.8455    116.9814   1.0933074939e+02   5.0983521822e+01    0.3302866    0.1531809  81.50  0.001258381    3.296    0.697
        68 -10.8076    109.3523    114.1549   7.2163905054e+01   3.8095365917e+01    0.5013875    0.2935358 -67.69  0.001793694    2.719    0.632
        69 -10.9558    247.3802    114.2348   4.4205565328e+01   1.0882374224e+01    0.3698408    0.2313892  51.06   0.00213652    1.979    0.495
        70 -10.7293     79.2156    112.8089   8.1374021528e+01   4.3853681054e+01    0.6395701    0.3915458 -89.24  0.002004059    4.172    0.760
        71 -10.9124     92.5633    112.5849   7.6927092423e+01   4.1615703020e+01    0.5205458    0.3436983 -76.64  0.002034875    2.441    0.590
        72 -10.0014    122.6506    113.3279   6.8143572247e+01   3.5617606982e+01    0.1606572    0.1258075  85.87 0.0007048866    1.760    0.432
        73 -11.5804     45.3964    102.3110   9.0926961654e+01   5.1147558164e+01    0.7865786    0.4351996  67.51  0.002464681    4.867    0.795
        74  -9.9004    139.8034    105.2082   6.1518781774e+01   3.3749508589e+01    0.2600775    0.1722998 -87.69 0.0009544425    2.838    0.648
        75 -11.1557     22.4396    101.8981   9.9649950610e+01   5.3481773495e+01    0.7427415    0.3842884  71.07  0.002455478    4.741    0.789
        76 -10.1056    128.9922    102.5115   6.3551918667e+01   3.6626105677e+01    0.2177606    0.1352666  68.92 0.0008100268    2.542    0.607
        77 -11.0456    111.3348    100.6824   6.7944189343e+01   4.0695345369e+01    0.3984201    0.2910929  81.38  0.001691861    2.144    0.533
        78 -10.2387    107.3443     98.6552   6.8555218225e+01   4.1935431979e+01    0.3617503    0.2935044 -70.11  0.001415386    1.517    0.341
        79 -10.1330     81.8557     99.9891   7.7084882056e+01   4.6414816750e+01    0.3545579    0.2122095 -73.02  0.001250845    3.170    0.685
        80 -10.6684     95.2469     97.3997   7.1936438161e+01   4.4568386342e+01    0.3661845    0.2971193  75.31  0.001755409    1.663    0.399
        81 -11.1758     63.6711     96.1216   8.2480384401e+01   5.0206422008e+01     0.464881    0.3215047  81.28  0.001902443    2.748    0.636
        82 -10.7941    125.2944     91.4523   6.1472779916e+01   3.9668600694e+01    0.3402556    0.2278676 -77.73  0.001335182    2.573    0.611
        83 -10.7764     34.6455     89.6720   9.2080209125e+01   5.5316754671e+01    0.4487019    0.2575704 -80.51  0.001783638    3.039    0.671
        84  -9.9896      5.3637     91.9782   1.0446939623e+02   5.7009555238e+01    0.2865944    0.1308117  53.43  0.001082531    3.993    0.750
        85 -11.3268     87.1255     87.3368   7.1663996243e+01   4.8232587910e+01    0.4929294    0.3237579  71.73  0.001873319    3.026    0.670
        86 -10.9076     48.8280     84.8031   8.5058741790e+01   5.4805415864e+01    0.4301917    0.2819673  73.55  0.001680063    3.427    0.708
        87 -10.7406    104.9488     83.6823   6.4922811506e+01   4.5491994098e+01    0.4871393    0.3039184 -73.70  0.001704903    3.494    0.714
        88 -10.5519     24.2322     80.6329   9.4170654258e+01   5.8362625536e+01    0.3387046    0.2300765  86.84   0.00161575    2.461    0.594
        89  -9.9378      9.3286     80.6956   1.0058808440e+02   5.9430547272e+01    0.1200818   0.09812756  62.48 0.0004467986    1.651    0.394
        90 -10.7726     62.7985     74.0729   7.6323769723e+01   5.5102183085e+01    0.5292689    0.2669962 -55.60  0.002155142    2.506    0.601
        91 -10.8967     82.2992     72.9374   6.8836304310e+01   5.1993928227e+01    0.3532668     0.255614 -71.42  0.001608985    2.248    0.555
        92 -10.0253    105.8168     71.9916   6.1090300550e+01   4.7500098925e+01    0.2349165     0.171624 -70.28  0.001081081    2.001    0.500
        93 -10.0652     95.4109     72.1890   6.4290407758e+01   4.9603754045e+01    0.2065275    0.1361904 -52.11  0.000951613    1.787    0.440
        94 -10.6279     51.5506     69.6612   7.9402423886e+01   5.7647518208e+01    0.4800315    0.2843042 -69.66  0.001844381    3.536    0.717
        95 -10.1726     16.6157     69.8887   9.4780156319e+01   6.1353701702e+01    0.2474402    0.1671042 -75.21  0.001305343    1.962    0.490
        96 -10.1381     37.6214     64.4746   8.3697394074e+01   6.0471058490e+01    0.2319833    0.1743192 -85.36   0.00115296    2.440    0.590
        97 -10.1977     72.9902     58.7875   6.7381295216e+01   5.6248704463e+01    0.2446626    0.1801495 -50.99  0.001093775    1.660    0.398
        98 -10.0105     25.2862     59.3456   8.7713133243e+01   6.2811492431e+01    0.2243015    0.1540838  42.17  0.001224334    1.940    0.485
        99 -10.9838      7.4838     56.8597   9.5578006907e+01   6.4733936353e+01    0.3238598    0.2020181 -70.59  0.001741835    2.055    0.513
       100 -10.5417     44.2616     55.2082   7.7643925340e+01   6.1412696145e+01     0.373586    0.2343944 -57.93   0.00182754    2.244    0.554
       101  -9.8096     62.6962     55.1246   6.9958381616e+01   5.8653333642e+01    0.2028905    0.1746273 -51.54  0.001181859    1.468    0.319
       102 -10.2989     54.1311     54.1220   7.3041413103e+01   6.0190176130e+01     0.337122    0.1727515 -53.95  0.001420969    2.831    0.647
       103 -10.0376     20.0643     52.2130   8.7943085564e+01   6.4697849859e+01    0.2141922    0.1727237  89.88  0.001232632    2.158    0.537
       104 -10.2881     30.9965     51.4887   8.2399117337e+01   6.3731196762e+01    0.2848521    0.2180704 -76.19  0.001432514    2.330    0.571
       105  -9.7260     92.0000     50.9556   5.8296704689e+01   5.3841262123e+01    0.2153421    0.0785042 -35.98 0.0008020595    2.940    0.660
       106 -10.3413     16.8818     44.5789   8.6968648251e+01   6.6420389212e+01    0.2259792    0.1697051 -66.34  0.001334692    1.952    0.488
       107  -9.7112     58.2312     42.4777   6.7010462563e+01   6.1442613600e+01    0.2591586   0.09719916 -48.65  0.000886822    4.390    0.772
       108 -11.0699      5.1839     41.3732   9.2060955459e+01   6.7922282855e+01    0.4185531    0.2179656 -67.14  0.001996509    2.955    0.662
       109 -10.0419     69.0080     41.2325   6.2419032063e+01   5.9745484344e+01    0.1777891    0.1514321 -56.67  0.001045395    1.629    0.386
       110  -9.9403     37.0141     41.0107   7.5666663753e+01   6.4834191947e+01    0.1768223    0.1626511  60.17 0.0009734058    1.708    0.414
       111 -10.4717     27.0000     31.9879   7.6935204222e+01   6.7526684353e+01    0.1938101   0.06371726 -43.29 0.0008109539    3.002    0.667
       112  -9.6758     72.3377     31.6646   5.7543924467e+01   6.0414680100e+01    0.1208441    0.1044084 -89.13 0.0004839987    1.749    0.428
       113 -10.3367     13.0324     29.8578   8.3519297394e+01   6.9333911069e+01    0.3544494    0.1571173 -58.53  0.001429078    4.321    0.769
       114  -9.4135     39.3670     24.6929   6.7767718950e+01   6.6942333913e+01    0.1094474    0.0979122  55.36 0.0007036495    1.751    0.429
       115 -11.5877    178.5541     17.8367   3.1913313951e+01   3.8468096873e+01    0.3993777    0.2192858  68.70  0.001227749    1.598    0.374
       116 -10.1963     74.4846     18.9893   5.1819294007e+01   6.1448700826e+01    0.1743428    0.1217872 -20.66 0.0009564612    1.587    0.370
       117 -10.3049    189.3235    240.3338   7.8378171482e+01  -3.0712322488e+00    0.1372482   0.08609323  -8.25 0.0007050657    1.708    0.415
       118  -9.9674    144.4995    231.1745   8.6647649433e+01   4.8920245076e+00    0.3320977    0.1383014 -52.95  0.001342186    2.705    0.630
