#   1 NUMBER                 Running object number                                     
#   2 MAG_AUTO               Kron-like elliptical aperture magnitude                    [mag]
#   3 X_IMAGE                Object position along x                                    [pixel]
#   4 Y_IMAGE                Object position along y                                    [pixel]
#   5 X_WORLD                Barycenter position along world x axis                     [deg]
#   6 Y_WORLD                Barycenter position along world y axis                     [deg]
#   7 A_WORLD                Profile RMS along major axis (world units)                 [deg]
#   8 B_WORLD                Profile RMS along minor axis (world units)                 [deg]
#   9 THETA_WORLD            Position angle (CCW/world-x)                               [deg]
#  10 FWHM_WORLD             FWHM assuming a gaussian core                              [deg]
#  11 ELONGATION             A_IMAGE/B_IMAGE                                           
#  12 ELLIPTICITY            1 - B_IMAGE/A_IMAGE                                       
         1  -8.9910     80.6292     12.7175   7.4645506235e+01   6.2892486466e+01    0.2939243    0.1766143 -38.86 0.0007735602    1.721    0.419
         2  -7.9218    142.0006     11.5265   5.8311285875e+01   4.8818880810e+01    0.2199757    0.1382219  63.06 0.0003503962    1.527    0.345
         3  -7.6280    108.6048      2.4067   6.1575329221e+01   5.8070338363e+01    0.2816496   0.08505422 -36.21 0.0009589024    3.435    0.709
         4  -7.7093    105.3459      2.3020   6.2328210668e+01   5.8841613217e+01    0.1505636   0.09207021  29.49  0.000703907    1.685    0.407
         5  -8.5801    220.9049    239.1269   9.8450953834e+01  -1.7341509220e+00    0.1896989    0.1323647  12.15  0.001377911    1.380    0.276
         6  -9.4587    229.9428    250.0816   9.8510829705e+01  -4.0365838170e+00    0.2232515    0.1351006  43.40   0.00141846    1.517    0.341
         7  -8.9371    223.5195    250.2233   9.9518691803e+01  -3.1431941087e+00     0.188883    0.1064711  44.75  0.001263248    1.602    0.376
         8  -9.3394    165.0777    248.5689   1.0865253536e+02   5.5986623209e+00    0.4340343    0.2243353  38.61  0.002757486    1.451    0.311
         9 -10.0540    176.2735    233.0843   1.0497948603e+02   5.7181110597e+00    0.5055447    0.3958479  67.33  0.003591896    1.664    0.399
        10 -11.0499    178.8100    241.9502   1.0563795656e+02   4.2941540362e+00     0.976116    0.5535774  28.24  0.005893252    1.736    0.424
        11  -8.4747    151.7003    250.1151   1.1100446326e+02   7.3925942422e+00    0.1519023    0.1206572  67.25   0.00118509    1.442    0.307
        12  -8.1203    143.9793    249.3503   1.1219216202e+02   8.6155808453e+00    0.1663534    0.1125299 -86.94  0.001111141    2.360    0.576
        13  -9.2216    133.0533    248.4102   1.1389672077e+02   1.0318538994e+01     0.328541    0.2726396  43.00  0.002682431    1.206    0.171
        14  -7.7170    158.4579    240.0149   1.0880269812e+02   7.6148563442e+00    0.1284034    0.1121083 -54.34 0.0005133378    1.559    0.359
        15  -9.2481     89.5423    238.9894   1.2031225204e+02   1.7670470215e+01    0.2123629    0.1743994 -51.02  0.001684617    1.853    0.460
        16  -9.2110    188.3779    233.9962   1.0306225478e+02   3.7307888835e+00    0.2335274    0.1845536 -88.10  0.001379767    2.271    0.560
        17 -10.0344    153.5709    219.3171   1.0720933705e+02   1.1092387918e+01    0.6195537    0.3359503  36.90  0.003562693    1.590    0.371
        18  -8.3880     80.3863    234.7484   1.2152842114e+02   1.9502499440e+01    0.1195081   0.09305886 -69.44 0.0006942637    1.615    0.381
        19  -8.8244     50.0142    235.4797   1.2658948862e+02   2.3079263323e+01    0.2054335    0.1478121  10.95  0.001301309    3.337    0.700
        20  -8.0493     52.6811    233.3295   1.2603499737e+02   2.3109617527e+01    0.1550355   0.06407329  74.68 0.0008465615    2.723    0.633
        21  -9.5049    140.1625    228.7739   1.1068509035e+02   1.1880493086e+01    0.4703651    0.2472305  42.22  0.002826404    1.464    0.317
        22  -8.3003    112.5323    232.4677   1.1586055338e+02   1.5458928423e+01    0.1535323    0.1238595  29.37 -2.346149e-05    1.524    0.344
        23  -8.0454     90.4207    230.7655   1.1951887065e+02   1.8788747370e+01    0.1221595   0.09868518 -67.93 0.0006938992    1.570    0.363
        24  -8.8789     82.0168    229.8871   1.2088981484e+02   2.0038526822e+01    0.2725167    0.1499443  67.78  0.001677396    1.723    0.420
        25  -8.2729    231.7246    234.0019   9.6027480350e+01  -2.8353062359e+00     0.149535     0.108972  21.02 0.0002686693    1.082    0.076
        26  -7.7060    106.6660    230.6943   1.1671169018e+02   1.6556000830e+01   0.09870048   0.08023567  24.42 0.0007039495    1.666    0.400
        27 -10.1969    107.3253    224.3302   1.1600731755e+02   1.7423052751e+01    0.5378554    0.2808702  29.53  0.002823574    2.626    0.619
        28  -8.2747    218.1552    221.6479   9.6412116868e+01   4.5102813489e-01    0.1591703    0.1410216   0.62 0.0005607425    1.300    0.231
        29  -8.1029     86.1060    220.1067   1.1939363319e+02   2.1045527851e+01    0.1571718    0.1335307  49.69  0.000490001    1.280    0.219
        30  -7.8589    177.1774    217.4882   1.0278894783e+02   7.5137773570e+00    0.1750824    0.1492503  57.58 0.0007704435    1.318    0.242
        31  -8.5888     28.1277    217.6233   1.2927392695e+02   2.8337020054e+01    0.2050365   0.09127794  71.13  0.001151601    1.903    0.474
        32 -10.6436    237.7768    246.6670   9.6855295092e+01  -4.8364983740e+00    0.3270475    0.2116729   7.37   0.00240812    1.510    0.338
        33 -11.0813    150.6454    228.0975   1.0877991256e+02   1.0353101440e+01     1.127087    0.5695745  42.53  0.003085108    1.507    0.336
        34 -10.5258     61.7058    214.9624   1.2332673686e+02   2.5029091043e+01    0.4389409    0.1893167  52.64  0.002477623    1.777    0.437
        35 -10.4151     67.6843    197.4258   1.2086445187e+02   2.7347455581e+01    0.3033167    0.2198033 -77.83  0.002064405    1.406    0.289
        36 -11.1684     68.2854    203.7907   1.2128147589e+02   2.6136530160e+01    0.3962431    0.2631375  41.21  0.002684474    1.460    0.315
        37  -8.4096    110.4019    215.2287   1.1455699028e+02   1.8394328239e+01    0.1990243    0.1347629 -86.95  0.001283825    1.764    0.433
        38 -10.4439    117.2868    201.1228   1.1171840314e+02   1.9646284199e+01    0.3430019    0.2925863  88.74 0.0002933925    1.254    0.203
        39 -10.0499    111.1086    210.8912   1.1397446921e+02   1.8984352959e+01    0.3371647    0.1725178  44.36  0.001027319    1.564    0.360
        40 -11.2005    109.8691    207.1252   1.1380252883e+02   1.9784862061e+01    0.5558898    0.2588734  44.86  0.002345073    1.716    0.417
        41  -8.7608     86.7366    213.5303   1.1871315073e+02   2.2037284504e+01    0.2508672    0.1858092  -6.20  0.001396143    3.354    0.702
        42  -9.8652    137.0241    203.0437   1.0819553216e+02   1.6184349447e+01    0.6442205    0.3793643  66.87  0.003370135    2.211    0.548
        43 -10.8644    128.6591    204.5786   1.0996837538e+02   1.7289329545e+01    0.6700883    0.2539134 -49.26  0.003128673    3.301    0.697
        44  -8.2094    135.6559    211.1535   1.0945992099e+02   1.5147269918e+01    0.2395115    0.1205629  36.04  0.001259029    1.888    0.470
        45  -8.6536    103.9790    211.0145   1.1530790452e+02   2.0017743927e+01    0.2470726    0.1306693  36.65  0.001387027    1.847    0.459
        46  -9.5639     53.5975    215.3125   1.2477918940e+02   2.5937962115e+01    0.3042266    0.1682483  28.21  0.001795133    2.589    0.614
        47  -7.0862    219.2983    207.3103   9.4023293827e+01   1.8432783254e+00     0.120334   0.07599543  17.43 0.0005819095    1.599    0.374
        48  -8.6759    151.5806    203.8821   1.0557078771e+02   1.3651506560e+01    0.4697432    0.2095392 -55.50  0.002260106    3.047    0.672
        49 -10.4364    123.9940    205.9773   1.1101587656e+02   1.7802699119e+01    0.1724816    0.1402606  56.56            0    1.043    0.041
        50  -8.8534    165.9985    203.7293   1.0287662651e+02   1.1247003932e+01    0.1834903    0.1384334  41.84  0.001178739    1.070    0.065
        51  -9.3730     97.8270    202.9183   1.1563412670e+02   2.2269333933e+01    0.2067167    0.1654217  82.35 0.0006145079    1.223    0.182
        52  -7.6490     52.6394    204.7146   1.2423471500e+02   2.7880222059e+01    0.0882578     0.085787  -4.30  0.000702112    1.682    0.405
        53  -7.4466     43.6287    216.3140   1.2657296082e+02   2.6905503150e+01    0.1164247   0.05283834  62.01 0.0007034391    1.782    0.439
        54  -9.5851     99.0458    195.8900   1.1465332834e+02   2.3312152986e+01    0.3447344    0.1904315 -89.93  0.001755896    2.547    0.607
        55  -8.2522      6.3084    248.3138   1.3380398776e+02   2.5618622048e+01   0.07219848   0.06358346  83.27 0.0004312135    1.627    0.385
        56  -8.3577     45.6942    199.3407   1.2513947120e+02   2.9634473910e+01     0.117324   0.05968931  65.93 0.0007041591    1.682    0.405
        57  -7.3925    250.3781    199.8318   8.7732654429e+01  -2.2960186071e+00    0.1533162   0.09456978  -8.05 0.0007874608    1.649    0.394
        58  -8.3518     34.0221    197.4989   1.2716606567e+02   3.1233552995e+01    0.1648031   0.04873732  53.83 0.0008101956    2.651    0.623
        59  -8.6747     88.9144    195.1040   1.1654750874e+02   2.4914943628e+01    0.1953764    0.1553591 -71.27  0.000714479    1.392    0.282
        60  -9.4576     81.5141    195.9960   1.1807535453e+02   2.5782724577e+01    0.2320291    0.1477805  23.29  0.001135711    2.463    0.594
        61  -6.9011    223.3091    194.2944   9.1204861393e+01   2.6856397530e+00    0.1245861   0.07903211  17.69 0.0004241621    1.588    0.370
        62 -10.6818    108.9135    191.7794   1.1224191409e+02   2.2547706600e+01    0.3856362        0.189 -52.46  0.002003215    2.429    0.588
        63  -9.4696    112.1091    193.1876   1.1177962126e+02   2.1805459494e+01    0.2203224     0.152747  73.99 0.0006128354    1.538    0.350
        64  -8.4922    249.9874    192.5129   8.6529591898e+01  -1.4765193117e+00    0.2191127    0.1341819 -42.42   0.00110256    2.421    0.587
        65  -7.6036     76.4909    191.9752   1.1866898752e+02   2.7191461756e+01    0.1660904   0.08343075  80.67 0.0008103743    2.586    0.613
        66  -9.3787    129.7295    189.0681   1.0776347977e+02   1.9679112883e+01    0.2179778    0.1589435 -54.16  0.001333322    1.609    0.379
        67  -9.4879     99.5152    188.5635   1.1373695673e+02   2.4551798856e+01    0.2945151    0.2250236 -23.40  0.001715827    2.340    0.573
        68  -8.9079    138.1441    179.1802   1.0465528342e+02   1.9949441057e+01    0.1871111    0.1649735  35.21 0.0005553449    1.174    0.148
        69 -10.3168    143.3614    188.3642   1.0497085481e+02   1.7491425623e+01    0.4243386    0.2919133 -80.51  0.002320927    2.101    0.524
        70 -10.1893    146.2798    184.9700   1.0389465981e+02   1.7547103980e+01    0.3911923    0.2967333 -55.25  0.002387925    1.552    0.356
        71  -9.9039    114.5074    188.1853   1.1068432495e+02   2.2307022505e+01    0.2773871     0.169906  56.82  0.001566394    1.487    0.328
        72  -9.2417    104.7557    188.0477   1.1262445138e+02   2.3851998860e+01    0.2392051    0.1355358 -89.99  0.001167654    2.577    0.612
        73  -8.2938    126.5011    185.5096   1.0792208660e+02   2.0829145331e+01     0.126645    0.1065356  54.09 -0.000196706    1.008    0.008
        74  -8.6339     48.3725    185.2012   1.2360640761e+02   3.1945795379e+01    0.1569851   0.08735575  88.84 0.0006936822    1.689    0.408
        75 -10.5357    130.9220    182.2289   1.0656929225e+02   2.0660041526e+01    0.3960668    0.2787558 -89.89  0.002204597    1.862    0.463
        76 -10.8648    122.5154    178.2059   1.0771539796e+02   2.2790818606e+01    0.4573447    0.3650364  19.48  0.002734176    1.637    0.389
        77  -8.4429     62.4963    182.0002   1.2052268785e+02   3.0872415339e+01    0.1508863    0.0846149 -49.02 0.0008106342    2.585    0.613
        78  -9.5559    248.2577    181.4788   8.4825068642e+01  -2.2068001816e-03    0.3060006    0.2352751  62.78  0.001837397    2.134    0.531
        79  -8.8797    104.4607    178.7813   1.1153615187e+02   2.5598397570e+01    0.2201405    0.1199284 -68.40  0.001135398    2.100    0.524
        80  -8.4062    236.0337    176.7767   8.5945062595e+01   2.6007386220e+00    0.1965829    0.1597242  -1.84 0.0003433418    1.152    0.132
        81 -10.1332     51.9819    174.0574   1.2195853585e+02   3.3685000248e+01    0.3192303      0.14448 -80.35  0.001674411    2.213    0.548
        82  -7.5076     35.0000    175.0434   1.2550283213e+02   3.5357701619e+01    0.1721808   0.05379482 -75.00 0.0007986205    2.916    0.657
        83 -10.2693     88.6692    171.6716   1.1397318570e+02   2.9341921917e+01    0.4198704    0.2238373  82.03  0.001913268    2.730    0.634
        84  -9.3948     92.9833    170.4991   1.1290314353e+02   2.8934189104e+01    0.3107594    0.1320913  46.11  0.001279789    2.055    0.513
        85  -9.8385     45.8910    172.2455   1.2306235267e+02   3.4737733248e+01    0.3362156    0.1704007  70.43  0.001872239    1.919    0.479
        86  -8.6411    237.3645    171.9987   8.4825349738e+01   2.9455067140e+00    0.2373253    0.1428208  28.18 0.0001183295    1.523    0.343
        87  -8.4714     78.3277    169.7597   1.1596163772e+02   3.1186878551e+01     0.220357    0.1350552 -84.26  0.001099323    1.710    0.415
        88  -9.9562     69.5129    165.5510   1.1739156481e+02   3.3216524987e+01    0.4257428    0.2199771 -79.96  0.002034889    2.064    0.515
        89  -8.4577     99.9318    168.3401   1.1112308650e+02   2.8297410496e+01    0.2134214    0.1383706  57.39 0.0006854117    1.414    0.293
        90  -8.6508     56.0511    168.0068   1.2054703559e+02   3.4408876306e+01    0.1954465    0.1107159  66.12 0.0008780598    1.650    0.394
        91  -8.2298    237.1807    167.0764   8.3910196457e+01   3.5801903372e+00    0.1937969    0.1440787  13.81 0.0003143046    1.219    0.180
        92  -9.1051     86.4760    159.0069   1.1283713354e+02   3.2194567375e+01    0.2270374    0.1604479 -62.11    0.0011158    1.463    0.316
        93  -9.3216    205.2237    164.6413   8.9012529952e+01   9.8008120192e+00    0.2312196    0.2124793  21.91 0.0002468083    1.097    0.088
        94  -9.7049     89.2569    163.9679   1.1287258789e+02   3.0781504164e+01    0.2473033     0.167869 -66.58  0.001444437    1.500    0.333
        95  -7.6951     48.4794    163.4012   1.2173541606e+02   3.6222942394e+01    0.1172878   0.09151002  73.28 6.032694e-05    1.034    0.033
        96  -8.7758    107.8212    162.6053   1.0859143023e+02   2.8166303381e+01    0.1958662    0.1048931  51.32 0.0008700736    1.725    0.420
        97  -7.4515    158.1250    167.8657   9.8745098790e+01   1.8282176851e+01    0.1692854    0.1452594  22.23  0.001007951    1.243    0.195
        98  -7.7483     79.3262    158.2719   1.1435040741e+02   3.3370409108e+01    0.1093984   0.09974704 -17.98 0.0006980121    1.580    0.367
        99  -7.9951     91.0248    154.0176   1.1111553022e+02   3.2541028914e+01    0.1895693    0.1625806  74.84            0    1.026    0.025
       100  -7.4699     68.4969    144.9984   1.1514209575e+02   3.7632190148e+01    0.1758554   0.09513313  83.78 0.0005043608    2.354    0.575
       101  -7.1029    130.2362     97.9674   9.0195965013e+01   3.7311654121e+01    0.1804766    0.1237127 -46.47 0.0008328302    1.461    0.315
       102  -8.8566    223.6842     92.4829   6.9379285312e+01   1.6669522983e+01    0.2762896    0.2376987  37.87 0.0007798888    1.170    0.145
       103  -8.0680      1.8116     89.4098   1.2623383247e+02   5.6223644815e+01    0.1280284    0.1056926 -23.61 0.0009429922    1.611    0.379
       104  -7.4735    110.7950     79.8492   9.0423156582e+01   4.5024552087e+01    0.1881851    0.1663478 -81.67 0.0002528197    1.256    0.204
       105  -7.5794    184.5938     78.1891   7.2402474807e+01   2.8278383546e+01    0.2089381    0.1477991 -18.24 0.0004230161    1.575    0.365
       106  -7.8069    249.5345     75.4849   6.1301408583e+01   1.3242723811e+01     0.138593    0.1251581 -11.42 0.0001314467    1.047    0.045
       107  -9.5193    124.2091     57.8904   7.9761645357e+01   4.6457647115e+01    0.2434902    0.2355321  12.17 0.0002350839    1.028    0.027
       108  -8.0891     94.9094     52.4859   8.6438844185e+01   5.3577710433e+01    0.2105195     0.183863 -34.99 0.0004681943    1.078    0.072
       109  -8.1516    220.0616     43.9817   5.6814190184e+01   2.4317561229e+01    0.2226747    0.2101214 -31.22 0.0007966128    1.034    0.033
       110  -7.2661     92.2210     36.9764   8.1466941610e+01   5.6904699935e+01    0.1859869    0.1089895 -36.78 0.0003640061    1.616    0.381
       111  -8.3718     77.1125     29.4573   8.3540080954e+01   6.0983192331e+01    0.2748537    0.1631662 -50.57 0.0008598404    1.977    0.494
       112  -7.6495     96.6593     27.6668   7.6207596833e+01   5.7523009234e+01     0.150096    0.1039802  12.22 0.0007051321    1.751    0.429
       113  -8.8958     84.8588     21.5285   7.7335518478e+01   6.0816625942e+01    0.2518307    0.2052802 -17.63 0.0004646447    1.138    0.121
       114  -6.9279     29.6957     22.3171   1.0066848345e+02   6.8734749483e+01    0.1080231   0.09217948 -82.54 0.0001585557    1.625    0.385
       115  -7.0928     50.2964     21.2845   9.0661385940e+01   6.6552592747e+01    0.1257077   0.08709393 -14.12            0    1.545    0.353
       116  -9.6378     75.3474     17.8487   7.8971912284e+01   6.3147707585e+01     0.297807    0.2432968 -36.81 0.0007040016    1.265    0.209
       117  -7.9416    161.6808     15.3089   5.6271505060e+01   4.3200040861e+01    0.1534812    0.1091922 -62.65 0.0006460049    1.640    0.390
       118 -10.9780    247.3937    242.9046   9.4875369547e+01  -5.8500529838e+00    0.5115739    0.3220552  -7.21  0.003014816    1.670    0.401
       119  -9.0506    150.7470    240.4274   1.1014376241e+02   8.7285259539e+00     0.260565    0.1321789  33.93  0.001349628    1.851    0.460
       120 -10.2711    144.7090    237.9092   1.1089350948e+02   9.9611360016e+00    0.5753777    0.3160303  55.01  0.003544292    1.686    0.407
