#   1 NUMBER                 Running object number                                     
#   2 MAG_AUTO               Kron-like elliptical aperture magnitude                    [mag]
#   3 X_IMAGE                Object position along x                                    [pixel]
#   4 Y_IMAGE                Object position along y                                    [pixel]
#   5 X_WORLD                Barycenter position along world x axis                     [deg]
#   6 Y_WORLD                Barycenter position along world y axis                     [deg]
#   7 A_WORLD                Profile RMS along major axis (world units)                 [deg]
#   8 B_WORLD                Profile RMS along minor axis (world units)                 [deg]
#   9 THETA_WORLD            Position angle (CCW/world-x)                               [deg]
#  10 FWHM_WORLD             FWHM assuming a gaussian core                              [deg]
#  11 ELONGATION             A_IMAGE/B_IMAGE                                           
#  12 ELLIPTICITY            1 - B_IMAGE/A_IMAGE                                       
         1 -13.5149    228.3744      3.4199   3.6998068346e+01   2.7377988270e+01     1.724538    0.6485029  59.22  0.004216762    2.638    0.621
         2 -14.0261    195.1999     38.1014   4.9534977511e+01   3.1439158929e+01     1.412239      1.16611 -27.63  0.003509908    1.298    0.230
         3 -14.5984    204.6573     27.6428   4.5420514316e+01   3.0387875895e+01     1.656936     1.297732  24.67  0.001634376    1.671    0.402
         4 -12.2443     32.5412     14.9064   8.5882847312e+01   6.9365192558e+01    0.3215361    0.1736443 -38.40  0.001829235    1.667    0.400
         5 -12.1388     60.8106      3.3939   6.7620232519e+01   6.6755334938e+01    0.4225456    0.2794735   0.61  0.002498969    1.423    0.297
         6 -11.7703     32.5187      2.4982   7.9567291288e+01   7.1096546985e+01    0.2537125    0.1609903  30.20  0.001613546    1.591    0.371
         7 -11.0471    113.2934    207.6570   1.0757484681e+02   1.6155740858e+01    0.2763088    0.2077968  77.95 0.0006619202    1.441    0.306
         8 -11.8183    139.9922    249.4819   1.0750110506e+02   4.5713782195e+00    0.3369406      0.26618  69.05  0.002270178    1.428    0.300
         9 -16.7827     72.7614    150.5495   1.0877143761e+02   3.5094344837e+01       23.112     11.23603  84.95   0.04986072    5.005    0.800
        10 -18.2517      7.1053    240.3926   1.3029757030e+02   2.3648613813e+01     5.907418     2.737957 -83.44   0.03437207    1.863    0.463
        11 -11.7381     47.4447    173.1253   1.1791732333e+02   3.3041191886e+01    0.4159658    0.2725358 -57.21 0.0009718212    1.602    0.376
        12 -12.2572     73.0854    175.3602   1.1225444724e+02   2.9241541764e+01    0.4058179    0.2849753 -41.58  0.001373149    1.870    0.465
        13 -12.2437     77.0071    170.5179   1.1067595453e+02   2.9792189419e+01    0.3522885    0.2820676 -46.51  0.001445106    1.473    0.321
        14 -11.7184    138.6062    173.0692   9.6440532455e+01   1.8770947871e+01    0.9440941    0.4801058  55.59  0.003679167    2.376    0.579
        15 -11.5503     52.7223    171.4890   1.1652332556e+02   3.2788308542e+01    0.8007421    0.2127225 -59.44  0.002902779    3.255    0.693
        16 -10.3094    230.5537    167.3096   7.5920760046e+01   1.9758683024e+00    0.2738083     0.111228 -47.58 0.0009596426    3.518    0.716
        17 -10.1223    160.0052    163.9926   8.9733945231e+01   1.6457986915e+01    0.2426782    0.1881806  82.49  0.001137151    1.784    0.440
        18 -12.1828     91.3798    154.5927   1.0464763484e+02   3.1328815827e+01    0.6213114    0.4367467 -28.94  0.002715182    2.044    0.511
        19 -12.7258    194.1366    196.9091   8.8867497664e+01   3.7808889602e+00     1.306635    0.7191186 -57.26  0.005382267    3.154    0.683
        20 -10.4064    204.4894    176.1919   8.2757592940e+01   5.3538010957e+00    0.4074855    0.2191312 -51.92  0.001685398    2.583    0.613
        21 -11.4492    133.7473    144.8231   9.1933285960e+01   2.5910421660e+01     1.181372    0.3112072 -54.55  0.002887734    5.373    0.814
        22 -10.6765    174.4692    149.1937   8.3272129820e+01   1.6467961592e+01    0.3098941    0.2790914 -57.37 0.0007813824    1.222    0.181
        23 -11.0938    144.1856    146.5515   8.9737014895e+01   2.3401140189e+01    0.3992918    0.2814838 -80.76  0.001676617    2.101    0.524
        24 -10.2865     86.3894    145.3967   1.0432949213e+02   3.4308628240e+01    0.2526055    0.2158183  77.24 0.0008091792    1.168    0.143
        25 -11.2557    104.5656    139.4061   9.8335914558e+01   3.2709210361e+01    0.6216876     0.340083 -38.86  0.002483719    2.242    0.554
        26 -12.3026     92.0980    139.7344   1.0174758633e+02   3.4755889483e+01    0.2807893    0.2533889 -50.67 0.0004082699    1.141    0.124
        27 -11.3945    135.6392    128.5166   8.7714431343e+01   2.9201000998e+01    0.6342862    0.2303654 -51.17  0.001976704    2.962    0.662
        28 -10.7726    105.9941    130.7961   9.6120352553e+01   3.4496886480e+01    0.3609432    0.3126813 -77.38  0.001216058    1.192    0.161
        29 -10.8791    112.9735    130.2745   9.4106647022e+01   3.3327863835e+01    0.3468456    0.3074065 -10.02  0.001075883    1.325    0.245
        30 -10.2434    160.7245    128.1432   8.1440745221e+01   2.3830788699e+01     0.311071    0.2518614 -77.21  0.001441176    1.558    0.358
        31 -11.2051    100.0473    126.6006   9.6837961676e+01   3.6557403359e+01    0.4086217    0.2841759 -23.52 0.0009058277    2.017    0.504
        32 -12.4783    203.7991    199.7977   8.7486329076e+01   1.5910970814e+00    0.4483055    0.3757536  12.55  0.002715814    1.063    0.059
        33 -11.5999    119.5996    123.4595   9.0722428510e+01   3.3635508729e+01    0.6123422    0.4004138 -14.78   0.00229781    2.683    0.627
        34 -10.4504    135.2263    119.7782   8.5660664593e+01   3.1250912836e+01    0.3733259    0.1282454 -44.50  0.001159469    2.900    0.655
        35 -11.1962     25.3408    120.8823   1.1723684901e+02   4.7576913845e+01    0.2037825    0.1612008  53.06  0.001186173    1.403    0.287
        36 -10.2100    108.9213    119.1030   9.2614946420e+01   3.6716996907e+01    0.2179584    0.2141048 -58.37 0.0003335607    1.022    0.022
        37 -10.3220     81.6924    194.9941   1.1276444813e+02   2.3674739519e+01    0.2620176    0.2434216  66.44  0.001007202    1.165    0.142
        38 -12.2241     17.1641    110.6747   1.1820354746e+02   5.0630698974e+01    0.3273194    0.2244448  48.35   0.00189326    1.679    0.405
        39 -15.7066     47.1845    221.0182   1.2225796665e+02   2.2921808490e+01     2.466434     1.196153  85.21   0.01317117    2.169    0.539
        40  -9.8529    167.5372    112.3316   7.5799837747e+01   2.5570756566e+01    0.3402013    0.2483737 -75.64  0.001129357    1.958    0.489
        41 -10.4098    134.6331    105.2560   8.1983683656e+01   3.4589716168e+01    0.6114997    0.1487276 -44.53  0.001603051    4.058    0.754
        42 -12.2356    118.1385    108.9622   8.7468774354e+01   3.7257644799e+01    0.7427704    0.5431719 -55.65   0.00344237    1.403    0.287
        43  -9.6125    159.8542    197.0586   9.5997780582e+01   1.0034597728e+01    0.2005539    0.1780564  64.23 0.0003665292    1.241    0.194
        44 -10.1720    205.5124    110.1618   6.7320018439e+01   1.7138741097e+01    0.3133726    0.2180879  41.53 0.0007942076    1.517    0.341
        45 -11.7125     42.3256     91.9709   1.0697208618e+02   5.2927274879e+01     0.322987    0.2511995  37.48  0.001140217    1.499    0.333
        46  -9.7512    153.8207    184.9840   9.5179363485e+01   1.3454283533e+01    0.2271096    0.1674062 -85.89  0.001075392    2.007    0.502
        47  -8.9242    162.1467     89.3892   7.0675930890e+01   3.1438320274e+01      0.21536    0.1525561  64.59 0.0005062702    1.606    0.377
        48 -15.8324     85.5049    228.9299   1.1564657460e+02   1.6345293335e+01     2.489994     2.198007 -50.02   0.01741418    1.543    0.352
        49  -9.4344    157.0068     81.2332   6.9455588108e+01   3.4250750064e+01    0.2184458     0.210435  35.90 0.0004794274    1.038    0.037
        50  -9.4093    184.3189     77.0455   6.2455842101e+01   2.8208771735e+01    0.2209076    0.1976844 -38.08 0.0005987939    1.104    0.094
        51 -10.3050     62.4454     69.2570   9.3934513590e+01   5.5683614411e+01    0.2362905    0.2199808 -49.71 0.0003704425    1.159    0.137
        52 -11.2428    146.8747    183.2163   9.6404847214e+01   1.5115302355e+01    0.3236363     0.262721  58.41  0.001098423    1.265    0.209
        53 -13.7647    184.8726     46.2558   5.3448562060e+01   3.2958303247e+01     1.172705    0.9418076  31.61  0.001071407    1.439    0.305
        54 -15.3983     10.7667    206.3742   1.2805076811e+02   2.9728526023e+01    0.5763918    0.4702708 -74.57  0.002390545    1.419    0.295
        55  -9.5120    130.9201    214.1441   1.0476317545e+02   1.1985710922e+01    0.1915896    0.1560289  61.40 0.0002683559    1.190    0.160
        56 -10.9711    151.9983     55.1466   6.2446760426e+01   4.0045798211e+01       0.3704     0.272731 -83.93 0.0004950468    1.827    0.453
        57 -10.6508    154.1042     49.0419   6.0015532772e+01   4.0457206094e+01     0.308148    0.2612663 -80.31 0.0004639333    1.348    0.258
        58 -11.3725     42.0703     18.5321   8.3069217137e+01   6.7662775171e+01    0.2886887    0.1995047  53.73  0.001560497    2.661    0.624
        59 -10.4914    153.0573    198.5754   9.7704824386e+01   1.0995205839e+01    0.4120466    0.2079531 -56.98  0.001767164    2.539    0.606
        60  -9.9449    189.8050     15.0874   4.3799859157e+01   3.5583703113e+01    0.2148529    0.1723172 -64.45 0.0006596242    1.229    0.187
        61 -16.4190     51.3457    203.3996   1.2001871566e+02   2.5966799634e+01     5.155244      2.52155  75.16   0.02536277    2.274    0.560
