#   1 NUMBER                 Running object number                                     
#   2 MAG_AUTO               Kron-like elliptical aperture magnitude                    [mag]
#   3 X_IMAGE                Object position along x                                    [pixel]
#   4 Y_IMAGE                Object position along y                                    [pixel]
#   5 X_WORLD                Barycenter position along world x axis                     [deg]
#   6 Y_WORLD                Barycenter position along world y axis                     [deg]
#   7 A_WORLD                Profile RMS along major axis (world units)                 [deg]
#   8 B_WORLD                Profile RMS along minor axis (world units)                 [deg]
#   9 THETA_WORLD            Position angle (CCW/world-x)                               [deg]
#  10 FWHM_WORLD             FWHM assuming a gaussian core                              [deg]
#  11 ELONGATION             A_IMAGE/B_IMAGE                                           
#  12 ELLIPTICITY            1 - B_IMAGE/A_IMAGE                                       
         1 -10.8535    215.6800     20.6021   6.8781337845e+01   2.7696150232e+01    0.7443988    0.3447044 -49.02  0.002342629    2.070    0.517
         2 -13.3038    242.5945     89.7015   8.3555263294e+01   1.3453298846e+01     2.600164      0.76071 -36.50  0.006822105    2.956    0.662
         3 -14.2107    237.1361     57.4743   7.6373353241e+01   1.8539850166e+01     4.243022     2.468337  82.23   0.01791251    2.309    0.567
         4 -14.0305    171.4401     55.5264   8.5016384751e+01   3.4769539754e+01     5.300905     2.317838  81.48   0.01178594    7.260    0.862
         5 -12.9873    213.9335     40.2457   7.4398811468e+01   2.5935542161e+01      1.45488    0.8599415  -9.54   0.00577578    2.087    0.521
         6 -12.4246    223.4852     33.2875   7.1510529719e+01   2.4443867509e+01     1.029461    0.6188477   6.58  0.003834222    2.482    0.597
         7 -12.9145    119.1964      9.5315   7.7838201510e+01   5.5039438016e+01     1.085223    0.8293603 -77.07    0.0033586    1.487    0.328
         8 -14.3801     10.7639      8.5567   1.2889887293e+02   7.6353062044e+01     2.926442     1.514118  27.86   0.01416812    2.147    0.534
         9 -14.2554     50.9320      3.2888   9.7185018240e+01   7.2030078031e+01     5.688124    0.8997101  49.40   0.01475899    6.701    0.851
        10 -10.6404    190.5820     13.9967   6.9220832698e+01   3.4807371467e+01     1.335182    0.5158055 -66.67  0.004030479    4.203    0.762
        11 -12.0136    155.9384      8.0003   7.1173075498e+01   4.4921072631e+01     1.232377    0.9162085  55.25  0.006194352    1.309    0.236
        12 -13.2988    136.5866     10.8612   7.5162352615e+01   5.0083612330e+01     1.548653     1.003782  34.61   0.00698271    1.731    0.422
        13 -10.3112    177.2914     11.0353   6.9673904084e+01   3.8691188841e+01     0.725769    0.1907391 -37.47  0.002378825    3.199    0.687
        14 -11.1098    190.3434      3.4063   6.5977611138e+01   3.5875753363e+01    0.8258698     0.317889 -38.95  0.003285045    2.307    0.567
        15 -11.8682    172.7138      2.6684   6.7373721121e+01   4.0725908051e+01    0.8911348      0.62574  89.01  0.002745665    1.366    0.268
        16 -11.2832    182.4169      3.0324   6.6562186678e+01   3.8038873166e+01    0.7039388    0.4546319 -78.47  0.003304099    1.555    0.357
        17 -11.5849    148.3478     11.2006   7.3430017591e+01   4.6745026845e+01     1.224889    0.5817533 -73.75   0.00408229    3.233    0.691
        18 -12.8528    239.8516     13.7969   6.5134880573e+01   2.2698669578e+01    0.6427872    0.2283304 -51.54  0.002608374    2.710    0.631
        19 -11.4038    237.7414      4.0529   6.2829918448e+01   2.4090777359e+01    0.7526096    0.1533073 -46.22  0.002569639    3.741    0.733
        20 -11.8857    246.8146      4.4289   6.2416010055e+01   2.2042164649e+01    0.4600471    0.3643706  48.48  0.002307703    1.549    0.354
        21 -10.6536    222.9866     15.4180   6.6764276021e+01   2.6449457952e+01    0.3997266    0.1853299 -45.04  0.001249575    1.914    0.477
        22 -11.4221    217.1977      8.1575   6.5235844466e+01   2.8557010866e+01    0.6278394    0.1729556 -46.61  0.001646888    3.224    0.690
        23  -8.5984    195.6065      1.7099   6.5029633331e+01   3.4634696054e+01    0.1970654    0.1149177 -36.92  0.000938292    1.591    0.372
        24  -8.3224     42.9913    224.7291   1.4674258845e+02   2.5564902620e+01    0.1344399   0.07224492  38.73 0.0004199403    1.427    0.299
        25 -11.1115    248.9121     45.5131   7.2251658443e+01   1.7412497609e+01    0.5413336    0.3286703 -31.17  0.001138331    1.405    0.288
        26 -12.4242      9.2549    218.2874   1.5307935009e+02   2.9994320650e+01    0.6214463    0.3503135  26.26  0.004065898    1.917    0.478
        27 -11.6728    197.2558     54.3712   8.0524138160e+01   2.8279461125e+01    0.5557404    0.3417134  31.81  0.002317662    2.095    0.523
        28 -10.6351    195.9056    128.9853   1.0009836178e+02   1.7454798961e+01    0.3091226    0.2089161 -14.75 0.0005196612    1.666    0.400
        29 -13.0019    219.7560    128.3292   9.5754991898e+01   1.2837517853e+01     1.803117    0.4552718  54.48  0.004788239    6.707    0.851
        30 -12.1253    201.9759    125.9481   9.8298136460e+01   1.6680830738e+01    0.4831797    0.3627835  57.82  0.001761509    1.550    0.355
        31 -10.9478    205.6045    122.1835   9.6794679622e+01   1.6501085312e+01    0.3249214    0.2474509 -18.23   0.00110564    1.301    0.232
        32  -9.3000    160.2833    127.8097   1.0714091222e+02   2.5083239033e+01    0.2269379    0.1913956 -64.26   0.00119468    1.445    0.308
        33 -12.0249    183.7874    123.9784   1.0129838562e+02   2.0758490382e+01    0.5359911    0.4480436  52.86  0.002944445    1.258    0.205
        34  -9.4593    136.7141    126.9217   1.1251118329e+02   3.0183250764e+01    0.2648542     0.214512  82.50  0.000166701    1.536    0.349
        35  -8.5490    127.9777    124.9143   1.1428799854e+02   3.2373161230e+01    0.1719604    0.1590954  47.19 0.0009412603    1.006    0.006
        36 -10.9386    224.1535    121.6401   9.3561346289e+01   1.2900994010e+01    0.4192613    0.1806964  50.67  0.001680264    2.430    0.588
        37 -12.5005    216.9774    117.2654   9.3731568925e+01   1.4910116919e+01    0.6693168    0.5170574 -85.91  0.003439013    2.146    0.534
        38  -9.4544    140.0075    120.4903   1.1023735668e+02   3.0769551122e+01    0.2372972    0.1400164  45.54 0.0008867779    1.582    0.368
        39 -10.8390    200.6449    115.9343   9.6227163344e+01   1.8459415596e+01    0.2603803     0.208841  55.61 0.0008313531    1.366    0.268
        40  -9.6202    179.7572    105.6073   9.7659037780e+01   2.4672547460e+01    0.3091804    0.2449179 -67.56 0.0005208017    1.645    0.392
        41  -9.9724    179.7147     49.8985   8.1851211354e+01   3.3400356289e+01    0.4667625    0.3498109  68.83  0.002276011    1.352    0.260
        42 -12.9200    187.2432    108.3902   9.6890983688e+01   2.2537228392e+01     1.909029    0.7119405 -35.20  0.006929332    2.698    0.629
        43 -12.7733      7.6502    212.6490   1.5325217811e+02   3.1115941805e+01    0.6143414    0.4232933  30.50  0.003891025    1.539    0.350
        44 -11.9474    174.7974     73.7190   8.9924765660e+01   3.1101107419e+01    0.7878284    0.6286598   8.07  0.001529698    1.492    0.330
        45 -10.6346    167.8244    113.6048   1.0213374226e+02   2.5983205130e+01    0.3428337    0.3191674 -75.38 0.0008168498    1.242    0.195
        46 -10.2854    134.6812    112.3196   1.0963592923e+02   3.3542654663e+01     0.499373    0.1406123 -42.81  0.001467423    3.874    0.742
        47 -12.2200    204.5290    109.9498   9.4116318410e+01   1.8534555103e+01    0.6024766     0.448276  60.84  0.002459077    1.555    0.357
        48  -9.2599    171.0112     97.9553   9.7459601169e+01   2.7984830575e+01    0.2388024    0.1878599 -81.78 0.0005771651    1.715    0.417
        49  -9.6494    148.3739     95.9723   1.0198556242e+02   3.3665806803e+01    0.3210058    0.2437539  11.63  0.001226034    1.719    0.418
        50  -9.0608    134.6603     93.4619   1.0471774383e+02   3.7343982780e+01    0.2846711    0.2218564 -78.89 0.0008121806    1.648    0.393
        51 -11.0365    191.5932     58.9456   8.2696865049e+01   2.9076340227e+01    0.4916119    0.3116392  42.85  0.001100974    1.709    0.415
        52  -9.6606    157.1715     88.7819   9.7940055926e+01   3.2898268022e+01    0.3052994    0.2789739  -7.35  0.000965665    1.168    0.144
        53 -10.4497    160.4792     85.9933   9.6414074050e+01   3.2591327123e+01     0.335115    0.2755052 -27.72 0.0008950044    1.273    0.215
        54 -10.1566    142.1992     84.5007   1.0023261536e+02   3.7309094609e+01    0.3032545     0.285116  88.14 0.0006393963    1.121    0.108
        55  -8.5972    202.9704     80.4969   8.6910894695e+01   2.3227971629e+01    0.2029369    0.1440915  62.58 0.0006986734    1.520    0.342
        56 -11.5836    156.8891     75.5517   9.4128859660e+01   3.5306056906e+01    0.3879597    0.2949812 -21.09 0.0006144877    1.468    0.319
        57 -14.0508     39.3739    189.7442   1.4562580100e+02   3.2292477398e+01     1.225841    0.9380966  -2.97  0.002660209    2.137    0.532
        58  -9.4500    222.0325     73.3806   8.2250034726e+01   1.9861568605e+01    0.2618899    0.2044381 -67.47  0.001393669    1.538    0.350
        59 -13.4236     51.2791    179.3724   1.4215113175e+02   3.3014223946e+01    0.9992189     0.712724  54.76  0.003001919    1.116    0.104
        60 -10.8177    181.8852     66.9753   8.6650487878e+01   3.0361456194e+01    0.3830178    0.2749971 -49.07  0.000387898    1.461    0.316
        61  -9.4077     91.4475     65.7826   1.0927935232e+02   5.2649639014e+01    0.4611416    0.2427941 -65.74  0.001527852    3.339    0.701
        62 -10.0090    144.4540     59.5821   9.1822800770e+01   4.1223778173e+01    0.4251359    0.2754559 -63.95  0.001709566    2.066    0.516
        63  -8.2402     72.7032     58.3237   1.1380427945e+02   5.7853697408e+01    0.1450561    0.1151381  86.08 0.0003909958    1.624    0.384
        64  -9.5770    134.9687     48.7024   9.0235875740e+01   4.5502841517e+01    0.2221254      0.19297  60.99 0.0003053339    1.120    0.107
        65 -12.0878    204.0176     57.0097   8.0320558934e+01   2.6250730825e+01    0.9119784    0.3855281 -53.68  0.003048208    3.394    0.705
        66  -9.1730    242.9465     39.9683   7.1426084562e+01   1.9294597199e+01    0.1985289    0.1556839 -51.03 0.0005619538    1.194    0.163
        67  -8.2098    250.2801     39.3152   7.0630657633e+01   1.7805423248e+01    0.1214181   0.09453014  15.05 0.0006984426    1.573    0.364
        68  -9.2303    246.0753     36.4871   7.0294963299e+01   1.9001131769e+01    0.2580962    0.1699063 -46.76 0.0006583407    1.373    0.272
        69  -8.8828    243.4921     33.5334   6.9781824136e+01   1.9876023968e+01    0.2035861    0.1695843 -82.52  0.001259867    1.276    0.216
        70  -8.7959    186.2855     36.2546   7.6636217921e+01   3.3455991409e+01     0.305082      0.13365 -46.19  0.001136621    2.354    0.575
        71 -10.4857    231.5738     34.3194   7.1021411686e+01   2.2448295083e+01    0.3550023    0.1905182 -53.09 0.0009779094    1.891    0.471
        72 -10.5247    236.1360     33.2770   7.0344619586e+01   2.1528708392e+01    0.3843143     0.213163 -53.00 0.0009346336    1.793    0.442
        73 -10.3525    151.8911     35.6046   8.1896163905e+01   4.2875245996e+01    0.3309326    0.1818707 -46.99  0.001323502    1.950    0.487
        74 -10.4535    200.6430     32.3529   7.3659357605e+01   3.0182287020e+01     0.565502    0.2113606 -43.84  0.001196482    2.566    0.610
        75  -8.7354    181.4908     33.9720   7.6578185427e+01   3.5013840898e+01    0.2310196    0.1376052 -33.55  0.001018596    1.623    0.384
        76  -8.7165    249.9172     31.4082   6.8745705369e+01   1.8723710720e+01    0.1584326    0.1225465  79.49 0.0002777879    1.433    0.302
        77  -8.6312    162.3564     28.1381   7.7460784839e+01   4.0944621206e+01    0.2126679    0.1292901 -39.29 0.0004093491    1.633    0.388
        78 -11.0904    144.5121     25.2599   7.9435974679e+01   4.6250872808e+01    0.4088982    0.3419174 -76.42  0.000422086    1.262    0.207
        79 -12.1695    183.2268     80.9575   9.0418784986e+01   2.7868829372e+01     1.541548    0.4696303 -42.46  0.004746706    3.468    0.712
        80 -11.3782    114.8663     25.4674   8.5938675244e+01   5.4291797615e+01    0.3876514    0.2215279  46.22  0.001635779    1.712    0.416
        81  -9.5587    234.6986    173.8319   1.0240083262e+02   4.5412393630e+00    0.2088826    0.1309849  46.82  0.001088323    1.851    0.460
        82  -9.7538    186.0416    192.9847   1.1422256962e+02   9.9795298949e+00    0.1808771    0.1446226  26.30  0.001188677    1.023    0.022
        83  -9.8254    216.3960    168.9122   1.0454346075e+02   8.0802655836e+00       0.2851    0.1839452  56.39   0.00103597    2.269    0.559
        84  -9.8236    179.4449     23.9855   7.3647441365e+01   3.6741074808e+01    0.5133103    0.3528563  61.56   0.00248194    1.415    0.293
        85 -11.5589    107.6535     22.7318   8.6614409554e+01   5.6542298060e+01    0.7336186    0.1584887  48.72  0.001981272    4.227    0.763
        86  -9.0972    100.9933    175.9879   1.2988126626e+02   2.6861503114e+01    0.1814507    0.1507644  47.77  0.001121021    1.019    0.018
        87  -8.1927    217.7310    153.7351   1.0140223063e+02   9.8031768931e+00    0.1252094   0.08593762  12.22 0.0001874538    1.465    0.317
        88  -8.2693    203.6621    152.6940   1.0367991231e+02   1.2471756170e+01    0.1389679   0.09153018  14.03  0.000366096    1.676    0.403
        89 -11.1774    233.8219    145.1849   9.7039993688e+01   8.0922792111e+00    0.3263151    0.2080869  42.26  0.001178585    1.567    0.362
        90 -12.6606    240.0002    141.4509   9.5323871223e+01   7.4936326301e+00    0.6375811     0.410843 -32.44  0.003701233    1.559    0.359
        91 -10.2473     69.5038    145.4998   1.3397461767e+02   3.7940050722e+01    0.3361819    0.2484564  51.38  0.001264173    1.196    0.164
        92 -10.3579     66.4907    144.4801   1.3468181438e+02   3.8583063291e+01    0.4520214    0.2819979  88.19  0.001650367    1.777    0.437
        93  -8.6304    192.2056    144.2141   1.0409126400e+02   1.5868936160e+01    0.1665881    0.1589378  56.00 0.0003794494    1.276    0.216
        94  -8.7048    158.6701    142.3145   1.1063255383e+02   2.2818666634e+01    0.1402078    0.1120647  76.36 0.0004341461    1.677    0.404
        95  -9.4072    131.1714    139.6892   1.1656279644e+02   2.8753923894e+01    0.2344266    0.2224237  26.16 0.0002285954    1.096    0.088
        96 -11.0553    249.2205     79.9593   8.0461541779e+01   1.3345349005e+01    0.5304404    0.2600928 -38.56  0.002332981    1.856    0.461
        97  -9.6383    232.7857     17.8684   6.6664153171e+01   2.3901936615e+01    0.2186624    0.1458997 -45.87 0.0005630369    1.316    0.240
        98  -9.1352     65.3206    246.1192   1.4360038637e+02   1.9649393457e+01    0.1632214    0.1086106  37.73 0.0003585298    1.248    0.198
        99 -13.9276    241.9303    115.3584   8.9492151373e+01   1.0370737903e+01     2.180759      1.02614 -33.35   0.01050164    1.947    0.487
