#   1 NUMBER                 Running object number                                     
#   2 MAG_AUTO               Kron-like elliptical aperture magnitude                    [mag]
#   3 X_IMAGE                Object position along x                                    [pixel]
#   4 Y_IMAGE                Object position along y                                    [pixel]
#   5 X_WORLD                Barycenter position along world x axis                     [deg]
#   6 Y_WORLD                Barycenter position along world y axis                     [deg]
#   7 A_WORLD                Profile RMS along major axis (world units)                 [deg]
#   8 B_WORLD                Profile RMS along minor axis (world units)                 [deg]
#   9 THETA_WORLD            Position angle (CCW/world-x)                               [deg]
#  10 FWHM_WORLD             FWHM assuming a gaussian core                              [deg]
#  11 ELONGATION             A_IMAGE/B_IMAGE                                           
#  12 ELLIPTICITY            1 - B_IMAGE/A_IMAGE                                       
         1 -13.9709    221.7051     27.2126   3.5699959473e+02   2.8562569679e+01    0.8610852    0.6583228 -38.96  0.004038755    1.273    0.214
         2 -11.5996    221.1232      6.1147   3.5273593451e+02   3.0864627848e+01     0.399391    0.1038058 -37.10  0.001984682    2.578    0.612
         3 -11.4346     61.3087     21.9771   2.0586323199e+01   6.5645847631e+01    0.3664702     0.282084 -72.81  0.001474621    1.698    0.411
         4  -9.8185     86.0000    241.1112   6.3391425795e+01   1.2805051838e+01     0.154271   0.07390655 -62.54 0.0004282783    2.596    0.615
         5 -12.5588    248.2798    246.6805   3.2647670430e+01  -3.6098466085e+00    0.5751252    0.2305351 -29.95  0.003810717    1.893    0.472
         6 -11.2913     82.3042    195.1122   5.9268744999e+01   2.2660839057e+01    0.4971765    0.3535432  36.59   0.00167795    1.286    0.223
         7 -11.2385     53.3116    189.0786   6.6879186355e+01   2.7550239974e+01    0.2622464    0.1823386  39.03 0.0003232465    1.293    0.227
         8 -10.1102    192.1235    193.3275   3.3687424597e+01   8.6969815378e+00    0.5146149    0.2655122 -60.47  0.001554652    8.235    0.879
         9 -12.3964     33.7661    189.6384   7.2737095157e+01   2.9445423589e+01    0.7409314    0.4417521  64.23  0.002480706    1.797    0.444
        10  -9.9726     29.7391    190.3369   7.3986293921e+01   2.9653138740e+01    0.2125766    0.1782847  53.73 0.0002574546    1.111    0.100
        11  -9.8970     48.1729    193.5003   6.8825267070e+01   2.7047126167e+01    0.1930735    0.1665278  33.36  0.001105052    1.030    0.029
        12 -15.8925     69.8171    143.2242   5.5334600375e+01   3.7076177159e+01     4.485192     2.811317  57.85   0.01038378    1.919    0.479
        13  -9.6613    234.3413    191.0685   2.6499809887e+01   4.4245249882e+00    0.1540529    0.1063538 -26.82 0.0005770301    1.121    0.108
        14  -9.8373     43.5636    186.7969   6.9560609749e+01   2.9161996026e+01     0.246319    0.1691873  60.30 0.0007404691    1.513    0.339
        15 -11.6068     57.3560    194.4705   6.6256088537e+01   2.5807419748e+01    0.4331734    0.2426922  63.23  0.001430112    2.239    0.553
        16  -9.4543     67.8998    214.7536   6.5387977354e+01   2.0046723190e+01    0.1611817    0.1420607  32.48 0.0005213163    1.056    0.053
        17 -11.9119     54.6838    179.9864   6.5482542793e+01   2.9623596164e+01    0.4354928    0.2987709 -19.65  0.001367532    1.813    0.448
        18 -11.3698    179.6770    168.8402   3.1736724699e+01   1.4328372436e+01    0.5670908    0.4017898 -37.08  0.003216996    1.285    0.222
        19 -10.3059    174.9891    179.4995   3.4542945300e+01   1.3127549111e+01    0.2596619    0.2038599  13.47 0.0009619434    1.224    0.183
        20 -11.6202    172.5495    174.5244   3.4140177539e+01   1.4325831710e+01    0.5451937    0.3437001 -26.57  0.001363976    1.544    0.352
        21 -19.4822     13.2794    142.5493   7.5667914356e+01   4.3553930579e+01     20.00983     6.705955 -84.11   0.06614865    3.271    0.694
        22 -12.2237     52.8986    231.9448   7.0757818784e+01   1.8037817794e+01    0.2725039    0.1661453 -59.04  0.001063614    1.921    0.479
        23 -11.2174     47.2838    233.6703   7.2294869830e+01   1.8241913100e+01    0.1573843    0.1258558 -60.48 0.0009841992    1.500    0.333
        24 -11.1708     47.2779    229.2614   7.1989144777e+01   1.9145868955e+01    0.1918817    0.1251181  46.26 0.0009603683    1.389    0.280
        25 -11.4175    134.0000    147.1007   3.7341638885e+01   2.5601276932e+01    0.8617699    0.2033046 -50.73   0.00238907    4.651    0.785
        26 -10.8825    133.0000    142.0106   3.6531156180e+01   2.6849925526e+01    0.5973032    0.1908947 -50.84  0.001939393    3.321    0.699
        27 -10.7239    112.6154    150.9116   4.3655710363e+01   2.8378130690e+01    0.2784846    0.2084102  57.31  0.001251571    1.604    0.377
        28 -11.8299     58.9908    231.6691   6.9199263707e+01   1.7475837133e+01    0.1937381    0.1723778 -49.45 0.0005571895    1.340    0.254
        29 -11.1463     88.0657    149.2418   5.0508481619e+01   3.2770413170e+01    0.2854234    0.2672451  37.39 0.0002693118    1.049    0.047
        30 -12.7850     93.8537    143.8493   4.7700967454e+01   3.3159935465e+01    0.7840565    0.6167799 -20.50  0.002880851    1.459    0.315
        31  -9.9614    169.8857    140.0148   2.8034856083e+01   2.0952808899e+01    0.5326627    0.2463886 -59.51   0.00170962    4.704    0.787
        32 -12.0687    105.6504    133.2773   4.1986237665e+01   3.3659147069e+01    0.6200441    0.4084792 -25.43  0.002625289    1.977    0.494
        33 -11.9884     94.3881    131.5269   4.5002669916e+01   3.6068641049e+01      0.43267    0.3152762 -64.28  0.002001642    1.520    0.342
        34 -10.6518    135.8771    130.3747   3.3312357958e+01   2.8783110624e+01    0.4429173   0.09245394 -47.46     0.001172    4.751    0.790
        35 -10.4951    160.7075    124.9641   2.6642434318e+01   2.5326939700e+01    0.4344226    0.1751539 -40.93  0.001721759    2.337    0.572
        36  -9.0324    106.5911    123.7682   3.9578803884e+01   3.5701729372e+01    0.2031106    0.1479983 -64.07 0.0004411034    1.558    0.358
        37  -9.6279    165.1098    131.0967   2.7099006651e+01   2.3403575487e+01    0.2017664    0.1625394 -73.05 0.0006959387    1.621    0.383
        38 -10.5110    101.4069    120.6650   4.0396965730e+01   3.7395128758e+01    0.2960653    0.2474278  -8.23 0.0004044019    1.400    0.286
        39 -10.5998     86.1764    118.6080   4.4766310897e+01   4.0685172857e+01    0.4967077    0.2264389 -59.69  0.001093299    2.487    0.598
        40 -10.9792    113.9990    125.7742   3.7930030124e+01   3.3856374234e+01      0.32625    0.2601579  15.93 0.0007986785    1.416    0.294
        41 -10.0997    109.2710    115.9782   3.6951831032e+01   3.6974498759e+01    0.2509509    0.2173094  35.70   0.00042684    1.153    0.133
        42  -9.4834    157.9262    113.9301   2.4709651043e+01   2.7910469764e+01     0.216881    0.1661317 -75.11 0.0007051094    1.691    0.409
        43  -9.2203    153.7807    113.9872   2.5563409900e+01   2.8687756214e+01    0.2308903    0.1556929 -67.92    0.0010583    2.026    0.507
        44 -11.8613    116.2657    109.4790   3.3379090880e+01   3.7032015848e+01    0.4919984    0.4127921 -79.78  0.001886162    1.392    0.282
        45 -12.4079    117.7704    102.9815   3.1304710761e+01   3.8119855502e+01    0.7300028    0.4462553  54.54  0.002018707    1.777    0.437
        46 -11.1146    120.7929     98.9796   2.9454523558e+01   3.8327763670e+01    0.3491452    0.2950182  33.76  0.001350267    1.261    0.207
        47  -9.3965    104.3369    109.8728   3.6882650420e+01   3.9326551737e+01     0.216627    0.1931306 -54.56  0.001082402    1.142    0.124
        48 -10.9182     81.7970    109.5389   4.4092148848e+01   4.3707322554e+01    0.3656368    0.2655847  24.85 0.0009899457    1.470    0.320
        49 -10.5157    134.5536    106.3536   2.7953302915e+01   3.3976714064e+01    0.4174271    0.1328169 -49.58  0.001299368    3.439    0.709
        50 -10.2815     70.0079     98.8218   4.5694731201e+01   4.8471643601e+01    0.2498445    0.2034298  61.33  0.001196108    1.351    0.260
        51 -10.9529     62.9266     98.9685   4.8526436509e+01   4.9651191076e+01     0.534272    0.1720349  43.89  0.001586858    3.310    0.698
        52  -8.8369    101.6352     97.2951   3.4384903488e+01   4.2693864272e+01    0.1596993    0.1206472  77.90 0.0005129633    1.715    0.417
        53  -9.7081    150.9606    105.7952   2.4201320879e+01   3.0787244693e+01    0.2698521      0.17493 -66.56  0.001204236    2.082    0.520
        54  -8.9779    150.3641     88.8124   2.0092267253e+01   3.4028682878e+01    0.1838096    0.1283494 -33.38 0.0002250217    1.496    0.332
        55 -10.9319    152.2507    209.7491   4.4168343690e+01   1.0785318437e+01    0.2784528    0.1856837 -64.74  0.001439346    2.507    0.601
        56 -11.7592     88.3342    219.0641   6.0531896373e+01   1.6805335042e+01    0.4547917    0.3505468  16.34   0.00172011    1.135    0.119
        57 -12.9683    177.6824     66.3375   9.9724291143e+00   3.2000445445e+01    0.5178019    0.4403504 -58.00 0.0009127596    1.024    0.023
        58  -9.6405    164.5393    206.0918   4.1038963534e+01   9.9204249961e+00    0.3404626    0.1595269 -56.64  0.001423217    3.582    0.721
        59  -9.8194    165.3104     69.0202   1.2417053531e+01   3.4165495880e+01    0.2053762    0.1124871 -14.94 0.0007042169    4.216    0.763
        60  -9.9596     51.0289    200.6422   6.8668249385e+01   2.5056121474e+01    0.2954278    0.1573923 -68.43  0.001368747    2.072    0.517
        61 -13.7925    194.0730     53.9153   5.0759860675e+00   3.0472922429e+01    0.9457926    0.8489058  39.57  0.003797259    1.481    0.325
        62 -12.4003    200.4191     48.3535   3.1806084505e+00   2.9974015450e+01    0.3898543    0.3809791 -38.45  0.001375313    1.311    0.237
        63 -10.4104     63.8651     61.1725   3.6537129747e+01   5.8300362083e+01    0.2255634    0.2011796  65.52 0.0005613449    1.206    0.171
        64 -10.7708     53.9304     59.4803   4.0392106807e+01   6.0563890115e+01    0.2783179    0.2562123 -25.86 0.0004570735    1.134    0.118
        65  -9.9370    210.9495    198.9256   3.1363691358e+01   5.7430531996e+00    0.1720206    0.1323269 -13.89 0.0005244676    1.023    0.023
        66 -10.1252     24.4008    245.4594   7.8558376168e+01   1.7983663438e+01    0.1310087    0.1013853  14.22 0.0008449637    1.267    0.211
