#   1 NUMBER                 Running object number                                     
#   2 MAG_AUTO               Kron-like elliptical aperture magnitude                    [mag]
#   3 X_IMAGE                Object position along x                                    [pixel]
#   4 Y_IMAGE                Object position along y                                    [pixel]
#   5 X_WORLD                Barycenter position along world x axis                     [deg]
#   6 Y_WORLD                Barycenter position along world y axis                     [deg]
#   7 A_WORLD                Profile RMS along major axis (world units)                 [deg]
#   8 B_WORLD                Profile RMS along minor axis (world units)                 [deg]
#   9 THETA_WORLD            Position angle (CCW/world-x)                               [deg]
#  10 FWHM_WORLD             FWHM assuming a gaussian core                              [deg]
#  11 ELONGATION             A_IMAGE/B_IMAGE                                           
#  12 ELLIPTICITY            1 - B_IMAGE/A_IMAGE                                       
         1 -11.3427     39.4081     62.7961   1.2399853165e+02   5.8519507787e+01    0.6908078    0.2121299 -49.57  0.002831165    2.688    0.628
         2 -12.2211     76.5661     24.1198   9.6995307338e+01   6.1342525852e+01    0.5761853    0.4307214 -50.17  0.001421826    1.558    0.358
         3 -11.1766     13.3569     20.5777   1.2277265192e+02   6.9668612850e+01     0.351755    0.2637239  77.51   0.00124462    1.999    0.500
         4 -11.3261     42.0522     18.1683   1.0816825986e+02   6.7470675967e+01    0.5404485    0.4260891   9.55  0.003478336    1.406    0.289
         5 -10.5255     38.8354      1.9996   1.0151491660e+02   7.0646404962e+01    0.3644188    0.2346184  21.99  0.002155703    1.739    0.425
         6 -10.9752     40.9295      6.5193   1.0297905549e+02   6.9646119463e+01    0.5550656    0.2647335  25.59  0.002671672    2.678    0.627
         7 -10.7173     39.2627     10.5047   1.0582025818e+02   6.9176613586e+01    0.2507678    0.2259549 -39.99   0.00140248    1.302    0.232
         8 -11.7282     34.7412     12.8994   1.0914062485e+02   6.9273130047e+01    0.4704622    0.2815034 -54.05  0.001895539    1.769    0.435
         9 -11.9391     30.0563      7.1626   1.0866130597e+02   7.0808719431e+01     0.478588     0.310465 -43.02  0.002937537    1.279    0.218
        10 -10.9142     90.8263     15.5123   8.8211315352e+01   5.9972869448e+01     0.406626    0.2684033  12.08  0.001968432    1.738    0.425
        11 -10.8796     87.7487     10.5244   8.6751414805e+01   6.1272582956e+01    0.5462298    0.2362761 -23.22  0.001531914    2.265    0.559
        12 -10.4867     26.8851     15.9357   1.1432637228e+02   6.9506435688e+01    0.3056719    0.1923675 -36.55  0.001519195    1.300    0.231
        13 -10.8200    190.3512     14.8387   6.7351359033e+01   3.5351269178e+01    0.3421307    0.2217104 -18.72  0.001164396    1.521    0.342
        14 -10.6494    212.3779     11.9896   6.3824705571e+01   2.9834605703e+01    0.2581886    0.2480584  54.32 0.0007835642    1.065    0.061
        15 -10.2877     68.0850     12.3231   9.4471672373e+01   6.4678083864e+01     0.328249    0.2415438 -70.43  0.001598672    2.655    0.623
        16 -10.2359    184.5114     12.0288   6.7171240376e+01   3.7183550308e+01    0.2195325    0.1421557 -20.86  0.000421047    1.516    0.340
        17  -9.9587    118.8364     11.9358   7.8892526273e+01   5.4222629180e+01    0.2545047    0.1975916  49.21 0.0008390364    1.287    0.223
        18 -10.0205    109.5220     11.5188   8.1007711055e+01   5.6449860956e+01    0.2837357    0.1339491 -23.26 0.0006555772    2.014    0.503
        19 -10.6667     92.7531      8.9704   8.4445451627e+01   6.0443179441e+01    0.4978576    0.2169696 -21.00  0.002003364    2.289    0.563
        20  -9.6530     90.6754      2.9570   8.2029017925e+01   6.1599888424e+01    0.4221513    0.3164958 -83.75  0.001823923    2.266    0.559
        21 -10.2902     53.5300      1.4600   9.4483543362e+01   6.8642685676e+01    0.2613337    0.1804736  20.61 2.491134e-05    1.510    0.338
        22 -10.7839     55.1534      7.8283   9.7305957473e+01   6.7447425023e+01    0.2882984     0.193757 -41.66 0.0003904046    1.512    0.338
        23 -11.5827     57.4299      4.3842   9.4487537472e+01   6.7608958470e+01    0.6143945    0.3135856  39.34  0.003080206    2.133    0.531
        24 -11.2419     22.2890      9.3459   1.1372857291e+02   7.1174355770e+01    0.3171068    0.2056483 -25.06  0.001453891    1.465    0.317
        25 -10.0283     15.7141      8.6149   1.1689177343e+02   7.1864199701e+01    0.2232776    0.1185467 -35.72 0.0005474816    1.594    0.373
        26 -10.7403     12.2025      7.5710   1.1834859733e+02   7.2327399701e+01    0.3253775    0.1913244 -54.51  0.001720425    1.400    0.286
        27 -11.6867      3.6403      8.5844   1.2350321842e+02   7.2676706664e+01    0.3160144    0.2357126 -79.20  0.001141431    1.657    0.396
        28 -11.7689    151.5096      6.5130   7.0068123366e+01   4.6521706329e+01    0.5417973    0.3316542 -11.33  0.000975677    1.667    0.400
        29 -10.0326    210.4697      7.9793   6.2790301558e+01   3.0696205224e+01    0.2209396    0.1375412 -17.20  0.001002445    1.582    0.368
        30 -11.8426    130.1779      3.2241   7.2582954227e+01   5.2346546365e+01    0.6162926    0.3566253  89.49  0.002424896    2.759    0.638
        31 -11.4908     80.3420      1.6059   8.4516965204e+01   6.3870929307e+01    0.3614667    0.1589879  47.01  0.001010156    2.257    0.557
        32 -11.0205     70.9846      7.2743   9.0780382689e+01   6.4905796795e+01    0.3892735    0.2422573  31.98 0.0009574583    1.682    0.406
        33 -11.6366     69.0107      4.2760   8.9899151573e+01   6.5667722791e+01    0.7451596    0.3253299  27.62  0.002807225    3.428    0.708
        34  -9.8030    107.3613      5.0498   7.8520708702e+01   5.7682290716e+01    0.2001744    0.1656884  -4.21 0.0004921112    1.106    0.096
        35 -10.2399      7.5887      5.0193   1.1982809250e+02   7.3133767610e+01     0.174555    0.1630586 -14.02 0.0009447859    1.335    0.251
        36 -10.2465     10.4715      1.5967   1.1660077794e+02   7.3580245874e+01    0.2078565    0.1483435  -7.71  0.001095656    1.522    0.343
        37  -9.3371    235.6846      4.6618   5.9469253486e+01   2.4631231602e+01    0.1435851   0.09682129  30.24 0.0005866101    1.699    0.411
        38  -9.4691    160.4729      4.4760   6.7854752420e+01   4.4327878711e+01    0.1464049    0.1401911  24.68 0.0001193495    1.025    0.024
        39 -10.0184    120.9654      4.1055   7.4888611621e+01   5.4549527895e+01    0.2197919    0.1944407  14.46 0.0005049452    1.018    0.017
        40  -9.6105    199.5006      2.9950   6.2373818607e+01   3.4006615477e+01    0.2153141    0.1387495 -18.22   0.00039334    1.535    0.349
        41 -10.9073     19.2583      2.6504   1.1211559756e+02   7.2671418739e+01    0.3329109     0.196429   3.85  0.001934334    2.152    0.535
        42  -9.7067     77.4389      7.2006   8.8453793728e+01   6.3727920304e+01    0.4300269    0.2135714 -11.75  0.001109377    2.532    0.605
        43  -9.3349    113.3110      2.6549   7.5944632323e+01   5.6539253180e+01    0.1441382     0.106438 -51.07 0.0007045718    1.705    0.414
        44  -9.8027      2.0953      2.5554   1.2196550057e+02   7.3941869471e+01    0.1373349    0.1062761   2.17  0.001010581    1.546    0.353
        45 -11.0690      3.8197    113.7533   1.4183193988e+02   5.0064661748e+01    0.2571074    0.1653787  -2.96  0.001660856    2.642    0.622
        46 -12.9995      5.8445    247.1815   1.4753692809e+02   2.6646029263e+01    0.5103288    0.3191107  29.29  0.004355776    2.306    0.566
        47 -12.5339      5.0833    240.5626   1.4746210033e+02   2.7625685897e+01    0.3820896    0.2081963  43.24  0.003192842    1.578    0.366
        48 -12.6088      9.4523    232.3383   1.4660302302e+02   2.8419486293e+01     0.325382    0.2708769 -71.13  0.003213945    1.771    0.435
        49 -12.2552      8.7185    227.9646   1.4657146528e+02   2.9121642505e+01    0.3113299    0.2001812  44.44  0.002013578    1.470    0.320
        50 -11.7248      5.2186    108.7464   1.4108189686e+02   5.1030753350e+01     0.265123    0.2138761  19.96  0.002039347    1.693    0.409
        51 -10.2908     58.6923    107.1823   1.2687260211e+02   4.6612046589e+01     0.221974    0.1616509 -18.74  0.001236506    2.135    0.532
        52  -9.6648     66.7720    101.9900   1.2376220546e+02   4.6764732345e+01    0.1737878   0.09488259 -61.27 0.0007501239    1.633    0.388
        53 -11.7166     18.1044     95.1811   1.3628838840e+02   5.3085913813e+01     0.399162    0.2294139  70.62  0.001883999    1.857    0.461
        54 -10.2971     20.4993     91.4930   1.3514610773e+02   5.3721701920e+01    0.1645718    0.1140429  -3.85  0.001024007    2.206    0.547
        55  -9.1191    129.5162     97.5220   1.0618148297e+02   3.7426226323e+01    0.1411286    0.1389602 -31.44 0.0008100494    1.006    0.006
        56  -9.0007    101.3420     97.2761   1.1335084464e+02   4.2666021246e+01    0.1341766    0.1085306  -8.49 0.0007001755    1.620    0.383
        57 -10.3348     78.7956     94.8347   1.1897079014e+02   4.6709086048e+01    0.1945013    0.1655866 -40.97 0.0002933389    1.234    0.189
        58  -9.7205      3.4167     95.1938   1.4033911594e+02   5.4039792489e+01     0.161142   0.08222836 -89.15 0.0007007777    1.656    0.396
        59 -10.3724     84.3500     93.8646   1.1719857278e+02   4.6106233735e+01    0.2697839     0.226373  12.98  0.001566537    1.490    0.329
        60 -10.9932     27.1438     90.5917   1.3310222102e+02   5.3405714051e+01    0.5424106    0.2647742  60.79  0.002713222    2.599    0.615
        61 -10.7028     25.1586     84.6511   1.3281079773e+02   5.4882919000e+01    0.2179911    0.1551394 -74.19 0.0003641665    1.128    0.113
        62 -11.4967     11.2025     88.2087   1.3741280413e+02   5.5085522464e+01    0.5553423    0.1962939 -71.10  0.002042455    2.111    0.526
        63  -9.7321     13.5488     82.4483   1.3599884796e+02   5.6202647456e+01    0.1538643    0.1400217 -60.40 6.502535e-05    1.248    0.199
        64  -9.9362     16.0801     89.4667   1.3615795364e+02   5.4484615767e+01    0.1870903    0.1726401   1.10   0.00105874    1.464    0.317
        65  -9.5382     18.8029     86.9812   1.3503943698e+02   5.4841616789e+01    0.1860671    0.1407316 -76.82  0.000924665    1.037    0.035
        66 -10.5411     76.4445     89.2436   1.1839529250e+02   4.8261543936e+01    0.2355823    0.2180919 -58.87 0.0006264092    1.050    0.048
        67 -10.3900     43.5026     89.3756   1.2810206578e+02   5.2198445326e+01    0.3203381    0.1587723  50.40  0.001257795    2.385    0.581
        68 -10.2679      1.6765     89.5801   1.4027495066e+02   5.5352466308e+01    0.2082332    0.1101031 -77.48 0.0006209626    1.422    0.297
        69 -10.7295    103.9827     87.7656   1.1026900346e+02   4.4197064714e+01    0.2404513    0.1938018 -51.57 0.0004605546    1.180    0.153
        70  -9.6150     64.5283     88.5238   1.2171590890e+02   5.0013870585e+01    0.1298171    0.1133401 -65.90 9.310463e-05    1.001    0.001
        71  -9.8316    124.0913     86.8720   1.0470351066e+02   4.0596498242e+01    0.2143168    0.1978233 -82.14 0.0005116442    1.207    0.172
        72 -11.0892     54.7144     84.1421   1.2373341952e+02   5.2165166150e+01    0.2816821    0.2195364 -83.62  0.000880472    1.296    0.228
        73  -9.6064     78.0627     83.2747   1.1651335051e+02   4.9329168847e+01    0.1726687    0.1653206  69.35 0.0003359938    1.134    0.118
        74 -11.1079      3.9635     81.0879   1.3870762030e+02   5.7077385900e+01    0.3953676    0.1735682 -84.05  0.002109043    1.971    0.493
        75 -11.6436     64.0270     81.4567   1.2030726555e+02   5.1637543338e+01    0.3928977    0.3357017 -85.63  0.001820874    1.214    0.176
        76 -10.2361     65.5028     75.5777   1.1845126435e+02   5.2740547388e+01    0.3184178    0.2195398 -28.22  0.001029212    1.805    0.446
        77  -9.6255     37.7682     81.9925   1.2851545445e+02   5.4398679284e+01    0.1729691    0.1348325 -70.04  0.000450831    1.058    0.055
        78  -9.7988    250.3797     80.7831   7.8596779962e+01   1.3062418777e+01    0.1986851    0.1199428 -11.21 0.0005739129    1.608    0.378
        79 -10.1525     89.4076     80.4477   1.1245586547e+02   4.8198114557e+01     0.271845    0.1927809 -65.54 0.0007013662    1.529    0.346
        80  -8.5698    124.4777     79.5029   1.0250796285e+02   4.1959312106e+01    0.1457152    0.1397407 -48.64 6.612392e-05    1.067    0.063
        81  -8.9088     85.2617     79.6787   1.1347033451e+02   4.9019818806e+01    0.1329039    0.1036368 -82.43 0.0001307925    1.552    0.356
        82  -9.4767     24.0328     78.9818   1.3227223296e+02   5.6231967822e+01    0.1923507    0.1151726 -45.80   0.00112983    1.710    0.415
        83  -9.6271    177.0167     77.0246   8.9710388317e+01   3.0565225443e+01    0.2385391    0.1921569 -72.75  0.001133381    1.670    0.401
        84 -10.4393     56.0336     75.6646   1.2146724387e+02   5.3893833520e+01    0.2694183    0.2421345 -33.97  0.001354747    1.217    0.178
        85 -10.2649     37.4941     75.0061   1.2727897052e+02   5.5984643374e+01    0.2464645    0.1656462 -50.01  0.001433041    1.358    0.264
        86 -10.6105     34.8005     72.7022   1.2769977179e+02   5.6744025819e+01    0.4076199    0.3079619 -23.83  0.002571219    1.673    0.402
        87 -10.5834     15.4727     76.0009   1.3450223574e+02   5.7504401218e+01    0.1965471    0.1467596  57.53  0.001309538    1.512    0.339
        88 -10.7550    224.0860     74.3397   8.0668956994e+01   1.9725634445e+01    0.2510128    0.2102702 -10.68 0.0003112162    1.096    0.087
        89  -9.3168     74.8445     75.6487   1.1556114362e+02   5.1446708536e+01    0.1650795    0.1235431  50.64 0.0001283298    1.527    0.345
        90 -10.1144    136.7670     74.0459   9.7765473428e+01   4.0389318627e+01    0.2388306    0.2132202  33.71 0.0004108609    1.137    0.121
        91 -10.9974      3.5422     73.7622   1.3795705696e+02   5.8707967624e+01    0.2733106    0.1935365  24.11  0.001221739    1.841    0.457
        92  -9.3755     95.8288     73.5986   1.0867773174e+02   4.8561993247e+01    0.1784516    0.1326478  57.91 0.0003840602    1.602    0.376
        93  -9.5441    216.8158     72.2557   8.1218865654e+01   2.1705553448e+01    0.2058002    0.1600029  15.64 0.0005116416    1.312    0.238
        94  -9.7916    152.7681     71.9668   9.3342557927e+01   3.7140981358e+01    0.2090074    0.1886173 -24.99            0    1.075    0.070
        95 -10.1996    105.8858     71.5346   1.0516839430e+02   4.7172569004e+01    0.2351491    0.1896895 -40.33 0.0004016019    1.160    0.138
        96  -9.7258     48.9481     74.0000   1.2336292465e+02   5.5060856729e+01     0.177817    0.0738598  30.53  0.000517486    2.870    0.652
        97  -9.5736     90.5741     69.4321   1.0901739177e+02   5.0319734335e+01     0.202759    0.1242798 -54.95 0.0001335463    1.633    0.388
        98 -10.1088     80.8342     72.0322   1.1273882291e+02   5.1335638952e+01    0.2259313    0.1540633 -77.15  0.001075395    2.023    0.506
        99  -9.5002     46.0162     69.5317   1.2331444912e+02   5.6364244353e+01    0.2892552    0.1579236  20.06  0.001450408    2.529    0.605
       100  -9.5034     50.4587     68.4781   1.2158585122e+02   5.6118841272e+01    0.2076214    0.1535677 -66.27 0.0009832855    1.220    0.180
       101 -10.2634     10.9449     69.1681   1.3493827947e+02   5.9305285991e+01    0.2879748    0.1368599 -82.18   0.00151763    1.953    0.488
       102  -8.7826     57.3248     67.6736   1.1910087478e+02   5.5500137519e+01    0.1290998   0.09696499  85.68 0.0007049234    1.693    0.409
       103 -11.1575     16.9533     64.6068   1.3216899938e+02   5.9937645508e+01    0.3129301    0.2540974 -71.71  0.001025943    1.057    0.054
       104 -10.8029     35.0573     64.9299   1.2599357546e+02   5.8451941979e+01    0.2760168    0.2554072  -2.43  0.001259787    1.332    0.249
       105 -11.6307     17.4635    249.2183   1.4600711898e+02   2.5342613804e+01    0.2137039    0.1401616  19.38   0.00160408    3.252    0.693
       106 -11.3486      7.9900     63.2415   1.3501585279e+02   6.0787790126e+01    0.3361084     0.178113 -45.91   0.00198677    1.832    0.454
       107  -9.5677     72.5176     62.4759   1.1263419112e+02   5.4603025360e+01    0.1995784    0.1646924 -83.20 0.0007804045    1.476    0.323
       108  -9.5339     68.0567     60.4724   1.1351850071e+02   5.5660708760e+01    0.2758898    0.1350861  34.38  0.001256136    2.380    0.580
       109 -10.6710     53.7302     62.0792   1.1884868392e+02   5.7149719407e+01    0.3563056    0.2478103  12.29 0.0007835698    1.933    0.483
       110 -10.1707     54.5031     58.4727   1.1758938585e+02   5.7840317593e+01     0.240436    0.1879759 -61.69 0.0006910078    1.185    0.156
       111  -9.4952    127.0178     61.6954   9.6273207837e+01   4.4771394709e+01    0.1983305    0.1836268  34.93 0.0003116213    1.115    0.104
       112 -10.1395    100.9812     62.0085   1.0359283805e+02   4.9980849681e+01    0.2236905    0.1756549 -74.35 0.0009845961    1.692    0.409
       113 -10.5088     62.8628     61.8961   1.1568234679e+02   5.6057508092e+01    0.2087477    0.1593013 -35.60 0.0007204427    1.295    0.228
       114 -10.6104      2.0604     54.5901   1.3572847663e+02   6.3000134433e+01    0.3279157    0.1313119 -43.79  0.001432312    2.463    0.594
       115 -12.0593     15.3965     46.3729   1.2908616979e+02   6.4061467945e+01    0.8843975    0.4739551  -7.84  0.004035304    2.904    0.656
       116 -12.6151     20.4825     57.3684   1.2954000109e+02   6.1300511802e+01    0.4008196    0.2903464  36.16  0.001124556    1.708    0.415
       117 -10.8985     19.4497     52.0734   1.2879603000e+02   6.2540884625e+01    0.3052647    0.1552012 -51.20 0.0007572696    1.583    0.368
       118 -10.4361      2.2902     59.9366   1.3647711192e+02   6.1814025761e+01    0.2339887    0.1392391  75.58  0.001415785    1.880    0.468
       119 -10.2754     60.3221     57.6322   1.1531642264e+02   5.7299736915e+01    0.2395477    0.2057407 -74.45 0.0009293875    1.278    0.218
       120  -9.3666     71.5250     57.4542   1.1143184538e+02   5.5801969601e+01    0.1364576    0.1184208 -40.48 0.0003125781    1.028    0.027
       121 -11.7719    114.0192     54.5647   9.7323211914e+01   4.8828585510e+01    0.3439399    0.2938474 -13.31 0.0006725464    1.168    0.144
       122 -10.7981    106.7514     53.6766   9.9075619109e+01   5.0466864694e+01    0.3672208    0.2621866 -64.62  0.001705487    1.926    0.481
       123  -9.8396    104.3199     55.7174   1.0049676241e+02   5.0561527155e+01    0.2015734    0.1297824 -31.34 0.0002508396    1.526    0.345
       124 -11.6953     86.3272     53.7224   1.0533444226e+02   5.4226369961e+01    0.5535996    0.3451125  45.89  0.002712634    1.822    0.451
       125 -10.3472     34.4712     53.5388   1.2350587939e+02   6.1016869106e+01    0.2817909    0.1441623 -45.00  0.001343374    1.743    0.426
       126 -11.7621     66.6195     52.4392   1.1151401645e+02   5.7546104402e+01    0.4923947    0.2454928  32.22  0.002262895    2.403    0.584
       127  -8.9063    176.3005     52.3109   8.2143869222e+01   3.4491970499e+01    0.1611114    0.1136805  20.53 0.0001973008    1.604    0.377
       128  -9.3395    169.5560     52.5961   8.3531815860e+01   3.6156069452e+01    0.1522878    0.1450103   5.07 3.209962e-05    1.021    0.021
       129  -9.3821    211.8940     48.8680   7.5160213462e+01   2.5925656305e+01    0.1934858    0.1709309 -54.97 0.0003721993    1.262    0.208
       130  -9.3409    146.9836     48.9542   8.7033307341e+01   4.2308639397e+01    0.2947648    0.1506189 -51.59   0.00103725    2.731    0.634
       131 -10.3768     38.3907     48.6123   1.2069920435e+02   6.1717027364e+01    0.2202642    0.1639945 -40.24  0.001371436    1.234    0.189
       132 -10.9331      7.6537     55.8016   1.3390187892e+02   6.2448567476e+01    0.2003995    0.1646235  83.24 0.0009658227    1.294    0.227
       133  -9.9790     31.0068     45.4841   1.2269170507e+02   6.3074115851e+01    0.2157582    0.1568432 -78.55 0.0007325155    1.520    0.342
       134 -10.8475     68.5906     46.7924   1.0892055337e+02   5.8417179186e+01    0.2426786    0.1979031 -23.70 0.0002128104    1.217    0.179
       135 -10.5756     70.5285     42.9603   1.0686134072e+02   5.8890378862e+01    0.3543814    0.2147708 -48.94  0.001287003    1.524    0.344
       136 -10.3764     77.6826     45.7496   1.0538639245e+02   5.7225330639e+01    0.2733653    0.2454318  27.87  0.001219804    1.237    0.192
       137 -10.3762    132.4476     64.2291   9.5725187388e+01   4.3123670260e+01    0.3814773    0.3435863   8.59  0.002047021    1.127    0.112
       138  -9.4112    180.5365     44.9468   7.8951144188e+01   3.4427300566e+01     0.247663    0.1484517 -21.98  0.001044737    1.647    0.393
       139  -8.9923     91.2966     44.6937   1.0050228322e+02   5.5083980395e+01    0.1350831    0.1109793 -68.77 0.0003583156    1.587    0.370
       140 -10.6042     26.2054     43.6311   1.2409615513e+02   6.3876213495e+01    0.2904671    0.2020802 -89.17  0.001437175    1.827    0.453
       141 -10.1423     22.0040     38.4944   1.2440525504e+02   6.5306221484e+01    0.2251952    0.1474198 -76.25 0.0008280621    1.640    0.390
       142  -9.1122    130.3332     43.2810   8.8913008367e+01   4.7163575418e+01    0.1561876    0.1119018  18.40 0.0004884901    1.612    0.379
       143 -10.0784      3.5766     41.7990   1.3282634664e+02   6.5723602841e+01    0.2716316    0.1178251 -35.22  0.001407729    2.609    0.617
       144  -9.1579    183.3128     41.6968   7.7396045648e+01   3.4137592330e+01    0.1551702    0.1162252 -58.60 0.0006150051    1.614    0.380
       145 -11.0923    139.8458     40.7232   8.5682384583e+01   4.5299570864e+01    0.2584759    0.2351392 -36.31 0.0003612256    1.146    0.128
       146 -10.4907     35.9137     40.6176   1.1929707957e+02   6.3662240967e+01    0.3286286    0.2006838 -40.57  0.001563555    1.452    0.311
       147  -9.6745    134.4762     39.7297   8.6570445272e+01   4.6739925234e+01    0.1946073    0.1426118 -13.37 0.0002337269    1.396    0.284
       148  -9.5076     43.4440     40.5277   1.1624348367e+02   6.2909146255e+01    0.1940189    0.1220374   8.32  0.001019916    2.222    0.550
       149  -8.7935     51.2910     39.6893   1.1286278482e+02   6.2177213433e+01    0.1203699   0.09812333 -78.20 0.0003868606    1.585    0.369
       150 -10.2306     13.0139     38.1391   1.2809133395e+02   6.5997558442e+01    0.3480886   0.05089254 -58.79  0.001282237    3.446    0.710
       151  -9.7311    130.2449     38.5897   8.7161418538e+01   4.7915026888e+01    0.2174118    0.1348123  41.84 0.0009544659    1.641    0.390
       152 -11.6008    121.3560     36.2504   8.8497643033e+01   5.0330473371e+01    0.4983469    0.4364582 -58.39  0.002653368    1.363    0.266
       153  -9.7735    163.7566     37.1957   7.9373766374e+01   3.9795706829e+01     0.211484    0.1673731  17.06 0.0003466284    1.316    0.240
       154 -10.2790     70.0927     35.0441   1.0398583865e+02   6.0475958290e+01    0.3467031    0.1600909 -34.70  0.001405957    2.091    0.522
       155 -10.9621     26.6493     34.9971   1.2140263099e+02   6.5679769508e+01    0.3371238    0.1782068 -42.99  0.001166779    1.600    0.375
       156 -10.5371      2.1939     28.7879   1.3048569947e+02   6.8586873740e+01    0.2420239    0.1159104 -57.04  0.001280477    1.463    0.316
       157 -10.8399      1.8343     35.7535   1.3227416140e+02   6.7113471304e+01    0.2293601    0.1370812 -75.01  0.001435286    1.431    0.301
       158 -11.7147     50.6121     33.9140   1.1102567056e+02   6.3420469979e+01    0.3124019    0.2291338  36.19 0.0005696712    1.632    0.387
       159 -11.1698    134.5845     34.0178   8.4359234610e+01   4.7557924772e+01    0.2510936    0.1983463  35.67 0.0003777127    1.259    0.206
       160  -9.8500    166.7423     31.4229   7.6767302730e+01   3.9765454355e+01    0.4557358    0.1307307 -23.93  0.001342571    3.465    0.711
       161 -10.4961    145.0463     33.0485   8.1641644489e+01   4.5118662483e+01    0.2358139    0.2143199  36.16 0.0004020889    1.090    0.083
       162 -11.0912    141.0556     30.7565   8.1630773101e+01   4.6426300315e+01    0.3034485    0.2746671  21.41  0.000536825    1.058    0.055
       163  -9.7013     88.5151     32.5514   9.6585661094e+01   5.7764750429e+01    0.1421396    0.1248422 -16.67 6.183482e-05    1.013    0.012
       164  -9.5865     38.6232     31.2529   1.1500564188e+02   6.5325270009e+01    0.2458039     0.210832  36.52  0.001143757    1.465    0.317
       165 -10.7158     43.4749     30.1769   1.1254394945e+02   6.5009352286e+01    0.4258687    0.1893342 -51.53  0.001573773    1.925    0.481
       166 -10.9128     46.8353     27.0800   1.0990134372e+02   6.5218149597e+01    0.2955453    0.2478528  55.96 0.0002934923    1.669    0.401
       167  -9.8594    126.8507     30.7172   8.4907679018e+01   4.9880397786e+01    0.2516873      0.17829  34.00  0.001195957    1.444    0.307
       168 -10.3481    151.4004     29.6262   7.9028565935e+01   4.3964903390e+01    0.2872441    0.2462054  24.64 0.0007223786    1.139    0.122
       169  -9.8819    153.5984     25.7726   7.7143348923e+01   4.3884212392e+01    0.2376861    0.2005277  55.55 0.0006872602    1.207    0.172
       170 -10.3396    103.6921     29.7887   9.0726870747e+01   5.5203146871e+01    0.3851045    0.2338463  20.52  0.001643236    2.165    0.538
       171 -10.0527    102.1593     25.8518   8.9488446937e+01   5.6129547428e+01    0.2187298    0.2011187 -42.64  0.001247301    1.239    0.193
       172  -8.9543    162.0000     29.0076   7.6760813214e+01   4.1303475648e+01     0.247424   0.08500888 -24.01 0.0007896025    2.854    0.650
       173 -10.0063     69.8708     28.6374   1.0141479083e+02   6.1682303803e+01    0.2325034    0.1628572 -27.93 0.0004423963    1.285    0.221
       174  -9.9513      7.0704     27.9771   1.2804041678e+02   6.8510875676e+01    0.1977796    0.1675825  88.02   0.00144844    1.411    0.291
       175 -10.8509     33.5896    247.5344   1.4369257705e+02   2.4053278155e+01    0.2127185    0.0757605  35.27   0.00131149    2.936    0.659
       176 -10.0139    113.9399     25.2870   8.5956892818e+01   5.3639952529e+01     0.257976    0.1972344 -24.70 0.0007238003    1.229    0.186
       177 -10.5088     84.7297     21.3493   9.2919210977e+01   6.0304907158e+01    0.6482714    0.2320528  32.20  0.001818266    5.573    0.821
       178  -9.4787     87.7399     26.3373   9.4171502190e+01   5.8944382774e+01    0.1958702    0.1492055  -8.89 0.0002573934    1.308    0.235
       179 -10.1254     89.3359     23.3110   9.2303275537e+01   5.9117222310e+01    0.3360536    0.1241672 -32.75  0.001262863    2.476    0.596
       180  -9.2894     18.3579     26.3082   1.2231463295e+02   6.8140910529e+01    0.1271714   0.06951551 -35.81 0.0006530458    1.730    0.422
       181  -9.1297    200.7183     25.7127   6.9538930460e+01   3.1488237787e+01    0.1511507    0.1069925  27.80 0.0001615157    1.523    0.344
       182 -10.3043     58.8648     24.5432   1.0387220614e+02   6.4091171798e+01    0.2685041    0.1948082 -32.32   0.00116725    1.161    0.139
       183 -10.5287     52.0624     23.2092   1.0606729345e+02   6.5278904900e+01     0.431659    0.1681374 -39.00  0.001384884    2.216    0.549
       184  -9.6776    204.9204     23.7928   6.8380038116e+01   3.0597182787e+01    0.1905042    0.1876005  75.01 0.0002965685    1.073    0.068
       185  -9.6151    217.2099    244.8320   1.1565328825e+02   9.2198661908e-01    0.2322334   0.05862096  45.87  0.001009411    3.586    0.721
       186 -10.6821     13.6603     16.2204   1.2106064301e+02   7.0528661266e+01    0.3137261    0.1808196  27.87  0.001654671    2.186    0.543
       187 -10.4640     30.9650     19.7829   1.1398207302e+02   6.8373424955e+01    0.2456822    0.1444397 -50.62 0.0006250095    1.411    0.291
       188  -9.7855     22.7282     21.2540   1.1847488935e+02   6.8829631227e+01    0.1582517    0.1020115 -37.90 0.0009699048    1.301    0.231
       189  -9.3576    174.8041     20.6566   7.1582166328e+01   3.8893972020e+01    0.2027567    0.1436042  78.50 0.0003486838    1.613    0.380
       190  -9.8208    146.4951    244.4970   1.2645115933e+02   1.0921348374e+01    0.1029605   0.07413803  43.85 4.916166e-06    1.008    0.008
       191 -11.7839      4.2799    232.6970   1.4735458970e+02   2.8811949717e+01    0.2218153    0.1441988  72.14  0.001134121    1.115    0.103
       192  -9.6604    202.4926    240.0386   1.1727790613e+02   3.4364648554e+00    0.1235689   0.09927043 -14.28 0.0008088985    1.538    0.350
       193 -12.3766     26.4731    235.7471   1.4425206949e+02   2.6381478679e+01    0.2651204    0.1845848 -86.70  0.001753764    1.460    0.315
       194  -9.1805    210.6490    235.7016   1.1547877440e+02   2.6627299230e+00    0.1105056   0.06179923  23.30  0.000318722    1.689    0.408
       195  -9.0530    155.5606    235.4956   1.2409909947e+02   1.0679300217e+01    0.1053549   0.07801871  42.61 3.208589e-05    1.010    0.010
       196  -9.4826      2.8014     20.3645   1.2790507846e+02   7.0327644585e+01    0.1397455   0.09477767 -20.37 0.0006683208    1.664    0.399
       197  -9.6736    237.0000     17.9996   6.3097923902e+01   2.3089907440e+01    0.2270761   0.07424612 -20.51 0.0004313511    2.846    0.649
       198 -11.4237    107.6015     16.5404   8.3813086968e+01   5.6256638396e+01    0.3801903    0.2543331  62.91  0.001282858    1.798    0.444
       199  -9.7491    249.1481    234.1502   1.0950525275e+02  -2.6634996080e+00    0.1601716   0.09721858  24.20 0.0005229373    1.181    0.153
       200  -9.3048     79.9877    231.5036   1.3584327184e+02   2.1253524632e+01    0.1429479   0.05313718  55.58 0.0008067653    2.334    0.571
       201  -9.2971     60.4440    241.0000   1.3945654659e+02   2.2168921840e+01      0.20038   0.04018647  39.01 0.0009310827    3.905    0.744
       202 -11.1477     20.0671     16.8086   1.1805908766e+02   6.9930491996e+01    0.1888742    0.1638699 -18.56 0.0003386239    1.238    0.192
       203  -9.6303    140.6595    227.3314   1.2563952157e+02   1.3798229156e+01    0.1079592   0.06830832  62.25 0.0007051546    1.746    0.427
       204 -10.1806    156.5843     14.1967   7.2192734963e+01   4.4419129750e+01    0.2647079    0.1945196  37.30  0.001281069    1.330    0.248
       205 -11.2553     20.1133     31.8202   1.2326704074e+02   6.6862558507e+01    0.4994358    0.2593065 -12.46  0.002246947    3.049    0.672
       206  -8.9389      1.2488     15.3010   1.2713467228e+02   7.1447841303e+01     0.116117    0.0594775 -45.17 0.0002242924    1.495    0.331
       207  -9.7029    144.0536     14.4843   7.4584567174e+01   4.7658932342e+01    0.2162637    0.1460233  61.16 0.0004142626    1.504    0.335
       208  -9.5469    109.7002    226.6620   1.3066012353e+02   1.8170799623e+01   0.09111141   0.07617342  18.72 0.0006082086    1.662    0.398
       209 -11.1450      2.3430    219.8732   1.4726024453e+02   3.0870777151e+01    0.2332167   0.07670883  84.51  0.001439199    2.780    0.640
       210 -10.3420     32.6592    225.2265   1.4287918868e+02   2.7323387290e+01    0.2451136   0.06916446  43.76  0.001479722    2.405    0.584
       211 -10.9824      7.7218    217.5214   1.4637797175e+02   3.0776081637e+01    0.2101132    0.1424615  70.49  0.001270863    1.052    0.049
       212  -9.8940    209.4856    212.0381   1.1239293895e+02   5.1497495214e+00    0.1447861    0.1061446 -17.92   0.00102276    1.572    0.364
       213 -10.2826      3.8652    212.4272   1.4679685133e+02   3.1888532366e+01    0.1933661   0.07794935  33.62  0.001295298    2.611    0.617
       214  -9.5012    249.4948    211.4994   1.0606639567e+02  -8.7853706958e-01    0.1125256   0.07974071  21.54 -0.0001738288    1.002    0.002
       215  -9.7650    246.8395    206.9233   1.0573980530e+02  -8.6572980547e-02    0.1751548    0.1146659  14.79 0.0008682258    1.262    0.207
       216 -10.0141      2.2421    205.9749   1.4683591711e+02   3.3039817164e+01    0.1144137   0.05921938  89.78 0.0006977515    1.592    0.372
       217  -9.4789    197.1749    204.1341   1.1324352573e+02   7.9563492340e+00    0.1505212    0.1222971  46.52 0.0006738757    1.310    0.237
       218 -10.5486      9.5438    203.4108   1.4558629455e+02   3.2842723731e+01    0.1687588    0.1161991  68.50 0.0007353292    1.010    0.010
       219  -9.4729      9.3019     10.3512   1.2108689709e+02   7.1986228879e+01     0.158798   0.07831152 -23.57 0.0005604461    2.425    0.588
       220  -9.0809    181.5549    199.4860   1.1520690379e+02   1.1037212009e+01    0.1169629   0.09436605  37.47 0.0001602851    1.057    0.054
       221  -9.3743     23.2220    197.3921   1.4307373108e+02   3.2618935981e+01     0.132497   0.06531254  50.32 0.0005098169    1.572    0.364
       222  -9.6732      6.6241    191.7912   1.4560921549e+02   3.5005735072e+01    0.1317231   0.06468014  81.26 0.0009113093    1.628    0.386
       223 -10.3044     15.4592    185.4656   1.4382059914e+02   3.5340774499e+01    0.1830035   0.07786789 -83.47  0.001166568    2.041    0.510
       224  -9.0910    250.4907    183.4699   1.0119509468e+02   1.5200595134e+00    0.1209122   0.08930949  17.40 0.0008097757    1.019    0.018
       225  -9.1269     21.6642    179.6665   1.4241665039e+02   3.5811364221e+01   0.08877381   0.07156932 -55.78 0.0007052125    1.739    0.425
       226 -10.4911      4.5393    167.2284   1.4491135969e+02   3.9484614192e+01    0.2360727     0.121747  68.22  0.001424273    1.530    0.346
       227  -8.8131     41.7032    158.3437   1.3706388083e+02   3.7848013667e+01    0.1168188   0.06552282  69.92 0.0007033566    1.669    0.401
       228  -9.0448    247.4693    155.5307   9.6340044084e+01   4.8964729159e+00     0.128373    0.1010387  12.89 0.0001231503    1.002    0.002
       229  -9.3464    243.0000    154.9759   9.6935354218e+01   5.7437816937e+00    0.1899439   0.06655215 -27.10 0.0005505814    2.851    0.649
       230  -9.9443      8.7065    148.6741   1.4311834001e+02   4.2659177540e+01   0.09556605   0.06793239 -60.52  0.000262372    1.622    0.383
       231 -10.2987     22.0288    143.2625   1.3996348373e+02   4.2651726318e+01    0.1962885    0.1268993 -85.04  0.001063444    1.254    0.203
       232 -10.7209     12.7413    130.5632   1.4103514080e+02   4.5962080778e+01    0.3409449    0.1431993  61.88  0.001308162    2.363    0.577
       233  -9.9659     29.0833    128.7306   1.3712263814e+02   4.5004791648e+01    0.2331506    0.1272364  88.73  0.001040861    1.690    0.408
       234  -9.9559     42.9123    126.0322   1.3354718703e+02   4.4263386990e+01    0.1708925    0.1416901  86.64 0.0003381834    1.028    0.027
       235  -9.3893     21.1617    126.1645   1.3873646982e+02   4.6211467398e+01     0.150726    0.1029239  72.22  0.000434942    1.294    0.227
       236 -11.5260     23.7669    121.5213   1.3768182811e+02   4.6971046945e+01    0.4237835    0.1979414  81.44 0.0007728893    2.314    0.568
       237  -9.8955      3.2518    118.9797   1.4236029518e+02   4.9011837153e+01    0.1446108   0.07144929 -80.96 0.0008826416    1.561    0.359
       238  -9.5941     96.3110    113.8544   1.1827330425e+02   4.0004370366e+01    0.2088887    0.1562502 -79.05 0.0006629704    1.477    0.323
