#   1 NUMBER                 Running object number                                     
#   2 MAG_AUTO               Kron-like elliptical aperture magnitude                    [mag]
#   3 X_IMAGE                Object position along x                                    [pixel]
#   4 Y_IMAGE                Object position along y                                    [pixel]
#   5 X_WORLD                Barycenter position along world x axis                     [deg]
#   6 Y_WORLD                Barycenter position along world y axis                     [deg]
#   7 A_WORLD                Profile RMS along major axis (world units)                 [deg]
#   8 B_WORLD                Profile RMS along minor axis (world units)                 [deg]
#   9 THETA_WORLD            Position angle (CCW/world-x)                               [deg]
#  10 FWHM_WORLD             FWHM assuming a gaussian core                              [deg]
#  11 ELONGATION             A_IMAGE/B_IMAGE                                           
#  12 ELLIPTICITY            1 - B_IMAGE/A_IMAGE                                       
         1 -12.9408    215.0225      2.3832   5.8908632713e+01   3.1395423039e+01     1.080099    0.6520821  68.85  0.002500003    1.457    0.314
         2 -13.9625    191.0165     26.6864   6.7354418255e+01   3.4428720906e+01     1.486548     1.276094 -20.74  0.005791634    1.434    0.302
         3 -13.5264    197.3752     19.9056   6.4849698535e+01   3.3677710120e+01     1.193692    0.6878043 -49.58  0.004371237    1.756    0.431
         4 -13.1879    204.1412     12.8252   6.2371256174e+01   3.2845417589e+01    0.7583553     0.624694 -30.93  0.001301327    1.458    0.314
         5 -11.1555     32.6005      4.6193   9.8465106888e+01   6.8952073009e+01    0.3608165   0.08816011 -35.09  0.001541038    3.915    0.745
         6 -10.7008    191.7946    192.6772   1.0741235934e+02   4.1636003880e+00    0.5624206    0.2810284 -63.45  0.001690522    4.951    0.798
         7 -12.6447    246.2525    248.3535   1.0716910558e+02  -1.3721188028e+01    0.7963381    0.3833527  31.26  0.004342824    1.834    0.455
         8 -15.1696      6.6164     15.5465   1.1481755418e+02   7.0087276463e+01     16.47071     1.635604 -47.58   0.04225776   11.012    0.909
         9 -15.8809     89.8043    246.5228   1.3623936401e+02   1.2088218598e+01     10.60051     2.384201  40.70   0.03754158    3.977    0.749
        10 -11.8040     70.3405    191.5812   1.3383696854e+02   2.6486757021e+01    0.4098891    0.2672862 -44.67  0.002101475    2.022    0.506
        11 -11.7520     74.9933    184.7724   1.3189735798e+02   2.7371233254e+01    0.3085778    0.2393357 -55.24 0.0007110029    1.396    0.284
        12 -13.1161     58.5878    132.8409   1.2768240259e+02   4.1961311636e+01     2.170033    0.7360206 -72.08  0.005192972    7.210    0.861
        13 -13.4713     67.7317    144.6452   1.2737290625e+02   3.7933321038e+01     1.233634    0.6880997 -88.87  0.002406034    2.732    0.634
        14 -11.1888     83.5493    173.3127   1.2822935483e+02   2.8751485845e+01    0.2677618    0.2256199 -68.81 0.0003850504    1.130    0.115
        15 -13.3345     71.2221    170.4868   1.3070920878e+02   3.1265133921e+01    0.5044895    0.2832187 -44.83  0.001543944    2.184    0.542
        16  -9.9286    138.3391    171.3205   1.1490922342e+02   1.9366146369e+01    0.1508533    0.1226763  -4.38 0.0006766659    1.714    0.417
        17  -9.3830     78.0500    167.5330   1.2862543170e+02   3.0962466125e+01    0.2013977    0.1312891  45.46  0.001012712    1.568    0.362
        18 -14.1825     45.8134    226.1354   1.4240854128e+02   2.2304012783e+01    0.9473333    0.6802588 -77.29  0.005330202    1.306    0.234
        19 -10.0791    102.0010    149.0038   1.1932833147e+02   3.1481851226e+01    0.2771174    0.2741094 -62.49 0.0007587905    1.125    0.111
        20  -9.4243    104.5502    145.1850   1.1789352983e+02   3.1937783996e+01    0.3359438    0.2134314 -30.93  0.001250524    2.234    0.552
        21 -12.8333     44.6654    148.8509   1.3395333516e+02   3.9817979631e+01    0.6306383    0.2855049 -61.97  0.002959663    1.829    0.453
        22  -9.8228    133.6801    143.1804   1.1008153705e+02   2.6757182441e+01     0.321283    0.1394875 -56.26  0.001086142    2.599    0.615
        23  -9.9188    112.1045    135.2150   1.1376973258e+02   3.2901218097e+01     0.291886    0.2251277 -14.96 0.0008743433    1.806    0.446
        24 -12.1361     90.8308    148.2454   1.2204652190e+02   3.3569219597e+01    0.2866509    0.2602158 -41.15 0.0004615594    1.221    0.181
        25 -10.6324     99.6115    132.1219   1.1638830737e+02   3.5917089339e+01    0.3082556    0.2353426 -31.48 0.0008854905    1.535    0.349
        26 -12.8979     44.1393    128.9902   1.3093266183e+02   4.4566423058e+01    0.6487809    0.2933696 -72.36  0.002763322    2.351    0.575
        27  -9.6380    160.8113    128.4145   1.0005665372e+02   2.4159358452e+01    0.3129805    0.1194331 -46.87  0.001013803    2.627    0.619
        28  -9.5684    108.4963    122.7459   1.1182444509e+02   3.6486306877e+01    0.2076636    0.1436831 -50.61 0.0004326578    1.381    0.276
        29 -14.4278     11.0359    206.6455   1.4722533729e+02   3.0275310766e+01     1.245046    0.9072849  52.78  0.007837541    1.411    0.291
        30 -11.0401    168.0560    113.1013   9.4548491283e+01   2.5732888841e+01    0.3724843     0.310279 -86.64 0.0007293206    1.376    0.273
        31 -12.7823     89.2491    165.4681   1.2557492569e+02   2.9705952768e+01     2.181231    0.7026627  52.31  0.001291194    4.415    0.773
        32  -8.9065    205.6895    110.3057   8.6188647728e+01   1.7423852913e+01    0.1557414    0.1163735 -75.00 0.0004040464    1.614    0.381
        33 -15.4558     22.5742    175.3310   1.4230200732e+02   3.5983649079e+01     5.119791     1.987173  84.06   0.01833294    4.250    0.765
        34 -11.2245    122.4499     50.9620   8.7358871679e+01   4.7651227435e+01    0.3649387    0.2678339  76.73 0.0008427294    1.821    0.451
        35 -14.9388     54.4018    212.4725   1.3951459155e+02   2.4057153864e+01      2.26569     1.346429  37.11   0.01268007    1.893    0.472
        36 -15.5445      3.9306    237.9639   1.5037982191e+02   2.4702153566e+01     7.400707          nan -68.70   0.01499055    7.485    0.866
        37 -13.2974     56.9278    224.8038   1.4022481821e+02   2.1127909644e+01    0.9769416    0.5247898 -52.77  0.005125271    2.415    0.586
        38 -10.2944    226.5310    201.9718   1.0239897609e+02  -3.9290348328e+00    0.2625894    0.2138166 -64.48  0.001274253    1.758    0.431
        39 -11.7187     13.0961     24.0681   1.1514802253e+02   6.8338613047e+01    0.2275957    0.1855081  -7.99 0.0007545368    1.202    0.168
