#   1 NUMBER                 Running object number                                     
#   2 MAG_AUTO               Kron-like elliptical aperture magnitude                    [mag]
#   3 X_IMAGE                Object position along x                                    [pixel]
#   4 Y_IMAGE                Object position along y                                    [pixel]
#   5 X_WORLD                Barycenter position along world x axis                     [deg]
#   6 Y_WORLD                Barycenter position along world y axis                     [deg]
#   7 A_WORLD                Profile RMS along major axis (world units)                 [deg]
#   8 B_WORLD                Profile RMS along minor axis (world units)                 [deg]
#   9 THETA_WORLD            Position angle (CCW/world-x)                               [deg]
#  10 FWHM_WORLD             FWHM assuming a gaussian core                              [deg]
#  11 ELONGATION             A_IMAGE/B_IMAGE                                           
#  12 ELLIPTICITY            1 - B_IMAGE/A_IMAGE                                       
         1  -9.6615     46.4349      9.6844   5.7185534628e+01   7.0167734970e+01    0.2613341    0.1093664 -38.46  0.001151337    2.169    0.539
         2  -9.9953     40.3807     10.2159   6.0480968333e+01   7.1033969915e+01    0.1861764    0.1059496 -42.74 0.0009540403    1.704    0.413
         3  -9.1020     28.3228      9.6566   6.6679827253e+01   7.2792820125e+01    0.1152086   0.09701976 -66.56 0.0007050428    1.731    0.422
         4  -9.8374    192.8230    209.9792   7.3983520220e+01   6.0315965400e+00    0.1612748    0.1389204 -86.37  0.001080781    1.989    0.497
         5  -9.7089     86.3082    209.6735   9.3607432055e+01   2.2123576886e+01    0.1199537    0.0706557  64.05  0.000682747    1.655    0.396
         6  -9.7663    242.9692    207.9581   6.5523330594e+01  -1.1804234233e+00    0.1686254    0.1176521 -46.98  0.001037026    2.659    0.624
         7 -11.4073    197.8228    204.5793   7.2294012299e+01   5.9185145048e+00    0.2553503    0.2123206  87.12  0.001616523    2.223    0.550
         8  -9.5878     79.9893    201.4850   9.4058133028e+01   2.4403851599e+01     0.175926   0.06826732  54.63 0.0008099786    2.506    0.601
         9  -9.5356    140.3423    200.6875   8.2171270031e+01   1.5625892238e+01    0.1225232   0.08524195  64.27 0.0004050029    1.702    0.412
        10  -9.7747    149.4944    198.9974   8.0191872969e+01   1.4425081438e+01    0.1538553    0.1064584 -83.96 0.0008102785    2.521    0.603
        11  -9.8351    112.9950    197.8285   8.7127761219e+01   2.0340374090e+01    0.2114366    0.1146831  59.72  0.001082564    2.052    0.513
        12  -9.7520     66.4911    194.9689   9.6143939993e+01   2.7353813723e+01    0.1667438   0.08196737  78.35 0.0008101507    2.581    0.613
        13 -10.1058    139.3464    190.6633   8.0953149314e+01   1.7394361704e+01    0.1277848   0.08992652  68.10 0.0007048342    1.776    0.437
        14  -9.7135    129.6528    188.3315   8.2547711379e+01   1.9361489000e+01    0.1298107   0.08881104  67.72 0.0002819424    1.764    0.433
        15 -10.2718     94.7307    187.0226   8.9531872556e+01   2.4991417381e+01    0.3258082    0.1714282  89.20  0.001423418    3.229    0.690
        16 -10.0726    156.3958    187.1906   7.7095194539e+01   1.5121298208e+01    0.1618505     0.120735 -60.62 0.0009509949    1.728    0.421
        17 -10.5749    120.4359    185.6306   8.4039663934e+01   2.1312499331e+01    0.3197172    0.1257673 -62.00  0.001295464    3.548    0.718
        18 -10.3387    109.4665    186.3183   8.6389698033e+01   2.2909421013e+01    0.2887675    0.1520329  64.39  0.001322309    2.562    0.610
        19  -9.9920     34.6499    187.3531   1.0198701128e+02   3.2521425974e+01     0.190584   0.09612858  63.99  0.001091911    1.703    0.413
        20 -10.0409    183.6321    185.3058   7.1652368668e+01   1.0786122692e+01    0.1786026    0.1521095  78.08  0.001104138    1.723    0.420
        21 -10.0992     66.3593    184.5037   9.5197317376e+01   2.9370454639e+01    0.2780689    0.1342596  71.02  0.001320688    2.543    0.607
        22  -9.8337     12.7425    185.1670   1.0625479340e+02   3.5096784959e+01    0.2000562   0.06304183  61.98 0.0009509728    2.778    0.640
        23  -9.8652    148.0397    181.1804   7.7781678454e+01   1.7510675355e+01    0.2146077    0.1366999  62.24  0.001086687    2.001    0.500
        24  -9.6809    137.6708    179.3358   7.9582513906e+01   1.9584988828e+01      0.13058   0.09486715  71.23 0.0007052022    1.728    0.421
        25  -9.7502     60.3265    177.6521   9.5816866429e+01   3.1492817071e+01    0.1316625   0.07347403  66.69 0.0005318814    1.753    0.429
        26 -10.3825     77.4880    176.1684   9.1936641261e+01   2.9538044171e+01     0.320644    0.1218131  52.43  0.001385508    2.596    0.615
        27  -9.7831     13.3097    176.6650   1.0570974079e+02   3.6727497891e+01    0.1209386    0.0586946  64.49 0.0004597969    1.678    0.404
        28 -10.2312      2.9965    173.4293   1.0767527527e+02   3.8261542149e+01    0.3144478   0.08936296  77.39  0.001275765    3.867    0.741
        29  -9.8258     44.3469    171.6669   9.8746214555e+01   3.4615152637e+01     0.131486   0.06934436  65.05 0.0007049176    1.768    0.434
        30 -10.2091    149.9118    169.5915   7.5470804944e+01   1.9149348337e+01    0.2524533    0.1812032 -70.82  0.001328515    1.949    0.487
        31 -10.3816    121.7360    169.7032   8.1415728084e+01   2.4013673338e+01    0.3441069    0.1945807  67.74  0.001477789    2.724    0.633
        32 -10.2408     54.8153    169.2218   9.6201132667e+01   3.3897918714e+01    0.2215787   0.09501947  65.55 0.0009545822    2.830    0.647
        33 -11.1121     99.5497    166.2984   8.5781268942e+01   2.8276417416e+01    0.3686531    0.2001238  66.68  0.001636054    2.492    0.599
        34 -10.5539    139.5641    165.0050   7.6826676168e+01   2.1802734951e+01     0.349428    0.2366668  77.70  0.001665118    2.287    0.563
        35 -10.6846     80.5690    164.5729   8.9842144892e+01   3.1468123543e+01    0.5009593    0.2431845  75.92  0.001873304    3.793    0.736
        36  -9.4153     47.3343    164.6473   9.7442990513e+01   3.5744015124e+01    0.1342789   0.07275552  66.94 0.0007045498    1.787    0.440
        37  -9.8459     37.6652    164.3357   9.9605001220e+01   3.6885617376e+01    0.1311128   0.06959809  65.83 0.0007052041    1.742    0.426
        38  -9.5885     69.5078    163.0224   9.2187642910e+01   3.3323842170e+01    0.1832656    0.0953497  83.28 0.0008103967    2.577    0.612
        39 -10.4113     92.9612    160.3011   8.6410966556e+01   3.0519061044e+01    0.2512905    0.1707058  80.87  0.001333004    1.689    0.408
        40  -9.8678     31.5138    160.5285   1.0068519299e+02   3.8339574414e+01    0.2190317   0.09350592  89.21  0.001033329    2.414    0.586
        41 -10.0425      8.6256    159.9001   1.0579671449e+02   4.0585391776e+01    0.3421652   0.09827762  70.56  0.001271152    4.321    0.769
        42  -9.8438    177.3370    160.6625   6.8346398642e+01   1.5636070847e+01    0.1298399    0.1075238  84.81 0.0004039559    1.753    0.429
        43 -10.3249    105.6302    158.3404   8.3199463012e+01   2.8913440807e+01     0.344332    0.1724397  59.46  0.001363757    2.510    0.602
        44  -9.8835     22.8327    159.2396   1.0256465201e+02   3.9466730688e+01    0.2128169   0.07789547  63.21 0.0009484618    2.794    0.642
        45 -10.4678    120.0024    156.0308   7.9545932370e+01   2.6954064582e+01    0.2256989    0.1580585  73.64  0.001137526    1.779    0.438
        46 -10.4369     49.7743    155.2758   9.5932641190e+01   3.7475917438e+01    0.3551308    0.1571823  68.82  0.001509182    2.881    0.653
        47 -10.1227     81.8452    154.6379   8.8201384017e+01   3.3379811722e+01    0.3362688    0.1589296  61.32  0.001389918    2.714    0.632
        48 -10.0239     68.2777    154.3020   9.1397044363e+01   3.5356862416e+01    0.2717246    0.1144174  54.08  0.001167987    2.490    0.598
        49 -10.3853    133.2267    153.0996   7.6061418526e+01   2.5173716979e+01    0.2726932    0.1713309  66.17  0.001236054    2.147    0.534
        50  -9.5528     98.4831    150.9678   8.3682835524e+01   3.1603240866e+01    0.1884725    0.1121064 -88.18 0.0008095691    2.490    0.598
        51  -9.4120     91.3106    151.6734   8.5503999891e+01   3.2587678160e+01    0.1392703   0.09408312  73.23 0.0004526349    1.660    0.398
        52  -9.8260     29.3091    150.7379   1.0037994753e+02   4.0687608532e+01    0.3147159    0.1049974  64.17  0.001154421    4.029    0.752
        53  -9.6714    182.3405    150.6699   6.5369567288e+01   1.6299461067e+01    0.1324159    0.1107024 -89.42 0.0003860925    1.742    0.426
        54 -10.3536    198.9977    148.5053   6.1795402965e+01   1.3448596351e+01    0.1778934    0.1219925  70.49 0.0008101704    2.513    0.602
        55 -11.2852    108.2055    146.0673   8.0534880513e+01   3.1022455493e+01    0.6141681    0.3073426  64.85    0.0022039    3.464    0.711
        56 -10.5013     39.3847    147.5530   9.7638168202e+01   4.0353271223e+01    0.3520748    0.1710019  66.37   0.00171506    2.171    0.539
        57 -11.0612    149.3403    145.8227   7.1114160958e+01   2.3531595466e+01    0.4563493     0.293039  75.54  0.001873104    2.803    0.643
        58 -10.1894     78.4853    146.9875   8.7905933305e+01   3.5530581006e+01    0.1906206    0.1055938  87.81 0.0008102598    2.539    0.606
        59 -10.8927     55.6165    145.0004   9.3322092409e+01   3.9048580696e+01    0.5008084    0.2384713  86.22  0.002074886    2.897    0.655
        60 -10.1710     13.4127    146.1623   1.0382790333e+02   4.3148839468e+01    0.2371829    0.1003275  61.73  0.001199912    2.193    0.544
        61 -10.7675    125.0102    143.1805   7.6041020920e+01   2.8639232088e+01    0.3998883    0.2460112 -83.26  0.001578634    2.989    0.665
        62 -10.7883     87.7971    143.9027   8.5126977694e+01   3.4812559868e+01    0.2619123    0.1792397 -89.12  0.001348297    1.653    0.395
        63 -10.1858    182.4882    142.5125   6.3609770519e+01   1.7602597598e+01    0.1370662    0.1297405  15.23 0.0008098737    1.053    0.050
        64 -10.7850     23.8204    138.6617   1.0066414809e+02   4.3910825848e+01    0.3863225    0.1553645  63.77  0.001726039    2.707    0.631
        65  -9.8382      2.9976    142.2540   1.0607100698e+02   4.4831826990e+01    0.2258664   0.06873687  66.71 0.0009021887    3.559    0.719
        66 -10.2357     38.9897    136.0143   9.6496372399e+01   4.3009503661e+01    0.2156546    0.1242079  69.28  0.001136541    1.740    0.425
        67 -10.0348    112.9836    133.7876   7.7057461594e+01   3.2786562479e+01      0.24076     0.154903  68.76  0.001073328    2.037    0.509
        68 -11.0434     83.6888    132.3310   8.4218033283e+01   3.8026163809e+01    0.4699337    0.2916356  78.30  0.002149736    2.124    0.529
        69 -10.0726     83.7997    127.7845   8.3372826166e+01   3.9042394733e+01    0.3205899     0.182008  60.66  0.001392519    2.089    0.521
        70  -9.8088    143.4925    132.0270   6.9476507062e+01   2.7318678496e+01    0.2000145    0.1258607 -69.58 0.0008087758    2.479    0.597
        71 -10.5306    132.1113    131.9024   7.2068589390e+01   2.9589154672e+01    0.3098857    0.2131278  85.88   0.00133991    2.283    0.562
        72 -11.0852     99.0614    127.8650   7.9383136687e+01   3.6528246745e+01     0.659386    0.3736159 -84.40  0.002431673    3.226    0.690
        73 -10.8008     12.5830    128.8415   1.0271221782e+02   4.7112049748e+01    0.4320985    0.1643736  76.63  0.001820147    3.014    0.668
        74 -10.3327    118.6283    126.0682   7.4050272502e+01   3.3392070116e+01    0.4521871    0.2454087  68.67  0.001532538    3.600    0.722
        75 -10.7860     59.5747    124.6529   8.9417749456e+01   4.3228886790e+01    0.4597979    0.2442504  78.97  0.001913816    2.693    0.629
        76 -11.4270     43.6297    122.5018   9.3543835593e+01   4.5655344815e+01    0.8355781    0.3726735  85.96  0.003132103    3.418    0.707
        77 -10.2424    179.8028    125.2035   6.0197281842e+01   2.1067491301e+01    0.2396308     0.164041 -78.81 0.0009574987    2.861    0.650
        78 -11.1366     28.8089    122.7130   9.7714108175e+01   4.7130007804e+01    0.5848795    0.2396291  73.45  0.002231152    3.540    0.718
        79 -10.7895     71.6226    119.9322   8.5257012014e+01   4.2688016110e+01    0.4387723    0.2613037  84.86   0.00192727    2.287    0.563
        80 -10.0673    141.9644    119.6800   6.6977127299e+01   3.0073510324e+01     0.311466    0.1876841 -68.84  0.001172744    2.775    0.640
        81 -10.0319    130.8024    119.1980   6.9505312048e+01   3.2457832710e+01    0.2491133    0.1627903  89.19 0.0009478014    2.817    0.645
        82 -11.0128      2.5938    115.8007   1.0435954463e+02   5.0843917189e+01    0.6220517    0.1976839  85.24  0.002384354    3.540    0.718
        83 -10.8922    109.2386    114.2103   7.3776076966e+01   3.7734852052e+01    0.5886053     0.314877 -70.73  0.002085543    3.106    0.678
        84 -10.9719     79.3092    112.9613   8.1728505604e+01   4.3169237888e+01    0.6123486    0.3435684 -89.97   0.00228149    3.144    0.682
        85 -10.9936     93.3032    113.0662   7.7817668496e+01   4.0856209726e+01    0.5193207    0.3348673  71.27  0.001928185    2.094    0.522
        86 -10.0711    121.8214    112.9841   7.0234203218e+01   3.5566412918e+01    0.2467229    0.1702694 -76.18  0.000879502    1.983    0.496
        87 -10.7364     66.5289    110.7898   8.4999401930e+01   4.5570407638e+01    0.3842042    0.2189649  79.31  0.001571753    2.674    0.626
        88 -10.8246     13.8783    110.3750   1.0062611319e+02   5.1318214154e+01    0.4827559    0.1987542  87.67  0.002123959    2.536    0.606
        89 -11.7558     45.9853    102.8382   8.9762325790e+01   5.0097062552e+01    0.7984337    0.3769766  73.20  0.002760966    4.089    0.755
        90 -11.1371     24.5062    104.1851   9.6676572303e+01   5.1931355332e+01    0.5859005    0.2328257  75.13  0.001948307    4.647    0.785
        91  -9.5023    139.6457    105.3042   6.3894022729e+01   3.3451529451e+01     0.155038    0.1204705 -87.58 0.0007040414    1.711    0.416
        92 -10.4450      6.6060    102.7175   1.0201891142e+02   5.3648330621e+01    0.3660236    0.1605632  84.92  0.001729241    2.243    0.554
        93  -9.7195    128.3425    102.6475   6.5951285215e+01   3.6412569708e+01    0.1593296    0.1195553 -84.99 0.0007041269    1.811    0.448
        94 -11.5784    109.9570     99.8926   7.0032159194e+01   4.0752886469e+01    0.8031675    0.4918546  75.54  0.002959456    2.977    0.664
        95  -9.9876     82.4957    100.7753   7.8104221463e+01   4.5510115189e+01     0.342452    0.1976998  72.66  0.001277209    3.059    0.673
        96 -10.0308     94.9994     97.9770   7.3737238966e+01   4.4002326746e+01     0.237911    0.1776249  85.31 0.0008425924    1.699    0.411
        97 -11.3719     63.5606     95.8688   8.2807962207e+01   4.9545435903e+01    0.6733297    0.3855716  86.76  0.002653359    2.893    0.654
        98 -10.6944    125.5180     91.8751   6.3685729335e+01   3.9257051862e+01    0.3840401    0.2572107  73.98  0.001580727    2.184    0.542
        99 -11.1648     34.6994     89.6628   9.1065766569e+01   5.4497251670e+01    0.5672867    0.2491715 -83.82  0.002162162    3.084    0.676
       100 -10.6784      5.0060     91.5325   1.0133438238e+02   5.6410410159e+01      0.33169    0.1518574  78.21  0.001567392    2.355    0.575
       101 -11.3133     87.0286     87.4426   7.3315451180e+01   4.7821893324e+01    0.4403088    0.2806303  73.46  0.001802646    2.499    0.600
       102 -10.8538     49.4502     85.3883   8.5126166127e+01   5.3904201921e+01    0.5468646    0.2901303  67.04  0.002158267    3.143    0.682
       103 -10.8739    105.1811     83.9855   6.6904695640e+01   4.5173595689e+01    0.4831688    0.3099055 -76.25  0.001880705    2.546    0.607
       104 -11.2205     74.5394     80.7172   7.5427367548e+01   5.1468014027e+01    0.4522932    0.2488688 -72.27  0.001734269    2.683    0.627
       105 -10.9289     24.4553     80.5388   9.2989266134e+01   5.7651778536e+01    0.5121335    0.2495776  87.80  0.002169325    2.729    0.634
       106  -9.9113    120.2897     81.1561   6.1852944179e+01   4.2603035520e+01    0.3346063    0.1879565  71.14   0.00109785    3.434    0.709
       107 -10.1786      9.7729     80.9187   9.8345301387e+01   5.8654349885e+01    0.3309234    0.1272196  54.32  0.001383392    3.393    0.705
       108 -12.0143     63.5665     73.1180   7.7013493230e+01   5.4915389727e+01    0.8990105    0.4291272 -63.92  0.003576316    2.358    0.576
       109 -10.0914     82.8162     74.2042   7.0776718868e+01   5.1549955948e+01    0.2477613    0.1612193  88.52 0.0009532981    2.868    0.651
       110 -10.0128    116.4215     73.2251   6.0363901299e+01   4.5061588320e+01    0.2245882    0.1382649 -51.37 0.0009436382    1.686    0.407
       111 -10.0783    105.8811     71.8203   6.2872990852e+01   4.7607811171e+01    0.3063172    0.1961436 -65.82  0.001247813    2.144    0.534
       112 -10.0890     95.3767     72.2193   6.6152410566e+01   4.9647570617e+01    0.2247926    0.1328677 -54.27 0.0009541512    1.736    0.424
       113 -11.1951     51.4991     69.0897   8.0265795169e+01   5.7519209024e+01    0.6041967    0.2718237 -69.07  0.002252366    2.909    0.656
       114 -10.2121     16.4699     69.0586   9.3854895089e+01   6.1044442091e+01      0.35889    0.1024197 -69.11  0.001379489    2.803    0.643
       115 -10.6775     37.8185     64.3470   8.4261577074e+01   6.0249835299e+01    0.4544517      0.23844 -82.06  0.001827909    2.927    0.658
       116  -9.3840      4.3105     64.6639   9.7918720895e+01   6.2866512579e+01    0.1237006   0.08001494  74.03 0.0003185334    1.682    0.406
       117 -10.1606     24.8596     58.4469   8.8060385706e+01   6.2897207367e+01    0.3319889    0.1344893 -67.61  0.001428974    2.223    0.550
       118 -10.8006      7.2728     56.3903   9.5168720640e+01   6.4657309129e+01    0.4067501    0.1697447 -79.81  0.001814744    2.399    0.583
       119  -9.8726    119.9754     56.8302   5.3699637978e+01   4.7400750453e+01    0.2585957    0.1853998 -85.63  0.001088552    2.104    0.525
       120 -11.0269     44.5973     55.4044   7.8857450296e+01   6.1535236964e+01    0.4631832    0.3038925 -82.07  0.002219504    2.141    0.533
       121 -10.4625     54.4133     54.8263   7.4668192232e+01   6.0373127263e+01    0.4112196    0.2257213 -71.68  0.001594136    2.990    0.666
       122  -9.8121    106.7819     54.1989   5.6350810683e+01   5.0890067158e+01    0.2580419    0.1659535 -73.57 0.0009571254    2.823    0.646
       123 -10.2519     31.1804     51.8358   8.3477855789e+01   6.3840492509e+01    0.3663422    0.2174011  87.48  0.001589549    2.923    0.658
       124  -9.9692     20.4921     52.9909   8.8551127296e+01   6.4538019915e+01    0.1789213    0.1001729 -89.81 0.0008101776    2.512    0.602
       125  -9.8793     92.1910     50.8029   5.9475132044e+01   5.4643532131e+01    0.3401019    0.0985959 -45.30  0.001001674    3.483    0.713
       126  -9.9123     82.0000     45.0243   6.0533381403e+01   5.7774882690e+01    0.4198683   0.07709191 -40.83  0.001058675    5.001    0.800
       127 -10.1397     16.6800     44.0666   8.7853983740e+01   6.6890338040e+01    0.3381963    0.1405118 -71.02  0.001449401    2.506    0.601
       128  -9.6989     58.5170     43.0299   6.8558332503e+01   6.2274812691e+01    0.1978552    0.1164228 -65.78 0.0008103079    2.612    0.617
       129 -10.9570      5.1412     41.1601   9.2723066527e+01   6.8314862082e+01    0.4395169      0.19147 -82.39  0.001888694    2.884    0.653
       130 -10.1763     36.8672     40.5750   7.7058236278e+01   6.5730971077e+01    0.2697267    0.1642283 -67.47  0.001325607    1.939    0.484
       131 -10.3621     80.9736     37.0114   5.7445130808e+01   5.9446019701e+01    0.2283962    0.1780894 -68.08  0.001140683    1.732    0.423
       132  -9.4431    119.3513     33.7002   4.4773683303e+01   5.1358931928e+01    0.1551515    0.1158849 -65.86 0.0006406614    1.693    0.409
       133  -9.6993     60.6775     33.3081   6.3439037466e+01   6.3825839663e+01    0.1310461    0.1085993 -73.23 0.0007035123    1.645    0.392
       134  -9.6065    195.5178     31.5460   3.0737416736e+01   3.1764754818e+01      0.14498    0.1386266 -35.57 0.0001326612    1.027    0.026
       135 -10.2530     13.5524     31.0389   8.5276756556e+01   7.0029472388e+01    0.2490551    0.1477155 -77.09  0.001296373    2.040    0.510
       136  -9.9017     88.8271     17.1037   4.5347504464e+01   6.0865349281e+01    0.2196136    0.1928814 -50.33  0.001231697    1.308    0.236
       137 -10.4195     58.4473     15.2917   5.5140509334e+01   6.7268297839e+01    0.2097336    0.2044176 -32.79 0.0003885078    1.262    0.208
       138 -10.1832     15.9980    221.0309   1.0720875466e+02   2.8253475247e+01    0.1702251   0.07609256  60.84 0.0005562414    1.639    0.390
       139  -9.5590    143.3434    216.6725   8.3692953444e+01   1.2762552655e+01    0.1170838   0.07943157  62.41   0.00058319    1.743    0.426
