#   1 NUMBER                 Running object number                                     
#   2 MAG_AUTO               Kron-like elliptical aperture magnitude                    [mag]
#   3 X_IMAGE                Object position along x                                    [pixel]
#   4 Y_IMAGE                Object position along y                                    [pixel]
#   5 X_WORLD                Barycenter position along world x axis                     [deg]
#   6 Y_WORLD                Barycenter position along world y axis                     [deg]
#   7 A_WORLD                Profile RMS along major axis (world units)                 [deg]
#   8 B_WORLD                Profile RMS along minor axis (world units)                 [deg]
#   9 THETA_WORLD            Position angle (CCW/world-x)                               [deg]
#  10 FWHM_WORLD             FWHM assuming a gaussian core                              [deg]
#  11 ELONGATION             A_IMAGE/B_IMAGE                                           
#  12 ELLIPTICITY            1 - B_IMAGE/A_IMAGE                                       
         1 -13.0554    249.1393     50.3117   8.3356251001e-02   1.8364339740e+01      1.38268    0.2883165 -40.62  0.005563872    3.037    0.671
         2 -16.3174    241.9385    112.4689   1.3883676331e+01   1.1406606624e+01     4.944813     1.549518 -38.60   0.02117858    2.560    0.609
         3 -15.0180    244.6934     64.7995   3.5328480772e+00   1.7354082136e+01     2.116638     1.304143 -41.09   0.01102678    1.276    0.217
         4 -14.6195    224.9995     59.6893   4.2625677171e+00   2.1703710925e+01      1.66177     1.133934 -70.08  0.009520384    1.587    0.370
         5 -13.5969    234.4263     46.5125   4.2015729285e-01   2.1547419513e+01     1.445752    0.5190214 -37.54  0.006746743    2.106    0.525
         6 -13.6392     45.0430     23.3592   3.3733961495e+01   6.9973262906e+01      1.10834    0.9747742 -10.94  0.006389614    1.117    0.104
         7 -12.7428    176.8974     22.2855   3.5952546504e+02   3.7148321517e+01    0.9037111    0.4802034 -63.00  0.004171733    1.907    0.476
         8 -13.1539     39.5701     10.9441   2.9274962575e+01   7.2952787771e+01    0.6644281    0.5728921 -31.14   0.00406353    1.263    0.208
         9 -12.8020      6.2100     15.6243   5.9045723241e+01   7.6608961434e+01    0.8748992    0.5657381  31.89  0.004965959    1.706    0.414
        10 -13.0581     21.0917     13.1954   4.4186884683e+01   7.5567232646e+01     1.091014    0.5107031 -25.87  0.004351604    3.095    0.677
        11 -13.7920      7.8313      4.9538   5.1223922569e+01   7.8591933853e+01     1.411948    0.7072955  31.31  0.007289409    2.031    0.508
        12 -13.3879    156.2051      4.0783   3.5605675017e+02   4.4258584491e+01     1.675887    0.7107126  89.52   0.00679013    2.418    0.586
        13 -11.8234     18.0405      3.2610   3.9817731042e+01   7.7683519277e+01    0.3854214    0.3711697 -17.78  0.002442744    1.310    0.236
        14 -11.1415    227.3024     15.5700   3.5396106127e+02   2.6508532401e+01    0.4198428    0.2346073 -81.70  0.002326918    1.789    0.441
        15 -10.1801    231.5618      9.5509   3.5238787896e+02   2.6273625511e+01      0.19845    0.1604891 -81.60  0.001365004    1.227    0.185
        16 -10.9514    223.6937      4.7368   3.5170173904e+02   2.8354757323e+01    0.4255667     0.135439 -52.56  0.001929432    2.458    0.593
        17 -12.3843    207.7440      3.8993   3.5233280056e+02   3.1845518579e+01    0.7375589    0.3007173 -87.72  0.003373782    2.530    0.605
        18 -10.8188    192.5650      5.1501   3.5355509534e+02   3.5172769034e+01    0.3255151    0.1731217 -44.22   0.00125894    1.587    0.370
        19 -10.5752     85.9689      3.3309   6.2148098771e+00   6.3038558751e+01     0.334027    0.2187288  60.69  0.001457752    1.315    0.239
        20 -11.0792    217.4956      1.7941   3.5132901613e+02   2.9938954072e+01     0.269112    0.1482598 -81.38  0.001521511    1.692    0.409
        21 -13.5894    155.9886     11.9082   3.5856095996e+02   4.3565654984e+01     1.108405    0.6804563  76.68  0.005572212    1.486    0.327
        22 -13.0811    245.1108    177.5193   2.5901801498e+01   2.1806857163e+00    0.7551452     0.247172 -34.11  0.003146626    2.592    0.614
        23 -13.7713    244.6497     81.5185   7.1000899257e+00   1.5181126920e+01     1.884876    0.6856121  68.69  0.007479338    4.717    0.788
        24 -11.7026    122.8335    126.5093   3.9968416501e+01   3.1872920872e+01    0.4118888    0.2723376  60.17  0.001735829    1.839    0.456
        25  -9.8322    148.4604    111.5080   2.9746244246e+01   2.9637125263e+01    0.1493481    0.1481375 -55.04 0.0001825914    1.024    0.023
        26 -12.6297     58.5651     99.0640   5.4997854492e+01   5.0565549147e+01    0.9170605     0.589918 -35.82  0.003928496    1.854    0.460
        27 -10.7697    112.9475    100.7909   3.6251906552e+01   3.9774971687e+01    0.3196265    0.2425715 -56.21  0.001464426    1.389    0.280
        28 -11.5766     45.6770     89.8967   5.8332781346e+01   5.4788849118e+01    0.2654841    0.2130835   9.01  0.001333373    1.388    0.279
        29 -10.3533     12.8445     89.8214   7.3362504784e+01   5.7972995660e+01    0.2024383    0.1551524  64.44  0.001090834    1.350    0.259
        30 -10.8080      2.4778     88.3632   7.7975229920e+01   5.8909898976e+01    0.3192103     0.224061  71.82  0.001717516    1.428    0.300
        31 -10.5087     20.4772     88.0191   6.9540706140e+01   5.7917662487e+01    0.2265874    0.1304732 -71.97  0.001039695    1.613    0.380
        32  -9.7458    144.8233     80.8383   2.2165093985e+01   3.6448704552e+01    0.2218398    0.1818701 -73.75  0.001079641    1.355    0.262
        33 -10.0619    159.2904    231.6455   4.9920022951e+01   5.8645760348e+00    0.1103398   0.08786446  49.11 0.0004199423    1.679    0.404
        34  -9.6442    178.4946     65.5522   1.1511296581e+01   3.0946786147e+01    0.1418175    0.1317947 -61.18 0.0001550429    1.016    0.016
        35 -10.6868    199.6398     63.6049   8.0567656924e+00   2.6437945881e+01    0.2516014    0.1998683 -35.06  0.001077424    1.192    0.161
        36 -10.7901    195.6710     56.8755   6.8298558723e+00   2.8273415269e+01    0.2224642    0.1873977  55.47 0.0009365104    1.337    0.252
        37 -10.6887    165.0440     52.9979   1.0029836763e+01   3.6099019622e+01    0.4138208    0.2695296  50.10  0.001963759    1.658    0.397
        38 -11.7840    199.3108     51.1567   4.9250708902e+00   2.8246433587e+01    0.3746696    0.2345213 -36.89  0.001951747    1.437    0.304
        39 -11.1681     97.3925     44.9568   2.2192824248e+01   5.4736919549e+01    0.4874794    0.2663951 -29.57  0.001962194    2.117    0.528
        40 -10.9290    197.0371     43.6970   3.2528687674e+00   2.9747709616e+01    0.1870567    0.1636259 -76.72 0.0006880264    1.089    0.082
        41 -11.1634     91.5310     43.5377   2.3472407994e+01   5.6420902626e+01    0.3507357    0.2335394 -79.24  0.001396055    2.431    0.589
        42 -10.9712    223.5691     40.7710   1.0836081662e-02   2.4398979174e+01    0.3326038    0.2618403  10.75  0.001994554    1.872    0.466
        43 -10.9380      2.4015     40.9230   7.0847816033e+01   7.1062699665e+01    0.3119866    0.2354767 -74.96  0.001832275    1.307    0.235
        44 -11.1494    180.8206     40.1312   4.1395611942e+00   3.4014047160e+01    0.4089532     0.152284 -39.13  0.001628736    2.316    0.568
        45  -9.7050    175.5693     39.7431   4.6763854753e+00   3.5343305450e+01    0.2001988    0.1163296 -44.15 0.0009443344    1.576    0.365
        46 -12.7966     81.2265     37.8384   2.4555697406e+01   5.9851890679e+01    0.5312049    0.4973657 -44.46  0.002953181    1.142    0.125
        47 -12.7414     97.1104     36.6606   1.8828574581e+01   5.6138164340e+01    0.7720562    0.4751374  79.01  0.003142064    2.175    0.540
        48 -13.6720    203.1178    222.1044   4.0168853641e+01   1.6110918257e+00     0.994123    0.8794445  25.98  0.007424147    1.537    0.350
        49 -10.2564     90.2569     28.3007   1.7191279218e+01   5.9096252462e+01     0.251463     0.224354 -35.83  0.001377047    1.209    0.173
        50 -10.4907    145.1010     27.5425   5.0812885794e+00   4.4693886013e+01    0.4713013    0.2154584 -77.66  0.001502748    3.749    0.733
        51 -11.1581    208.8247    214.9768   3.8059421062e+01   1.8333879599e+00     0.352101    0.2640697  -8.60  0.002125541    1.124    0.110
        52 -10.3297    223.9786     22.3830   3.5572052771e+02   2.6453259168e+01    0.2823698    0.1863086 -73.51  0.001230893    1.418    0.295
        53 -10.5891    249.0286     21.1022   3.5395823127e+02   2.1718027051e+01    0.2826355    0.1961192  18.08  0.001610025    2.700    0.630
        54 -11.5569    154.3759    223.8786   4.9871639870e+01   7.6783914650e+00    0.2888493    0.1888845  42.10  0.001239833    1.605    0.377
        55 -12.5198    173.1116    208.6694   4.3792289008e+01   7.4233829301e+00    0.4012164    0.3067344 -53.08  0.002453216    1.859    0.462
        56 -10.7391    150.3051    204.3625   4.7908294364e+01   1.1402573442e+01    0.3514762    0.2081283 -44.35  0.001862505    1.909    0.476
        57 -10.9727    202.4428    196.3862   3.6173070223e+01   5.1819440299e+00    0.2381351    0.2094288 -26.11 0.0009310441    1.374    0.272
        58 -10.9833    195.4980    185.5084   3.5569652684e+01   7.7544323273e+00    0.2598249    0.1534091  -1.26  0.001052696    2.147    0.534
        59 -11.2230    220.3915    173.4701   2.9018086005e+01   5.9658491446e+00    0.3046337    0.1930546 -22.18  0.001812719    1.405    0.288
        60 -10.0161    247.5640     16.2128   3.5301548090e+02   2.2505525256e+01     0.218377   0.07885583 -36.02  0.001114664    2.018    0.505
        61 -11.4915    249.3150    165.7788   2.3208043128e+01   3.1564447638e+00    0.2859705    0.1683092 -30.03  0.001044704    1.392    0.281
        62 -12.6251    248.2816    157.7271   2.1884210756e+01   4.3334558199e+00    0.5260475    0.2920204 -28.26  0.003005956    1.463    0.317
        63 -10.6578    162.4566    151.3638   3.5723749205e+01   1.8987201558e+01    0.2933839    0.2370996  -7.67  0.001577412    1.307    0.235
        64 -11.8542    227.0359    147.0968   2.2946192312e+01   8.7857235562e+00    0.3866014    0.1938213 -34.06  0.001820991    1.719    0.418
        65 -12.5252    238.3123    169.1873   2.5420203155e+01   4.1272383747e+00    0.3625565    0.3572366 -84.78  0.002747548    1.667    0.400
        66 -13.6143    247.5656    225.7923   3.3410170038e+01  -3.7689408992e+00     0.848618    0.4827897 -11.76  0.003553433    1.438    0.305
        67 -14.5391    244.1646    199.2623   2.9743353653e+01  -3.9116817881e-01     1.860643    0.5337173 -31.82  0.008543715    3.105    0.678
        68 -10.3583    128.6230     18.1526   4.3257142798e+00   5.0185319575e+01    0.2950934    0.1927247  64.81 0.0009884406    1.386    0.279
