#   1 NUMBER                 Running object number                                     
#   2 MAG_AUTO               Kron-like elliptical aperture magnitude                    [mag]
#   3 X_IMAGE                Object position along x                                    [pixel]
#   4 Y_IMAGE                Object position along y                                    [pixel]
#   5 X_WORLD                Barycenter position along world x axis                     [deg]
#   6 Y_WORLD                Barycenter position along world y axis                     [deg]
#   7 A_WORLD                Profile RMS along major axis (world units)                 [deg]
#   8 B_WORLD                Profile RMS along minor axis (world units)                 [deg]
#   9 THETA_WORLD            Position angle (CCW/world-x)                               [deg]
#  10 FWHM_WORLD             FWHM assuming a gaussian core                              [deg]
#  11 ELONGATION             A_IMAGE/B_IMAGE                                           
#  12 ELLIPTICITY            1 - B_IMAGE/A_IMAGE                                       
         1 -11.6170    225.6698     33.3648   3.0614823341e+01   2.6114971609e+01    0.7978013    0.6208335  44.08  0.002915867    1.812    0.448
         2 -11.2996    243.0119     18.2505   2.6320327977e+01   2.4535757533e+01    0.6443822    0.4384429 -63.97  0.002815061    1.153    0.133
         3  -8.1668    160.1256     20.0193   3.4109903512e+01   4.2064677450e+01    0.1900539    0.1659421 -84.92 0.0003804449    1.029    0.028
         4  -8.5923    248.0090    249.9998   6.9605023010e+01  -9.5468268486e+00    0.1389937   0.09720378  -3.81  0.001022457    1.026    0.025
         5  -7.8894    176.3414    249.9675   8.2714114652e+01  -1.3574492302e+00    0.1702031    0.1360506  -1.08 0.0005854258    1.093    0.085
         6  -8.1787     61.7010    249.9799   1.0713093919e+02   1.3636800141e+01    0.1643155     0.140417  58.13  0.000370688    1.081    0.075
         7 -11.2580     31.4032    213.7063   1.1105994374e+02   2.4659094559e+01     1.496641    0.4226509 -55.27  0.005525055    3.950    0.747
         8 -10.9236     56.4393    240.1463   1.0747029614e+02   1.6199490083e+01     1.020394    0.6963043 -41.78  0.003855642    1.968    0.492
         9 -10.7081     19.9905    204.1596   1.1305987014e+02   2.7968252340e+01    0.4802513    0.2875081  43.26  0.001413336    1.500    0.334
        10 -12.5231     30.8981    194.6851   1.0964891855e+02   2.9131962029e+01      1.83788     1.279692 -69.68   0.01041904    1.393    0.282
        11  -9.7642     27.9603    181.8594   1.0926443104e+02   3.2546405877e+01    0.4750072    0.4034404  16.57  0.002878478    1.368    0.269
        12 -11.9267     28.5349    248.7807   1.1398540755e+02   1.7570995527e+01     1.947081    0.6025577  31.17  0.008851985    2.694    0.629
        13 -12.1053     11.0318    208.4344   1.1542678096e+02   2.7806584986e+01     1.414916    0.8437676  57.81  0.008139159    1.467    0.318
        14 -11.4439      3.2984    238.8092   1.1859909019e+02   2.1984908929e+01    0.5905616    0.4039866  68.33  0.003122125    1.186    0.157
        15 -10.5596      1.7911    231.0971   1.1857760761e+02   2.3695537888e+01      0.28134    0.1786241  87.03 0.0006286869    1.410    0.291
        16 -11.8519      2.4093    222.6297   1.1807174495e+02   2.5427461513e+01    0.9025336    0.4801088 -78.73  0.004736117    1.760    0.432
        17 -11.9392      9.1163    231.5290   1.1708169039e+02   2.2955813444e+01    0.7608239    0.6586696  56.87   0.00420174    1.140    0.123
        18 -11.0003     12.1914    239.3565   1.1682581727e+02   2.1063050868e+01    0.5777168    0.1768125  41.41  0.002717846    2.347    0.574
        19  -8.4449    163.3647    243.0309   8.4353298935e+01   1.4280919236e+00    0.2125425    0.1471605  15.82 0.0006190552    1.269    0.212
        20  -9.4648     71.9252    242.5075   1.0426529226e+02   1.3843787216e+01    0.3045194    0.1819839  33.42  0.001147389    1.442    0.307
        21  -7.8276     92.8411    241.1693   9.9480025184e+01   1.1405186550e+01    0.1608268    0.1413814   2.38  0.000393465    1.277    0.217
        22  -8.5003    165.1779    238.4834   8.3307483564e+01   1.9243517526e+00      0.20132    0.1651636 -23.33 0.0005268674    1.247    0.198
        23  -7.3800    150.3007    238.3051   8.6428402581e+01   4.0026709154e+00    0.1293952   0.08981624  -3.16 0.0002096118    1.593    0.372
        24 -10.2821     23.1626    177.1544   1.1011624730e+02   3.4168270468e+01    0.8637046    0.2806488  54.38  0.002965666    3.743    0.733
        25  -8.6688     50.3691    234.8551   1.0838213408e+02   1.7991137312e+01    0.3385405    0.2144493  17.94  0.001848119    1.861    0.463
        26  -7.3022    135.7151    236.3091   8.9318138451e+01   6.3978616739e+00    0.1229755   0.09572084  55.20 0.0002448831    1.570    0.363
        27  -9.0050     97.6858    234.7203   9.7663161772e+01   1.2010862332e+01    0.2045838    0.1483279  32.92 0.0002450495    1.198    0.165
        28  -9.4017     35.5371    233.2727   1.1153375379e+02   1.9972868109e+01    0.3639999    0.2169634  42.86  0.001559927    1.404    0.288
        29  -7.7281    121.3081    233.3201   9.2125580275e+01   8.9888520963e+00     0.131337      0.09634  -6.87 0.0006619227    1.640    0.390
        30  -9.4242     90.5478    230.7038   9.8838246096e+01   1.3784314612e+01    0.3356692    0.1877116 -56.83  0.001425143    1.984    0.496
        31  -9.6398     84.5325    232.3277   1.0040411259e+02   1.4260060057e+01    0.3465916    0.2061668  18.94   0.00172169    1.896    0.473
        32  -7.7713     57.5181    233.5126   1.0667212565e+02   1.7429068004e+01    0.1255644    0.1081906  51.19 0.0002220738    1.022    0.021
        33  -7.4412    194.5367    232.4420   7.6431571377e+01  -1.0276532923e+00    0.1283338   0.09780303  -0.00 1.492708e-05    1.094    0.086
        34  -9.9455    112.3213    231.2904   9.3901407965e+01   1.0650258355e+01     0.355648    0.2096087  29.45  0.001274826    1.512    0.338
        35  -9.8902     24.5984    227.3074   1.1353586587e+02   2.2368258239e+01    0.4524261    0.2127081 -72.29 0.0006589994    2.105    0.525
        36 -11.4684     13.3266    244.4055   1.1683749857e+02   1.9943158940e+01    0.5674062    0.3105081  78.68 0.0002211888    1.719    0.418
        37  -7.7292    149.9952    229.0000   8.5128936594e+01   5.6773669480e+00     0.215804    0.0667044  32.78 0.0005287597    2.869    0.652
        38  -9.9636    133.4164    226.2136   8.8404410102e+01   8.5931457639e+00    0.2995788    0.2555255 -12.81 0.0006053494    1.216    0.178
        39  -8.7223    137.0000    223.9849   8.7267961254e+01   8.4908103048e+00    0.2373767    0.1466817 -57.05 0.0009501744    1.975    0.494
        40  -8.3105     35.8584    219.1921   1.1044103760e+02   2.2965906440e+01    0.2067466    0.1492017 -61.92  0.000346962    1.509    0.337
        41  -8.1376     36.1715    226.8909   1.1094245529e+02   2.1256226355e+01    0.1929357    0.1551406  -7.94  0.001010794    1.735    0.424
        42  -8.6743     37.2774    223.3688   1.1043253862e+02   2.1897724105e+01    0.4129883    0.1711078  41.60  0.001969535    1.992    0.498
        43  -8.7468    111.3425    224.0055   9.3173069729e+01   1.2231940235e+01    0.1846376    0.1717582  31.86 0.0007508122    1.054    0.051
        44  -8.1027     55.6264    225.1231   1.0636364574e+02   1.9428650322e+01    0.2138516    0.1526727 -69.61 0.0006951136    1.486    0.327
        45  -8.4758     32.6384    225.8396   1.1165843617e+02   2.1857736563e+01    0.1725113    0.1022979  84.15 0.0009391399    1.714    0.417
        46  -7.7778     89.3133    224.6437   9.8424624976e+01   1.5199612461e+01    0.1409231   0.09203859  60.87 0.0007044308    1.740    0.425
        47  -8.1768     61.4288    223.5399   1.0486592561e+02   1.9066550058e+01    0.4204598    0.1182454  46.91    0.0014858    3.409    0.707
        48  -8.2468     85.1303    218.9230   9.8742924771e+01   1.6982931290e+01    0.2018553    0.1648753  52.37 0.0004795257    1.160    0.138
        49  -7.6588     83.5101    216.0077   9.8785912213e+01   1.7835023735e+01    0.2992587    0.1759043 -29.66  0.001298615    2.665    0.625
        50  -7.8431     56.3868    216.7802   1.0540909409e+02   2.1162416573e+01    0.2090812    0.1525431   4.93            0    1.801    0.445
        51  -8.9547     24.7139    213.7819   1.1262027213e+02   2.5319680989e+01    0.2615647    0.1537836 -67.57  0.001127497    1.703    0.413
        52  -7.8675     84.4736    211.4606   9.7995890307e+01   1.8701316332e+01    0.2681064     0.182803 -10.08  0.001086216    2.189    0.543
        53  -7.5417    120.2846    211.4031   8.9274773385e+01   1.3488341452e+01    0.1445749    0.1020483 -17.88 4.556624e-05    1.787    0.441
        54  -7.3175     95.4896    211.4975   9.5295881945e+01   1.7139371200e+01    0.1365157    0.1265428  25.96 0.0008098166    1.062    0.059
        55  -9.0755     64.4874    208.3389   1.0257047810e+02   2.2061695107e+01    0.2352646    0.2279527  10.36 0.0001755449    1.169    0.145
        56  -7.4865    118.1224    208.4962   8.9356396803e+01   1.4425054474e+01    0.2011251      0.12779  32.44 0.0003530317    1.441    0.306
        57  -8.2369     46.9408    206.9649   1.0676321488e+02   2.4501313962e+01    0.2723003    0.1769112  -9.72  0.001155835    2.522    0.604
        58  -7.3027     91.4720    204.5175   9.5353420427e+01   1.9262625566e+01    0.1385516    0.1289613  40.00 0.0003399542    1.010    0.010
        59  -7.2238     77.2415    204.4034   9.8920174304e+01   2.1283921244e+01    0.1374291    0.1000556 -35.13 0.0006923969    1.686    0.407
        60  -8.3555    158.2676    206.9021   7.9755535035e+01   8.5325892456e+00    0.4262342     0.244346  -2.65   0.00118886    2.926    0.658
        61  -7.9894     97.0241    200.6651   9.3415475174e+01   1.9319077855e+01    0.3091831    0.1969832  64.03   0.00139588    2.040    0.510
        62  -7.7106    113.2893    200.2969   8.9281383422e+01   1.6931210229e+01    0.1889069     0.187805 -56.61 0.0002247804    1.090    0.083
        63  -9.3186    109.5008    198.6168   8.9965639883e+01   1.7888156555e+01    0.2560539    0.2310126  46.52 0.0003683916    1.102    0.092
        64  -8.7676     48.0692    199.3525   1.0574065465e+02   2.6151636949e+01    0.3639534    0.2357749   5.20  0.001222282    2.168    0.539
        65  -8.1601    101.1663    198.8754   9.2105387309e+01   1.9103302259e+01    0.2106714    0.1799404  57.06 0.0005004915    1.212    0.175
        66  -8.4741     88.8463    197.2861   9.5020626161e+01   2.1291335873e+01    0.3656503    0.2331292   3.37  0.001134545    2.328    0.570
        67  -7.7249     78.6918    198.0364   9.7737942688e+01   2.2557648477e+01    0.1858294    0.1743573 -64.12  0.000385516    1.125    0.111
        68  -7.6053     82.5924    197.2438   9.6626302377e+01   2.2196790504e+01    0.1866906    0.1282875 -50.60 0.0002783902    1.550    0.355
        69  -8.3979     57.7548    193.3743   1.0260208876e+02   2.6418666320e+01    0.2730723     0.203803 -51.28   0.00119179    1.449    0.310
        70  -8.7816     71.8119    191.7357   9.8706883457e+01   2.4990941244e+01    0.2260762    0.2075434  88.01 0.0003399832    1.086    0.079
        71  -7.9457     64.6816    189.2148   1.0027277369e+02   2.6544683367e+01    0.2476603    0.1722109 -55.35 0.0006881938    1.483    0.326
        72  -9.5642     20.7736    188.4514   1.1169792307e+02   3.1613092898e+01    0.3333767      0.25848  82.54  0.001094319    1.155    0.134
        73  -7.1210     90.6390    189.2573   9.3387626982e+01   2.2904236756e+01    0.1504458    0.1024348  56.97 0.0002338295    1.624    0.384
        74  -7.0043    120.7336    188.6536   8.5511928280e+01   1.8324214650e+01    0.1476041    0.1096556 -19.31  0.000424019    1.611    0.379
        75  -7.2552     80.7448    188.0001   9.5826502510e+01   2.4646541668e+01    0.1725895    0.1224353 -63.94 0.0002850429    1.452    0.312
        76 -10.8559      3.7440    248.9887   1.1892491042e+02   1.9930602126e+01    0.6540434    0.3359129  34.61  0.003090383    1.695    0.410
        77  -7.2370    169.4726    184.4987   7.3210592523e+01   1.1078980930e+01    0.1429378    0.1275816  -5.28 3.905724e-05    1.011    0.011
        78  -8.0159     11.1039    183.6693   1.1379761245e+02   3.3615904348e+01    0.2325963    0.1480787  67.23  0.001271374    1.465    0.317
        79  -8.3838      7.4657    181.0375   1.1453968921e+02   3.4548261062e+01    0.2137663    0.1546394  45.69 0.0007113738    1.337    0.252
        80  -7.8637     80.9445    179.4790   9.4517916081e+01   2.6685534195e+01    0.2008634    0.1936904 -79.56  0.000300562    1.047    0.045
        81 -10.0925     51.5176    178.3173   1.0248908014e+02   3.0879816805e+01    0.5574467    0.3455943 -41.49  0.001810562    1.915    0.478
        82  -8.6400     43.2106    180.1365   1.0498342546e+02   3.1383530184e+01    0.4310342    0.2241771  19.63  0.001586568    2.257    0.557
        83  -8.0513    117.1734    179.5658   8.4826711103e+01   2.0970817313e+01    0.2904293    0.1149077 -56.55  0.001012186    2.786    0.641
        84  -8.5736     36.5662    179.0267   1.0667333399e+02   3.2380257776e+01    0.3197227    0.2130716 -28.17 0.0008729403    2.055    0.513
        85  -7.7185     77.9988    181.9979   9.5699121893e+01   2.6492035530e+01    0.1943448    0.1675751 -26.78  -0.04270636    1.324    0.244
        86  -8.3418     86.9242    178.2916   9.2694083834e+01   2.6092981542e+01    0.1976905    0.1881393  36.59 0.0004231031    1.037    0.036
        87  -8.2178     64.1366    176.8632   9.8792630593e+01   2.9661700637e+01    0.2213565    0.1764804  60.08 0.0005258931    1.264    0.209
        88  -7.1065     76.6927    176.2739   9.5206726983e+01   2.8087768280e+01    0.1479973    0.1059752  61.94 0.0001780613    1.546    0.353
        89  -7.3118      1.5048    175.4495   1.1569325990e+02   3.6358157401e+01    0.1266209    0.1071004  84.19 0.0001029284    1.012    0.011
        90  -9.1467    175.3302    172.4470   6.9568529239e+01   1.2461546325e+01    0.2794502    0.2389996  -6.35  0.000660845    1.121    0.108
        91  -9.7152     58.5846    171.6422   9.9638733907e+01   3.1694032929e+01    0.5116184    0.2488125 -46.88  0.001450868    2.263    0.558
        92  -9.1529     23.3406    170.7949   1.0947831381e+02   3.5746598573e+01    0.2777513    0.1750816  36.34  0.001002715    1.586    0.369
        93  -7.6033     42.9543    168.7485   1.0372880001e+02   3.4289805895e+01    0.1852059    0.1707859  62.16 0.0002269522    1.065    0.061
        94  -7.0994    123.4798    168.4315   8.1103263700e+01   2.2462019353e+01    0.1500903    0.1434499   7.89 0.0001359777    1.016    0.016
        95  -7.4378    111.4832    168.5016   8.4296089328e+01   2.4517576552e+01     0.149335    0.1458883  16.30 0.0008104534    1.003    0.003
        96  -8.3047     40.6623    166.0460   1.0405891962e+02   3.5233062569e+01    0.6568389    0.3059992 -21.81  0.001742844    6.795    0.853
        97  -8.6456      4.1510    166.6550   1.1438285142e+02   3.8339548775e+01    0.2069057    0.1403718  51.87 0.0006202195    1.434    0.303
        98  -9.6427     26.4512    163.6169   1.0788111573e+02   3.7285797788e+01    0.4447991     0.273816 -63.35  0.001559756    1.493    0.330
        99  -9.3942     23.9716    156.2825   1.0781747465e+02   3.9397116514e+01    0.3701448    0.2619105  20.78  0.001608725    1.589    0.371
       100  -9.0392     69.5431    162.8356   9.5159619635e+01   3.2481880835e+01    0.2841735     0.247708  44.67 0.0008712069    1.144    0.126
       101  -8.7318     54.4706    161.9025   9.9465441438e+01   3.4701270308e+01    0.5133392    0.2506238  53.65  0.002012575    2.437    0.590
       102  -8.9061     34.4815    161.9748   1.0536871996e+02   3.6928350921e+01     0.420829    0.3381919  44.91  0.001722647    1.257    0.204
       103  -9.8937     13.0202    160.8872   1.1145295657e+02   3.9130306980e+01    0.3300953    0.2416039 -34.25            0    1.639    0.390
       104  -8.3586     57.6745    158.9786   9.8080482115e+01   3.5055359490e+01    0.2764399    0.2278425 -84.44  0.001467954    1.220    0.180
       105  -9.7560     77.3499    156.4313   9.1773431248e+01   3.2995064048e+01    0.5187984    0.3840574 -28.76   0.00118253    1.602    0.376
       106  -7.4938    122.1819    157.4124   7.9231331364e+01   2.5260212366e+01     0.195385    0.1428659  46.94 0.0001072484    1.430    0.301
       107  -7.3787     45.9894    155.9664   1.0116506044e+02   3.7247330419e+01    0.1714212    0.1498165 -74.40            0    1.075    0.069
       108  -7.0676      9.2774    155.5726   1.1205025890e+02   4.0765182557e+01    0.1457951   0.08295032  67.54            0    1.835    0.455
       109  -7.5823    117.2080    154.3871   7.9942583877e+01   2.6874226512e+01    0.2121709    0.1401415  46.79  0.000333638    1.590    0.371
       110  -7.6386      3.8226    154.4442   1.1352405510e+02   4.1432232863e+01    0.1591324    0.1238924 -15.67 0.0004966782    1.616    0.381
       111  -7.1707    128.4425    153.4748   7.6747165023e+01   2.5028886771e+01    0.1508411    0.1490182  78.18 0.0001302602    1.087    0.080
       112 -10.9859     69.0401    145.2283   9.2298285867e+01   3.7088673785e+01    0.8367538    0.6413751  70.09  0.002920393    1.517    0.341
       113  -9.0331     15.2104    150.7794   1.0984803093e+02   4.1547483285e+01    0.4285654    0.1542803  46.50  0.001660126    2.958    0.662
       114  -8.2844     54.2259    149.4063   9.7651067661e+01   3.7977700337e+01    0.1969827    0.1313949  40.94 0.0004120957    1.528    0.345
       115  -9.7429    242.5037    144.0914   5.1678961734e+01   6.5763141404e+00     0.325992    0.2015678 -57.81  0.001671475    2.213    0.548
       116  -8.7161     97.3602    141.9313   8.2957789691e+01   3.3432842423e+01    0.3940135    0.2459403 -81.78  0.001334368    2.635    0.621
       117  -8.3914     93.0266    143.1440   8.4509252104e+01   3.3872510570e+01    0.2672062    0.1830148  -6.11  0.001086523    2.145    0.534
       118  -9.4133     81.3477    141.1437   8.7666302053e+01   3.6288700197e+01    0.4113967    0.2459067 -48.38  0.001330661    1.642    0.391
       119  -7.9415      5.2294    138.1948   1.1164575360e+02   4.5493280393e+01    0.2288405    0.0963923 -41.49 0.0008172365    2.712    0.631
       120  -8.6462     15.4533    140.2709   1.0864828115e+02   4.4248729784e+01    0.4710577    0.1271219 -75.33  0.001489902    3.569    0.720
       121  -7.9919     50.5243    150.8357   9.9025012734e+01   3.8055555817e+01    0.2210942    0.1350077 -65.09  0.001014024    1.540    0.351
       122  -9.4180      9.7111    132.3174   1.0959873583e+02   4.6719217010e+01    0.3684133    0.2227949  84.16  0.001119226    1.718    0.418
       123  -8.2230    106.1605    132.3283   7.8205618284e+01   3.4206106793e+01    0.4940644    0.3068236 -13.64  0.001732897    2.912    0.657
       124 -10.1143     28.9464    132.2094   1.0321023638e+02   4.5229426403e+01    0.2690344    0.2489115 -45.81 0.0003539994    1.105    0.095
       125  -9.2020     22.8953    148.7208   1.0729403713e+02   4.1450452826e+01     0.358789    0.2000979 -49.10   0.00169905    1.799    0.444
       126  -9.9374    248.2433    129.9156   4.8070736216e+01   7.9742845369e+00    0.4326203    0.2563713  40.58  0.001547661    2.105    0.525
       127  -8.6190     67.1600    129.8776   8.9927912948e+01   4.1328200322e+01    0.2139801    0.1746244 -29.70  0.001068593    1.312    0.238
       128  -8.0233     65.7765    124.7557   8.9322361958e+01   4.2844105292e+01     0.195813    0.1728069  79.05 0.0004855981    1.262    0.207
       129  -7.5980    118.3962    122.7921   7.2376556322e+01   3.4099592045e+01    0.2173558    0.1445883 -37.18 0.0005352141    1.569    0.363
       130  -7.5185     21.7652    122.2262   1.0421512325e+02   4.8455769482e+01    0.1870606    0.1397736 -46.55 0.0003206222    1.276    0.216
       131  -7.1074     64.2824    120.6701   8.8953820452e+01   4.4103631380e+01    0.1503851    0.1166978  75.26  0.000406816    1.607    0.378
       132  -8.1014      5.8594    118.5820   1.0929953802e+02   5.0502299139e+01    0.2319077     0.138802 -78.78  0.001176724    1.511    0.338
       133  -7.8610     37.0146    117.4636   9.7983812153e+01   4.8295584661e+01    0.1935549    0.1434609  15.81 0.0004287951    1.496    0.331
       134  -8.9792    248.8437    116.1519   4.5257306916e+01   1.0046657451e+01    0.1924368    0.1459204 -51.13  0.001078155    1.241    0.194
       135  -7.8454     72.0193    116.2459   8.5285363288e+01   4.4065881256e+01    0.2033022    0.1913983  18.66 0.0003215345    1.092    0.084
       136  -8.1962     33.1725    115.7799   9.9076021554e+01   4.9116465042e+01      0.20145    0.1869193  75.55 0.0004574021    1.162    0.140
       137  -9.2618     14.4801    115.4249   1.0582115428e+02   5.0764407142e+01    0.2506561    0.2186376 -58.08 0.0002734077    1.037    0.036
       138  -7.0770     59.6795    111.6926   8.8567411540e+01   4.7030256117e+01    0.1560811    0.1095296 -25.69 0.0007032847    1.639    0.390
       139  -8.1148     45.9588    110.5248   9.3332796148e+01   4.9092068646e+01     0.218178    0.1801763 -57.20 0.0002994587    1.128    0.113
       140  -8.3883     21.2418    109.6776   1.0244092078e+02   5.1741251862e+01    0.3560846    0.1934103  43.43  0.001163631    2.122    0.529
       141  -7.8652     13.3134    107.3855   1.0505977416e+02   5.2905737836e+01    0.1683251    0.1253097  29.89 0.0009142006    1.510    0.338
       142  -9.1395    249.1846    106.0033   4.3187407535e+01   1.1565449281e+01    0.2556971    0.1258199 -39.30  0.001326198    1.625    0.385
       143  -7.7514      8.5094    106.5159   1.0674136481e+02   5.3430996065e+01    0.2219786     0.120674 -10.26  0.001027984    2.315    0.568
       144  -9.2701     78.7911    103.4788   7.9744378872e+01   4.6082096581e+01    0.2667287    0.2449511 -35.80 0.0003359132    1.051    0.049
       145  -8.3219     38.2587     99.4215   9.3872970567e+01   5.2761695826e+01    0.3683185    0.1947798  55.36  0.001167563    2.902    0.655
       146  -7.3269     63.0440     98.9978   8.4221186132e+01   4.9677541418e+01    0.1751675    0.1655103   1.29 0.0003675532    1.064    0.060
       147  -8.9148      8.9466     94.7854   1.0475121571e+02   5.6359237209e+01    0.2880596    0.1919799 -75.93 0.0004831015    1.439    0.305
       148  -7.5807      4.3256     95.6295   1.0674500716e+02   5.6405701427e+01    0.1358067   0.09181915  65.44 0.0007032886    1.814    0.449
       149  -7.4903     56.2560     92.0490   8.4966428639e+01   5.2324473013e+01    0.1817553    0.1192785 -50.77 0.0002501236    1.437    0.304
       150  -8.1976     42.0052     92.1350   9.0666488350e+01   5.4136669191e+01    0.2089891    0.1899137 -32.68 0.0002974047    1.017    0.017
       151  -7.7496     52.2234     89.4245   8.5849547503e+01   5.3502651380e+01    0.2001577    0.1315268  40.61 0.0008967149    1.668    0.401
       152  -7.5163     15.6143     76.7509   9.8358358071e+01   6.0315169047e+01    0.1407288   0.08412005 -29.09 0.0006950402    1.662    0.398
       153  -8.3404     18.4183     74.9288   9.6649575000e+01   6.0533936153e+01     0.268081    0.1894688  56.36  0.001069237    1.928    0.481
       154  -9.0809      6.3494     68.2250   1.0076233813e+02   6.2902221634e+01    0.2010559    0.1970154 -17.08 0.0003437377    1.206    0.171
       155  -8.8565     12.0110     61.5269   9.6341052768e+01   6.4067756043e+01    0.1810085    0.1222526  11.35 0.0005204234    1.558    0.358
       156  -7.7031    145.2410     58.0217   4.7488223909e+01   4.0752929041e+01    0.1869683     0.179064 -87.88 0.0002255633    1.020    0.019
       157  -8.6030    219.0072     51.8787   3.5219209740e+01   2.5079239136e+01    0.1889131    0.1580137 -60.47 0.0003767494    1.012    0.012
       158  -7.4376      3.6223     45.7053   9.6358873217e+01   6.8023023662e+01    0.1382095   0.07146469 -29.91 0.0004773569    1.747    0.428
       159 -10.2639    211.6335     43.2924   3.4071395191e+01   2.7729598316e+01    0.3117464    0.2364957  51.88  0.001431347    1.602    0.376
       160 -10.4669    217.9020     39.6343   3.2646627450e+01   2.6903661395e+01    0.6386119     0.237409 -46.91  0.002943717    2.268    0.559
       161  -7.8737    120.5714    248.7995   9.4246414322e+01   6.2630160378e+00    0.1439744    0.1251985 -81.78 0.0004046197    1.501    0.334
       162  -7.9414     89.5507     34.1143   5.2812156651e+01   5.7134474125e+01    0.2050194    0.1648921  45.19 0.0003706245    1.122    0.108
       163  -8.2875     14.1690     26.0932   8.2841350546e+01   7.0986519047e+01    0.1873784    0.1332878 -15.96 0.0003738127    1.198    0.165
       164  -8.8979    196.9521    243.6448   7.7723806737e+01  -3.0135126556e+00    0.2210957    0.1756512   9.94 0.0004985792    1.098    0.089
       165  -7.5866     43.7983     22.5396   6.4904079039e+01   6.7606330337e+01    0.1640733    0.1144388  46.09 0.0007306461    1.605    0.377
