#   1 NUMBER                 Running object number                                     
#   2 MAG_AUTO               Kron-like elliptical aperture magnitude                    [mag]
#   3 X_IMAGE                Object position along x                                    [pixel]
#   4 Y_IMAGE                Object position along y                                    [pixel]
#   5 X_WORLD                Barycenter position along world x axis                     [deg]
#   6 Y_WORLD                Barycenter position along world y axis                     [deg]
#   7 A_WORLD                Profile RMS along major axis (world units)                 [deg]
#   8 B_WORLD                Profile RMS along minor axis (world units)                 [deg]
#   9 THETA_WORLD            Position angle (CCW/world-x)                               [deg]
#  10 FWHM_WORLD             FWHM assuming a gaussian core                              [deg]
#  11 ELONGATION             A_IMAGE/B_IMAGE                                           
#  12 ELLIPTICITY            1 - B_IMAGE/A_IMAGE                                       
         1 -11.9639    203.4888     40.5430   2.3843216009e+01   2.9220877558e+01     1.295451    0.8778483  25.25  0.004916674    2.081    0.519
         2 -11.0431    229.7086     12.6687   1.3421503099e+01   2.6047340595e+01    0.9043221    0.6993674  77.35  0.005280523    1.209    0.173
         3  -8.5584    188.8483     13.1517   1.8084932235e+01   3.6393805774e+01    0.2171954    0.1998015 -41.81 0.0005258444    1.178    0.151
         4  -9.5989    119.8870      9.5245   2.8758175266e+01   5.4319520710e+01     0.462898     0.343763  22.03  0.002547018    1.356    0.263
         5  -7.0863     87.0000      2.0050   3.4127875198e+01   6.2227001665e+01    0.1855859   0.06906074 -22.28 0.0003159214    2.752    0.637
         6  -7.7501    241.5114    227.4236   6.0264047771e+01  -8.1585447535e+00     0.120415   0.09365066  19.96 0.0001674537    1.043    0.041
         7  -7.9133    155.2258    250.3797   7.9158300285e+01   2.9411626749e+00    0.1665005   0.08770229  47.37 0.0003580207    1.491    0.329
         8  -8.8233     74.6843    249.9278   9.3255015377e+01   1.5265247459e+01    0.2738269    0.2409693 -66.24  0.001382444    1.626    0.385
         9  -9.3326     72.0929    242.5294   9.3133229313e+01   1.6863817105e+01    0.4128002    0.1991909 -71.14  0.002446218    2.217    0.549
        10  -8.1151     75.8744    243.8462   9.2585713855e+01   1.6123766812e+01    0.2076222    0.1374528  86.44  0.001416225    1.448    0.310
        11 -16.9607      4.1240    242.9549   1.0409266327e+02   2.4670048171e+01     3.774407     2.811268 -72.05   0.01499618    1.742    0.426
        12  -9.1541    114.1605    226.7614   8.4000781740e+01   1.3386905765e+01    0.1998444    0.1555332 -31.96 0.0008627988    2.054    0.513
        13  -8.0073    185.0831    222.8509   6.9825097585e+01   1.8627565447e+00    0.1859833    0.1570044  51.53  0.000484436    1.241    0.194
        14  -7.5678    166.4874    221.4901   7.3194099667e+01   5.3548432840e+00    0.1308922    0.1076147  39.81 0.0001086211    1.027    0.026
        15  -8.4893    152.7642    217.0658   7.5234781389e+01   8.5103192160e+00    0.2512319    0.1576005  23.49  0.001232741    2.111    0.526
        16 -10.3361    121.5798    213.2993   8.0928601903e+01   1.4586071223e+01    0.4906684    0.2761872  40.13  0.002436576    1.616    0.381
        17  -8.6931    117.4666    210.9412   8.1452185651e+01   1.5712288210e+01    0.2882233    0.1794493 -75.51  0.001396086    1.949    0.487
        18  -8.8740    112.0121    215.5079   8.3105601505e+01   1.5761423829e+01    0.2848189    0.1141723  36.91  0.001206513    2.571    0.611
        19 -14.7179     11.1503    245.9884   1.0316274989e+02   2.3461603313e+01    0.4775644    0.1958114 -82.94  0.002882874    2.116    0.527
        20  -9.2554    107.3438    211.8792   8.3597435300e+01   1.7195767003e+01    0.2394697    0.1421453  52.89 0.0008907466    1.431    0.301
        21  -8.3264    183.0239    210.3219   6.8222384585e+01   4.1448763098e+00    0.2474712    0.1720067 -77.89  0.001177044    2.726    0.633
        22  -9.4109    134.4677    208.8172   7.7727133902e+01   1.3192017584e+01    0.4584214    0.2106901 -46.43  0.002061121    2.700    0.630
        23  -6.9821    159.4626    207.5094   7.2463063913e+01   8.9294159519e+00    0.1353279    0.1149382  47.79 7.167803e-05    1.036    0.035
        24  -7.6385     79.5173    244.4336   9.2004851125e+01   1.5521087827e+01    0.1170219   0.08182964  62.61 8.412846e-05    1.068    0.063
        25  -9.1355     73.3995    205.6982   8.9666212049e+01   2.3514303925e+01     0.282803    0.1932602  88.55 0.0007451593    1.363    0.266
        26  -8.9146     69.4787    202.3820   9.0113605264e+01   2.4719878438e+01    0.3397109    0.2242626  30.06  0.001950871    1.969    0.492
        27 -10.2282    112.0458    239.6092   8.5783085069e+01   1.1530491026e+01    0.2184146    0.1857629  87.72 0.0005236765    1.267    0.211
        28  -8.9094    124.0433    205.6984   7.9423987563e+01   1.5583652057e+01    0.1914179    0.1453065  49.27 0.0003848148    1.132    0.117
        29  -8.9348    126.0328    237.0600   8.2934992975e+01   9.7289752694e+00    0.2433043    0.1704053 -65.67  0.001538033    1.723    0.420
        30  -7.8661     79.9120    205.1699   8.8320603824e+01   2.2697028033e+01    0.1961042    0.1280913  63.64  0.000454051    1.329    0.247
        31  -8.2036     89.7938    202.1879   8.6000897946e+01   2.1832087625e+01     0.242467    0.1695224  36.42  0.001060853    1.569    0.363
        32  -8.3022     97.9186    192.1650   8.3085205181e+01   2.2607624855e+01    0.2842743    0.1682861 -77.22 0.0007554418    1.895    0.472
        33  -8.2714     70.8352    188.6172   8.8398373024e+01   2.7377948241e+01    0.2510345    0.1614724 -68.77  0.001070652    1.507    0.336
        34  -9.1894     76.7530    233.7488   9.1608787313e+01   1.7758129577e+01    0.2680612     0.184865 -78.74  0.001043904    1.489    0.328
        35  -9.4180    140.4973    228.4949   7.9175448465e+01   8.7365426707e+00    0.2379857    0.2238356 -35.70  0.001149329    1.374    0.272
        36  -9.2827     88.9038    175.8548   8.2881531120e+01   2.7488756181e+01     0.393346    0.2546083 -36.57  0.001881199    2.449    0.592
        37  -9.6289    147.8490    175.8033   6.9591719180e+01   1.7051983110e+01    0.2465327    0.2260247 -55.59 0.0003185161    1.187    0.158
        38  -9.2101    133.3763    232.2011   8.0991050773e+01   9.3214945249e+00     0.223445    0.1717183 -82.03  0.001209915    1.561    0.360
        39  -8.0453    153.3864    173.1347   6.7874787253e+01   1.6492286559e+01    0.2467187    0.1851921  37.17 0.0005147149    1.293    0.227
        40  -6.9825    125.3121    173.6640   7.4277654017e+01   2.1782427512e+01    0.1481991    0.1043836  75.85 0.0005783486    1.686    0.407
        41  -9.5293    136.0330    227.7379   7.9934409725e+01   9.6164757494e+00    0.2626982    0.2207365  41.92  0.000434847    1.155    0.134
        42  -7.7428    111.3332    172.6558   7.7302753520e+01   2.4502214338e+01    0.1500645    0.1000188  74.21 0.0007050254    1.761    0.432
        43 -10.6608     84.3290    156.5276   8.1129243208e+01   3.2517855683e+01    0.7092644    0.6388376 -25.81  0.002242089    1.471    0.320
        44  -9.9251     72.0781    168.6197   8.5733083259e+01   3.1557120286e+01      0.36806    0.2871834 -47.23  0.001780459    1.586    0.369
        45 -10.7547     76.1132    164.1632   8.4203731899e+01   3.1989761848e+01    0.6068019    0.4556401  37.47  0.001757353    1.473    0.321
        46 -12.0374     69.1634    144.3720   8.3006451229e+01   3.7506887782e+01     1.064907    0.6751185  89.04  0.003955265    1.760    0.432
        47  -8.4238     55.2969    168.7725   8.9548269455e+01   3.3718027145e+01    0.2907031    0.1863836 -72.41   0.00126871    1.392    0.281
        48  -9.6903     51.8386    163.9201   8.9775811608e+01   3.5219219658e+01    0.3847574    0.1948226  59.91  0.001495855    2.045    0.511
        49  -7.2844    110.6650    168.3247   7.6755422489e+01   2.5560875338e+01    0.1497158    0.1012527  73.68 0.0004677844    1.714    0.417
        50  -9.0100     91.2027    166.3930   8.0994814982e+01   2.9222577567e+01     0.236753    0.2048711  78.98 0.0002861529    1.025    0.024
        51  -7.4138    153.5127    166.5398   6.6589698719e+01   1.7792983514e+01    0.1473793    0.1363785  50.29 0.0008091985    1.003    0.003
        52 -11.3031     72.7065    151.0276   8.3132824287e+01   3.5474162271e+01    0.8046987    0.3607942 -61.09  0.001002591    2.036    0.509
        53  -9.2329     43.8449    158.4278   9.0983231351e+01   3.7369740609e+01    0.3811919    0.1782961  59.77 0.0009614965    2.311    0.567
        54  -8.3738    185.5211    229.2263   7.0714579870e+01   8.6098228581e-01    0.3178531     0.193912 -44.30  0.001791887    2.040    0.510
        55  -9.8023     62.3143    155.9415   8.6349402520e+01   3.5733089855e+01    0.5101413    0.2288355  70.72  0.001798342    3.967    0.748
        56  -8.7721      6.2678    153.7785   9.8931410654e+01   4.1872409513e+01    0.2606095     0.175505  72.88  0.001793101    1.275    0.215
        57  -8.8265      9.7597    152.3916   9.8066577584e+01   4.1905853136e+01    0.1891237    0.1524613  81.13  0.001399393    1.116    0.104
        58  -8.5575     98.8472    151.7500   7.6784278041e+01   3.1300933911e+01    0.2885841    0.1893076 -74.49  0.001279472    1.644    0.392
        59  -9.8541     90.5068    150.8560   7.8698293857e+01   3.2864122135e+01    0.5298706    0.3327118  29.65  0.001732297    1.947    0.486
        60  -9.4769     54.4144    150.2909   8.7505236277e+01   3.8010236356e+01     0.529331    0.2787498  75.49  0.002401048    2.414    0.586
        61  -9.4217     56.0813    143.7855   8.6214176046e+01   3.9314995305e+01    0.2581427    0.2130344  45.13  0.001609273    1.327    0.247
        62  -7.8475      1.9859    151.8247   9.9707393288e+01   4.2609516501e+01    0.1771947     0.113565  74.45  0.001078626    1.323    0.244
        63  -8.4249    112.0688    151.2504   7.3430307187e+01   2.9117450444e+01    0.2059869    0.1818614  63.74 0.0004105326    1.078    0.072
        64  -8.7668    134.5682    148.3183   6.7355591435e+01   2.5480230063e+01    0.4175946    0.1471347 -55.74   0.00130954    3.428    0.708
        65  -8.3985    233.4503    148.9857   4.6401412132e+01   4.3568477666e+00    0.2280779    0.2012094  59.34 0.0003737285    1.365    0.268
        66  -8.4545     41.7524    147.4580   9.0212378239e+01   4.0088050020e+01    0.2368697    0.1756559 -65.52 0.0006303167    1.249    0.200
        67  -9.8355     12.2571    144.2641   9.6824845417e+01   4.3499377943e+01    0.3195166    0.2278292  41.07   0.00122842    1.599    0.375
        68  -8.1249     99.8353    141.8307   7.4734499777e+01   3.3421352963e+01    0.2010012    0.1925677 -46.27 0.0003153667    1.178    0.151
        69 -10.5657    124.2376    229.5676   8.2407811809e+01   1.1268666206e+01    0.4326889    0.3024134  51.35  0.002178153    1.144    0.126
        70  -9.2670      3.6767    139.4868   9.8382661436e+01   4.5177538383e+01    0.3238907    0.2075787 -86.11  0.002161558    1.193    0.162
        71  -8.0319    105.5450    135.7300   7.2064393555e+01   3.3843983655e+01    0.2792366    0.1333906 -49.83  0.001120316    2.075    0.518
        72  -9.8078     91.6516    136.3113   7.5813439769e+01   3.6063793284e+01    0.2699094    0.2369983 -58.38 0.0002574908    1.135    0.119
        73 -10.9043     57.2585    131.3598   8.4064335998e+01   4.2079230801e+01    0.5350872    0.3871401  86.43  0.002689567    1.399    0.285
        74  -9.9803     62.6644    129.0694   8.2245087702e+01   4.1950820199e+01    0.3878339    0.2275923 -64.18  0.001727826    1.507    0.336
        75  -8.6758     48.7612    132.7673   8.6516888608e+01   4.2730721538e+01     0.220186     0.127305  71.86   0.00106926    2.090    0.521
        76  -9.1410    159.0447    130.3746   5.7471963992e+01   2.4144221004e+01    0.4213031    0.2795281 -34.08  0.001011268    1.672    0.402
        77  -9.1588      3.2429    130.7328   9.7736723663e+01   4.7136788773e+01    0.3273061     0.122971 -67.00   0.00123749    1.979    0.495
        78  -9.1345      2.0000    126.9546   9.7698665208e+01   4.8051836427e+01    0.3423634    0.1064222 -70.42  0.001415467    2.286    0.563
        79  -9.6592     43.9882    128.1471   8.7105032714e+01   4.4323483730e+01    0.4162524    0.2301428 -84.42  0.001443646    1.898    0.473
        80  -8.0220    112.4357    128.7622   6.8787387940e+01   3.4198583542e+01    0.2117644    0.1364133 -42.28 0.0008882009    1.666    0.400
        81  -8.3172     28.7775    128.2999   9.1114169690e+01   4.5749534838e+01     0.219431    0.1627133  76.35  0.001395539    1.307    0.235
        82  -7.8406      8.7705    128.5994   9.6197279208e+01   4.7243137980e+01    0.1423092   0.09630991  50.83 0.0005084335    1.597    0.374
        83  -8.4474     99.8620    124.4272   7.1214578936e+01   3.7469589769e+01    0.2542008    0.2146197 -22.12 0.0006724391    1.459    0.315
        84  -9.3540     66.5794    121.3019   7.9803659437e+01   4.3279021977e+01    0.4318324    0.2432627  68.03  0.001450243    2.605    0.616
        85  -9.3693     79.2071    122.5785   7.6522457957e+01   4.1218593297e+01    0.2639523    0.2208715 -42.03  0.001483794    1.286    0.222
        86  -9.0589     30.7129    122.4854   8.9854245450e+01   4.6919093324e+01    0.2596367    0.1474723 -50.64  0.001425184    1.735    0.424
        87  -8.1342    136.7248    116.0291   5.9426082019e+01   3.2166850997e+01    0.2136602    0.2013587 -62.22            0    1.065    0.061
        88  -7.6206     75.8972    113.8210   7.5683446839e+01   4.3762014625e+01    0.1872203    0.1538141  83.28 0.0003629026    1.321    0.243
        89 -10.2627     64.8379    112.5655   7.8635639012e+01   4.5563437214e+01     0.261406    0.2006905 -64.28 0.0002827171    1.157    0.135
        90 -10.2164     43.3713    109.2904   8.4298453197e+01   4.8790752270e+01    0.3801012    0.2190361  32.08  0.001959708    2.006    0.501
        91  -8.2104    115.5011     98.4826   6.0532552387e+01   4.0462829275e+01    0.2531068    0.1434778 -57.27 -3.80091e-05    1.994    0.498
        92  -7.0791     31.6802     98.2663   8.5890970651e+01   5.2420484178e+01    0.1181276   0.08705935  74.41 0.0002259263    1.557    0.358
        93  -7.4154    141.3621     75.2542   4.6714133926e+01   3.9554218101e+01    0.1596616    0.1189054  22.00 0.0006962612    1.621    0.383
        94  -7.3563    102.6754     73.2051   5.6904202552e+01   4.8328142279e+01     0.201059    0.1286341 -35.22  0.000285928    1.560    0.359
        95  -8.2992    134.3649     72.1453   4.7543184231e+01   4.1783491537e+01    0.2430354    0.2069788  34.58 0.0004731762    1.185    0.156
        96  -8.1753    208.0424     70.9437   3.1523453465e+01   2.3476235158e+01    0.2154858    0.2115058 -74.39  0.001184366    1.024    0.024
        97  -9.9605    122.4795    223.9945   8.2081541975e+01   1.2518151974e+01    0.3714729    0.2203146 -67.37  0.001615072    2.041    0.510
        98  -7.3804    220.7619     67.3370   2.8525632381e+01   2.0873226516e+01    0.1954651    0.1313597  51.94 0.0002678624    1.541    0.351
        99  -8.9672    104.6867     61.0904   5.2318203877e+01   5.0285020827e+01    0.2520241    0.2156313  20.20 0.0002330065    1.186    0.157
       100 -10.2769    184.0322     56.5921   3.1655589568e+01   3.1962801161e+01    0.4977224    0.4019809 -37.06   0.00117821    1.261    0.207
       101  -7.7067    143.9779     59.7848   4.1124667492e+01   4.1702333517e+01    0.2162102     0.195906  49.96 0.0005208335    1.081    0.075
       102  -7.4223    173.3359     57.6800   3.4018332358e+01   3.4584763243e+01     0.162156     0.118671 -72.22 0.0007049645    1.705    0.413
       103 -10.6430    194.6993     48.4910   2.7446371198e+01   3.0390306728e+01    0.8464922    0.4183178 -50.60  0.003204002    2.290    0.563
       104  -8.6002    145.2430    248.9503   8.0786219308e+01   4.7693761731e+00    0.1984974    0.1356626  44.77 0.0004152029    1.124    0.110
       105  -7.1342    173.2587     51.6889   3.2196218979e+01   3.5538071089e+01    0.1518956    0.1150706 -65.31 0.0003198848    1.528    0.346
       106  -7.0937    101.4881     45.4064   4.7720343041e+01   5.3675130951e+01    0.1408008    0.1297761   7.97 0.0001188676    1.024    0.024
       107  -8.6556    221.5739     40.2241   2.1294737379e+01   2.4645050568e+01    0.2880392    0.2007359 -68.52 0.0008993185    1.514    0.340
       108  -7.9599    152.6508     35.9161   3.1225138226e+01   4.3158255649e+01    0.1935004    0.1863782 -37.95 0.0004466648    1.104    0.094
       109  -9.3822    230.9993     17.7050   1.4526599575e+01   2.5154059720e+01     0.318578    0.2821826  88.66  0.001351873    1.081    0.075
       110  -7.6126    173.4262    248.2097   7.5605715268e+01   2.6131642759e-01    0.1313682     0.115431 -82.00 0.0004612987    1.567    0.362
       111  -7.4841    133.6718    248.3123   8.2796740864e+01   6.7286586021e+00    0.1222265   0.07540284  63.06 0.0004367754    1.668    0.400
       112  -7.6779     90.4852    247.1064   9.0328525408e+01   1.3521321338e+01    0.2227413   0.09218501  58.03  0.001126759    2.202    0.546
