#   1 NUMBER                 Running object number                                     
#   2 MAG_AUTO               Kron-like elliptical aperture magnitude                    [mag]
#   3 X_IMAGE                Object position along x                                    [pixel]
#   4 Y_IMAGE                Object position along y                                    [pixel]
#   5 X_WORLD                Barycenter position along world x axis                     [deg]
#   6 Y_WORLD                Barycenter position along world y axis                     [deg]
#   7 A_WORLD                Profile RMS along major axis (world units)                 [deg]
#   8 B_WORLD                Profile RMS along minor axis (world units)                 [deg]
#   9 THETA_WORLD            Position angle (CCW/world-x)                               [deg]
#  10 FWHM_WORLD             FWHM assuming a gaussian core                              [deg]
#  11 ELONGATION             A_IMAGE/B_IMAGE                                           
#  12 ELLIPTICITY            1 - B_IMAGE/A_IMAGE                                       
         1 -14.0582     26.2645     58.8833   9.4280568911e+01   6.2547521108e+01      1.29502    0.9297127  70.54  0.002282913    2.503    0.601
         2 -14.5995     40.3274     38.5022   8.1029005740e+01   6.4751009578e+01    0.5975002    0.4242215 -18.49  0.001700042    1.316    0.240
         3 -13.1285     90.6549     18.7679   5.4730299106e+01   5.8627470938e+01    0.2935288    0.2542454  55.13 0.0006546745    1.159    0.137
         4 -11.1274    223.5830     15.9240   3.3448525654e+01   2.8307594329e+01     0.284681    0.2207338  61.84 0.0005536286    1.488    0.328
         5 -12.9194    216.6059     13.5796   3.3534975990e+01   3.0071107809e+01    0.3731619    0.3041895  79.40  0.001039228    1.212    0.175
         6 -12.0248    130.3613     14.9906   4.4561324575e+01   5.0039430962e+01    0.2925311    0.1992952  52.80 0.0003361653    1.304    0.233
         7 -10.8343    204.4844     11.0226   3.4033529068e+01   3.3020030513e+01    0.2860622    0.1798826 -69.40  0.001664326    1.451    0.311
         8 -13.2719     64.6093     10.7223   5.9419428804e+01   6.4633763707e+01    0.3715545    0.2353221  37.13 0.0006876237    1.345    0.257
         9 -12.5324     46.5602     11.5204   6.6677516744e+01   6.7653074116e+01     0.229671    0.1826875  20.15 0.0002550321    1.057    0.054
        10 -11.4724     36.6908     11.1051   7.0841531511e+01   6.9188156294e+01    0.2008271    0.1546445  20.61 0.0003027229    1.133    0.117
        11 -13.2868    193.5280      9.0403   3.4600500687e+01   3.5703778301e+01     0.355301     0.229694  67.87 0.0008934434    1.413    0.292
        12 -11.3533    114.7365      7.1813   4.4890404257e+01   5.4401693311e+01    0.2250185      0.18695  60.97 0.0004434455    1.039    0.038
        13 -13.3207     55.4349      5.3560   6.0263882038e+01   6.6823304308e+01    0.7543442    0.3053154  51.53   0.00332924    2.439    0.590
        14  -9.7376    127.6820      6.2855   4.2249191837e+01   5.1472668622e+01    0.1253769   0.09061565 -77.03 0.0003053246    1.589    0.371
        15 -11.6723    102.4591      2.9253   4.5876410976e+01   5.7533441910e+01    0.2403623    0.1636154  59.24 0.0003309788    1.241    0.194
        16 -11.6298     72.6077    229.4089   1.0914094975e+02   1.7030494990e+01    0.4397495    0.2169947  60.60  0.002033245    2.207    0.547
        17 -12.5706     37.5016    245.2094   1.1767144205e+02   1.8273661062e+01    0.4943066      0.29116 -69.85  0.002404666    1.770    0.435
        18 -10.7661    151.9991    229.3025   9.1842764223e+01   4.8991719981e+00    0.2641096    0.1895485 -61.43  0.001222596    1.768    0.434
        19 -10.8479    127.4354    229.4322   9.7161099129e+01   8.8003809824e+00    0.3083804    0.1357379 -58.01  0.001322599    2.714    0.632
        20 -11.4072    149.5563    222.0928   9.1269209045e+01   6.6249842860e+00    0.4996129    0.2644905 -48.40  0.002366267    2.088    0.521
        21 -10.2692     55.8286    223.3546   1.1218459111e+02   2.0541327632e+01    0.2104606     0.148136  80.94 0.0006068816    1.351    0.260
        22 -11.4179     35.8388    223.1397   1.1642580854e+02   2.3009285580e+01    0.2900032    0.1862111  78.40 0.0008893386    1.412    0.292
        23 -11.1547    174.3652    221.9843   8.5980027240e+01   2.6183379932e+00     0.306935    0.2722625 -74.18  0.001689628    1.528    0.345
        24 -10.5782    107.6882    221.7274   1.0049392424e+02   1.3454349487e+01    0.2926213     0.128412  52.24  0.001169666    2.523    0.604
        25 -10.3909     97.5025    221.0552   1.0269768295e+02   1.5166727778e+01    0.1874738    0.1315629 -64.78  0.000595313    1.547    0.353
        26 -11.6385     23.0412    218.1781   1.1873739392e+02   2.5480555638e+01    0.3052226    0.2473432  76.36  0.001264763    1.046    0.044
        27 -11.8152    239.0258    215.5523   7.2471724041e+01  -5.9701891374e+00    0.5082538    0.2419608 -48.38  0.002359302    2.919    0.657
        28 -10.8483    234.9782    215.5063   7.3172268708e+01  -5.4161556936e+00    0.2278961    0.1980675 -20.01  0.001161466    1.221    0.181
        29 -11.0747    179.9769    216.5740   8.3915651977e+01   2.6674138864e+00    0.2366798    0.1931779 -61.20  0.001305814    1.612    0.380
        30 -10.0867    111.6834    216.3382   9.8862744696e+01   1.3941457976e+01    0.1435452   0.09823863  66.32 0.0007048385    1.702    0.412
        31  -9.7429    213.3135    211.6716   7.6453404527e+01  -1.7161533451e+00    0.1143741    0.1054421  84.31 0.0005436146    1.671    0.402
        32 -11.0674    176.7985    210.5221   8.3540946243e+01   4.2706848042e+00    0.3035812     0.195935 -65.92  0.001382352    2.552    0.608
        33 -10.3793    192.6681    210.0885   8.0203600836e+01   1.7585543311e+00     0.197851    0.1719835 -57.92  0.001061565    1.484    0.326
        34 -10.2381    206.0000    207.9816   7.7195240631e+01   9.5987596437e-03    0.2084326    0.0708102 -42.02  0.000802514    2.943    0.660
        35  -9.9608     93.9916    205.0000   1.0141612232e+02   1.9182786364e+01    0.2281743   0.07382688  35.32  0.000589581    2.904    0.656
        36  -9.9547     80.3189    201.6367   1.0422561479e+02   2.2005657821e+01    0.1499932   0.09471434  68.07 0.0007041075    1.774    0.436
        37 -10.2851      3.1542    198.8029   1.2167033258e+02   3.1651788480e+01    0.1874963    0.1289704  68.29 0.0009545178    1.209    0.173
        38  -9.7250    133.0000    194.9390   9.0606798242e+01   1.4921786574e+01    0.2291965   0.08287173 -52.74  0.000801607    2.937    0.659
        39 -11.3664    161.7761    193.1836   8.3698324309e+01   1.0178736990e+01    0.4630371    0.3097998  34.65   0.00228016    1.435    0.303
        40 -10.8140    173.2224    191.1122   8.0806346211e+01   8.5535224989e+00    0.3157123    0.2631227 -64.02  0.001632587    1.467    0.318
        41 -10.7506    155.7101    188.1712   8.4137925167e+01   1.2293468634e+01    0.3877505    0.1927521 -38.46  0.001561154    2.279    0.561
        42 -10.6503    226.3309    188.6482   6.9814732065e+01   8.5517942855e-02     0.122022    0.1051856 -74.49  0.000704713    1.775    0.437
        43 -10.4209     86.5958    187.8094   1.0079972160e+02   2.4276565891e+01    0.2027156    0.1330698 -77.89 0.0009592458    1.687    0.407
        44 -10.3208     33.5966    185.7416   1.1370141967e+02   3.1737879552e+01    0.1807118    0.1095117 -88.14 0.0006312093    1.561    0.359
        45 -10.6096    183.1838    184.0776   7.7340910954e+01   8.1479954334e+00    0.3287742    0.1867245 -50.83  0.001467708    1.951    0.488
        46 -10.5093     42.3171    183.7005   1.1135901469e+02   3.1252505763e+01    0.1401054   0.08720619  65.86 0.0002903497    1.615    0.381
        47 -10.9568    147.5802    178.5423   8.4200725178e+01   1.5830910928e+01     0.418069    0.1444231 -49.47  0.001407831    2.983    0.665
        48  -9.8315     93.3205    179.7012   9.7856931013e+01   2.5145075945e+01    0.1513014    0.1060625  68.05 0.0003403154    1.621    0.383
        49 -10.7513    191.8537    177.3020   7.4211983316e+01   7.8972893134e+00    0.3739316    0.1948936 -41.59  0.001645147    1.875    0.467
        50 -10.9600     58.8530    176.3020   1.0628180053e+02   3.1014625595e+01    0.3095863     0.190534  84.98 0.0009532536    1.866    0.464
        51 -10.0466    217.6093    175.5888   6.8872968211e+01   3.7348976933e+00    0.2745417    0.1087766 -29.88 0.0009528714    3.353    0.702
        52 -10.3821    159.1404    175.0529   8.0840571723e+01   1.4408152754e+01    0.3160974    0.2018362 -64.38   0.00135125    2.094    0.522
        53 -11.7638     53.6291    174.3714   1.0738846293e+02   3.2156733897e+01    0.3838618    0.2265234  69.27  0.001776212    1.947    0.486
        54 -11.0192     38.9750    174.7112   1.1120997368e+02   3.3806634738e+01    0.1839333    0.1614374  69.99 0.0004612869    1.080    0.074
        55 -11.3842     11.6547    172.3797   1.1782395468e+02   3.7039520653e+01    0.3847155    0.1587011 -64.80  0.001404637    2.064    0.516
        56 -10.3521    175.7898    171.1201   7.6344138794e+01   1.2076881493e+01    0.3315455    0.1711699 -48.10  0.001377536    1.991    0.498
        57 -11.5902     44.3150    170.4354   1.0932879480e+02   3.4248380821e+01    0.2771016     0.157606 -73.96  0.001091757    1.640    0.390
        58 -10.3756    138.6676    164.6756   8.3610348944e+01   2.0590921032e+01    0.3079765    0.1908519 -73.60  0.001177659    2.526    0.604
        59 -12.1039     96.0473    163.7777   9.4443981144e+01   2.8546651941e+01    0.5675918    0.3567275  57.36 0.0004090468    1.799    0.444
        60  -9.9354    213.5068    163.9947   6.7299846737e+01   6.5245163233e+00    0.1911581    0.1160074 -60.61 0.0008098024    2.486    0.598
        61 -10.4805     79.2045    163.5875   9.8971830770e+01   3.1282002527e+01    0.3170261     0.164806  83.60  0.000954628    4.338    0.769
        62 -10.2368    129.3256    175.6077   8.8042230561e+01   1.9865330794e+01    0.4202942    0.1410335 -53.68  0.001363954    3.157    0.683
        63 -12.7718    118.5630    157.6145   8.7281473103e+01   2.6043025792e+01    0.5966454    0.4056334  43.44  0.001260836    1.453    0.312
        64 -11.6655    125.2113    154.7206   8.4958116249e+01   2.5469440344e+01    0.4588839    0.3069818 -34.45  0.001488733    1.752    0.429
        65 -11.3960    167.6517    156.0426   7.4979594573e+01   1.6782955701e+01     0.471942    0.4366584  38.46  0.002572124    1.091    0.083
        66 -10.2472    218.6559    156.4823   6.4817722030e+01   6.9802503476e+00    0.2459463    0.1187443 -39.95  0.001071551    1.892    0.471
        67 -10.3080    196.6638    157.3492   6.9142324506e+01   1.0857869273e+01    0.1448468    0.1152853 -81.40    0.0007047    1.783    0.439
        68 -10.9467    234.2781    154.0041   6.1623521896e+01   4.7161224659e+00    0.2991146    0.1539524 -36.76  0.001413321    1.733    0.423
        69 -10.2578    145.0289    154.4971   7.9931793060e+01   2.1640527587e+01    0.2446699    0.1498959  41.30   0.00104474    1.625    0.385
        70 -11.2415     24.7269    154.2401   1.1265446187e+02   4.0292854419e+01    0.3408495    0.1556342  34.70  0.001376463    2.248    0.555
        71 -12.5734     20.4217    158.6852   1.1430040738e+02   3.9590159300e+01    0.6084317    0.3255244  79.79  0.002899143    2.044    0.511
        72 -10.6922    189.8585    149.6017   6.8842976806e+01   1.3693296570e+01    0.3065796      0.19102 -58.28   0.00132772    1.972    0.493
        73 -11.6072    107.8822    146.3484   8.7830920207e+01   3.0717507956e+01    0.4761941    0.2729612  69.81   0.00159324    3.278    0.695
        74 -10.5611    148.9523    145.2760   7.6957354506e+01   2.2907778469e+01    0.3187512    0.2010613 -74.72  0.001172738    2.677    0.627
        75 -10.4863     88.9750    145.2152   9.2909028709e+01   3.4295298175e+01     0.204676    0.1212617  36.60 0.0008779865    1.723    0.420
        76  -9.7285    250.5331    144.5485   5.7171362441e+01   3.6367614883e+00    0.1290262     0.108732 -34.31 0.0002258645    1.014    0.014
        77 -10.2953     99.1434    143.4481   8.9659691016e+01   3.2993084403e+01      0.25909    0.1827827 -63.22 0.0007865233    1.458    0.314
        78 -10.1130    181.7929    141.9704   6.8815528237e+01   1.6846318592e+01    0.2477711    0.1714154 -69.24  0.001073708    2.009    0.502
        79 -10.3621     55.3199    145.6401   1.0277436418e+02   3.9112261322e+01    0.1516861    0.1016982  71.87 0.0007043458    1.767    0.434
        80 -11.4141     21.6236    139.9865   1.1182512347e+02   4.4095279408e+01    0.2962054     0.263658  41.90 0.0009209249    1.262    0.208
        81 -11.0782     68.8560    135.9736   9.7031178423e+01   3.9714844745e+01    0.3177623    0.3034472  16.94   0.00128974    1.148    0.129
        82 -10.0865    125.8759    136.7197   8.0848337591e+01   2.9550803272e+01    0.3802807    0.1341413  43.46  0.001219206    2.831    0.647
        83 -10.4614    142.5875    130.3197   7.5054470657e+01   2.7563207223e+01    0.3148217    0.1493483 -51.11  0.001147962    2.193    0.544
        84 -10.9280     82.5074    131.0377   9.1905724115e+01   3.8858338191e+01    0.2373589    0.1433285 -58.16    0.0010371    1.608    0.378
        85 -11.6217     98.0163    126.8799   8.6359572236e+01   3.7217395991e+01    0.4942355    0.3164701 -75.30    0.0015676    2.160    0.537
        86 -10.6114    117.5938    125.4906   8.0446498631e+01   3.3818281153e+01    0.3247481    0.2175126  71.67   0.00129601    2.199    0.545
        87 -10.4770     59.9940    124.5392   9.7546363360e+01   4.3790945328e+01    0.3056716    0.1916801  29.54  0.001448717    1.730    0.422
        88 -11.3527     43.2860    123.9075   1.0276674393e+02   4.5983478560e+01    0.3705099    0.2377656 -83.10  0.001493527    1.758    0.431
        89 -10.8468    189.3038    124.0597   6.3194685187e+01   1.8862945009e+01    0.2599383    0.2194143  59.50 0.0006422943    1.269    0.212
        90 -10.6820    223.6211    117.8237   5.5732065259e+01   1.3031017981e+01    0.2093383    0.1137808 -48.27 0.0009538237    1.728    0.421
        91 -11.5626    155.0767    115.8777   6.8507280401e+01   2.7979984704e+01    0.5244045    0.2962419  59.58  0.001318874    2.133    0.531
        92 -10.7089    133.0954    106.0058   7.1339620006e+01   3.4916029641e+01    0.2560644    0.2218467  47.29 0.0004663998    1.154    0.133
        93 -12.6237    138.4402    110.0261   7.1032761222e+01   3.2889874154e+01    0.9781941    0.5262543  40.52  0.002797855    1.952    0.488
        94 -12.6538    143.7320    103.2424   6.7943048673e+01   3.3136181798e+01       1.1728    0.7735338 -88.08  0.004410785    2.689    0.628
        95 -11.1796    108.6669    116.4973   8.0755579722e+01   3.7663311506e+01     0.390442    0.2932062 -56.91 0.0007512709    1.366    0.268
        96 -12.2417    108.0568    109.9372   7.9259826375e+01   3.9281591311e+01    0.3647958    0.3008981 -38.86 0.0004994412    1.227    0.185
        97 -11.2414     91.7740    111.6461   8.4584453669e+01   4.1951504195e+01    0.6465931    0.2293011 -59.64   0.00182896    4.134    0.758
        98 -11.2632    162.1298    112.7739   6.6128465509e+01   2.7053889939e+01    0.5429924    0.3071389  61.84  0.001706284    2.201    0.546
        99 -11.5972    158.1022    106.2897   6.5382719544e+01   2.9274640375e+01    0.5639008    0.2776031 -57.12  0.001970033    2.710    0.631
       100 -11.1151     78.4826    112.1714   8.8901230030e+01   4.4084440926e+01    0.4056145    0.2455857 -82.29  0.001499128    2.938    0.660
       101 -10.9671     24.5578    112.8670   1.0699646123e+02   5.0520531830e+01    0.2464318    0.1772273 -37.02 0.0006979153    1.431    0.301
       102 -12.1908     18.0140    106.1939   1.0810609184e+02   5.2650121832e+01    0.7520209    0.4059988 -20.75  0.002652123    2.507    0.601
       103 -10.6241    164.4356    106.2970   6.3988146478e+01   2.7841439001e+01    0.4059031    0.1747358  52.74  0.001461727    2.425    0.588
       104 -11.0043     57.3068    105.3875   9.4337219758e+01   4.8806061755e+01    0.3037532    0.2709817  11.36  0.001621897    1.207    0.171
       105 -11.8581     64.2230    102.9234   9.1388607677e+01   4.8438118248e+01    0.3482905    0.2983295  84.48  0.001044531    1.391    0.281
       106 -12.7567    127.8262     97.2672   7.0352040336e+01   3.7901514329e+01    0.7965916    0.5774505 -19.14 0.0002251128    1.789    0.441
       107 -10.8200    129.3675     92.6168   6.8655752877e+01   3.8511012476e+01    0.4067856    0.2359642 -49.90  0.001695803    1.815    0.449
       108  -9.9059    105.4950     93.9618   7.5686248628e+01   4.3298974152e+01    0.2800047    0.2176137 -64.38 0.0007929105    1.491    0.329
       109 -12.5420    112.0782    102.3361   7.6080326439e+01   4.0162914635e+01    0.5282016    0.3393345  47.77 0.0006811134    1.589    0.371
       110 -11.1197    107.3275     98.8436   7.6506146729e+01   4.1884153860e+01    0.4196801    0.2201836 -54.77  0.001631284    2.145    0.534
       111 -11.5395     41.7663     97.0578   9.7915233329e+01   5.2648192042e+01    0.4014831    0.1860397 -76.46  0.001355557    3.910    0.744
       112 -10.4647     36.7246    102.6375   1.0091485312e+02   5.1860526639e+01    0.2269016    0.1825007 -35.71 0.0006889353    1.217    0.178
       113 -11.3005    124.1785     91.6802   6.9761117388e+01   3.9843075211e+01    0.5641467    0.2757385 -50.03  0.002146889    2.213    0.548
       114 -11.1650    159.8167     96.1983   6.2379968264e+01   3.0876316533e+01     0.278897    0.2543936  15.31 0.0006837953    1.257    0.205
       115 -10.6983     94.3952     96.6242   7.9816251408e+01   4.4878488505e+01    0.2927915    0.1373547 -61.15 0.0009584526    3.254    0.693
       116 -10.7623     77.0017     97.0659   8.5570999262e+01   4.7831337201e+01    0.2121378    0.2006052 -26.03            0    1.020    0.020
       117 -10.6515    188.9556     93.2598   5.5875303953e+01   2.4755596279e+01     0.282983    0.1912225 -61.96  0.001304498    1.644    0.392
       118  -9.7540    233.2250     90.3800   4.8364776584e+01   1.5821408937e+01    0.1633478    0.1232289  80.29 0.0002321295    1.494    0.331
       119 -11.4325     86.9910     87.4847   7.9598144859e+01   4.8212463786e+01    0.3920951    0.2339062  61.39  0.001543383    2.624    0.619
       120  -9.9783     74.0462     87.7665   8.4026911351e+01   5.0373063555e+01    0.1948615     0.177773  17.25 0.0003862421    1.110    0.099
       121 -11.4593    140.4851     83.6659   6.3359812429e+01   3.7734245934e+01    0.6244763    0.2655231 -35.13  0.002207407    2.671    0.626
       122 -10.3111     79.5277     87.5518   8.2095419301e+01   4.9508410517e+01    0.1434363    0.1363527 -17.01  4.29967e-05    1.004    0.004
       123 -10.6177     43.9888     86.5523   9.4598207635e+01   5.4811933055e+01    0.2206653    0.1652999  10.79 0.0006610748    1.468    0.319
       124 -12.0598     44.7928     82.2402   9.3184692282e+01   5.5679211240e+01    0.3721342    0.2852872  52.95 0.0004505179    1.649    0.394
       125 -10.8633     37.1069     83.9227   9.6565694781e+01   5.6154895862e+01    0.3235896    0.2365634  69.00  0.001701882    1.984    0.496
       126 -11.5208    104.1379     82.0710   7.2629378819e+01   4.6020004938e+01    0.6575056    0.2712017 -50.68  0.002308253    2.809    0.644
       127 -10.1327     96.7147     79.4238   7.4093702284e+01   4.8032725214e+01    0.2000297    0.1368879  30.65 0.0005525148    1.556    0.357
       128 -11.3602     62.0000     71.4724   8.3543815746e+01   5.5668992514e+01    0.4009141   0.08967017 -45.92  0.001211917    4.105    0.756
       129 -10.9745    249.5021     73.5417   4.2866864798e+01   1.5298011984e+01    0.2462198    0.0859618 -47.31  0.001038299    2.419    0.587
       130 -11.4815     81.6662     72.4561   7.6824048643e+01   5.2234975620e+01    0.4147391     0.272278 -73.04  0.001546561    2.837    0.647
       131 -11.0135     23.7510     79.3872   1.0071008070e+02   5.8417219280e+01    0.3422315    0.1999095 -85.19  0.001549884    2.713    0.631
       132 -11.2383     51.6374     69.9498   8.7050187274e+01   5.7440645067e+01     0.295101    0.2300506 -81.78   0.00151661    1.910    0.476
       133 -11.4801     43.7193     66.4373   8.9149414681e+01   5.9159037124e+01    0.2341572    0.1992213 -40.36 0.0006256452    1.117    0.105
       134 -11.9490      8.6811     66.1091   1.0385095953e+02   6.2393340882e+01    0.3996387    0.2053019  16.44  0.001595087    2.170    0.539
       135 -11.4527      2.4511     64.6672   1.0619985469e+02   6.3050454997e+01    0.3415205    0.1867918 -31.58 0.0008886076    1.709    0.415
       136 -13.3165      9.6662     49.2941   9.9068907988e+01   6.5777888380e+01    0.4828179    0.2853701 -18.57  0.002028191    1.692    0.409
       137 -11.1697     40.8479     51.4312   8.5512471877e+01   6.2419849853e+01    0.2680819    0.1792993 -38.67  0.000680571    1.361    0.265
       138 -10.9181    229.3045    248.5852   7.9689885359e+01  -9.3210375472e+00    0.2143865    0.1626963  19.76 0.0007801151    1.192    0.161
       139 -12.9380     36.5480     56.9024   8.9185976603e+01   6.1886845506e+01    0.5669184    0.4658015 -11.80  0.001809692    1.114    0.102
       140 -10.2601    145.1249     63.9348   5.6624309666e+01   4.0107829089e+01    0.2201889    0.1835442 -83.44 0.0003174931    1.325    0.245
       141 -11.7638     45.0292     61.5094   8.7082915885e+01   5.9982971733e+01    0.2842434    0.2113207  -2.80 0.0007764888    1.397    0.284
       142 -10.7023     46.6848     58.3241   8.5367992589e+01   6.0390056051e+01     0.227966    0.2042645 -67.36 0.0007356203    1.443    0.307
       143 -11.0990    130.3243     58.3784   5.8292547578e+01   4.4488362158e+01    0.2530409    0.2309759  70.41 0.0004957545    1.093    0.085
       144  -9.6715    186.3049     53.6602   4.6398219804e+01   3.1858762304e+01    0.1470141   0.09657352 -69.03 0.0007040648    1.678    0.404
       145 -11.1690    232.4982     49.4896   3.9684206604e+01   2.2177283269e+01    0.2165885    0.1215743 -25.89  0.001041495    2.390    0.582
       146 -10.6913    112.5647     49.2648   5.9783464833e+01   4.9950911193e+01    0.3287802    0.2336226 -79.29  0.001119496    2.185    0.542
       147 -10.7638     95.8947     49.8588   6.4670611805e+01   5.3451523522e+01    0.2074659      0.17306  22.83 0.0003207231    1.187    0.157
       148 -11.4773    145.4242     44.9911   5.0977301836e+01   4.2890021853e+01    0.4942955     0.311957 -85.85  0.002175269    2.237    0.553
       149 -12.1390     75.5050     43.1762   6.8856124473e+01   5.8471404944e+01    0.3723815    0.2834749  53.24  0.001102394    1.501    0.334
       150 -12.4551     73.9863     39.2430   6.7899284091e+01   5.9341142906e+01    0.4790818    0.3231804 -57.52  0.002009634    2.291    0.564
       151 -11.1235    144.5880     36.5131   4.8607860410e+01   4.4216619946e+01    0.2784544    0.2263987 -78.20 0.0005839058    1.320    0.242
       152  -9.9144    126.5297     35.4546   5.1897080201e+01   4.8648949567e+01    0.1368148     0.123988  59.97  0.000148521    1.017    0.016
       153 -10.0089    188.7707     33.6270   4.1044931066e+01   3.4000106204e+01    0.1771996    0.1136444  81.40 0.0004149429    1.498    0.333
       154 -10.8092    224.2567    249.5738   8.0749323240e+01  -8.8148958562e+00    0.2149965   0.09660634  35.98  0.001131831    2.100    0.524
       155 -12.2085      1.9827     29.5422   9.6751975519e+01   6.9962159860e+01    0.3672394    0.1528621 -51.12  0.001361814    1.991    0.498
       156 -10.5218    195.7481     30.4626   3.9431973405e+01   3.2773294589e+01    0.2601019    0.1148398  68.07 0.0009985461    2.085    0.520
       157 -10.6583    176.2546     26.2162   4.0776702926e+01   3.7853822382e+01    0.3174635    0.1636937  70.55 0.0009204149    1.767    0.434
       158  -9.8515    123.7828     23.3621   4.8528084589e+01   5.0719613866e+01    0.1965688    0.1036184  52.48  0.000375281    1.647    0.393
       159 -11.0522    204.9874     21.7029   3.6393073592e+01   3.1716846961e+01     0.183268     0.144874  89.62 0.0009816762    1.092    0.084
       160 -10.4720     26.4915     22.0258   8.0827139965e+01   6.9025740058e+01      0.17263    0.1340905   5.75 0.0004072906    1.113    0.102
       161 -11.1413     61.3301    248.3180   1.1320880434e+02   1.4733695517e+01    0.2462462    0.2017227  14.77 0.0006063866    1.682    0.405
       162 -10.6722     32.8648     20.1119   7.6842075555e+01   6.8526556877e+01     0.167469    0.1471676   5.25 0.0004448524    1.222    0.181
       163 -10.2875    210.4049     19.3012   3.5330513917e+01   3.0785226656e+01    0.2505653    0.1332367  77.14  0.001324063    1.728    0.421
       164 -10.5667    196.3370     18.8115   3.6606389466e+01   3.4010062993e+01    0.1951122    0.1338472 -59.06 0.0004848821    1.354    0.261
       165 -10.8880     37.5612     18.2195   7.3768120520e+01   6.8159116634e+01    0.2259422    0.2010251 -14.46 0.0009110612    1.284    0.221
       166 -11.4174     23.4919    247.8770   1.2050394944e+02   1.9325776633e+01    0.1662256    0.1481262  54.85  0.001045349    1.312    0.238
       167 -11.4846    218.8640    246.4638   8.1240227134e+01  -7.6982094037e+00    0.2464749    0.1601419 -50.86  0.001417691    2.354    0.575
       168 -10.5814     15.0064    249.4898   1.2215549641e+02   1.9913839725e+01    0.1283766   0.09802154  -3.94 0.0007143439    2.503    0.600
       169 -10.6699     18.1881    241.8220   1.2115919199e+02   2.1082801802e+01    0.1814469    0.1204356  66.01 0.0006914774    1.171    0.146
       170 -11.7344     25.7427    238.7923   1.1953789212e+02   2.0881422490e+01    0.2847963    0.1744088  54.91  0.001800666    1.307    0.235
       171 -13.2149     18.7416    236.0319   1.2072559172e+02   2.2187778601e+01    0.5890918    0.2391293  49.40  0.001536851    1.946    0.486
       172 -11.5356    209.9575    237.7634   8.1506586363e+01  -5.2600912645e+00    0.3159887    0.2610571  56.35  0.001996493    1.869    0.465
       173 -10.2045      3.1394    235.1266   1.2363332862e+02   2.3924555342e+01    0.1622963   0.09589344  62.74 0.0004131181    1.314    0.239
       174 -10.5355    123.5511    232.7064   9.8448076983e+01   8.7854869733e+00    0.2382311    0.1256473 -49.99  0.001149692    2.159    0.537
       175 -10.3730    108.9820    232.9545   1.0164116788e+02   1.0995579515e+01    0.1610695    0.1366134  45.92 0.0004882402    1.020    0.020
       176 -10.8101     62.5654    233.1841   1.1164646768e+02   1.7599249208e+01     0.362926    0.1590026  32.56  0.001146348    2.258    0.557
