#   1 NUMBER                 Running object number                                     
#   2 MAG_AUTO               Kron-like elliptical aperture magnitude                    [mag]
#   3 X_IMAGE                Object position along x                                    [pixel]
#   4 Y_IMAGE                Object position along y                                    [pixel]
#   5 X_WORLD                Barycenter position along world x axis                     [deg]
#   6 Y_WORLD                Barycenter position along world y axis                     [deg]
#   7 A_WORLD                Profile RMS along major axis (world units)                 [deg]
#   8 B_WORLD                Profile RMS along minor axis (world units)                 [deg]
#   9 THETA_WORLD            Position angle (CCW/world-x)                               [deg]
#  10 FWHM_WORLD             FWHM assuming a gaussian core                              [deg]
#  11 ELONGATION             A_IMAGE/B_IMAGE                                           
#  12 ELLIPTICITY            1 - B_IMAGE/A_IMAGE                                       
         1 -11.9860     16.8871     23.0520   1.0953132141e+02   6.8928163765e+01    0.3523883    0.2762611 -82.15  0.001049373    1.615    0.381
         2 -11.6284      7.3063     17.8113   1.1239686738e+02   7.0586540344e+01    0.3835741     0.200173 -51.00  0.001288145    1.390    0.280
         3 -12.0321     36.6854     20.3941   9.9402110510e+01   6.7657848786e+01    0.4420927    0.2992676  47.77  0.002626259    2.104    0.525
         4 -11.6147    213.8604     17.4660   5.3564445906e+01   2.9081426961e+01    0.2920826    0.1892171   6.85  0.001165069    1.929    0.482
         5 -11.1248     59.0165     14.9778   8.7443959949e+01   6.5709568373e+01    0.2553029    0.1614307 -35.05 0.0003327618    1.377    0.274
         6 -11.8962    113.2468     15.3829   7.0085066713e+01   5.5242560623e+01    0.4402676    0.3324099  66.34   0.00166326    1.535    0.349
         7 -11.6879     80.5913     14.8227   7.9423875659e+01   6.2106747427e+01    0.3073398    0.2354244 -35.56  0.001373186    1.302    0.232
         8 -12.5859     25.7890     13.0844   1.0143127474e+02   7.0086060844e+01      0.25763      0.24762  -3.32 0.0004414353    1.319    0.242
         9 -12.8032    209.2737      6.2289   5.0714372137e+01   3.1391347445e+01    0.7566143    0.3250497 -26.63  0.003075026    2.195    0.544
        10 -10.9090     64.4582     13.5339   8.4620923977e+01   6.5089193943e+01    0.2312256    0.2068549  38.43 0.0009979957    1.340    0.254
        11 -11.8741    175.3156      8.9008   5.5686883443e+01   4.0176252475e+01    0.4394428    0.1972545 -24.98  0.001389659    2.189    0.543
        12 -12.0565     49.6861      8.3326   8.8075480568e+01   6.8107542219e+01    0.4979891    0.3384575  33.42    0.0025551    1.626    0.385
        13 -11.4159     51.9749      5.9493   8.5872639920e+01   6.8143474464e+01     0.265184    0.1541765 -36.75  0.001162926    1.530    0.346
        14 -10.7533      7.1402     10.3015   1.0983117419e+02   7.2045382796e+01    0.1725298    0.1507753  45.80 0.0004530093    1.607    0.378
        15 -10.4304      2.4392     10.8128   1.1250835014e+02   7.2218258040e+01    0.2068887    0.1434462  27.18  0.001472203    1.874    0.466
        16 -11.5291     18.2669      7.8050   1.0293275786e+02   7.1702345459e+01    0.4241108    0.2252513  -0.22  0.002101393    2.748    0.636
        17 -10.7745     74.4749      8.8684   7.8651743022e+01   6.4056212053e+01    0.2233226     0.203341 -52.95 0.0005547703    1.431    0.301
        18 -12.1031    190.8591      5.3198   5.2482662126e+01   3.6350984029e+01    0.3995689    0.3099922 -54.30   0.00125078    1.350    0.259
        19 -11.4015    194.9940      3.5096   5.1424642502e+01   3.5414235727e+01    0.3261617    0.2255748  70.14 0.0009841396    1.400    0.286
        20 -10.8626     87.6962      7.2972   7.3525649625e+01   6.1740293623e+01    0.2266504    0.1718129 -14.41 0.0005758911    1.214    0.176
        21 -11.5650     24.6724      6.8814   9.9192973577e+01   7.1293194702e+01    0.2519006    0.1636902 -51.13 0.0005584974    1.481    0.325
        22 -10.5898     62.2064      6.2766   8.1874296707e+01   6.6518580217e+01    0.2594202    0.1965436  33.98  0.001588433    1.395    0.283
        23 -10.0541    236.3159      6.6955   4.8286869471e+01   2.4476892744e+01    0.1454716   0.09128159 -56.06 0.0003013541    1.623    0.384
        24 -10.0397     35.6931      4.3165   9.2425317811e+01   7.0544472618e+01    0.1761411    0.1440003 -32.19 0.0006226868    1.156    0.135
        25 -10.8236     39.8293      5.7402   9.1190007747e+01   6.9815909374e+01    0.2351393    0.1498716 -45.34  0.000763012    1.567    0.362
        26 -10.0155     38.4174      2.4806   9.0152579364e+01   7.0502640066e+01    0.1692078    0.1138554  28.58 3.914859e-05    1.646    0.392
        27 -12.0909    181.1969      2.8397   5.2846996054e+01   3.9166973807e+01    0.5693625    0.2616874  58.52  0.002338846    1.966    0.491
        28 -11.6138    160.9219      2.8297   5.5615083567e+01   4.4597118977e+01    0.3550613    0.2761388 -58.59  0.001819838    1.448    0.309
        29 -11.6141     74.5951      2.8171   7.5537470488e+01   6.4821602843e+01    0.3460174    0.3319861  55.39  0.002285416    1.359    0.264
        30 -10.8690     11.5920      2.6844   1.0422742788e+02   7.3144289883e+01    0.2456047    0.2025364  82.50  0.001079548    2.049    0.512
        31 -11.4318    217.2636      2.3348   4.8776747691e+01   2.9678449159e+01    0.3549566    0.2194377 -64.25  0.001673178    1.774    0.436
        32 -10.7994     91.4218      2.7201   7.0171023155e+01   6.1517952380e+01    0.2139294     0.195475  27.56 0.0002492777    1.128    0.113
        33 -10.6812     30.9878      3.2465   9.4191136281e+01   7.1254603825e+01    0.2928628    0.1426158 -38.11  0.001440449    1.657    0.396
        34 -10.0967     64.4728      1.4429   7.8458168466e+01   6.6793479664e+01     0.128287    0.1068943  -5.06 8.194666e-05    1.005    0.005
        35 -11.7880     83.5626    237.7661   1.2366533863e+02   1.9537525509e+01    0.2943107    0.1553626  52.65  0.000529531    1.372    0.271
        36 -11.9873    206.8043    246.8490   1.0508743322e+02   9.3648334257e-01    0.3088227     0.211129  44.93  0.001071712    1.300    0.231
        37 -10.5042    200.3523    249.3530   1.0637510958e+02   1.6409966077e+00    0.1740004    0.1155284  27.66 0.0006909899    1.283    0.221
        38  -9.9156    149.3598    250.7548   1.1440785026e+02   8.9022034817e+00    0.2306052   0.06503819  42.10   0.00098028    2.586    0.613
        39 -11.4031    129.2224    248.0257   1.1729541138e+02   1.2074075830e+01    0.1809417     0.169754   9.03  0.001240114    1.543    0.352
        40 -10.7349    106.2585    248.2908   1.2089759515e+02   1.5165747801e+01    0.2636254    0.1389793  86.76  0.001577779    3.045    0.672
        41 -11.3507    115.4734    249.5111   1.1956610408e+02   1.3776115228e+01    0.3566861    0.1560925  46.80  0.002281487    1.615    0.381
        42 -12.6149    109.6576    244.8546   1.2009283361e+02   1.5162016915e+01    0.3337899    0.1908226  63.96  0.002325767    1.670    0.401
        43 -10.3718    102.6254    250.7232   1.2164447537e+02   1.5327041988e+01    0.2481415   0.05897897  45.85 0.0009263367    2.810    0.644
        44 -10.0205     98.4503    249.7138   1.2221051095e+02   1.6001161657e+01    0.1258258   0.09706043  42.29 0.0006075899    1.363    0.266
        45 -11.5629     22.8789    228.2014   1.3255835946e+02   2.7759356395e+01    0.2709631    0.1660751  70.40    0.0003455    1.160    0.138
        46 -13.2653     46.8177    218.8836   1.2833505172e+02   2.6738359944e+01    0.5796881    0.2855583 -57.84  0.002366435    2.785    0.641
        47 -13.2873      8.7917    213.4782   1.3414518251e+02   3.1385223804e+01    0.8458623    0.3435286  71.56  0.003012732    1.959    0.490
        48 -12.4176      7.3079    224.4138   1.3476042135e+02   2.9793919993e+01    0.3922229    0.2769495  33.61   0.00258349    1.904    0.475
        49 -14.6383     33.2501    243.3987   1.3165320451e+02   2.4465995995e+01     0.883108    0.5742097  55.07   0.00375006    1.165    0.141
        50 -13.1458     28.7649    219.1837   1.3124746349e+02   2.8584252388e+01    0.4813421    0.2528972 -68.69  0.001162304    2.101    0.524
        51 -12.3798     21.3322    217.7672   1.3235473961e+02   2.9537990427e+01    0.4672095     0.186914  70.33  0.001501878    2.123    0.529
        52 -14.0116     11.1901    232.0504   1.3444533316e+02   2.8278827088e+01    0.5350915    0.4289316  39.99  0.004262218    1.705    0.414
        53 -13.0690     21.4763    237.1658   1.3312351159e+02   2.6547125612e+01    0.4517135    0.3060336  43.53  0.003628311    1.539    0.350
        54 -14.9428     15.0430    247.7296   1.3441717380e+02   2.5631820766e+01    0.7614594    0.3627069  59.39  0.004739676    1.365    0.268
        55 -13.2928      3.5860    246.7843   1.3597601685e+02   2.6813150791e+01    0.4766883    0.2455004 -89.65  0.002626274    1.696    0.410
        56 -12.5984     27.9609    230.9056   1.3190309642e+02   2.6846829196e+01    0.3206712    0.2104056  34.64  0.001753172    1.907    0.476
        57 -13.8587     37.1084    220.1458   1.2996929705e+02   2.7578557565e+01    0.7909299    0.3225348 -80.46  0.005064321    2.405    0.584
        58 -11.9667     44.9078    236.5869   1.2959841702e+02   2.4234934891e+01    0.2797821    0.1402998  64.26  0.001293298    1.522    0.343
        59 -12.6120     47.3703    232.2949   1.2899677485e+02   2.4606463286e+01    0.2862673    0.1403655  80.95  0.001519752    1.975    0.494
        60 -10.8730    156.7307    237.4428   1.1186654980e+02   9.3876843875e+00    0.2297604    0.1295669  50.65   0.00133795    1.444    0.307
        61 -11.3798    136.7513    236.9038   1.1504346655e+02   1.2400329145e+01    0.4788389    0.1126278  43.89 0.0006883008    3.089    0.676
        62  -9.1387     63.2625    238.6602   1.2689831547e+02   2.1870474290e+01    0.1002186   0.05239706  65.89 0.0003270559    1.590    0.371
        63  -9.3216    192.2764    243.6876   1.0694278764e+02   3.3843431966e+00     0.095428   0.07120159  56.79 0.0001929153    1.561    0.359
        64  -9.9793    172.6888    234.6703   1.0897543780e+02   7.3058457176e+00    0.2709241    0.1390366  23.29  0.001345676    3.160    0.684
        65 -11.0555    181.1208    235.4147   1.0770837143e+02   5.9381576305e+00    0.1874085    0.1426999  34.05 0.0003031423    1.102    0.092
        66 -10.2604    178.5383    231.9715   1.0770561158e+02   6.7190685521e+00    0.2535618    0.1474805  28.66  0.001585415    1.732    0.423
        67 -11.7403    154.7257    232.6375   1.1166338327e+02   1.0272959066e+01    0.3718458    0.1727273  49.82 0.0005533642    1.756    0.430
        68 -10.1771    151.9914    226.9725   1.1147777173e+02   1.1400471349e+01    0.1548069    0.1366576  -5.30 0.0003435865    1.534    0.348
        69 -10.3307    119.7991    233.6508   1.1749058810e+02   1.5260795250e+01    0.1809848    0.1109063  73.03 0.0008650795    1.950    0.487
        70 -11.6640     59.2284    231.9481   1.2712438747e+02   2.3325805039e+01    0.2953411     0.152311  73.91  0.001380909    1.823    0.452
        71  -9.7438     55.6882    228.7121   1.2748998687e+02   2.4219150677e+01    0.1231607   0.09896552  85.02 0.0003387514    1.301    0.232
        72 -11.3748    219.2804    231.2841   1.0113909314e+02   5.5632961919e-01    0.1904416    0.1771146  -5.71 0.0005287343    1.442    0.307
        73 -10.1785    196.8763    233.1262   1.0490778050e+02   3.7788012498e+00    0.1580596    0.1196539  46.49 0.0005032039    1.262    0.208
        74 -11.5785    143.7273    232.2410   1.1342460724e+02   1.1971285026e+01    0.2892354    0.1315885  45.38 0.0007821633    1.637    0.389
        75 -10.4907     81.2104    231.7579   1.2360815546e+02   2.0701181306e+01    0.1534407     0.106662  73.46 0.0003439276    1.271    0.213
        76 -11.1157     78.8458    222.8266   1.2333125786e+02   2.2336693959e+01    0.2764874    0.1511723 -74.68  0.001878739    2.026    0.506
        77 -10.2139     74.3321    231.3379   1.2468405681e+02   2.1618397406e+01    0.1706475    0.1273242  53.66  0.001395851    1.163    0.140
        78 -11.8282     73.6717    227.1158   1.2449570629e+02   2.2330411643e+01    0.4250785    0.1390057  56.45  0.002180762    2.763    0.638
        79 -10.7277    243.3120    229.2969   9.7181964626e+01  -2.8306701637e+00    0.1992234    0.1532022  39.22 0.0009061515    1.385    0.278
        80 -11.8536    236.5975    229.6806   9.8252053874e+01  -1.8801644662e+00    0.3575542    0.1842725  45.98  0.002131936    1.798    0.444
        81 -10.6374     96.1967    229.2099   1.2097111625e+02   1.9130518843e+01    0.2587906    0.1381592  33.12  0.001559337    2.231    0.552
        82 -11.5820     94.3456    227.2817   1.2111692506e+02   1.9658369071e+01    0.1874456    0.1560828  57.22 0.0008353362    1.189    0.159
        83  -9.0807    172.6810    228.3101   1.0821274607e+02   8.0478473216e+00    0.1066617   0.07449848  61.06 0.0006817391    1.642    0.391
        84 -11.6724    158.3205    224.9986   1.1019294663e+02   1.0678981163e+01    0.2100606    0.1827975 -61.12 0.0002949469    1.514    0.340
        85 -10.8185    132.7819    232.8322   1.1528393741e+02   1.3506492744e+01    0.1710559    0.1285612  49.79 0.0003918129    1.015    0.015
        86 -12.1869    111.4289    227.4979   1.1830177920e+02   1.7294031296e+01    0.1894495    0.1446776  55.55 0.0003653209    1.028    0.027
        87  -9.9342    216.3831    227.1997   1.0102684990e+02   1.3934550442e+00    0.1239856    0.1033368 -37.77 0.0009461934    1.703    0.413
        88 -10.0007    133.8528    227.2049   1.1453075101e+02   1.4100049679e+01    0.1401107    0.1069636  35.89 0.0002404955    1.313    0.239
        89 -10.2739    164.4454    225.7354   1.0926031759e+02   9.6373014787e+00    0.1247749    0.1053565 -12.13 0.0009364727    1.580    0.367
        90 -10.2987    144.0778    224.1983   1.1249035101e+02   1.2968735659e+01    0.2715661    0.1611155  81.31  0.001387587    3.397    0.706
        91  -9.8346    121.7810    225.1746   1.1634755265e+02   1.6148044916e+01    0.2524417     0.052749  46.18  0.001005529    3.552    0.718
        92 -10.4235    178.6040    223.7373   1.0666409545e+02   7.6633234788e+00    0.2277661    0.1543643  20.53  0.001489109    1.682    0.405
        93  -9.9566     98.9943    223.2422   1.1999889675e+02   1.9630019615e+01    0.1525566    0.1028673  52.21 0.0003470268    1.123    0.109
        94 -12.3526    107.2799    216.0761   1.1792666695e+02   1.9553987014e+01    0.4979477    0.3188345 -49.91  0.002383151    2.127    0.530
        95 -12.0892    102.4966    214.6394   1.1861684362e+02   2.0445772043e+01    0.4235829    0.2943078 -36.37  0.002713789    2.562    0.610
        96  -9.9889     54.1949    221.5383   1.2729489470e+02   2.5495584802e+01    0.1524604    0.1154202 -70.48  0.001251175    1.620    0.383
        97 -11.3562    195.7758    218.8866   1.0318436086e+02   5.4989495341e+00    0.3475853    0.1993283 -56.37  0.001875143    3.346    0.701
        98 -10.3646     85.0007    221.3535   1.2218943017e+02   2.1774010261e+01    0.1518943   0.09938397  51.98 0.0006118631    1.169    0.144
        99 -10.7201     63.2244    220.2882   1.2573502526e+02   2.4643306431e+01    0.2267863    0.1081331  64.04 0.0007561084    1.848    0.459
       100 -10.5425    248.5759    219.6240   9.4947920907e+01  -2.7615600940e+00    0.1765455    0.1502045  60.99 0.0008149819    2.013    0.503
       101 -10.0470    188.3085    219.5484   1.0450657705e+02   6.6152833996e+00    0.1628283    0.1364517 -56.21  0.001195477    1.706    0.414
       102  -9.5967    125.3130    220.6586   1.1528994777e+02   1.6270767555e+01    0.1130982   0.07030359  65.81 0.0007046791    1.701    0.412
       103 -12.5405    222.3460    218.3211   9.8811476723e+01   1.3557679593e+00    0.2822809    0.1710526  34.08 0.0002972373    1.255    0.203
       104 -11.6290    217.9975    217.9146   9.9443363293e+01   2.0781365296e+00    0.2078521    0.1562416  30.34  0.000358839    1.013    0.013
       105 -11.0227    133.7222    219.0238   1.1367634905e+02   1.5246302998e+01    0.2040944     0.131173  41.30 0.0002979751    1.300    0.231
       106 -10.4491     89.0302    218.2442   1.2125289609e+02   2.1723309991e+01    0.1815585    0.1110636  71.24 0.0002547695    1.577    0.366
       107 -11.2491    237.5822    217.2716   9.6268598837e+01  -8.9509718659e-01    0.2854635    0.1619372  44.91  0.001200424    1.626    0.385
       108 -10.4282     72.9692    217.5131   1.2391260364e+02   2.3896996161e+01    0.1459005    0.1103852  65.59 0.0003147254    1.044    0.042
       109 -11.7069     69.8522    212.9739   1.2409936653e+02   2.5004268062e+01    0.3552026    0.2130713 -63.40   0.00121897    1.947    0.486
       110 -10.0637     68.9510    200.9725   1.2331455717e+02   2.7095048887e+01    0.1649694    0.1167394  65.16 0.0003215033    1.104    0.094
       111 -11.6107     67.7088    206.3024   1.2395853541e+02   2.6356225997e+01    0.3797739    0.2798709 -24.72  0.002092401    3.286    0.696
       112  -9.9380     73.6198    203.4877   1.2269092081e+02   2.6088619302e+01    0.1686836    0.1081004  65.82 0.0005473296    1.301    0.232
       113 -10.5146     76.6561    216.2932   1.2319620602e+02   2.3627687258e+01    0.1806736    0.1186491  67.10 0.0005043909    1.257    0.204
       114 -11.4285     75.9960    212.8776   1.2304003166e+02   2.4253671087e+01    0.1936502    0.1408712  61.33  0.000445467    1.030    0.029
       115 -10.0162    141.8835    217.2932   1.1207931579e+02   1.4241787868e+01    0.1609669    0.1137663  43.72 0.0005973148    1.134    0.118
       116  -9.8378      1.3131    217.1328   1.3542309689e+02   3.1455672692e+01    0.1259839   0.05752084  80.68 0.0003755292    1.708    0.414
       117 -10.6901    126.1225    215.7734   1.1463247576e+02   1.6853341897e+01    0.1845066    0.1463333  37.07 0.0003926095    1.300    0.231
       118 -10.8356     84.0071    215.5168   1.2188118692e+02   2.2807039893e+01    0.2732045    0.1792985  42.68 0.0009009818    1.405    0.288
       119  -9.9229     85.4567    211.2598   1.2127058975e+02   2.3290809121e+01    0.1647231    0.0986282 -79.57 0.0005436045    1.834    0.455
       120 -10.4477     60.2749    214.3212   1.2581943050e+02   2.5938968943e+01    0.2668031    0.1559335 -52.19  0.001682748    2.619    0.618
       121 -10.5965     57.7434    211.6206   1.2606156557e+02   2.6672096515e+01    0.2076161    0.1544869 -53.24  0.001565077    2.005    0.501
       122 -10.5260    172.3619    214.8881   1.0655908337e+02   9.7401507793e+00    0.1765448     0.126493  47.03 0.0004500622    1.160    0.138
       123 -11.4479    200.6400    211.5686   1.0133988519e+02   5.5460519590e+00    0.2873701    0.2145429  26.73 0.0009005278    1.156    0.135
       124 -11.0652    218.3248    211.9017   9.8495179052e+01   2.6518534772e+00    0.2914903    0.1782926  31.16  0.001757168    1.315    0.240
       125 -10.8918    214.3097    210.0548   9.8866436504e+01   3.4951409556e+00    0.2064333    0.1371711  41.45  0.000377908    1.257    0.204
       126 -10.9578    161.1944    213.0919   1.0823774592e+02   1.1769911505e+01     0.349502    0.1271845  43.56  0.001619892    2.151    0.535
       127 -10.5515    143.3940    211.3485   1.1111488125e+02   1.4839002666e+01    0.1822938    0.1479061  33.32 0.0006324287    1.267    0.211
       128 -10.3835    121.9502    212.3199   1.1498686844e+02   1.7985047283e+01      0.16602    0.1188839  56.54 0.0003548677    1.148    0.129
       129 -10.7022    117.9566    212.0762   1.1566146676e+02   1.8614027401e+01    0.2138511    0.1262568  46.07 0.0003473807    1.345    0.257
       130 -11.5118     31.3658    202.4120   1.2996331583e+02   3.1071138060e+01     0.471975    0.1460106  58.36  0.002313138    2.724    0.633
       131 -10.7108      9.2873    197.2262   1.3341892392e+02   3.4031685408e+01    0.2316105    0.1316837 -67.78 0.0006253852    1.942    0.485
       132 -11.4987     41.7468    194.1405   1.2766026201e+02   3.1414774910e+01    0.3549611    0.1482469  82.59 0.0009905894    2.712    0.631
       133 -11.3730     38.8703    211.6284   1.2922186815e+02   2.8763248166e+01    0.2520345    0.1436213  58.55 0.0008998567    1.297    0.229
       134 -11.7995     25.7386    196.7186   1.3061291930e+02   3.2600484062e+01    0.4080745    0.3485201  51.26  0.002081184    1.435    0.303
       135 -12.1480     19.2848    210.9066   1.3237853425e+02   3.0839100806e+01     0.227899     0.208061  81.71 0.0003892567    1.530    0.347
       136 -11.6669     39.0500    205.9720   1.2886617072e+02   2.9679303178e+01    0.2481801    0.1406091  56.19 0.0003188409    1.334    0.251
       137 -10.9520     21.9575    191.8398   1.3100618279e+02   3.3809714643e+01    0.1910382    0.1218863 -72.28 0.0003544287    1.614    0.380
       138 -12.1886     14.3190    205.2201   1.3293263563e+02   3.2236971459e+01    0.2401427    0.1301019  69.01 0.0004870917    1.355    0.262
       139 -11.4611     18.1701    202.8560   1.3219510735e+02   3.2276683277e+01     0.186519    0.1184178  70.93 0.0003232227    1.126    0.112
       140 -11.6646     40.2266    201.6848   1.2840759508e+02   3.0277026064e+01    0.2116054    0.1534114  30.31  0.001587946    1.876    0.467
       141 -12.5386     45.2805    200.1481   1.2743413527e+02   2.9994424180e+01    0.3285758    0.2328382  87.95 0.0006651777    1.241    0.194
       142 -11.1847     94.7527    208.7502   1.1941533366e+02   2.2440186786e+01    0.3254339    0.1672622 -72.39  0.001395301    2.300    0.565
       143 -10.0357     13.6830    210.9961   1.3327756618e+02   3.1345295220e+01    0.1234362   0.08941683  79.29   0.00060871    1.160    0.138
       144 -11.2450    192.3804    208.9633   1.0234263337e+02   7.2043387748e+00    0.2284633    0.1132104 -38.38   0.00126878    2.516    0.602
       145 -10.4687    184.0174    210.0350   1.0391295072e+02   8.4496136139e+00    0.1698469    0.1328198  36.86 0.0003104399    1.015    0.014
       146 -11.1094     80.9490    208.7865   1.2184512914e+02   2.4278287236e+01    0.2427026      0.18436 -80.02  0.001851641    1.390    0.281
       147 -11.3940    128.5046    208.2672   1.1337816111e+02   1.7599640389e+01    0.2727945    0.2317794  18.72  0.001161159    1.542    0.351
       148 -11.9770    239.2995    206.5289   9.4322619332e+01  -1.3027275883e-01    0.9004461      0.40699   7.49  0.002986717    6.620    0.849
       149 -10.7310    248.5766    202.2924   9.2192810139e+01  -1.1704290200e+00    0.2713002    0.1150613  42.53  0.001345641    1.981    0.495
       150 -12.5305    239.2200    199.0713   9.3117790887e+01   6.2604057023e-01    0.2760772    0.2264377   0.23 0.0003198133    1.220    0.180
       151 -11.8819    241.4586    194.0032   9.1912029520e+01   7.8215008660e-01    0.2537674    0.1716319 -30.07  0.001011726    1.728    0.421
       152 -10.9196    199.8282    205.4131   1.0056255200e+02   6.3951870279e+00    0.2158547    0.1711481   5.90  0.001225171    1.352    0.261
       153 -10.4988    117.6491    207.6763   1.1524327981e+02   1.9329214384e+01    0.2263269    0.1279445  56.26 0.0006791613    1.558    0.358
       154 -11.0202     52.3808    207.2664   1.2667985373e+02   2.8004203378e+01    0.2010912    0.1432225  56.89 0.0006829032    1.138    0.121
       155 -12.2097    183.0097    204.9006   1.0335194750e+02   9.2597569525e+00    0.3837025    0.2765662  16.43  0.001488511    1.580    0.367
       156 -10.2962    152.7947    207.3670   1.0896583882e+02   1.3903107148e+01    0.1683029   0.09025522  37.88 0.0004706717    1.640    0.390
       157 -11.2563    133.3784    205.5421   1.1218941791e+02   1.7253493282e+01    0.2799458    0.2097471 -88.35  0.001104063    1.649    0.394
       158 -11.1965     98.6692    205.4101   1.1839781022e+02   2.2431491364e+01    0.1863917    0.1529502  55.16 0.0002840649    1.120    0.107
       159 -11.1633     95.2369    195.0536   1.1797484437e+02   2.4620128141e+01    0.1998148    0.1502977  50.54 0.0004931106    1.155    0.134
       160 -12.5272     95.8873    200.0617   1.1836718927e+02   2.3692709545e+01    0.2327546    0.1846515 -73.45 0.0007417338    1.393    0.282
       161 -10.4763     91.2980    200.2234   1.1921848373e+02   2.4302032333e+01    0.2590224    0.1149989  49.70 0.0009668125    1.826    0.452
       162 -10.1713    145.2622    205.3717   1.1004602245e+02   1.5398566738e+01    0.1064113   0.08633461  10.72 0.0006981829    1.657    0.396
       163 -11.0073     59.4950    204.1917   1.2523392001e+02   2.7695092351e+01    0.1830545    0.1190603  60.08 0.0003099886    1.179    0.152
       164  -9.8536    118.5568    196.5425   1.1381554934e+02   2.0944947874e+01    0.1152813   0.09586888  53.04 0.0008054603    1.068    0.064
       165 -11.2942    121.5378    203.3378   1.1406086495e+02   1.9414881505e+01    0.2573007    0.1946758  52.66 0.0006004761    1.056    0.053
       166 -10.4970    121.4957    199.1231   1.1357882829e+02   2.0082439176e+01    0.2033683    0.1367479  50.99 0.0003383643    1.210    0.173
       167  -9.6154    113.5393    204.5252   1.1563633099e+02   2.0429126858e+01    0.1124835   0.09199585  52.99 0.0008074791    1.083    0.076
       168  -9.5666    105.2786    203.3691   1.1700259772e+02   2.1819617679e+01    0.0973988   0.08821698  -2.01 0.0003204541    1.687    0.407
       169  -9.9728    138.1918    202.5465   1.1095810958e+02   1.6943174455e+01     0.168115   0.09562802  35.53 0.0009441167    1.726    0.421
       170 -10.8096     52.8516    201.7347   1.2621910785e+02   2.8879362746e+01     0.202379     0.163322 -78.39 0.0006983599    1.393    0.282
       171 -11.1373    190.7225    200.9648   1.0144075551e+02   8.4618208383e+00    0.2345762    0.1897635 -44.09 0.0003433026    1.589    0.371
       172 -11.9826    188.6657    196.2228   1.0107271571e+02   9.4149849512e+00    0.2334647    0.1868514  42.65 0.0002941338    1.108    0.097
       173  -9.6219    192.7855    194.3820   1.0006777949e+02   8.9435832171e+00     0.250652    0.1637656  33.24 0.0007607975    1.321    0.243
       174 -11.4508    192.0343    190.7014   9.9613568111e+01   9.5492051027e+00    0.4372871    0.3039501   0.05  0.001473646    1.883    0.469
       175 -11.3644    188.2155    190.7752   1.0029770593e+02   1.0205240574e+01     0.450107     0.278349 -33.35  0.002615398    1.941    0.485
       176 -10.8947    149.9842    200.8862   1.0861898636e+02   1.5285595896e+01    0.1696195    0.1540569  55.11  0.000290254    1.132    0.117
       177 -10.3169     14.7124    197.2471   1.3251267867e+02   3.3544921044e+01    0.5358509    0.2165528  57.06  0.003501545    1.856    0.461
       178 -10.2597    232.9861    200.6850   9.4373274886e+01   1.4650709371e+00    0.2188302   0.09168296  47.99  0.001072196    2.337    0.572
       179 -11.2073    207.4405    199.4749   9.8365614095e+01   5.8220562490e+00    0.2158025    0.2089561  32.65 0.0008244097    1.332    0.249
       180 -12.3019    228.2115    196.2894   9.4416935882e+01   2.7117394925e+00    0.4212919    0.2590294   8.77  0.001370356    1.853    0.460
       181 -10.0708    184.2850    198.9413   1.0225136319e+02   9.8105825126e+00    0.1534797    0.1389567  12.83 0.0004066133    1.192    0.161
       182  -9.7214    177.2892    199.3242   1.0353426268e+02   1.0947023172e+01    0.1688024   0.09145565  48.26 0.0004027299    1.593    0.372
       183 -11.5873    109.7999    197.7949   1.1557637376e+02   2.2060528070e+01    0.2209205    0.1630544  50.65 0.0003118317    1.120    0.107
       184 -10.4591    102.6247    198.5344   1.1697674689e+02   2.2987749188e+01    0.1768867    0.1688192 -37.41 7.766241e-05    1.485    0.327
       185 -11.4897    105.8918    194.4350   1.1592594181e+02   2.3190850870e+01     0.245613    0.1989357  33.34 0.0002842725    1.443    0.307
       186  -9.8971    169.6830    197.8571   1.0466686567e+02   1.2433860512e+01    0.2100632    0.1091352 -35.03  0.001097344    2.571    0.611
       187 -12.4276    217.1957    193.6761   9.5794161083e+01   4.8486157038e+00    0.3833883    0.3308082  36.18  0.002711863    1.210    0.174
       188 -10.5321     70.2603    195.4712   1.2261724080e+02   2.7872029922e+01     0.204294    0.1821479  23.02 0.0007817709    1.662    0.398
       189 -12.6897     66.1741    191.1480   1.2299711091e+02   2.9132929024e+01    0.3320921    0.1723748  46.17 0.0007177527    1.623    0.384
       190 -11.4045     60.9754    187.9349   1.2369042072e+02   3.0333488956e+01    0.2189546    0.1390732  85.57 0.0008569687    1.455    0.313
       191 -10.2377     62.8703    196.0207   1.2400636759e+02   2.8684869233e+01    0.1635949    0.1189451  67.52 0.0004884705    1.067    0.063
       192 -11.5400      4.5024    195.4996   1.3414314568e+02   3.4737519398e+01     0.160149    0.1143949  72.20 0.0007541226    1.064    0.060
       193 -11.7516      1.7909    192.7736   1.3448746289e+02   3.5430611928e+01    0.1758868    0.1088263  80.76 0.0004182646    1.188    0.158
       194  -9.9555    199.4830    194.9270   9.8995996244e+01   7.7231834316e+00    0.1525958    0.1191794 -32.47  0.001006114    1.531    0.347
       195 -10.7131    139.9571    194.6082   1.0961390382e+02   1.7864680392e+01    0.1866314    0.1637046  88.90 0.0005974395    1.283    0.220
       196 -10.5241    250.0623    193.9298   9.0555303105e+01  -5.9193479317e-01    0.1784709    0.1356204  22.05 0.0005552406    1.031    0.030
       197 -12.5052     52.8400    192.8703   1.2557864818e+02   3.0410856893e+01    0.2717727    0.1705123  55.25 0.0004074028    1.278    0.217
       198 -10.9317    163.4506    192.7727   1.0504715516e+02   1.4211124962e+01    0.2384867    0.1744707  11.52 0.0008413252    1.841    0.457
       199 -10.1051    148.4559    192.5089   1.0775863567e+02   1.6783554484e+01     0.214854   0.09972353  35.55 0.0009068511    2.216    0.549
       200 -11.5854     80.7136    189.4024   1.2012103987e+02   2.7580722203e+01    0.5039446    0.2114241  38.62  0.002634116    2.276    0.561
       201 -11.8729    246.5981    190.5313   9.0507157830e+01   3.0415349461e-01    0.3428433    0.1518084  35.60  0.001128298    1.887    0.470
       202  -9.1944     16.2684    191.2825   1.3196389872e+02   3.4434102591e+01    0.0818856   0.06810936 -76.12 0.0001794625    1.493    0.330
       203 -10.9063     91.6773    188.8883   1.1799564386e+02   2.6175785363e+01    0.2206617    0.1693546 -85.33  0.001073083    1.305    0.234
       204 -10.1256     82.4543    196.0471   1.2043475779e+02   2.6199781835e+01    0.1457571    0.1002124 -77.29 0.0003415682    1.499    0.333
       205 -10.0133    177.9435    189.2824   1.0189399632e+02   1.2200960985e+01    0.1761586    0.1386293  41.49 0.0005208733    1.059    0.056
       206 -11.1021    130.6048    188.5968   1.1056498819e+02   2.0334147321e+01    0.2915317    0.1561924  55.75 0.0009460013    1.803    0.445
       207 -10.9054    104.8729    187.1488   1.1528643368e+02   2.4573798929e+01    0.1782316     0.134855  65.56 0.0003989486    1.165    0.142
       208 -12.1974     15.8709    183.0768   1.3161805393e+02   3.5922294982e+01    0.3683058    0.2653599  76.62  0.001882634    1.034    0.033
       209 -10.3770     13.4770    178.4224   1.3180575057e+02   3.6974263919e+01    0.1697297    0.1224854  68.58 -4.539026e-06    1.079    0.073
       210 -10.2171    220.8716    186.2024   9.3916052844e+01   5.0874760842e+00    0.1730618    0.1422608  35.38 0.0003941939    1.154    0.133
       211 -11.3242    225.3593    184.0991   9.2802995834e+01   4.5574142263e+00      0.29629    0.1831241  21.00 0.0005805458    1.608    0.378
       212 -10.6507     67.4185    184.6614   1.2219016183e+02   3.0134430471e+01    0.2586257    0.1475276  82.10 0.0009617853    1.817    0.450
       213 -11.0216     33.1773    185.7976   1.2865739884e+02   3.3784949051e+01    0.1939374    0.1807757 -72.48  0.001100849    1.535    0.348
       214 -11.0922     29.7149    183.3604   1.2913387946e+02   3.4569683274e+01    0.3392706    0.1404499 -88.60   0.00192291    2.329    0.571
       215 -10.6379     26.8580    179.8528   1.2943962899e+02   3.5485466375e+01    0.2147409    0.1365686  57.63 0.0009409171    1.277    0.217
       216 -10.5279    156.0002    184.7861   1.0523604539e+02   1.6679027911e+01    0.1639332    0.1342625  -5.63 0.0006977876    1.619    0.382
       217 -10.2035      6.4611    175.4240   1.3292682587e+02   3.8114892780e+01    0.2360014   0.09424124 -83.46  0.001440501    2.066    0.516
       218 -11.1089      4.5269    183.6325   1.3364561171e+02   3.6799397972e+01    0.3239218    0.1062319 -84.94   0.00155389    2.603    0.616
       219 -10.5945      8.1223    183.1851   1.3299626624e+02   3.6578035775e+01    0.1819618    0.1302073  61.90 0.0004088954    1.168    0.144
       220 -10.1868      6.5340    179.6419   1.3311283127e+02   3.7345487278e+01    0.1522952   0.09033234  54.93 -3.937766e-05    1.371    0.271
       221 -11.5759    120.8752    189.8736   1.1257061967e+02   2.1673212118e+01    0.2450485    0.2219678  35.74 0.0007104893    1.275    0.216
       222 -11.0086     46.3867    182.4696   1.2598370605e+02   3.2995309549e+01    0.2896101    0.2242221  19.81  0.001247432    2.025    0.506
       223 -11.1455    213.4327    182.8362   9.4587855486e+01   6.7884418145e+00    0.2213334       0.1616  39.05 0.0003029638    1.179    0.152
       224 -10.7339    122.3275    182.6359   1.1135926571e+02   2.2652654894e+01      0.27709    0.1646427  58.51 0.0009494578    1.639    0.390
       225 -11.3448    103.6227    183.1082   1.1505006961e+02   2.5460099303e+01    0.2159979    0.1331216  54.44 0.0006912483    1.402    0.287
       226  -9.3918     88.2989    183.6385   1.1808123394e+02   2.7570351598e+01    0.1226249   0.07393824  70.96 0.0004923581    1.716    0.417
       227 -11.9632     57.6995    180.8819   1.2370982352e+02   3.1998552231e+01    0.5184842    0.2654513  37.51  0.003095898    1.983    0.496
       228 -10.1134    157.8237    180.8439   1.0429026872e+02   1.6967854301e+01    0.1603336    0.1353566  69.73  0.001027502    1.303    0.232
       229 -10.5273     92.0363    180.3257   1.1698730370e+02   2.7638421605e+01    0.2170105    0.1451119 -81.68 0.0008682543    1.578    0.366
       230  -9.8549    154.1332    180.1738   1.0488639669e+02   1.7718182016e+01    0.1727081    0.1347714  64.61 0.0006685542    1.360    0.265
       231 -10.6113    132.0897    180.5037   1.0917398388e+02   2.1422074238e+01    0.1835999    0.1051735  45.25 0.0004624537    1.494    0.331
       232 -10.6857    100.9860    170.2991   1.1398164996e+02   2.8155008394e+01    0.4469168    0.3195249 -12.94  0.002245459    3.130    0.680
       233 -11.1822    104.4181    178.4604   1.1432798144e+02   2.6160833815e+01    0.2084654    0.1639612  75.47 0.0007423789    1.201    0.167
       234 -10.7547    101.1048    176.0995   1.1469259777e+02   2.7080032258e+01    0.1759831    0.1429331  65.88            0    1.053    0.050
       235 -11.8366     72.7554    177.8455   1.2050669583e+02   3.0701559266e+01    0.3659437    0.2364362  28.59  0.002210807    2.056    0.514
       236 -12.3328     78.5899    174.7745   1.1903286919e+02   3.0505004375e+01    0.7358364    0.3082837  56.84  0.003575186    2.423    0.587
       237 -10.2912     39.7299    178.2993   1.2692754303e+02   3.4475780400e+01    0.1733498    0.1506758 -82.61  0.001401318    1.335    0.251
       238 -10.0360    237.3034    178.0054   8.9755121070e+01   3.1930702960e+00    0.1655105    0.1341394  14.69 0.0004457384    1.048    0.045
       239  -9.8750    147.0000    177.9731   1.0591584442e+02   1.9309921101e+01    0.1882243   0.07252216 -48.75 0.0002478037    3.020    0.669
       240 -10.5608    119.0217    177.7536   1.1135154575e+02   2.4018085277e+01    0.2218534    0.1545926  33.50  0.001126297    1.568    0.362
       241 -11.8273    229.6702    180.4937   9.1451084498e+01   4.2277111614e+00    0.2359886    0.2261707  52.67  0.001670798    1.453    0.312
       242 -11.3704    136.4529    176.4924   1.0774423593e+02   2.1361782650e+01        0.207    0.1904367  27.90 0.0007908051    1.229    0.186
       243 -11.6607    137.2610    171.9754   1.0690607530e+02   2.1986401767e+01    0.3782489    0.2630199  85.39 0.0009486419    1.988    0.497
       244  -9.6349     47.8542    177.1345   1.2528696302e+02   3.3815247917e+01    0.1284794    0.1164354  80.02 0.0002535454    1.298    0.229
       245 -11.1601     31.8618    176.4403   1.2828412172e+02   3.5623660183e+01    0.2363326    0.1452995  52.21  0.000657216    1.390    0.281
       246 -10.5260    132.2039    173.9906   1.0821167822e+02   2.2503152248e+01    0.1729206    0.1484735  21.58 0.0004411383    1.401    0.286
       247  -9.6858    249.8703    175.1762   8.7234286044e+01   1.3657635425e+00    0.1722183    0.1127727  21.76  0.000473987    1.330    0.248
       248 -11.0712    177.0694    183.4058   1.0111813405e+02   1.3182598965e+01    0.2990641     0.215729  29.46  0.001229295    1.334    0.251
       249 -10.0620    167.6827    175.3127   1.0153862987e+02   1.6061630805e+01    0.1240396   0.09544272  72.35 0.0002458325    1.644    0.392
       250 -10.5998    189.0276    174.0976   9.7365585873e+01   1.2342732165e+01    0.3653474    0.1688658  53.93  0.001600072    2.443    0.591
       251 -11.2003    157.6399    173.4721   1.0315375504e+02   1.8156891439e+01     0.352228    0.1873378  43.06  0.001329093    1.633    0.387
       252  -9.6719    149.5070    174.4243   1.0488067902e+02   1.9447987231e+01    0.1271298     0.108461  47.67 0.0001160581    1.012    0.012
       253 -10.2044     93.9179    174.1041   1.1588709540e+02   2.8498148220e+01    0.1809524    0.1328458  69.14  0.000349781    1.243    0.196
       254 -11.1362     87.5186    172.5208   1.1698806404e+02   2.9701891629e+01    0.2482769     0.139451 -61.04  0.001098956    1.867    0.464
       255 -10.9419     86.3116    169.6638   1.1689717537e+02   3.0404570349e+01    0.2132018     0.111651 -72.40 0.0008689758    2.068    0.516
       256 -10.5670    106.9750    172.7166   1.1308296761e+02   2.6802085333e+01    0.1766627    0.1460228  60.29  0.001175115    1.034    0.033
       257 -10.9633    175.1737    172.3774   9.9631488075e+01   1.5140747234e+01    0.1902943    0.1073428  52.26 0.0007722602    1.734    0.423
       258 -11.4614     63.4585    170.5104   1.2162403065e+02   3.3242134013e+01    0.2900148    0.2066514  36.50   0.00129201    1.585    0.369
       259  -9.8185     25.5595    171.1100   1.2912568657e+02   3.7228158502e+01    0.1576339   0.08387191 -82.35  0.001028559    1.601    0.375
       260 -11.2891     12.8091    170.1800   1.3148577597e+02   3.8548229818e+01     0.167721    0.1374253  73.33 0.0002866704    1.196    0.164
       261 -10.7369     47.6652    158.3413   1.2368841645e+02   3.7435903194e+01    0.2091867    0.1718268 -56.24  0.001479927    1.527    0.345
       262 -11.8851     50.2112    165.2192   1.2380016289e+02   3.5810425742e+01      0.48657    0.2703288 -50.24  0.002795961    2.445    0.591
       263 -11.3033     52.6825    158.1691   1.2262028680e+02   3.6908276369e+01    0.2181915    0.1671209 -85.25 0.0005911023    1.148    0.129
       264 -10.3502     31.2856    169.7801   1.2793128657e+02   3.6927250455e+01    0.1807516    0.1217511 -84.93 0.0008983429    1.263    0.209
       265 -10.0861    195.0728    168.6361   9.5287975274e+01   1.1992063190e+01     0.183399    0.1430385  36.30 0.0004363334    1.103    0.093
       266  -9.8842    144.0403    169.0489   1.0510175223e+02   2.1301868097e+01    0.1526281    0.1334666  50.42 0.0004260682    1.006    0.006
       267 -11.4895    114.7565    168.7001   1.1095572064e+02   2.6306888312e+01    0.2382849    0.1900509  53.38 0.0002546009    1.101    0.092
       268  -9.9003    108.7089    169.0332   1.1223705308e+02   2.7203245599e+01    0.1644538    0.1450884  80.26 0.0004031252    1.086    0.079
       269  -9.7463      5.7592    169.1803   1.3275000538e+02   3.9319559136e+01     0.119502   0.09639863  89.84 0.0004396717    1.246    0.197
       270 -10.1780      1.8175    169.1596   1.3347869139e+02   3.9636280077e+01    0.1206477   0.09275471 -85.04 0.0002430164    1.271    0.213
       271 -10.6952     74.0954    165.4587   1.1892305259e+02   3.2859742476e+01    0.3716013    0.1448828 -46.86  0.001469168    4.496    0.778
       272 -10.3823     81.9193    165.8247   1.1734578932e+02   3.1740294774e+01    0.2211171    0.1640353  83.27  0.001436981    1.264    0.209
       273  -9.5552     40.4916    166.4630   1.2586535339e+02   3.6625041244e+01     0.110285   0.08492742  76.61 0.0001361634    1.003    0.003
       274 -10.6099    159.1860    164.4818   1.0134343460e+02   1.9326582024e+01    0.2028308    0.1798489 -46.42 0.0003018618    1.280    0.219
       275 -10.4734    124.2611    164.7164   1.0842349827e+02   2.5467325273e+01    0.2644167    0.1742246 -40.02  0.001442003    1.948    0.487
       276 -10.3610     61.2866    164.9746   1.2151300314e+02   3.4566941121e+01     0.183187    0.1425954  57.87 0.0004405682    1.163    0.140
       277 -10.2730    203.1215    162.6457   9.2715295360e+01   1.1312634695e+01    0.2947122    0.1648746 -41.60  0.001474486    2.088    0.521
       278  -9.4111    147.5049    163.5172   1.0350183125e+02   2.1621138863e+01    0.1299981    0.1150965  48.43 0.0006415489    1.012    0.012
       279 -10.3099    101.1117    163.3646   1.1303326865e+02   2.9428548776e+01    0.2316832    0.1116759  34.27  0.001081747    2.403    0.584
       280  -9.7661     25.4330    163.6708   1.2864741736e+02   3.8651971275e+01    0.2392268    0.1059379  23.74  0.001219282    3.654    0.726
       281 -10.5025     18.8713    162.7024   1.2987532270e+02   3.9433354585e+01    0.2081673    0.1167195  86.17 0.0007773268    1.456    0.313
       282  -9.4319     91.2963    162.7483   1.1500885436e+02   3.1005496182e+01    0.1204837   0.07997961  67.69  0.000687557    1.491    0.329
       283 -10.2101    141.2306    161.4610   1.0442709537e+02   2.3102977828e+01    0.2591651    0.1159818  39.71  0.001138498    2.153    0.535
       284 -11.8624     33.9640    157.8535   1.2648765781e+02   3.8962036074e+01    0.4857811    0.1571274  52.56  0.001464381    2.814    0.645
       285 -10.3063    223.5785    158.6929   8.8365113991e+01   7.9757323597e+00    0.2051691    0.1589766  62.42 0.0006594024    1.726    0.421
       286 -12.0636    107.3171    158.1163   1.1097851912e+02   2.9457832306e+01    0.2238873    0.2037839  71.25 0.0002621847    1.061    0.057
       287 -10.3843    145.7419    158.0247   1.0292103983e+02   2.2887354818e+01    0.1811042    0.1608018  48.09  0.001036372    1.023    0.022
       288  -9.8652     66.3130    158.3417   1.1975792601e+02   3.5243676756e+01     0.107341   0.08918326 -40.70 0.0007046779    1.702    0.412
       289 -11.3216     24.5597    158.0760   1.2842507825e+02   3.9814865826e+01     0.222465    0.1302981  41.43  0.001503638    1.707    0.414
       290  -9.8032     11.4301    158.0870   1.3105440569e+02   4.0953959870e+01    0.1426922   0.07988477 -81.12 0.0003475702    1.456    0.313
       291  -9.7615      4.9191    157.8653   1.3232145368e+02   4.1516694051e+01    0.1445023   0.08574937  66.30 0.0006944711    1.342    0.255
       292 -10.7431    190.6319    157.1353   9.3945796076e+01   1.4501350614e+01    0.2224039     0.164323  50.12 0.0004247701    1.319    0.242
       293 -10.9652    162.8300    156.5610   9.9208068693e+01   1.9948640080e+01    0.3928193    0.2347187  23.66  0.001323993    2.377    0.579
       294 -10.8299    140.0039    157.0000   1.0392449422e+02   2.4108684486e+01    0.1848466    0.1670606  37.91  -0.04270636    1.124    0.110
       295 -11.6629    137.5416    154.5150   1.0400878623e+02   2.4996908166e+01    0.3923135    0.2636757 -55.08  0.001496209    1.641    0.391
       296 -12.1102    124.3688    155.9026   1.0701369846e+02   2.7059297904e+01    0.2354089    0.1992639  59.44 0.0003124819    1.070    0.065
       297  -9.6975    132.8063    156.1989   1.0528651545e+02   2.5536784895e+01    0.1638066    0.1492102  15.96 0.0002796922    1.301    0.231
       298 -10.6579    113.4508    154.3214   1.0908996661e+02   2.9189570011e+01    0.2602881    0.2059034 -84.66 0.0006880077    1.337    0.252
       299 -10.5933     36.1443    152.9744   1.2562239435e+02   3.9710188819e+01    0.2693626    0.1275401  88.88   0.00146075    2.109    0.526
       300 -11.5530    225.2689    151.3389   8.6598489526e+01   8.6049317362e+00     0.291525    0.2861141  49.06  0.001506125    1.321    0.243
       301 -10.3606     89.9971    152.9854   1.1397930617e+02   3.3092229406e+01    0.1850567    0.1550758  73.92 -0.007547014    1.053    0.050
       302 -11.0013     10.8179    153.6115   1.3090387003e+02   4.1870129544e+01    0.2142149   0.07702827  37.75  0.001221082    2.588    0.614
       303 -10.9559     20.6697    150.6145   1.2868103176e+02   4.1630297963e+01    0.2485814    0.1613491 -48.18  0.001642145    2.140    0.533
       304 -10.6341    249.1437    150.9225   8.2612262363e+01   4.2052466487e+00    0.1792775     0.165976  -5.52 0.0004719555    1.264    0.209
       305  -9.6520    177.5977    151.1605   9.5270051771e+01   1.7969921152e+01     0.177346    0.1282877 -22.70  0.000938463    1.632    0.387
       306 -10.5650    184.0180    156.0899   9.4991216550e+01   1.5943358373e+01    0.1980445    0.1756695  36.61 0.0003750566    1.028    0.027
       307 -10.2334    106.9710    149.0030   1.0966303001e+02   3.1269420869e+01    0.2011483    0.1392703  71.45 0.0005125295    1.584    0.369
       308 -10.3455     98.3340    148.9249   1.1155794663e+02   3.2645045779e+01    0.1700159    0.1518908 -88.04  0.000446924    1.078    0.073
       309  -9.9611     92.1322    147.8116   1.1276993115e+02   3.3805328124e+01    0.1566041    0.1501815 -16.08 0.0004251011    1.376    0.273
       310 -10.7384     25.4779    145.5287   1.2726797322e+02   4.2219537036e+01    0.2330562    0.1259705 -69.92  0.001466295    1.617    0.382
       311 -10.2850     14.0541    144.7354   1.2964865039e+02   4.3358532276e+01    0.2670088    0.1216125 -58.05  0.001546653    2.350    0.575
       312  -9.8767    237.1250    144.8164   8.3268462472e+01   7.1755570986e+00    0.1825387    0.1323714  19.00 0.0002951964    1.293    0.226
       313 -10.5092    164.1809    145.5814   9.6842301462e+01   2.1532361319e+01    0.1960585    0.1191984  36.00 0.0004253229    1.657    0.397
       314 -10.4258     52.8521    144.1572   1.2110758103e+02   3.9711728161e+01    0.1768988    0.1304067  80.13 0.0004848666    1.182    0.154
       315 -10.6208    242.1385    142.4665   8.1961321626e+01   6.5167313618e+00    0.2097844    0.1977592 -37.38 0.0006149987    1.379    0.275
       316 -12.5615    132.3305    140.6455   1.0262790460e+02   2.8509761944e+01    0.2544364    0.2347356  80.50 0.0003661997    1.080    0.074
       317 -10.6160     91.6899    142.1881   1.1202613221e+02   3.5003880242e+01    0.3680232    0.1791608  32.56  0.001671534    2.536    0.606
       318  -9.8948    192.9879    140.9922   9.0236399915e+01   1.6479267708e+01    0.1983372    0.1491389  17.49            0    1.442    0.307
       319  -9.8157    109.1724    140.7861   1.0782299969e+02   3.2529702142e+01    0.1629473    0.1537976 -21.26 0.0003530044    1.318    0.241
       320 -10.6571    224.1037    139.5851   8.4329856440e+01   1.0389551302e+01    0.2000307    0.1766547 -21.13 0.0003780561    1.200    0.166
       321 -10.0253     62.8769    140.1195   1.1834738277e+02   3.9359328566e+01    0.1772904    0.1373711  73.89 0.0004103823    1.157    0.136
       322 -10.9962     44.9454    135.6977   1.2196212563e+02   4.2333490609e+01    0.1565602    0.1287885  78.89 0.0004005732    1.057    0.054
       323  -9.4358    242.2928    138.2954   8.1045599733e+01   7.0045551603e+00    0.1351508   0.08969267  15.06 0.0002298221    1.558    0.358
       324 -11.1721     49.5617    136.8610   1.2102501356e+02   4.1591101056e+01    0.3164115    0.1735103 -45.71  0.001490584    2.480    0.597
       325 -10.8860     34.6348    137.1714   1.2448679676e+02   4.3071817774e+01    0.3054231    0.1467315  61.84   0.00133896    2.121    0.529
       326 -10.2435    107.0041    136.9657   1.0766013281e+02   3.3652087066e+01    0.1940264    0.1779125  79.15 0.0003879045    1.012    0.012
       327  -9.9096     98.3479    137.3034   1.0971607684e+02   3.4976575259e+01    0.1222326    0.1038887 -12.42 0.0005367819    1.694    0.410
       328 -10.2421    122.0228    135.9532   1.0404703265e+02   3.1278023129e+01    0.1971183    0.1813851  71.16 0.0003183326    1.020    0.020
       329  -9.9241    114.0770    135.6874   1.0580847170e+02   3.2718769033e+01    0.1757088    0.1596946  62.58 0.0003062405    1.041    0.040
       330 -11.6817    195.8947    133.4448   8.8057217029e+01   1.7044247595e+01    0.2378403    0.2144717 -12.04 0.0002677396    1.126    0.112
       331 -10.1877    127.0199    132.5403   1.0226127967e+02   3.1043556168e+01    0.2855863    0.1718712  88.32  0.001010111    3.511    0.715
       332 -10.3227     40.5221    133.0540   1.2269908604e+02   4.3346233121e+01    0.1788661   0.09736574 -77.25  0.001025644    1.603    0.376
       333 -12.7834     26.1347    129.9934   1.2574636520e+02   4.5351847557e+01    0.2585794     0.200129  66.59 0.0005880362    1.195    0.163
       334  -9.9741     20.7437    126.5608   1.2668705756e+02   4.6530198976e+01    0.2130999    0.1362604  63.04  0.001357864    1.456    0.313
       335 -10.3165      3.7088    132.0898   1.3101600383e+02   4.6688973826e+01    0.1590245    0.1016234 -82.67  0.001133546    1.213    0.176
       336 -11.7323     62.1226    129.7180   1.1714308857e+02   4.1634443808e+01    0.3849477    0.1784589 -61.68 0.0004302655    1.950    0.487
       337 -10.2434     48.3296    130.9516   1.2061304134e+02   4.2967544968e+01    0.1659755     0.129598 -80.14 0.0004720479    1.100    0.091
       338 -12.5087    156.5507    128.7872   9.4958651511e+01   2.6013070281e+01    0.2614277    0.2412244  49.04 0.0003185002    1.035    0.034
       339  -9.4708     51.3037    128.3265   1.1957218607e+02   4.3196238815e+01    0.1139938   0.08554207 -45.63 0.0007033281    1.645    0.392
       340  -9.7853     36.3360    128.2934   1.2316524794e+02   4.4764644737e+01    0.1078525   0.08154471 -47.20 0.0004042867    1.643    0.391
       341  -9.3806      1.2694    128.6384   1.3132742394e+02   4.7557800893e+01    0.1122808   0.05904054  72.52 0.0006995873    1.650    0.394
       342 -10.8266     91.9326    126.6588   1.0942192341e+02   3.8172540645e+01    0.2272531    0.1758758 -68.50 0.0004484942    1.240    0.193
       343 -11.2977     56.3367    124.5517   1.1783842751e+02   4.3427820551e+01    0.3145676    0.1096187  36.45  0.001394848    2.952    0.661
       344  -9.8805    108.4855    123.4913   1.0482607030e+02   3.6147743893e+01    0.1332039     0.125443  84.74 0.0004970031    1.018    0.018
       345 -11.9955     92.1481    117.7300   1.0773955790e+02   4.0022800477e+01    0.6262256     0.345394 -80.43  0.002582399    2.845    0.648
       346 -10.7210     83.4734    120.0757   1.1035145001e+02   4.0831359058e+01    0.3469992    0.2155204  87.46  0.001673643    2.138    0.532
       347 -12.0843     22.4259    118.0413   1.2545215227e+02   4.8189578644e+01    0.3704633    0.2815737   1.84  0.002007724    2.048    0.512
       348 -11.0970     63.6756    122.0189   1.1564468330e+02   4.3087760659e+01    0.1790771    0.1439658 -80.95 0.0008163726    1.093    0.085
       349 -10.7167     14.6390    121.3112   1.2766053066e+02   4.8115603447e+01    0.2068199    0.1191372 -51.17 0.0008323496    1.995    0.499
       350  -9.6150     72.4697    118.4282   1.1285120639e+02   4.2725224980e+01    0.1257088    0.1114304 -85.76 0.0001256886    1.015    0.015
       351 -11.8397      2.6861    113.7471   1.2990980242e+02   5.0539022982e+01    0.5484576      0.19056 -73.49  0.002377768    2.147    0.534
       352  -9.7895     54.9559    117.5498   1.1718531062e+02   4.5096516506e+01    0.1605527    0.1175849  40.65 0.0004277865    1.494    0.331
       353  -9.9058     11.2270    117.3402   1.2813179429e+02   4.9203353045e+01    0.1380491   0.08788131  47.56 0.0009347415    1.626    0.385
       354  -9.2607    138.6458    115.7241   9.6031888906e+01   3.2091616923e+01    0.1420432    0.1121145  12.44 0.0002326324    1.647    0.393
       355 -10.6677     33.3160    113.6264   1.2220868308e+02   4.8187129536e+01    0.2641177    0.1207376 -85.31  0.001280541    2.312    0.567
       356  -9.5502    120.4697    112.4619   9.9608876586e+01   3.6264451904e+01    0.1370451    0.1332895  85.77 0.0001910438    1.022    0.021
       357 -10.8810     74.7576    111.9105   1.1112742316e+02   4.3824223094e+01    0.2173047    0.1764445  54.30 0.0002734225    1.262    0.207
       358 -11.7092     19.9808    109.5886   1.2517638016e+02   5.0194056850e+01    0.2462605    0.1814629 -71.14 0.0004241083    1.165    0.142
       359 -10.2946     85.6675    109.5700   1.0782469866e+02   4.2760212384e+01    0.2111351    0.1529668  54.17 0.0003794238    1.428    0.300
       360 -10.8081     37.0331    108.5414   1.2058187618e+02   4.8942646463e+01    0.2207265    0.1466655 -76.82 0.0003455194    1.263    0.208
       361 -10.6998    152.7185    106.0680   9.0516501389e+01   3.0999549954e+01    0.4622285    0.1292259 -41.51  0.001415393    3.637    0.725
       362 -10.4633     44.4960    106.8268   1.1834367488e+02   4.8576575122e+01     0.205119    0.1631912  43.65  0.001362882    1.403    0.287
       363  -9.5848      7.6606    107.2816   1.2811061098e+02   5.1578220012e+01    0.1121248   0.06618374  68.62 0.0007010262    1.626    0.385
       364 -10.0801     63.8507    106.1221   1.1299651919e+02   4.6520642657e+01    0.1936381     0.149956  87.93 0.0005438253    1.283    0.221
       365  -9.2810    164.6962    105.2672   8.7686662320e+01   2.8524047397e+01    0.1411628    0.1170324 -88.48 0.0001790299    1.528    0.346
       366 -10.4738    100.8561    103.3681   1.0253087669e+02   4.1655045039e+01    0.2506492    0.1813157 -65.43  0.001315207    1.415    0.293
       367  -9.5341     87.4485    104.4864   1.0632173699e+02   4.3584675368e+01    0.1334256    0.1208477 -78.66 2.022496e-05    1.024    0.024
       368 -10.7946     74.9892    102.1698   1.0921939213e+02   4.5912540496e+01    0.3573534    0.1834061 -62.54  0.001699457    1.842    0.457
       369 -10.4530     70.7905    101.7160   1.1028312285e+02   4.6585634334e+01    0.2821009     0.153376 -48.25  0.001389772    1.846    0.458
       370 -10.6363     51.0021    102.5234   1.1589378458e+02   4.8826764375e+01    0.2352868     0.167793 -43.59 0.0008608588    1.592    0.372
       371 -12.6888     55.4343     96.9460   1.1368288947e+02   4.9554790079e+01    0.3603385    0.2370419 -67.96 0.0003370818    1.335    0.251
       372 -10.4794     29.1452    103.2387   1.2199137648e+02   5.0815873265e+01    0.1642579    0.1345244 -67.89 0.0004180958    1.148    0.129
       373 -10.7435    135.3294    101.4190   9.3387257524e+01   3.5555827688e+01    0.2598435    0.2431046  87.99  0.001069456    1.121    0.108
       374 -11.3904     85.0361     99.7359   1.0596584057e+02   4.4979000256e+01    0.4390385    0.2873436 -31.27  0.001750947    2.105    0.525
       375 -10.3157     43.8950    100.5094   1.1753914376e+02   5.0026017575e+01    0.1635085    0.1170204  40.49   0.00101789    1.564    0.361
       376 -10.3879      9.4542     99.9157   1.2691744436e+02   5.3033274362e+01    0.2213881     0.124775  49.68 0.0006101513    1.882    0.469
       377 -10.3582      4.8384     98.6212   1.2802405867e+02   5.3605006489e+01    0.2009854    0.1128738 -70.45 0.0008207149    1.381    0.276
       378 -12.5287    106.4946     97.6260   9.9714206599e+01   4.1882324641e+01    0.2910581     0.267715  57.03 0.0006127079    1.113    0.102
       379  -9.8741    125.1273     97.8235   9.4978314076e+01   3.8329856165e+01    0.1878961    0.1684421  -7.56 0.0002332564    1.282    0.220
       380 -11.0166     62.8566     96.0772   1.1140727266e+02   4.8852424103e+01     0.188634    0.1751378  80.56 0.0003513979    1.116    0.104
       381  -9.6029     39.9993     96.5036   1.1800028643e+02   5.1297772136e+01    0.1533185    0.1165257  42.11 0.0006327459    1.487    0.328
       382 -11.0820     31.8643     95.5875   1.2017370255e+02   5.2254720777e+01    0.3071746    0.1479766  76.32  0.001357237    3.100    0.677
       383  -9.9776     24.4788     96.5228   1.2239096832e+02   5.2671748645e+01    0.1562341   0.09841569  49.04 0.0007556624    1.725    0.420
       384 -10.6496     22.3086     93.6868   1.2262511305e+02   5.3463188290e+01    0.1944239    0.0991378 -75.73 0.0003414617    1.626    0.385
       385 -11.3827    114.3064     91.0554   9.6014157135e+01   4.1803917119e+01    0.4090636     0.222028  41.10 0.0007290219    1.944    0.486
       386 -10.0292    105.9177     91.3160   9.8310197340e+01   4.3303250849e+01    0.1912879    0.1788137  59.44 0.0004331205    1.105    0.095
       387 -12.1259     77.3135     88.4093   1.0561427894e+02   4.8582387681e+01    0.4578892    0.3200511 -22.87 6.440096e-05    2.071    0.517
       388  -9.6345    172.0024     90.0438   8.2125364287e+01   2.9529370974e+01    0.1728883    0.1671053  19.10            0    1.005    0.005
       389 -10.9216     88.8265     88.3647   1.0229918193e+02   4.6836689602e+01    0.3238143    0.2777342  13.46  0.001188767    1.431    0.301
       390  -9.5412     70.2803     90.2786   1.0807627841e+02   4.9160070458e+01    0.1233689    0.0960109 -33.43            0    1.506    0.336
       391 -10.7185      6.5100     89.8247   1.2664506239e+02   5.5392659861e+01    0.2537988     0.163499  56.29  0.001069692    1.663    0.399
       392 -12.5451      9.4697     85.7644   1.2531632801e+02   5.6088815063e+01    0.2175766    0.1828417 -86.74 0.0003431177    1.115    0.103
       393 -12.1867     63.2083     87.0331   1.0945510738e+02   5.0798151619e+01    0.2654306    0.2325183  81.59  0.000289176    1.186    0.157
       394 -10.6790    153.9152     86.5981   8.5092156672e+01   3.4325343255e+01    0.2880376    0.2339245   5.57  0.001174852    1.461    0.316
       395 -11.3856     28.7797     85.7692   1.1957302442e+02   5.4680774258e+01    0.3560403    0.3057543  55.24  0.002557653    1.319    0.242
       396  -9.5409    138.5264     86.4295   8.8644426328e+01   3.7782122990e+01    0.1450712    0.1432581   9.00  0.000133284    1.015    0.015
       397 -11.0185    128.2453     86.0035   9.1065489399e+01   4.0045351041e+01    0.3286348    0.2485697  24.64  0.001605931    1.583    0.368
       398 -10.7277    132.4488     82.6883   8.9080611661e+01   3.9805045444e+01    0.2962511    0.2481034  43.90 0.0009879257    1.213    0.175
       399 -10.4865    105.8896     85.2273   9.6735598942e+01   4.4571932272e+01     0.267521    0.2408237   0.71  0.001517212    1.284    0.221
       400  -9.6796     48.4261     85.5067   1.1358468347e+02   5.2864748320e+01    0.2058679    0.1591197 -60.21 9.619549e-05    1.120    0.107
       401 -11.5486     51.5242     82.5778   1.1205136827e+02   5.3171448277e+01     0.480183    0.2853062  49.39  0.002599735    1.944    0.485
       402 -11.1484     42.6938     79.4974   1.1417135049e+02   5.4787289618e+01    0.3406333     0.249155 -85.26 0.0008331797    1.388    0.280
       403 -10.8183     20.1716     82.0458   1.2160690561e+02   5.6174188380e+01    0.1906835     0.162532  45.56 0.0004500026    1.395    0.283
       404 -10.9268     77.2168     80.9338   1.0385182712e+02   5.0214280329e+01    0.1993968    0.1965449  50.24 0.0005767302    1.130    0.115
       405 -10.7815    154.0738     79.2509   8.2951991342e+01   3.5611031050e+01    0.2718746    0.2186175 -46.78 0.0004962281    1.284    0.221
       406 -10.0525    148.9982     79.7537   8.4257912839e+01   3.6690998222e+01    0.3485654    0.1889408 -59.93  0.001213699    3.007    0.667
       407  -9.7075     82.1552     80.1689   1.0218509823e+02   4.9636706694e+01    0.1735282    0.1493202 -86.03  0.001010193    1.263    0.208
       408 -10.2139     68.5616     78.6887   1.0592731029e+02   5.1920649579e+01    0.2037499    0.1636618  16.91 0.0006752734    1.559    0.359
       409  -9.5032    119.2942     77.2986   9.0904028684e+01   4.3590249640e+01    0.1429461    0.1147053  -1.36 0.0001771627    1.567    0.362
       410 -11.0687     97.6585     76.6000   9.6684815740e+01   4.7831679017e+01    0.5121745    0.2646573  28.88  0.002028984    2.810    0.644
       411 -11.3707     52.6116     74.8886   1.1004247649e+02   5.4738051524e+01     0.364433    0.1994428 -40.28  0.001815331    2.014    0.504
       412 -10.3325      3.6091     77.2623   1.2602445373e+02   5.8273492345e+01    0.2391039   0.09213104 -79.42  0.001196216    2.194    0.544
       413 -10.4774      1.6963     73.6629   1.2616760478e+02   5.9152315186e+01    0.1559517    0.1087934  83.98 0.0008592923    1.339    0.253
       414 -10.0625    131.0341     75.2973   8.7277646323e+01   4.1519020749e+01    0.2036785    0.1830459  50.98 0.0003114554    1.144    0.126
       415  -9.6609     81.4413     75.2295   1.0110344712e+02   5.0798374277e+01    0.1983703    0.1218104 -63.95  0.000941625    1.780    0.438
       416 -11.4106     58.6702     73.9501   1.0788386379e+02   5.4226303622e+01    0.3555378    0.2465421  55.49 0.0008536303    1.728    0.421
       417  -9.8561     69.3623     73.6086   1.0440831806e+02   5.2908802928e+01    0.2456048    0.1145007 -67.05 0.0009477697    2.906    0.656
       418 -10.5426    116.0149     72.5309   9.0368047621e+01   4.5186537890e+01    0.2551885    0.1981162 -23.83    0.0006007    1.417    0.295
       419 -11.1591     37.1116     72.1555   1.1448129786e+02   5.6943309541e+01    0.3066758     0.213833  52.82  0.001874054    1.693    0.409
       420  -9.8280     75.4605     66.5229   1.0055294723e+02   5.3540987993e+01    0.1858556     0.127788  50.04 0.0009151158    1.688    0.407
       421 -11.2996     53.0875     69.5467   1.0863179125e+02   5.5847750977e+01    0.2407054    0.1616133 -60.27 0.0004766517    1.289    0.224
       422 -10.8775     52.8096     62.1320   1.0684480085e+02   5.7478176154e+01    0.1899278    0.1639734 -53.48 0.0004878635    1.016    0.016
       423 -10.6439    189.3542     68.1807   7.2478531964e+01   2.8867790502e+01    0.3726126    0.2274776  24.53    0.0013857    2.194    0.544
       424 -10.3882    129.2466     67.7975   8.5431437929e+01   4.3310596768e+01    0.4487568    0.2482721  72.78  0.001197481    3.951    0.747
       425 -11.4307      2.7096     66.8873   1.2494158720e+02   6.0561709671e+01    0.3126021    0.1797342  51.55  0.001961593    2.071    0.517
       426 -10.3455    213.0519     66.9671   6.8102889998e+01   2.3167888400e+01    0.2160521    0.2073792 -19.86  0.000309506    1.039    0.037
       427  -9.4104     93.6663     67.6544   9.5256875782e+01   5.0363473600e+01    0.1446854    0.1077924 -12.54 0.0007049582    1.766    0.434
       428 -11.1601     79.7256     69.5296   1.0006252078e+02   5.2265127306e+01    0.2568535     0.199326 -75.84  0.001089028    1.508    0.337
       429  -9.3317    106.4795     66.4680   9.1153827877e+01   4.8249684907e+01    0.1427719    0.1344168 -29.39 0.0008092952    1.028    0.028
       430 -11.5028     88.1134     70.1015   9.7649938772e+01   5.0805984729e+01    0.4307825    0.2359741 -59.08  0.001747526    2.032    0.508
       431 -11.6965     16.1643     62.0622   1.1959739370e+02   6.0817981883e+01    0.5132895    0.2561018 -74.10  0.002354413    1.744    0.426
       432  -9.8330    102.2326     62.7498   9.1203641149e+01   4.9785594290e+01    0.2329185    0.1082912 -34.19  0.000885163    2.423    0.587
       433 -10.8882      9.5161     62.8473   1.2203412085e+02   6.1061911312e+01    0.1895815    0.1615732  33.21 0.0008548279    1.491    0.329
       434 -12.2328      5.8321     59.4957   1.2275931858e+02   6.1991754110e+01    0.4199468    0.2822608 -60.23  0.002553025    1.176    0.150
       435 -10.1109    131.7360     62.0829   8.2972571482e+01   4.3799625219e+01    0.2069723    0.1820168 -30.37 0.0003748747    1.110    0.099
       436 -11.2581     78.4736     58.9652   9.7325014438e+01   5.4642463414e+01    0.6204118    0.2781601 -38.61  0.002559988    2.326    0.570
       437 -10.7031     67.0749     61.1454   1.0173765567e+02   5.5870358562e+01    0.2774779    0.1860176  42.80  0.001509737    1.702    0.412
       438 -10.4883     38.9424     59.4804   1.1100803536e+02   5.9527537041e+01    0.2368919     0.157075 -74.85  0.001360166    1.565    0.361
       439 -10.1990     31.6277     59.1272   1.1352773925e+02   6.0274992853e+01    0.1843562    0.1297117 -77.75 0.0005807013    1.424    0.298
       440  -9.7530    110.8490     56.8812   8.6804124476e+01   4.9215622294e+01    0.1943697    0.1698227 -67.28 0.0004330628    1.318    0.241
       441 -11.5854     93.1013     54.4283   9.1209254382e+01   5.3081036668e+01    0.3103276    0.2558652 -26.59 0.0003184612    1.193    0.162
       442 -11.7071     27.4376     55.0792   1.1410917828e+02   6.1498528134e+01    0.3746355    0.2283876 -64.77  0.001466312    1.358    0.264
       443  -9.8963     58.2762     56.9322   1.0350964967e+02   5.7915519477e+01    0.1788792     0.141307 -49.00            0    1.086    0.080
       444  -9.1854    181.3523     55.7196   7.0171406361e+01   3.2755202817e+01     0.155321    0.1186616 -70.41 0.0007013317    1.652    0.395
       445 -11.0487    118.9103     54.3387   8.3717922779e+01   4.7995726943e+01     0.285379    0.2076745 -27.00    0.0006794    1.391    0.281
       446 -10.9859     41.7608     51.9557   1.0802383897e+02   6.0850838728e+01    0.3013003    0.1499204 -57.27  0.001534745    1.677    0.404
       447 -10.3935     82.8997     51.2460   9.3363570876e+01   5.5463650296e+01    0.2343139    0.1768873 -54.07 0.0006026385    1.351    0.260
       448 -10.9279     72.9932     52.2874   9.7004545574e+01   5.6829908137e+01    0.1801801     0.169912 -35.15 0.0004052857    1.070    0.065
       449  -9.9058     21.4290     44.5019   1.1383730936e+02   6.4214673757e+01    0.2199096      0.13671 -37.21  0.001179827    1.595    0.373
       450 -10.8049     19.0205     49.5100   1.1597876260e+02   6.3326290163e+01    0.2457812    0.2259839 -16.35  0.000981862    1.308    0.236
       451 -11.0766     12.1427     45.8082   1.1780920395e+02   6.4562630548e+01    0.2953942    0.1715216 -74.58 0.0006100253    1.570    0.363
       452 -11.1623     12.7736     50.6122   1.1859266723e+02   6.3501299999e+01     0.195806    0.1752913 -28.20 0.0007889042    1.309    0.236
       453 -10.9057     16.3206     47.3780   1.1653210126e+02   6.3963974025e+01    0.3599193    0.1742638 -33.35  0.001877813    2.475    0.596
       454  -9.9089    107.9539     50.4602   8.5409625318e+01   5.0975874007e+01    0.2034743    0.1421221  45.83 1.417582e-05    1.502    0.334
       455 -10.4346     46.4779     48.0022   1.0512268190e+02   6.1173597513e+01    0.1936893    0.1072398 -55.70  0.001014106    1.553    0.356
       456 -10.4187     21.6526     56.9454   1.1663495826e+02   6.1543047563e+01    0.2093484    0.1644419  33.21 0.0007191204    1.575    0.365
       457 -10.4067     94.4607     46.7512   8.8104098214e+01   5.4273993671e+01    0.2816268    0.2008315  33.98  0.001013276    1.524    0.344
       458 -11.1421    141.4125     42.9704   7.4101153249e+01   4.4718125892e+01    0.4270532    0.2487559 -23.69  0.001804643    1.812    0.448
       459 -10.3984    122.6730     45.9409   7.9756891642e+01   4.8621021934e+01     0.240447    0.1960513  30.57  0.000469825    1.271    0.213
       460 -12.1262     61.7194     44.7869   9.8448911064e+01   5.9941861296e+01    0.2527286    0.2040019 -42.69  0.000270423    1.069    0.065
       461 -10.6142     35.2102     45.1056   1.0857679471e+02   6.2930844635e+01    0.2174996    0.1743878  75.95 0.0008121264    1.641    0.391
       462 -11.7070    163.8077     42.8260   6.9311502828e+01   3.9127747080e+01    0.3106601    0.2630522  57.14 0.0005920469    1.188    0.158
       463 -10.0978     80.9115     43.4754   9.1274928498e+01   5.7276565952e+01    0.2134801    0.1634082 -37.99 0.0005145749    1.177    0.150
       464  -9.9146     70.0479     41.6808   9.4362585953e+01   5.9347526650e+01    0.1752291    0.1598234 -19.07 0.0004106717    1.077    0.071
       465  -9.8215    126.4348     40.7783   7.6901879346e+01   4.8605548991e+01    0.2007204    0.1395942 -16.54 0.0003945176    1.557    0.358
       466 -10.0475     92.4472     41.4781   8.6785374551e+01   5.5600435048e+01    0.1398809    0.1265355 -22.41 7.217265e-05    1.007    0.007
       467 -10.3972     56.4821     41.2485   9.9166374031e+01   6.1337268419e+01    0.2135476     0.180191  24.55 0.0009629985    1.351    0.260
       468 -10.4732     38.7208     40.4397   1.0578605629e+02   6.3548767578e+01     0.307099    0.1865359  -0.95  0.001592564    2.503    0.600
       469 -11.5319      9.6169     40.0334   1.1751275384e+02   6.5929785736e+01    0.2910069    0.1964566 -53.93  0.001410867    1.149    0.129
       470 -10.5883     16.6857     41.6617   1.1502484440e+02   6.5146639593e+01    0.3863532    0.1877616   8.38  0.002028147    3.029    0.670
       471 -10.5955     13.8158     39.6203   1.1568895645e+02   6.5762060925e+01    0.2038297    0.1468334 -71.38 0.0006123281    1.268    0.212
       472 -10.6905     24.2438     39.8220   1.1145771691e+02   6.4978286464e+01    0.1989358    0.1639811 -43.97 0.0006384755    1.104    0.094
       473 -10.0848     22.5166     36.5179   1.1123491790e+02   6.5795277229e+01    0.1822851    0.1576496 -61.34 0.0008109135    1.150    0.130
       474 -10.0890    103.5784     38.7688   8.2366176051e+01   5.3899424629e+01    0.2005961    0.1263869 -44.63 0.0007846438    1.625    0.385
       475  -9.7892     31.5326     37.9339   1.0791180174e+02   6.4749349220e+01    0.1720325   0.09888682 -56.18 0.0003257987    1.428    0.300
       476 -10.8222      3.5145     37.9571   1.1955806184e+02   6.6690818628e+01    0.2034915    0.1346225 -32.82  0.001383651    1.593    0.372
       477 -10.3409     41.1523     36.2973   1.0345154016e+02   6.4130119378e+01    0.2187782    0.1494428 -75.42  0.001171259    2.028    0.507
       478  -9.9021    239.2449     36.5865   5.6118642930e+01   2.0621318981e+01    0.1920125    0.1256832  52.41 0.0006886311    1.592    0.372
       479 -11.3223    120.5643     33.7664   7.5741350546e+01   5.1031594235e+01    0.2781711    0.2728283 -15.75 0.0009196641    1.092    0.084
       480  -9.9409     97.2074     35.4068   8.2960796440e+01   5.5735670689e+01    0.1854406    0.1373139  59.63 0.0007632918    1.653    0.395
       481 -10.8845     87.4570     33.4896   8.5269715155e+01   5.7910960054e+01    0.3412914    0.2158544 -64.57  0.001436088    2.831    0.647
       482 -12.1897     78.2043     33.3974   8.8334932803e+01   5.9558249314e+01    0.4205772    0.3043702  75.18  0.002049164    2.441    0.590
       483 -11.7524     81.9113     32.4318   8.6680459375e+01   5.9086839547e+01     0.522007    0.2995314  19.51   0.00221372    2.683    0.627
       484 -10.5501     60.8229     34.1136   9.4916794718e+01   6.2121100983e+01    0.2779062    0.1941913 -37.53 0.0009114606    1.238    0.192
       485 -10.5289     55.9152     34.2116   9.6835671129e+01   6.2771935778e+01    0.3216485    0.2127133  60.55  0.001627814    2.518    0.603
       486  -9.8734     35.7545     34.7756   1.0515354312e+02   6.4988010280e+01    0.1441138    0.1292499 -66.33 0.0003873889    1.251    0.201
       487 -11.5637    142.3291     32.0325   6.9915729129e+01   4.6086177643e+01    0.4339621    0.3712646  39.88  0.001439047    1.144    0.126
       488 -10.3255     91.8727     33.8441   8.3995568045e+01   5.7027257925e+01     0.209117    0.1746049  -1.54 0.0004514695    1.219    0.179
       489 -10.0354     29.0229     34.1002   1.0775534234e+02   6.5751630439e+01    0.2265295    0.1718207  84.61  0.001396482    1.897    0.473
       490 -11.1012     24.4973     31.0383   1.0871944285e+02   6.6752435184e+01    0.2221451    0.1647717  17.26 -0.0004356483    1.642    0.391
       491 -11.2341    206.4068     31.6690   5.8746810641e+01   2.9440104286e+01    0.2532852     0.248456  65.38 0.0002683963    1.034    0.033
       492 -10.9738    159.0445     30.6831   6.6024289805e+01   4.2013262643e+01    0.3125735    0.2140459 -23.87 0.0007095088    1.469    0.319
       493  -9.5860    134.9796     32.4831   7.1730552149e+01   4.7828775899e+01    0.2089409    0.1458741  56.58 2.460885e-05    1.460    0.315
       494 -11.4625    106.1440     31.5253   7.8768432406e+01   5.4539049524e+01    0.4014674    0.2827233  21.23  0.001971293    1.631    0.387
       495 -11.3330     36.0397     29.9914   1.0337841764e+02   6.5904736386e+01    0.2750382    0.1814339  15.77  0.001214947    1.863    0.463
       496  -9.7428    220.4249     28.5424   5.6042477501e+01   2.6193704766e+01     0.140665    0.1363764 -23.59 4.113623e-05    1.019    0.019
       497 -10.8633    100.5085     27.0171   7.8551998681e+01   5.6407348607e+01    0.2744454    0.2105258  43.36 0.0008255643    1.342    0.255
       498 -10.3124    169.1857    248.4866   1.1108756189e+02   6.2876730151e+00    0.1484388    0.1380191  30.97 0.0004039378    1.314    0.239
       499 -11.5659    141.3494    247.5491   1.1534975538e+02   1.0421441357e+01    0.3164985    0.1758791  62.07  0.002031897    2.018    0.504
       500 -11.1286      9.8946     22.9694   1.1279532062e+02   6.9411182327e+01    0.2069839    0.1590127 -50.54 0.0007365891    1.022    0.022
       501 -12.2235      2.0172     25.6678   1.1725202171e+02   6.9298372528e+01    0.2226257     0.135821 -57.89 0.0003556201    1.196    0.164
       502 -11.0085      5.9720     23.3491   1.1476148227e+02   6.9562660111e+01    0.2342942    0.2017125 -74.41 0.0008498096    1.286    0.222
       503 -11.1158    131.8382     24.5159   6.9378826787e+01   4.9681686254e+01    0.3962241    0.2184957 -31.04  0.000960069    1.768    0.434
       504  -9.7772     89.9715     24.4701   8.0695878852e+01   5.8899318606e+01    0.1941266    0.1341191  45.07 0.0005000281    1.530    0.346
       505 -11.3150    118.5703     22.5304   7.1753700464e+01   5.3093618768e+01    0.4988209    0.2471814  42.14  0.001281938    2.054    0.513
       506 -10.3703     78.5096     23.0236   8.3867687066e+01   6.1242290332e+01    0.2273708    0.1735295   1.80   0.00126953    1.393    0.282
       507 -11.7702    145.6617    244.5663   1.1437877667e+02   1.0159825420e+01    0.3252114    0.2219581  60.66  0.002418207    1.439    0.305
       508 -11.4469    190.2823     20.3922   5.7426895422e+01   3.4976179158e+01    0.2646873    0.2486531  25.66 0.0002585517    1.080    0.074
       509  -9.2608    114.2813     20.3658   7.1944496532e+01   5.4365202466e+01    0.1515229    0.1035675  14.57  0.000701495    1.685    0.406
       510 -10.6358    182.3819     18.6710   5.7983481222e+01   3.7272336577e+01    0.2717985    0.2377388  32.53 0.0006390415    1.161    0.139
       511 -10.4907     92.8020     18.9269   7.7374816413e+01   5.9165019501e+01    0.2481139    0.1716781 -31.69 0.0007702386    1.367    0.269
       512 -12.1392     76.6932    246.4764   1.2531982968e+02   1.9166702545e+01     0.315157     0.197893  52.24   0.00101286    1.139    0.122
       513 -10.1986     60.8264     18.3264   8.8283918059e+01   6.4895710534e+01     0.239923    0.1685482  23.43  0.001379517    1.561    0.360
       514 -12.6347     75.5937    241.0754   1.2513990382e+02   2.0054868354e+01    0.3243754    0.1758926  54.74  0.001134409    1.322    0.243
       515  -9.4310    158.2620     17.3178   6.1351580960e+01   4.3834115042e+01    0.1517129    0.1070346  25.90 0.0002831803    1.546    0.353
       516  -9.5134    157.2840    247.3005   1.1282355817e+02   8.1550307802e+00   0.09695726   0.06803767  26.84 0.0001835995    1.552    0.356
       517  -9.9128     95.3658    246.8221   1.2247375536e+02   1.6782812646e+01    0.1706346    0.1070632  48.95 0.0008298553    1.171    0.146
       518 -10.5873     43.9681     16.7246   9.4580215101e+01   6.7475113054e+01    0.2920206    0.2132844  81.41  0.001448578    3.269    0.694
       519 -11.0503    132.5963     16.2790   6.5931444865e+01   5.0522824631e+01    0.2656477     0.157515  38.01 0.0008945127    1.724    0.420
       520 -10.8426    199.6448    245.1663   1.0597983978e+02   2.1472703492e+00    0.2060863    0.1188044  33.14  0.001071836    1.350    0.259
       521 -11.6582    163.7770    244.0197   1.1145486947e+02   7.5764497260e+00    0.3314939    0.2669217  18.56  0.001933867    1.463    0.317
       522 -10.6029     86.1968     13.8757   7.7137455974e+01   6.1176051191e+01    0.1867472    0.1430772   5.90 0.0003695491    1.308    0.236
       523 -11.4994    121.3375    244.1682   1.1819370783e+02   1.3656550177e+01    0.2409156    0.1134593 -53.39  0.001224437    2.866    0.651
       524 -10.3779     13.3063     14.2770   1.0814362553e+02   7.0883365419e+01     0.174109    0.1503003 -27.83 0.0007601827    1.187    0.158
       525  -9.9411     99.7268     17.9365   7.4869935264e+01   5.7880169968e+01     0.187022    0.1640511 -15.31 0.0002289252    1.071    0.066
       526 -11.9357     85.2395    245.1049   1.2391718326e+02   1.8301863562e+01    0.1831622    0.1412367  67.01   0.00043142    1.152    0.132
       527 -11.0346     89.4306    244.4973   1.2322566109e+02   1.7856639754e+01    0.2600025     0.185855  31.07  0.001547652    1.831    0.454
       528 -10.1244    216.1578    244.8927   1.0341896115e+02  -2.4672536376e-01    0.1438589    0.1094964  36.65 0.0003198775    1.175    0.149
       529 -10.4274    188.0288    245.2136   1.0778455349e+02   3.8587355775e+00    0.1646502    0.1043048  33.70 0.0005090459    1.246    0.197
       530 -11.4710    182.4688    241.5167   1.0822135372e+02   5.0722424747e+00    0.2824048     0.192195   3.76  0.001435332    2.148    0.535
       531 -10.1358    191.0410    240.5155   1.0675332165e+02   3.8933018330e+00    0.1620437    0.1065125  37.48  0.001138836    1.107    0.097
       532 -10.3414    115.7945    243.1833   1.1898539002e+02   1.4547991405e+01    0.1611624    0.1083622  57.78  0.001227956    1.187    0.157
       533 -10.1859     65.2225    242.4575   1.2682358076e+02   2.1096910079e+01    0.1541949   0.09320039  64.70  0.001209139    1.264    0.209
       534 -10.8686     67.1221    238.9661   1.2631965033e+02   2.1373139486e+01    0.1532889     0.144914  -5.32  0.001025174    1.931    0.482
       535 -10.8187    129.8150    241.2947   1.1658490175e+02   1.2835789110e+01    0.1896663    0.1429265  41.10  0.001421941    1.218    0.179
       536  -9.9531     87.0497    231.0446   1.2261073102e+02   2.0061868427e+01    0.1551782   0.08747698  62.26 0.0003116857    1.498    0.333
       537 -11.4010    105.9297    233.7905   1.1976496728e+02   1.7166553162e+01    0.2963687    0.1471182 -65.13  0.001630249    2.516    0.603
       538 -10.5374    107.0061    228.0022   1.1908241997e+02   1.7837428124e+01    0.3015075    0.1243717  38.51  0.001446353    2.222    0.550
       539 -10.1014    102.3092    233.9960   1.2037032570e+02   1.7628019458e+01    0.1956905     0.147223 -84.01  0.001282416    1.505    0.336
       540 -10.9174     99.9984    241.9849   1.2138423027e+02   1.6831964298e+01    0.1801282    0.1270425  79.80 0.0005975225    1.464    0.317
       541 -10.5982    100.2450    237.9637   1.2102709603e+02   1.7350828457e+01    0.1966611    0.1418801  52.17 0.0002896546    1.073    0.068
       542 -12.3971     94.4243    237.0766   1.2188749358e+02   1.8241436239e+01    0.4468395    0.2432801  68.84  0.001957865    1.890    0.471
       543 -12.0404    201.9216    240.2301   1.0501726604e+02   2.2936754961e+00    0.4185608     0.154521  43.54  0.002181051    2.007    0.502
       544  -9.9780    221.1583    239.7113   1.0198582384e+02  -5.0782507644e-01    0.1614561    0.1043139  45.66 0.0007312687    1.448    0.309
       545 -11.3287    168.2039    239.0723   1.1020438535e+02   7.4800268248e+00    0.1984993    0.1829115  69.29 0.0005933875    1.367    0.269
       546 -10.6440    110.9204    234.9927   1.1905812691e+02   1.6316452124e+01    0.2933282    0.1242106  36.79  0.001577834    2.347    0.574
       547 -10.6600    116.1137    237.6502   1.1845224558e+02   1.5237220952e+01    0.2168327    0.1752191  77.64  0.001256513    1.306    0.234
       548 -10.0378    109.7856    239.2045   1.1960329578e+02   1.5897851906e+01    0.1305406    0.1023429  41.84 0.0004002801    1.307    0.235
