#   1 NUMBER                 Running object number                                     
#   2 MAG_AUTO               Kron-like elliptical aperture magnitude                    [mag]
#   3 X_IMAGE                Object position along x                                    [pixel]
#   4 Y_IMAGE                Object position along y                                    [pixel]
#   5 X_WORLD                Barycenter position along world x axis                     [deg]
#   6 Y_WORLD                Barycenter position along world y axis                     [deg]
#   7 A_WORLD                Profile RMS along major axis (world units)                 [deg]
#   8 B_WORLD                Profile RMS along minor axis (world units)                 [deg]
#   9 THETA_WORLD            Position angle (CCW/world-x)                               [deg]
#  10 FWHM_WORLD             FWHM assuming a gaussian core                              [deg]
#  11 ELONGATION             A_IMAGE/B_IMAGE                                           
#  12 ELLIPTICITY            1 - B_IMAGE/A_IMAGE                                       
         1 -11.9253     58.1873     68.6685   1.2251687272e+02   5.6211365950e+01     2.842723     0.882888 -61.81  0.009144878    3.753    0.734
         2 -12.7409     25.4004     89.4748   1.3870851730e+02   5.4797049283e+01     2.779284    0.5776113 -58.28   0.01011653    3.457    0.711
         3 -11.0117     77.8596      7.4473   8.9994245458e+01   6.4411466246e+01    0.8185304    0.4755379  -3.08  0.003595139    2.237    0.553
         4 -12.6672     63.5824      4.2723   9.3628931097e+01   6.7723644717e+01     1.899705    0.5421901  53.29  0.006367664    4.119    0.757
         5 -12.0695     50.6696     10.8554   1.0320922443e+02   6.9040420562e+01    0.4720439    0.3380511  17.90 0.0006031882    1.501    0.334
         6 -10.8894     14.3673     37.0283   1.3328033289e+02   6.7839547319e+01      1.42098    0.3944346 -55.83  0.006010529    2.505    0.601
         7 -12.6442     43.6404     66.8982   1.2768176529e+02   5.8400330241e+01     2.064604    0.9520444  57.05  0.007706441    3.730    0.732
         8 -12.1258     29.3182     25.9758   1.2168993765e+02   6.9012973628e+01     1.101736    0.6348723 -51.23  0.004030059    1.470    0.320
         9 -12.2508     18.6928     13.7904   1.2278952474e+02   7.2509920850e+01    0.7381622    0.5292526 -28.23  0.004654203    1.294    0.227
        10 -11.1411     13.6666      8.8746   1.2383218780e+02   7.3912279459e+01    0.2912017     0.278863 -43.12 0.0002659006    1.240    0.193
        11 -11.9235      6.9789     27.1347   1.3461215819e+02   7.0484002190e+01     0.984715    0.6040744  -8.18   0.00581146    1.957    0.489
        12 -12.4371      3.5880     16.3447   1.3342381521e+02   7.3008252508e+01     1.120849    0.4522483 -47.26   0.00577283    1.912    0.477
        13 -12.3833      3.5206      5.3353   1.2937551774e+02   7.5315767125e+01    0.7766929    0.5368867 -34.88  0.005159386    1.247    0.198
        14 -12.2083     40.7700     16.2246   1.1111307374e+02   6.9579622446e+01     1.292789    0.5861948 -43.64  0.006046522    1.952    0.488
        15 -11.1690     28.9052      4.6138   1.1165629510e+02   7.3186374418e+01     1.557357    0.5129293  34.86  0.006579133    3.324    0.699
        16 -12.7511     40.5437     48.9478   1.2411358442e+02   6.2848038487e+01     1.429329    0.9864545  44.62  0.007936701    1.693    0.409
        17 -11.0990     24.6869     36.2578   1.2775666327e+02   6.7234253231e+01    0.7008533    0.3642878 -85.53  0.001193907    3.695    0.729
        18 -11.1979     88.7996     32.7167   9.8394389514e+01   5.8316728414e+01    0.8994251    0.7962179  24.17  0.005065789    1.129    0.114
        19 -10.8699     88.2663     22.2085   9.3851998556e+01   6.0116891914e+01    0.7559248    0.3561556  45.05  0.003097841    2.110    0.526
        20 -12.7104     69.7161     31.1249   1.0477042925e+02   6.2294995486e+01     1.563755    0.8947431  43.21  0.007414636    1.854    0.461
        21 -11.8971     67.0593     21.3604   1.0132336220e+02   6.4484437826e+01    0.5506504    0.4651434  12.16  0.002101852    1.185    0.156
        22 -10.5842     75.0041     17.8831   9.6461133745e+01   6.3526683760e+01     1.074816    0.4556488  60.94  0.003493777    4.391    0.772
        23  -9.6122     79.5871     16.0129   9.3839938415e+01   6.2873852097e+01    0.3459598    0.2782685 -85.96 0.0003344712    1.850    0.459
        24 -12.4428    136.3414      5.3990   7.4545206441e+01   5.0328291774e+01      1.33991    0.7179108  69.28  0.004349298    1.839    0.456
        25 -10.4178    124.3103      3.0644   7.5733403643e+01   5.3719740956e+01    0.4422423    0.3283286  45.51  0.001750172    1.275    0.216
        26 -12.1562    164.6394     10.1200   7.2021035288e+01   4.2294635249e+01     1.428724     1.066982  15.04  0.007153207    1.537    0.349
        27 -10.4754    121.9585     38.0256   9.0766835928e+01   4.9920885720e+01     2.136633     1.249692  25.84   0.00832974    2.398    0.583
        28 -10.1846     92.9258     15.6674   8.9251646024e+01   6.0020648053e+01    0.2964259    0.2288734  -0.24 0.0002462679    1.361    0.265
        29 -11.1114    123.4853     10.1988   7.8978389203e+01   5.3213718750e+01    0.3555103    0.3395921 -55.63 0.0006649308    1.131    0.116
        30 -11.1118    147.5213     26.1317   8.0580699612e+01   4.5073433650e+01     0.774369    0.5793433  23.01   0.00354291    1.506    0.336
        31 -10.9702    148.7237     16.7317   7.6854737913e+01   4.5861962788e+01    0.9983568    0.7394359  28.36  0.004898967    1.474    0.322
        32 -11.9628    114.3261      8.6716   8.0294599466e+01   5.5718082175e+01     1.094923    0.7932271  42.78  0.005188789    1.320    0.242
        33 -12.6690    112.8071     22.3626   8.6716406359e+01   5.4429135713e+01    0.8275615    0.5959989  64.71  0.000188584    1.488    0.328
        34 -12.3553    131.1769     20.1219   8.1501202850e+01   5.0084461890e+01     1.052365    0.4960572  61.36  0.002711432    2.058    0.514
        35 -11.7113    127.9647     15.1630   8.0143106024e+01   5.1503103590e+01     1.626077    0.3033318  50.05  0.004412492    4.412    0.773
        36 -12.7353    100.0979      6.4366   8.2719202307e+01   5.9474798765e+01     0.982518    0.4966806 -36.20  0.002146411    2.040    0.510
        37 -12.0681     93.1147      8.6775   8.5762198436e+01   6.0866726532e+01    0.8729417    0.4932187  38.53  0.003975639    1.789    0.441
        38 -10.2625    185.1853     14.6719   7.0941356654e+01   3.6395074448e+01    0.6956093    0.4020943 -35.73  0.003204967    1.653    0.395
        39 -10.1903    177.5546     19.8464   7.3586305730e+01   3.7855095483e+01    0.3612915    0.2631168 -44.06  0.001067839    1.374    0.272
        40 -10.2191    177.9419     14.1707   7.1663273896e+01   3.8349341805e+01    0.4200628    0.3283101  79.51 0.0008908286    1.293    0.226
        41 -11.5720    184.3317     26.8919   7.4952308906e+01   3.5296322477e+01    0.6765901    0.4151578  26.71  0.002096309    2.096    0.523
        42  -9.9861    166.4516     25.3205   7.7042004851e+01   4.0169834586e+01     0.780822    0.3952184  40.43  0.003068777    2.254    0.556
        43  -9.9683    242.7717     12.6591   6.4999254081e+01   2.2579653561e+01    0.5332544    0.2955762 -33.57  0.002230624    1.536    0.349
        44  -9.8311    237.2379     14.7364   6.5947963126e+01   2.3616790430e+01    0.3621523    0.2269395  87.81  0.001683472    1.784    0.439
        45  -9.9968    232.9600     11.6742   6.5482500449e+01   2.4884611398e+01    0.3186864    0.2140773 -55.83 0.0007203752    1.446    0.308
        46  -9.5997    229.8253     20.8196   6.8163030158e+01   2.4707914235e+01    0.4815018    0.2133993 -45.61   0.00209659    2.140    0.533
        47  -9.5794    231.3269     17.3413   6.7108735723e+01   2.4710071772e+01    0.3916891    0.1988957 -45.05  0.001446854    1.819    0.450
        48 -10.1348    221.7638     11.0031   6.6203148519e+01   2.7570423995e+01    0.4133738    0.2033564 -45.39  0.001894382    1.896    0.473
        49 -10.5862    216.5030     16.5724   6.8213529090e+01   2.8291997883e+01    0.7914562    0.3781467  -9.79  0.003201889    2.616    0.618
        50 -10.4151    212.0491     14.2701   6.7979651583e+01   2.9607429483e+01    0.6326739     0.357725 -13.76   0.00292688    1.922    0.480
        51 -10.7258    202.1941     19.1384   7.0393411824e+01   3.1567657618e+01    0.4866288    0.4112951  38.94  0.001727122    1.281    0.219
        52 -10.6983     54.6839     18.0589   1.0510760147e+02   6.7180286200e+01    0.4850805    0.3186672 -11.86  0.001529826    1.851    0.460
        53 -10.1299     31.2582     11.3718   1.1394605558e+02   7.1684412631e+01    0.3313453    0.2093792 -26.43  0.001705283    1.564    0.361
        54  -9.0560    192.0708     12.1996   6.9381358927e+01   3.4852480240e+01    0.2079884    0.1861866  43.28 0.0005361238    1.179    0.151
        55 -11.2618    193.5383      5.6545   6.7206000775e+01   3.5094115242e+01    0.9939805    0.5260347  58.92   0.00236216    1.840    0.456
        56 -11.5159    208.4835      3.3678   6.5169073501e+01   3.1513799938e+01    0.6583918    0.3688849 -84.30  0.001745161    1.998    0.500
        57 -10.8322    247.8455      6.0543   6.3001027106e+01   2.2081938341e+01    0.5253003    0.3538306 -56.52  0.003059179    1.400    0.286
        58 -10.1444    225.8793      7.1213   6.4819065904e+01   2.6958403285e+01    0.5356022    0.2167204 -39.44 0.0009981137    2.120    0.528
        59 -10.8104    222.6908      2.0745   6.3695244887e+01   2.8169790868e+01    0.5384202    0.2405887  69.06  0.002217926    2.223    0.550
        60  -9.7796    173.6886      8.8724   7.0424095733e+01   4.0000295960e+01    0.2626491    0.2010903 -27.35 0.0006488275    1.312    0.238
        61 -10.5374    174.8739      4.5645   6.8835280000e+01   4.0086315411e+01     0.452659    0.4052987 -56.34  0.002496663    1.112    0.101
        62  -9.1894    180.4138      7.7241   6.9249266421e+01   3.8327641611e+01    0.3579968    0.1841938 -22.33  0.001547474    1.948    0.487
        63  -9.1586    157.7627      7.1563   7.1908476963e+01   4.4425382672e+01    0.2466653    0.1926301 -85.17 0.0008392547    1.363    0.266
        64 -11.7291     51.9818     34.1885   1.1370097234e+02   6.4557155053e+01     1.707297     1.412157  56.54  0.009986209    1.527    0.345
        65  -9.4739    230.9518      2.1727   6.3135483599e+01   2.6221172875e+01    0.4738795    0.1842461  51.38   0.00195009    2.949    0.661
        66 -11.7206    204.2793      6.6797   6.6499757086e+01   3.2264308022e+01    0.5065728     0.406619  36.19 0.0002478186    1.397    0.284
        67  -9.8509    141.6453    243.8908   1.2951028058e+02   1.0482024002e+01     0.222067      0.15942   5.01 0.0008929308    1.906    0.475
        68 -12.3683      5.8974    114.8190   1.4744977863e+02   5.0318783650e+01     1.173927    0.3088546 -61.78   0.00498125    3.200    0.688
        69 -12.7033     20.9500    102.3442   1.4179827643e+02   5.2125983800e+01     2.148814    0.7575792  27.84  0.009813068    2.935    0.659
        70  -8.9518    210.8205    239.6732   1.1744941386e+02   1.5764132487e+00    0.1446193    0.1057028  13.11  0.000795098    1.172    0.147
        71 -11.3938     49.3074     25.6106   1.1127764123e+02   6.6626282506e+01    0.5011176    0.2446025  32.69  0.001371516    2.277    0.561
        72 -11.4064     22.2356     45.2791   1.3153379795e+02   6.5407606172e+01    0.7128321    0.4459995 -86.98  0.003768482    1.931    0.482
        73  -9.2303     13.1784    238.5993   1.5137552633e+02   2.6114655774e+01    0.1198867   0.07658503  31.71 0.0009477609    1.662    0.398
        74  -8.9506     12.3347    232.3143   1.5133586802e+02   2.7155996365e+01     0.218857   0.04240422  48.01  0.001184633    2.626    0.619
        75  -8.7183    227.8215    231.7208   1.1369412129e+02   7.3651674978e-02    0.2417464   0.07275017  40.13  0.001193581    2.717    0.632
        76  -8.4395    136.5063    224.5253   1.2839208448e+02   1.3690173686e+01    0.1137588   0.08616481  39.85 0.0001589488    1.015    0.015
        77  -8.6032      2.3316    214.3326   1.5256403427e+02   3.0912708890e+01   0.08087288   0.07204878 -56.68 -5.119154e-05    1.726    0.420
        78 -10.4828     26.6475    191.6427   1.4710584336e+02   3.2735881828e+01    0.3349994    0.1914972 -89.95  0.002236417    1.630    0.387
        79 -10.5372      3.4233    184.3440   1.5146319582e+02   3.6109541582e+01    0.4697694    0.1377972  41.59  0.002073751    2.353    0.575
        80 -11.2593     17.9363    186.5652   1.4862345150e+02   3.4477877137e+01    0.3079618    0.2514952  33.66 0.0006224768    1.429    0.300
        81 -10.2498     91.8800    120.1442   1.2332685787e+02   3.9465473446e+01    0.3597964    0.2711494 -29.33  0.001867781    1.719    0.418
        82 -10.0106     97.4848    115.0618   1.2076254451e+02   3.9652898478e+01    0.3887211    0.2509552  21.07  0.001765887    2.108    0.526
        83  -9.9948    105.8189    119.8279   1.1947866488e+02   3.7188405894e+01    0.3810538     0.181143  44.71  0.001599213    2.039    0.510
        84  -9.5944     40.2959    116.9111   1.3764443715e+02   4.7011429935e+01    0.3647051    0.1757486  74.55  0.001563278    2.754    0.637
        85  -9.8789     13.0304    117.2865   1.4560168292e+02   4.9279934291e+01    0.2489628    0.2090633  41.11  0.001359394    1.311    0.237
        86  -9.9847     54.4833    115.8629   1.3331452888e+02   4.5688871388e+01    0.3181198    0.1814836 -45.50  0.001312629    2.047    0.511
        87 -10.1622    132.5534    110.9357   1.1057057040e+02   3.3969526214e+01     0.571157    0.3888228 -37.68  0.002739001    1.565    0.361
        88  -9.5771     34.7193    109.7082   1.3840143053e+02   4.9226783138e+01      0.33851    0.2095243 -66.20  0.001905496    1.445    0.308
        89  -9.6720     11.5345    183.9915   1.4981359601e+02   3.5513497294e+01    0.2321246    0.1484948  85.03  0.001451659    1.341    0.254
        90  -9.3295    120.6459    109.0817   1.1317195745e+02   3.6706117030e+01    0.2751541    0.2103586  35.74 0.0007003164    1.330    0.248
        91 -10.2657     53.2099    105.6845   1.3209200432e+02   4.8200336354e+01    0.5929723   0.09690667 -59.32  0.001823124    4.357    0.770
        92  -9.3811     75.5144    102.7376   1.2462364693e+02   4.5912976619e+01    0.3987347    0.2079503  30.78  0.001760663    2.165    0.538
        93  -9.4234     81.3299    102.0954   1.2271382489e+02   4.5175201343e+01    0.2443802    0.2060843 -80.04  0.001372889    1.205    0.170
        94 -10.5711     86.1793    100.5220   1.2090115414e+02   4.4758336283e+01    0.4823887    0.3626338   6.81  0.002397113    1.865    0.464
        95  -9.3747     91.7947     96.8436   1.1835953581e+02   4.4643189106e+01    0.3041673    0.2462308  82.30 0.0009700838    1.428    0.300
        96 -10.0974    105.5690    109.5308   1.1733150608e+02   3.9439506173e+01    0.3689659     0.297956 -79.42   0.00178339    1.407    0.289
        97  -9.2756     92.7103    111.7116   1.2140723711e+02   4.1188471730e+01    0.2777029    0.2729447  56.94  0.001684902    1.071    0.066
        98  -9.7477    114.2954     96.3334   1.1173740384e+02   4.0601752100e+01    0.2607419    0.2487588 -47.65  0.001364923    1.054    0.052
        99  -9.1776    114.6539    100.3002   1.1264430624e+02   3.9699960368e+01    0.3212485    0.2452786  61.94  0.001599764    1.457    0.314
       100 -10.3553    117.5097     98.4541   1.1140108442e+02   3.9524359226e+01    0.5870373    0.3066527  44.64  0.002052923    1.896    0.472
       101  -9.2124      9.9008     99.9000   1.4503790833e+02   5.3471062399e+01     0.186322    0.1431635  82.34 0.0008396089    1.123    0.109
       102  -9.5827    159.3742     96.5583   1.0059400111e+02   3.0954653892e+01    0.2958969    0.2820582  35.04  0.001645049    1.038    0.036
       103  -9.4318    187.6887     93.3600   9.3971388479e+01   2.5108848197e+01    0.3097023    0.2400601 -68.52  0.001511185    1.760    0.432
       104 -10.3452    113.9370     51.7133   9.8083265234e+01   4.9515636408e+01    0.6038668    0.4419993 -43.31  0.002622647    1.377    0.274
       105  -9.9577     89.4645     77.9643   1.1417469213e+02   4.9217038769e+01     0.503929    0.2843628  38.42  0.002232854    1.861    0.463
       106 -11.1607    123.9102     68.3319   1.0099071587e+02   4.4199208054e+01     1.337846    0.6449257 -48.64  0.005053662    2.290    0.563
       107  -8.9989    109.9057     59.0401   1.0184144454e+02   4.9056480580e+01    0.3513346    0.2983598  -5.07  0.001004257    1.313    0.239
       108 -10.4262    118.2851     86.3435   1.0794811522e+02   4.1863177424e+01    0.7523119    0.2905293  48.62   0.00218687    2.685    0.628
       109 -12.3635    102.4403     82.1723   1.1133129030e+02   4.5902967842e+01     1.454433     1.022858 -77.50  0.006511448    2.018    0.505
       110  -9.7474    113.0329     83.0955   1.0849840334e+02   4.3608286028e+01    0.2702665    0.2423867  62.90 0.0003275716    1.177    0.150
       111 -10.6735    102.6386     70.8476   1.0790780589e+02   4.8232535656e+01    0.6195013     0.371448 -56.44  0.001835827    1.901    0.474
       112 -11.3716    114.6867     63.4107   1.0193651990e+02   4.7181480223e+01    0.9591429    0.5719296 -40.61  0.002262755    1.655    0.396
       113 -10.4839    108.9876     67.9441   1.0507751915e+02   4.7518969765e+01    0.5899242    0.4132265  37.52  0.002047041    1.498    0.332
       114 -10.6545     88.1346     89.8439   1.1776699796e+02   4.6826472895e+01     0.552299    0.4040293 -41.66  0.002576162    1.414    0.293
       115  -9.1056     92.2956     88.6755   1.1617999639e+02   4.6365107573e+01      0.26234    0.1385156 -55.89 0.0006825735    1.935    0.483
       116  -9.3984    120.7534     91.1573   1.0860241231e+02   4.0371419980e+01    0.2669969     0.207124  59.74  0.001287951    1.402    0.287
       117  -9.6258     82.3855     90.5529   1.1974911093e+02   4.7622305332e+01    0.2646038    0.2550284  87.79  0.001023291    1.032    0.031
       118  -9.1108    194.2634     89.8595   9.1846045387e+01   2.4170056781e+01    0.2798809    0.1977047  -5.71  0.001329736    1.639    0.390
       119  -9.4833     74.4624     89.0335   1.2193428355e+02   4.9210790793e+01    0.2944261    0.2408918  20.30  0.001385183    1.424    0.298
       120  -8.4624     77.0167     84.9497   1.2010356724e+02   4.9747412250e+01    0.2140801    0.1647989  84.75 0.0007735455    1.581    0.367
       121  -9.8576    152.7005     87.1044   9.9505914908e+01   3.4158816901e+01    0.3220536    0.2841897  11.32 0.0008233889    1.201    0.168
       122  -9.7675    161.5394     82.8670   9.6345719202e+01   3.2860333303e+01       0.6457    0.4315214 -72.37  0.002590125    2.490    0.598
       123 -10.1639    134.5125     81.2041   1.0217658009e+02   3.9375508732e+01    0.5543224    0.3067718 -27.96  0.002174314    2.210    0.548
       124  -9.7502     17.1592     82.3955   1.4062693199e+02   5.7087193697e+01    0.3071831    0.1727357  10.01  0.001636455    2.356    0.576
       125  -9.1529    123.2080     81.2369   1.0514022549e+02   4.1851296477e+01    0.3710156    0.1956508  32.71  0.001394084    2.433    0.589
       126  -9.4263    217.7267     79.0945   8.5180170703e+01   2.0476226403e+01    0.3465273    0.1725419  -7.34  0.001213284    3.318    0.699
       127  -9.8037    132.2015     68.0307   9.8724101267e+01   4.2364230884e+01    0.4943044    0.3140914  70.27  0.001855953    2.194    0.544
       128 -10.1266    143.1607     77.6968   9.9006838819e+01   3.8059788654e+01    0.4898983    0.3101141  -3.00   0.00181959    2.764    0.638
       129 -10.2823    148.8718     76.5130   9.7309900232e+01   3.6941553562e+01    0.7125291    0.4429137   0.55  0.002572705    2.945    0.660
       130 -10.4797    138.9557     74.8332   9.9161146660e+01   3.9555461942e+01    0.7282191    0.2452673 -49.15  0.002045087    4.167    0.760
       131 -10.2003    140.6649     67.0883   9.6330662598e+01   4.0549047153e+01     0.532563    0.3878808 -22.48  0.002465669    1.496    0.332
       132  -9.8357     38.7121    177.2175   1.4371032578e+02   3.4271452524e+01    0.2479897    0.2171513 -67.43  0.001146786    1.394    0.283
       133  -8.8027      1.5883    177.8198   1.5161212907e+02   3.7478133286e+01    0.1514744   0.07264424  76.46 0.0009401939    1.719    0.418
       134  -9.7334     36.8732     75.6465   1.3222462149e+02   5.7050381353e+01    0.2348357    0.1826143 -60.26 0.0005372845    1.136    0.120
       135  -9.7297     63.0147    167.7181   1.3744785999e+02   3.3415953364e+01    0.2530228     0.172774 -85.48  0.001125922    1.473    0.321
       136 -11.0317     21.3596     73.1812   1.3768874909e+02   5.8964642490e+01    0.4644963    0.3001211  28.15 0.0007987031    1.768    0.434
       137  -9.2164      2.0440     75.4544   1.4528896068e+02   5.9597167635e+01    0.1754458    0.1200446   3.26  0.001096392    1.898    0.473
       138  -9.4987    215.0190     71.3373   8.3541521356e+01   2.2126373039e+01    0.3249601    0.1936822 -25.69  0.001214006    1.588    0.370
       139  -9.2720    155.2178     70.7243   9.4130191618e+01   3.6436528097e+01    0.3504471    0.2145523 -27.15     0.001496    1.737    0.424
       140  -9.8944    150.6266     67.1323   9.4034321253e+01   3.8153449110e+01    0.4110681    0.2758017  43.61  0.001122657    1.502    0.334
       141  -8.9744    155.5113     66.5149   9.2766400087e+01   3.7071626882e+01    0.3072411    0.2484834  67.83  0.001514539    1.360    0.265
       142 -10.1075      3.1142     57.5905   1.4265021035e+02   6.3715291195e+01    0.4368394     0.292022  78.72  0.002675907    1.527    0.345
       143  -8.9471      7.6773     50.7273   1.3953000384e+02   6.5089673023e+01    0.4949566    0.3298554  52.98  0.002991012    1.766    0.434
       144 -11.0979      5.6670     71.2087   1.4343844868e+02   6.0410518833e+01    0.4120958    0.2417818  14.78  0.001825902    2.111    0.526
       145 -11.8682     15.2452     62.3006   1.3828832000e+02   6.1950966418e+01    0.9106303     0.493936  -9.15  0.004159709    2.685    0.628
       146 -10.2499     13.1706     56.6595   1.3816362522e+02   6.3400996272e+01    0.2858827    0.2208903  45.39  0.001846539    1.493    0.330
       147 -10.0451     85.3663     68.5611   1.1275238623e+02   5.1982398982e+01    0.4639056    0.3652581  57.34  0.002418754    1.427    0.299
       148  -8.6346    202.0146     68.6306   8.4781827328e+01   2.5493179294e+01    0.1983106    0.1894243  49.75  0.001136616    1.103    0.094
       149  -9.1406    178.4419     60.4995   8.6388527911e+01   3.2362180315e+01    0.2594942    0.1918791 -16.70 0.0006155018    1.428    0.300
       150 -11.0006    174.5154     57.2967   8.6118357282e+01   3.3811908924e+01     1.114202    0.6722023 -22.82  0.004827532    1.745    0.427
       151 -10.3364    164.4370     57.2288   8.7999914837e+01   3.6346074666e+01     0.489224    0.3745086  22.21  0.001347778    1.496    0.332
       152  -9.9719     25.3773     66.8907   1.3498264171e+02   6.0139952841e+01    0.3065147    0.1644187 -55.01  0.001554284    1.595    0.373
       153  -8.9484     65.3726     65.5652   1.1895357205e+02   5.5900369677e+01    0.2808471    0.1611287 -67.76 0.0007828354    2.124    0.529
       154 -10.5466     96.2701     63.7562   1.0763166442e+02   5.0947730469e+01    0.6050971    0.4129353  17.87  0.002686099    2.027    0.507
       155  -8.9051    187.8101     64.3397   8.5890877464e+01   2.9500509747e+01    0.3725964    0.2003728  67.49  0.001492979    2.252    0.556
       156  -9.6365    143.8495     70.9027   9.6771978968e+01   3.9120095253e+01    0.3252787    0.2426701 -42.65 0.0008147564    1.359    0.264
       157 -10.0369    100.0069     38.2091   9.7046263968e+01   5.4985583930e+01    0.5674415    0.4312811  -3.51  0.002788635    1.544    0.353
       158 -12.0365     86.0336     54.8245   1.0800287973e+02   5.4729426293e+01     1.145878     1.001517 -51.79  0.006357273    1.154    0.133
       159 -10.6211     95.5908     47.5038   1.0210588755e+02   5.4267673477e+01    0.5743241    0.4294587  19.46  0.002151991    1.590    0.371
       160 -10.2579     89.2821     41.3334   1.0180806298e+02   5.6698316487e+01     1.237509    0.3653959  43.46  0.003956525    3.553    0.719
       161  -9.7816     77.8605     61.6168   1.1317422398e+02   5.4778392604e+01    0.5424436    0.3297623 -46.49  0.002022601    1.550    0.355
       162 -10.1871     72.3392     55.2879   1.1310574041e+02   5.7052141397e+01    0.5607284    0.4530244  80.28   0.00170197    1.638    0.389
       163  -9.2502      9.2353    167.4864   1.4958699752e+02   3.8883090188e+01    0.2255747    0.1340976  72.79  0.001510734    1.359    0.264
       164  -9.1078     13.4851    164.9727   1.4853120312e+02   3.9038190920e+01    0.2164436    0.1138834  49.92  0.001359199    1.554    0.356
       165 -10.0212      2.5081    161.5101   1.5080886784e+02   4.0588817996e+01    0.3261644    0.1484516  72.63  0.001908257    1.852    0.460
       166  -9.8091     82.3000     33.6738   1.0108439711e+02   5.9469986952e+01    0.4519749     0.271202 -23.95   0.00201444    1.903    0.474
       167  -9.9819      2.3846    157.5779   1.5067470637e+02   4.1389148566e+01    0.5038513    0.1601876  77.36   0.00228462    3.127    0.680
       168 -10.6279     16.5257    158.9619   1.4752192089e+02   4.0001645429e+01    0.3597429    0.2548561 -35.64  0.002328993    2.183    0.542
       169 -11.9071     19.6131    148.2831   1.4613530660e+02   4.1964208086e+01    0.6409083    0.4951862 -72.75  0.003204146    1.314    0.239
       170 -10.2655    103.5803     61.4006   1.0455027284e+02   4.9942561864e+01    0.7305264    0.4794939 -76.66  0.002834412    2.789    0.641
       171 -10.8370    104.2432     54.2729   1.0186701679e+02   5.1177913351e+01    0.5542578    0.3802743  30.03 0.0005461635    1.672    0.402
       172  -9.7841    108.6394     53.2808   1.0018692783e+02   5.0411652769e+01    0.3331105    0.2856244  62.57  0.001144613    1.282    0.220
       173  -9.4602    149.7256     60.2870   9.2049935186e+01   3.9517934666e+01    0.3399285    0.2199108 -44.86  0.000683953    1.613    0.380
       174 -10.1122    221.3632     57.8707   7.9061916351e+01   2.2437086959e+01    0.5137454    0.3518256  22.33  0.002341227    1.768    0.434
       175  -9.0258    219.2677     53.0125   7.8020183584e+01   2.3524067497e+01    0.3286914     0.191782 -10.87  0.001118209    1.981    0.495
       176 -10.0356    221.3957     48.2662   7.6464444571e+01   2.3612199233e+01    0.4191626    0.2754619 -36.04  0.001893237    1.399    0.285
       177 -10.5001    201.3888     56.8725   8.1566134602e+01   2.7252043998e+01    0.6034448    0.3764535   8.65  0.002505047    2.262    0.558
       178  -9.0862    158.2803     58.6329   8.9686877220e+01   3.7666353524e+01    0.4414446    0.2475363  22.73  0.001527696    3.019    0.669
       179 -10.1389    122.4550     57.8600   9.7899517937e+01   4.6465102728e+01    0.4148861    0.2618513  42.30  0.001833678    1.620    0.383
       180  -9.8997    157.0186     51.9798   8.7778839883e+01   3.9014399428e+01    0.6016649      0.37497  22.49  0.001888098    2.238    0.553
       181  -9.6261    134.6077     51.9643   9.2744540626e+01   4.4599011613e+01    0.4075056    0.2793169  17.64  0.001742814    1.948    0.487
       182 -10.6061    149.8771     51.3337   8.9050707062e+01   4.0914251271e+01    0.6788877    0.4669847   1.45  0.002926496    1.930    0.482
       183 -11.3218    141.6496     51.5697   9.0951107645e+01   4.2931722936e+01    0.6335481    0.3872683  41.43  0.001342588    1.710    0.415
       184  -9.6788     60.8060     54.2517   1.1722862797e+02   5.9069248326e+01    0.3459258    0.2552646 -55.22  0.001652734    1.284    0.221
       185 -10.0222    186.5075     53.4950   8.2892377192e+01   3.1359708173e+01    0.4338695    0.2393918   8.58  0.001467441    3.404    0.706
       186  -9.6196    188.9110     49.2285   8.1221781748e+01   3.1340475243e+01    0.3942524    0.2426223 -53.42  0.001526137    1.884    0.469
       187  -9.6538    121.6492     53.2220   9.6494013022e+01   4.7476634070e+01    0.5393817    0.3534665   3.50  0.002135636    2.429    0.588
       188 -10.0462    126.7559     51.7833   9.4640330112e+01   4.6522273278e+01    0.6442329    0.2962275 -42.44  0.001549591    2.219    0.549
       189  -9.4454    129.5408     46.5687   9.2062717154e+01   4.6718447216e+01    0.3451757    0.2781454  -9.19 0.0009003743    1.361    0.265
       190 -10.8759    141.7174     40.8146   8.7141511164e+01   4.4574451998e+01    0.7257135    0.6020056 -50.56  0.002813029    1.288    0.224
       191 -10.0527    147.7190     35.1457   8.3840083034e+01   4.3840571958e+01    0.8155315    0.2276462  55.05  0.002548622    3.153    0.683
       192 -10.6913    130.6113     39.8934   8.9338178051e+01   4.7506021164e+01    0.5190065    0.4104044   1.72  0.001257891    1.438    0.304
       193 -10.4236    135.1520     34.1448   8.6123716080e+01   4.7210472104e+01    0.3679317    0.3050909  39.69 0.0004425375    1.201    0.167
       194  -8.5327    192.7500     53.6288   8.1938468381e+01   2.9794417660e+01    0.1901976    0.1416285  76.46 0.0003563995    1.538    0.350
       195  -9.4918    236.7015     49.3998   7.4990776976e+01   2.0031071758e+01    0.3493589    0.1534233 -30.54   0.00128116    1.951    0.488
       196 -10.1989    250.2412     67.3400   7.7962615487e+01   1.5088492963e+01    0.5946662    0.1716766 -23.13  0.002023568    3.533    0.717
       197 -11.4717    164.7505     62.6849   8.9652069873e+01   3.5421466935e+01    0.6747398    0.5755211  -8.84  0.002174822    1.233    0.189
       198  -8.6126     80.2265     46.7910   1.0713496514e+02   5.7412498038e+01    0.1938645    0.1613856   4.78 0.0005338806    1.347    0.258
       199 -10.1548     33.9588    155.9218   1.4322618991e+02   3.9046351241e+01    0.2475334    0.1641506  70.88 0.0003043416    1.317    0.241
       200 -11.6036     34.7609    150.2304   1.4257140912e+02   4.0166254439e+01    0.7155652     0.277939  53.83  0.003410341    2.415    0.586
       201 -10.7392     39.0488    146.0975   1.4114057720e+02   4.0620821335e+01    0.4252608     0.292821 -87.29   0.00189697    1.320    0.242
       202 -10.0233    109.7601     38.3975   9.4213603543e+01   5.2755912934e+01    0.7588906    0.4633225  -7.19  0.002991877    2.461    0.594
       203 -10.3073    106.8544     30.1245   9.1649517144e+01   5.4737529085e+01      1.06539    0.4165541  53.34  0.003902656    2.519    0.603
       204  -9.3898     52.7667    151.9510   1.3828960919e+02   3.7882040313e+01    0.1738522    0.1598099 -68.78  0.001209439    1.254    0.203
       205 -10.0670     67.3457    148.8007   1.3429930334e+02   3.6775912941e+01    0.3007474    0.1873054  75.83  0.001443861    1.783    0.439
       206  -9.2670     19.5165    119.3636   1.4393073198e+02   4.8321987797e+01    0.4341165      0.18117 -51.90  0.002051994    2.670    0.626
       207 -10.1151      4.3254    147.6160   1.4977775772e+02   4.3296863276e+01    0.4323218    0.1955563  55.73  0.002497376    1.854    0.461
       208  -9.7446      6.5793    142.6577   1.4898190515e+02   4.4177844468e+01    0.5426657    0.1979893  38.80  0.002890922    2.334    0.571
       209 -10.0654     18.9091    128.9084   1.4490515991e+02   4.6227778309e+01    0.3222638    0.1329621 -67.85  0.001157925    2.114    0.527
       210 -10.3387      4.4150    136.1618   1.4917005344e+02   4.5716759367e+01    0.4399078    0.3117538  73.63  0.003059986    1.137    0.120
       211  -9.6179      9.0051    134.5521   1.4790863045e+02   4.5741604194e+01    0.1953938    0.1650934 -83.10 0.0005966702    1.175    0.149
       212 -11.6271     13.7049    129.8882   1.4637170896e+02   4.6415435985e+01    0.7431896    0.4270934  86.90  0.003572998    1.507    0.336
       213  -9.2241     60.8209    146.8773   1.3571256260e+02   3.8006524257e+01    0.2609457    0.1197472 -48.65  0.001173415    2.752    0.637
       214  -9.0605     97.6157    140.7871   1.2549082415e+02   3.4123128132e+01    0.1849539    0.1250529 -74.44 0.0005456167    1.701    0.412
       215  -8.8390    248.6131     44.7032   7.2561460696e+01   1.8006278336e+01    0.1979489    0.1414276  19.51  0.000683259    1.693    0.409
       216 -10.0107    232.6711     42.3667   7.3597514866e+01   2.1732763273e+01    0.5580631    0.3015018   3.85  0.002230028    2.929    0.659
       217  -8.3229      1.4887     44.4095   1.4129897053e+02   6.6834838626e+01    0.1208434   0.09298147 -58.84 0.0003055341    1.091    0.084
       218  -8.6980    215.7234     41.9673   7.5419123224e+01   2.5696071911e+01    0.2906649    0.1423979  38.89  0.001158941    2.579    0.612
       219  -9.1689    191.0145     40.9614   7.8396572999e+01   3.1886698376e+01    0.3147854    0.2059417 -17.03  0.001252822    1.613    0.380
       220  -9.4987    192.1535     37.1664   7.7077558407e+01   3.2070288470e+01    0.3530036    0.2670085 -83.63  0.001759919    1.533    0.348
       221 -11.4926    162.4413     38.0139   8.2055305150e+01   3.9624070216e+01    0.5418319    0.3029298 -25.20   0.00227804    1.822    0.451
       222  -8.6226      4.8661     41.1073   1.3903632011e+02   6.7442950400e+01    0.1497538    0.1153353 -40.84  0.000992164    1.267    0.211
       223  -9.5475    180.3749     38.8961   7.9350399338e+01   3.4861822335e+01    0.5307765    0.3171074 -54.59  0.002261327    1.967    0.492
       224 -10.1241     22.2419    138.1712   1.4475310510e+02   4.3913484493e+01     0.246449    0.1981293 -53.53   0.00111895    1.481    0.325
       225  -9.0705     24.3109    133.9798   1.4387777158e+02   4.4654986069e+01    0.2023028     0.167933  88.04 0.0006157396    1.063    0.060
       226  -9.2604     81.0061    138.9613   1.2945913862e+02   3.7021704194e+01    0.1976906    0.1591155 -27.60 0.0006781077    1.669    0.401
       227 -10.5369    177.2287     29.2538   7.6720510741e+01   3.6870235785e+01    0.5876655    0.3627071 -23.41  0.002052034    1.633    0.387
       228 -10.1097     54.7848    137.5331   1.3615849466e+02   4.0763297417e+01    0.2766222    0.2356731 -78.99  0.001160194    1.134    0.118
       229 -10.7125    202.3112     38.1453   7.6004702302e+01   2.9407264933e+01    0.5221816    0.3488477  42.03  0.002265465    1.628    0.386
       230 -10.9286    200.0024     31.4832   7.4327048180e+01   3.0766453342e+01    0.4237554    0.2826318 -62.43 0.0003956159    1.713    0.416
       231 -10.1501    194.6161     31.0209   7.4872580054e+01   3.2178865312e+01     0.420762    0.2918015   2.15  0.001464067    1.736    0.424
       232  -9.0151    173.8635     39.1451   8.0470689334e+01   3.6509336293e+01    0.2346445     0.197173 -65.89  0.001118137    1.301    0.232
       233  -9.1275    168.4663     36.5130   8.0502356911e+01   3.8253792115e+01    0.2697783    0.2526389 -36.78  0.001477625    1.067    0.063
       234 -10.1375    210.4545     33.0637   7.3529066329e+01   2.8000345277e+01     0.460402    0.2397465 -18.44  0.001467408    2.008    0.502
       235 -11.0723    237.8268     32.9445   7.0616194851e+01   2.1622818925e+01    0.6126658    0.3766492  65.02  0.003202529    1.760    0.432
       236  -9.5346    246.8198     33.3981   6.9902824982e+01   1.9609507757e+01    0.3426061    0.2016265  49.11   0.00137648    1.922    0.480
       237  -8.3184    222.2806     35.6443   7.2918318455e+01   2.4879175674e+01    0.1475315   0.09222639 -51.51 0.0007014282    1.660    0.398
       238  -8.5554     37.8856     33.9831   1.2032722147e+02   6.6409149304e+01     0.414477    0.2478587 -19.07  0.001952177    2.265    0.558
       239  -8.7799      1.4192     35.4794   1.3964648500e+02   6.8875061968e+01     0.118401   0.09555478 -69.02 1.934162e-06    1.064    0.060
       240  -9.7590    228.4113     31.2655   7.1091192089e+01   2.3937368295e+01     0.322317    0.2417457 -34.02  0.001226861    1.205    0.170
       241  -9.8842    225.4161     26.8914   7.0207777581e+01   2.5102935427e+01    0.4015613    0.2823217 -37.50  0.001340895    1.291    0.225
       242  -9.3256    162.4413     31.7943   7.9927351303e+01   4.0436038046e+01    0.3779941    0.2296699  46.31 0.0009591369    1.666    0.400
       243  -9.5426    167.1949     29.4061   7.8319348830e+01   3.9483791312e+01    0.3051174    0.2101034  45.59   0.00113083    1.476    0.322
       244  -8.6897    170.4770     27.5678   7.7180077370e+01   3.8841883331e+01     0.243746    0.1419124  65.03 7.827039e-05    1.703    0.413
       245 -12.3305     55.3172    129.3810   1.3498308780e+02   4.2513803320e+01     1.123993    0.5296782 -53.17  0.005177047    2.231    0.552
       246 -10.2662    154.3017     24.9346   7.8915003977e+01   4.3431728084e+01    0.4308907    0.2530345 -33.81  0.001605204    1.679    0.404
       247  -9.7847    159.5900     24.4539   7.7844630148e+01   4.2088803904e+01     0.314795    0.2959499  52.93 0.0009197348    1.047    0.045
       248  -9.4532    240.9405     23.5132   6.7906909804e+01   2.1917439921e+01    0.3405666    0.1493357 -36.92  0.001433847    1.917    0.478
       249  -9.0227     64.2910    138.5526   1.3377697615e+02   3.9375970972e+01    0.2494853    0.1056756  39.90  0.001136088    2.159    0.537
       250  -9.2831    246.5392     20.4949   6.6687954604e+01   2.0992820675e+01    0.2922951    0.2205587  66.75  0.001750619    1.460    0.315
       251  -8.7349     38.6624    136.3568   1.4029996694e+02   4.2785014781e+01     0.136001   0.07515799  64.86 0.0007040661    1.809    0.447
       252  -9.6387     41.9708    134.4796   1.3922331267e+02   4.2861151963e+01    0.2955331    0.1454996  64.66   0.00141485    2.235    0.553
       253  -9.3163    238.7739     18.8648   6.6891729150e+01   2.2866816323e+01    0.2343646    0.2312072 -50.48 0.0005503405    1.108    0.097
       254  -9.4566    242.8012     18.5827   6.6498341519e+01   2.1999623923e+01    0.3052721    0.1900685  71.10  0.001450659    1.742    0.426
       255  -8.9061    219.8416     25.2292   7.0304450580e+01   2.6596469513e+01    0.2090225     0.169062 -56.95 0.0003749993    1.227    0.185
       256  -8.3356    201.4665     25.5129   7.2371797470e+01   3.1070187520e+01    0.1388873    0.1344458 -40.28 0.0002400465    1.016    0.016
       257  -8.9736    193.4617     24.4336   7.3002432465e+01   3.3218941583e+01    0.2374641    0.1573908  16.26 0.0008019513    1.931    0.482
       258  -9.6642     97.8315     22.8711   9.1123899621e+01   5.7897467415e+01     0.429313    0.2339126  53.79   0.00187823    1.851    0.460
       259 -10.8273     65.1160    130.5816   1.3245870094e+02   4.1030466513e+01    0.3934052    0.2503086  36.58  0.001656745    1.573    0.364
       260 -10.8897     72.4583    129.6629   1.3031686955e+02   4.0256316055e+01    0.5178277     0.403847 -56.41  0.003028389    1.333    0.250
       261  -9.9234     74.4755    125.4650   1.2909614548e+02   4.0910524791e+01    0.5975174     0.203474  45.41  0.002279988    2.890    0.654
       262  -9.1785     95.4425    130.0894   1.2421045143e+02   3.6733368466e+01    0.2435061    0.2031371 -71.10  0.001246781    1.225    0.184
       263 -10.1795     34.8508    129.7045   1.4064802638e+02   4.4642341553e+01    0.3408921    0.1722528  61.97  0.001319091    2.038    0.509
       264 -10.4051     38.0039    127.0156   1.3949312885e+02   4.4937710397e+01    0.2218416    0.1670821 -65.19 0.0009976642    1.305    0.234
       265  -9.6701    198.1486     16.6306   7.0079538799e+01   3.2850053059e+01    0.4875431    0.2063047  69.69  0.001697686    2.361    0.576
       266  -9.0151     27.7992    115.9427   1.4120204140e+02   4.8415144651e+01    0.2696082    0.1261242 -62.66 0.0002962653    1.915    0.478
       267  -8.7752     83.1371     12.8573   9.1011539745e+01   6.2566477809e+01    0.1888074    0.1489299  11.27 0.0003985791    1.295    0.228
       268 -10.1832     26.8407    127.8008   1.4265438878e+02   4.5808340915e+01    0.4153534    0.3216376  84.84  0.002761503    1.096    0.088
       269  -9.1320     28.5244    121.9501   1.4161832177e+02   4.6979521186e+01    0.2657469    0.1424447 -70.08  0.000805428    1.647    0.393
       270 -10.9174     48.6442    125.4148   1.3632593682e+02   4.4176838611e+01    0.3246399    0.2556668  41.33  0.002022134    1.297    0.229
       271  -9.9942     74.3589    108.3514   1.2609321748e+02   4.4798157562e+01    0.3884348    0.2957749  49.54  0.001199881    1.316    0.240
       272 -10.6265     67.3600    107.8536   1.2811229933e+02   4.5896313045e+01    0.7711135    0.3260871 -52.70  0.003259666    2.283    0.562
       273 -10.8216     67.8550    122.0158   1.3039741560e+02   4.2593657502e+01    0.5883388    0.3478176 -39.13  0.002780362    2.275    0.560
       274 -10.0983     67.6678    115.2008   1.2932417678e+02   4.4168134336e+01    0.5267645     0.206896  43.19  0.001731393    2.483    0.597
       275 -12.8614      7.4349     88.1696   1.4470607303e+02   5.6346169375e+01     1.412901    0.8032521 -70.22  0.005038816    1.441    0.306
       276 -11.9590     72.2885     75.7217   1.1930902709e+02   5.2572671330e+01     1.402954    0.8163788  27.61  0.006391261    2.059    0.514
       277 -10.0859    207.4761     44.2904   7.7112950367e+01   2.7395057652e+01    0.5675782    0.3938304 -67.95  0.002744459    1.755    0.430
       278  -8.7538    235.3277    249.6627   1.1495226133e+02  -2.4293147804e+00   0.08672737   0.06973694  37.84 0.0007051803    1.728    0.421
       279  -8.7960     25.9019    248.5461   1.4960179947e+02   2.3461843871e+01    0.1382209    0.0690323  38.64 0.0006398543    1.553    0.356
       280 -12.4184     51.0268     87.5410   1.2949996109e+02   5.2716912887e+01     2.367436     1.345285  17.17   0.01107804    2.400    0.583
       281  -9.8271     34.5291    245.9550   1.4809305120e+02   2.3002897388e+01    0.2260174    0.1084054 -58.20  0.001494817    3.124    0.680
