#   1 NUMBER                 Running object number                                     
#   2 MAG_AUTO               Kron-like elliptical aperture magnitude                    [mag]
#   3 X_IMAGE                Object position along x                                    [pixel]
#   4 Y_IMAGE                Object position along y                                    [pixel]
#   5 X_WORLD                Barycenter position along world x axis                     [deg]
#   6 Y_WORLD                Barycenter position along world y axis                     [deg]
#   7 A_WORLD                Profile RMS along major axis (world units)                 [deg]
#   8 B_WORLD                Profile RMS along minor axis (world units)                 [deg]
#   9 THETA_WORLD            Position angle (CCW/world-x)                               [deg]
#  10 FWHM_WORLD             FWHM assuming a gaussian core                              [deg]
#  11 ELONGATION             A_IMAGE/B_IMAGE                                           
#  12 ELLIPTICITY            1 - B_IMAGE/A_IMAGE                                       
         1 -14.4491     68.4271    144.3958   1.1084229504e+02   3.7241215847e+01     4.751899     2.054339  64.33  0.005234569    4.444    0.775
         2 -14.4717    212.0867     19.7813   4.5153193499e+01   2.9447539061e+01     1.608968     1.172002  23.10  0.008195793    1.914    0.478
         3 -14.6118    199.3316     33.6971   5.0540340456e+01   3.0974330435e+01     2.556094     1.658334  26.22  0.008598572    2.233    0.552
         4 -13.2040      4.0062      6.8571   9.9065998585e+01   7.3157052514e+01     1.197073    0.6498037 -38.52  0.007851296    1.350    0.259
         5 -11.7891      2.4389     22.2096   1.0605315567e+02   7.0576721434e+01    0.5827056    0.1829443 -58.96  0.002675961    2.852    0.649
         6  -9.5317     60.4742      7.5502   7.2307393599e+01   6.6406661160e+01    0.1244457     0.102744   3.44 0.0001315192    1.029    0.028
         7 -10.2026     42.6470      4.7701   7.8215367142e+01   6.9468444830e+01    0.2935059   0.08536372 -40.63  0.001103356    4.154    0.759
         8 -14.2402      8.0379    250.0942   1.3164443572e+02   2.2604608515e+01    0.4915262    0.2757916  38.68  0.002458285    1.967    0.492
         9 -16.2581     79.1365    244.3077   1.1985905935e+02   1.5138044871e+01      9.03338     2.234905  39.20   0.02933242    3.684    0.729
        10 -10.7361    206.0736    180.8183   8.6450027864e+01   4.4853668354e+00    0.3762889    0.3075167  87.31  0.002001271    1.933    0.483
        11  -9.8665    209.3151    178.6916   8.5409765891e+01   4.2183953071e+00    0.2715203    0.1840378  39.56  0.001103747    1.388    0.280
        12 -12.1912     68.6062    180.1209   1.1564240805e+02   2.9063563142e+01    0.4034749    0.2715173 -43.56  0.002179993    2.089    0.521
        13 -11.9937     73.0295    174.7822   1.1401845757e+02   2.9623236247e+01    0.2922774    0.2378372 -54.31 0.0007124895    1.436    0.304
        14 -16.7849      7.3425    204.4485   1.2971365846e+02   3.0950907820e+01     6.490698     1.557301 -77.45   0.02927455    3.399    0.706
        15  -9.5837     99.5448    180.6597   1.0891886136e+02   2.4310197293e+01    0.2228541    0.1929979  55.13 0.0005336276    1.123    0.109
        16 -14.5276      2.6131    247.2255   1.3234000465e+02   2.3620398067e+01    0.7019334    0.2616916 -75.99  0.004460592    2.429    0.588
        17 -13.2246     50.9757    107.9184   1.0933072075e+02   4.8140437945e+01     2.075535    0.9014943 -74.38  0.007954972    2.896    0.655
        18 -10.6288    137.6107    171.2633   9.8893448783e+01   1.9562841554e+01    0.2954054     0.224125  60.56  0.001513889    1.335    0.251
        19  -9.8146    162.5863    213.3348   1.0066775189e+02   7.1282233997e+00    0.3197728    0.2137943  75.40  0.001562444    2.421    0.587
        20  -8.8286    202.5127    171.5027   8.5270480136e+01   6.7158101027e+00    0.1404669    0.1286693  15.81 0.0008105281    1.011    0.011
        21 -10.1963    230.8383    168.0923   7.9266650982e+01   1.8698701117e+00     0.383544     0.138256 -47.05  0.001244677    4.294    0.767
        22 -10.9717    194.9847    168.3484   8.6108494541e+01   8.7474131678e+00    0.3271957    0.2969224  51.40 0.0009311088    1.190    0.159
        23  -9.1525    164.1250    205.2335   9.9097617788e+01   8.2074405553e+00    0.1708916    0.1474219  69.87 0.0005456724    1.310    0.237
        24  -9.6314    161.0402    165.4805   9.2616239573e+01   1.6133971228e+01    0.2121656    0.1927258 -49.23 0.0003273211    1.164    0.141
        25  -9.3942    107.9643    203.3413   1.1020488033e+02   1.8297085630e+01    0.1794323    0.1453909  54.33 0.0005472759    1.084    0.077
        26 -13.8969     43.0851    208.7310   1.2351701460e+02   2.6340353040e+01    0.7546116    0.5518733 -88.72  0.001313639    1.189    0.159
        27 -10.0345    145.9715    168.6848   9.6554562550e+01   1.8481869738e+01    0.2070433    0.1832633  53.08 0.0006242504    1.064    0.060
        28 -15.0587     53.2509    197.9603   1.2067236951e+02   2.7282510121e+01     2.101488     1.281106  73.65  0.009906962    1.467    0.319
        29  -9.2255     48.6746    155.8557   1.1725970124e+02   3.7065124733e+01    0.2633439   0.08631296 -61.35  0.001090721    2.580    0.612
        30  -9.9494    190.0239    155.4017   8.4367261670e+01   1.2099450595e+01    0.3305126    0.1381333  45.94   0.00123415    2.337    0.572
        31 -12.1153     81.9268    164.7868   1.1063134504e+02   3.0572191240e+01    0.4286959    0.3463359  71.02 0.0004710667    1.138    0.121
        32 -11.0463    133.7072    144.4826   9.4545271346e+01   2.6073522844e+01      1.04717    0.2607799 -54.59  0.002538295    5.671    0.824
        33 -10.4572    174.5133    148.1577   8.6027750678e+01   1.6765959438e+01    0.3809405    0.2799633 -59.19  0.001290765    1.598    0.374
        34 -11.0343     54.4269    147.6472   1.1481695096e+02   3.8286153919e+01    0.3492542    0.2431483 -72.81  0.002001944    1.244    0.196
        35  -9.5030     39.9264    146.7828   1.1825628840e+02   4.0145123361e+01    0.2395516    0.1496612  57.95  0.001348288    1.610    0.379
        36 -10.2853    101.4569    143.4991   1.0231180495e+02   3.2336064463e+01    0.3010862    0.2750619  33.98 0.0007914907    1.240    0.194
        37  -9.9932    103.9646    140.0354   1.0100388789e+02   3.2704879027e+01     0.374998    0.2704343 -14.82  0.001656552    2.336    0.572
        38 -12.4176     89.7711    142.2412   1.0504478578e+02   3.4576674339e+01     0.279516    0.2486999 -58.03 0.0004213049    1.157    0.136
        39  -9.8456     84.4603    143.8186   1.0667827857e+02   3.5041824522e+01     0.302126    0.1995567  60.11  0.001212591    1.614    0.380
        40 -10.1596    111.4530    131.7011   9.7354690334e+01   3.3286234798e+01     0.288961    0.2475701  -1.76 0.0007195476    1.521    0.342
        41 -10.1776    106.0507    130.7164   9.8548947167e+01   3.4505912948e+01    0.3270805     0.286581  85.08  0.001325128    1.161    0.138
        42 -10.9802    160.3425    129.0042   8.4724455000e+01   2.3767620109e+01    0.5239648    0.3240321 -29.53   0.00213824    1.951    0.487
        43 -11.1774     44.9534    129.8103   1.1471133326e+02   4.3596310913e+01    0.3180359    0.2646191 -10.99  0.001384885    1.697    0.411
        44 -11.0807    135.3672    122.0201   8.9004866919e+01   3.0719981028e+01     0.591325    0.1376853 -51.34  0.001379443    5.464    0.817
        45 -11.7420    193.3339    193.9083   9.1394759925e+01   4.7419903200e+00    0.7667266    0.4607626 -56.75  0.003561105    2.484    0.597
        46 -11.1414     98.7314    127.9811   9.9900984187e+01   3.6442864419e+01    0.3259305    0.2808969  14.87  0.001115476    1.445    0.308
        47 -10.0386    204.3364    199.2998   9.0266188779e+01   1.9009531224e+00    0.1364443   0.09324567  12.77 0.0003416851    1.658    0.397
        48 -10.5170    125.6940    127.3603   9.2722675466e+01   3.1521356636e+01    0.3329002    0.2240227 -79.00 0.0009099667    2.106    0.525
        49 -10.9438    117.7733    125.7609   9.4388543255e+01   3.3454150625e+01    0.5064394     0.348905 -28.99   0.00222957    1.894    0.472
        50 -11.2172     26.8229    120.9125   1.1832399155e+02   4.7481301209e+01     0.250279    0.1743605  41.49  0.001536844    1.637    0.389
        51  -9.7529    107.9364    120.0482   9.5667955856e+01   3.6646211874e+01    0.2123814     0.201969 -67.24    0.0011695    1.019    0.019
        52 -13.5136     69.4725    161.1497   1.1303961082e+02   3.3194511701e+01    0.5296426    0.3899826 -46.12  0.001294566    1.656    0.396
        53 -11.0028     23.8814    116.7952   1.1857246736e+02   4.8697956577e+01    0.2260024    0.1551704 -85.57 0.0004754353    1.287    0.223
        54 -10.0282    167.8064    112.4714   7.8850585098e+01   2.5478358593e+01     0.370202    0.2699474 -83.29  0.001421188    1.997    0.499
        55 -11.3205    118.9655    109.7148   9.0163935474e+01   3.6876133323e+01    0.6220595    0.4599065  71.29  0.002840327    1.697    0.411
        56 -10.1432    205.3405    110.2615   7.0575408839e+01   1.7097248558e+01    0.3611969    0.2309231  37.43  0.001203313    1.746    0.427
        57 -12.5885     88.1143    158.1605   1.0815898151e+02   3.1136883198e+01     1.083798    0.6511556 -59.10  0.001456402    1.603    0.376
        58 -10.5799    134.5326    103.9762   8.4549754410e+01   3.4862245748e+01    0.6401452    0.1506446 -45.10  0.001672438    4.163    0.760
        59  -8.7443     93.8101    104.5716   9.5884967936e+01   4.2782185533e+01    0.1832405    0.1387722  56.71 0.0003279016    1.477    0.323
        60 -11.2752    241.9783    101.8223   6.2289121874e+01   1.0353193561e+01    0.2946812     0.174453 -59.38  0.001240171    2.310    0.567
        61 -11.1009    247.4823    101.0005   6.1274180762e+01   9.3225943864e+00    0.2483007    0.1689213 -47.92  0.001243649    1.458    0.314
        62  -9.2272     89.4508    101.2813   9.6335717039e+01   4.4286771436e+01    0.1864421    0.1343581 -64.25 0.0002902748    1.416    0.294
        63  -9.6635    174.5372    248.7460   1.0343985472e+02  -1.0856701691e-01    0.1911876    0.1533863  67.96 0.0009382587    1.602    0.376
        64 -10.0524     33.9983    100.2853   1.1305005314e+02   5.1694290688e+01    0.1759711    0.1535745 -71.21 0.0008602737    1.072    0.067
        65  -9.6389    121.5104     98.5281   8.6483748514e+01   3.8841124251e+01    0.1537029    0.1482907 -57.45 8.035558e-06    1.019    0.018
        66 -10.9898      1.9235     94.8862   1.2195896738e+02   5.5261924866e+01    0.4103836    0.3734018  79.75  0.003149881    1.264    0.209
        67 -11.5287      2.0068     87.5162   1.2093504678e+02   5.6924037702e+01    0.6174973    0.1617557 -76.96   0.00218632    4.061    0.754
        68 -11.2287      2.3163     80.5188   1.1980150864e+02   5.8479108872e+01    0.2885762    0.1373064 -71.65   0.00142807    1.635    0.388
        69  -8.6336    108.6733     93.3466   8.8605080913e+01   4.2581167367e+01    0.1564164    0.1201792 -86.48 0.0007050028    1.749    0.428
        70  -9.2446     75.4896     85.0628   9.6375581494e+01   5.0219442879e+01    0.2063836    0.1279308 -51.52 0.0002993728    1.452    0.311
        71 -10.0721    157.8401     80.1531   7.1997045834e+01   3.4253303669e+01    0.2407907    0.2165145 -73.65 0.0005121179    1.207    0.171
        72  -9.4799    183.9307     77.3829   6.5723626966e+01   2.8230832046e+01    0.3206297    0.1827155  43.01  0.001278219    1.923    0.480
        73 -11.6866    245.6751     93.0187   5.9615475834e+01   1.0972613451e+01     0.317182     0.241732  19.36  0.001632087    1.658    0.397
        74  -8.8956     56.3142     66.6519   9.7622228414e+01   5.6919037524e+01    0.1296358    0.1038628 -88.39 0.0003591792    1.721    0.419
        75 -10.4160     13.5154     59.9410   1.1189727942e+02   6.2379581318e+01    0.2093342    0.1728861 -62.40  0.000430934    1.131    0.116
        76  -9.2773     82.2505    194.8024   1.1445861481e+02   2.3998884147e+01    0.1557153    0.1508568 -83.56  0.001057655    1.325    0.245
        77 -12.0424    191.1161     39.7137   5.3450524068e+01   3.2293912575e+01    0.6308485    0.4169468  56.14  0.001003179    1.488    0.328
        78 -11.7002    169.2137    233.0430   1.0228426971e+02   2.9375626524e+00    0.2795766     0.191886  42.46  0.001017345    1.188    0.158
        79 -11.3506    148.9859     52.8429   6.5328739407e+01   4.1235614741e+01    0.5260524     0.349094 -79.69  0.002004839    2.367    0.578
        80 -10.8182    150.0292     45.9016   6.2781883448e+01   4.2047264963e+01    0.3451576    0.2681063 -70.85 0.0006152969    1.566    0.361
        81 -11.3615      3.3364     36.3709   1.1010039276e+02   6.7823115607e+01    0.3501447     0.209846  21.21  0.002273608    2.063    0.515
        82  -9.8051     96.6318    191.8112   1.1107252032e+02   2.2428428270e+01    0.2314326    0.2094007   8.81   0.00133473    1.552    0.356
        83 -11.1303      1.8215     29.1417   1.0864976086e+02   6.9307403423e+01    0.2565089    0.2225229 -67.36   0.00126971    1.379    0.275
        84  -9.9958     71.7885    230.1970   1.1998745097e+02   1.8607603151e+01    0.2010818    0.1443347  62.83 0.0008015862    1.067    0.063
        85  -9.6452    170.9625     20.0257   5.0498154501e+01   4.0017367984e+01    0.1713343    0.1622968  80.25  0.000441165    1.018    0.017
        86 -10.7224    189.7927     15.1401   4.6450188702e+01   3.5659495632e+01    0.2420809    0.2203325 -76.10 0.0007682335    1.045    0.043
        87  -9.6249     96.7277    200.5628   1.1215712139e+02   2.0632782766e+01    0.2932476    0.2203557 -30.28  0.001240831    2.197    0.545
