#   1 NUMBER                 Running object number                                     
#   2 MAG_AUTO               Kron-like elliptical aperture magnitude                    [mag]
#   3 X_IMAGE                Object position along x                                    [pixel]
#   4 Y_IMAGE                Object position along y                                    [pixel]
#   5 X_WORLD                Barycenter position along world x axis                     [deg]
#   6 Y_WORLD                Barycenter position along world y axis                     [deg]
#   7 A_WORLD                Profile RMS along major axis (world units)                 [deg]
#   8 B_WORLD                Profile RMS along minor axis (world units)                 [deg]
#   9 THETA_WORLD            Position angle (CCW/world-x)                               [deg]
#  10 FWHM_WORLD             FWHM assuming a gaussian core                              [deg]
#  11 ELONGATION             A_IMAGE/B_IMAGE                                           
#  12 ELLIPTICITY            1 - B_IMAGE/A_IMAGE                                       
         1 -15.1479      5.1054    138.2102   1.4081933119e+02   4.5749286064e+01     7.908439     1.742034 -75.04   0.02477192    4.941    0.798
         2 -12.0990      3.3531     49.7123   1.2567191264e+02   6.4627803800e+01    0.3889805    0.2088808 -40.01  0.002468027    1.404    0.288
         3 -13.3955    217.1450     10.6860   5.8880658080e+01   3.0103383373e+01    0.8927072    0.7469034  68.74  0.003458783    1.271    0.214
         4 -13.5071    201.8717     28.5007   6.4567538592e+01   3.1569637781e+01     1.365739     1.222763  54.67  0.007558877    1.294    0.227
         5  -9.1645     53.4826    238.5156   1.4048514626e+02   1.8260071481e+01    0.1213227   0.09472294  73.91 5.700799e-05    1.030    0.029
         6 -12.8445    240.2984    247.5470   1.0550085099e+02  -1.3096977114e+01     1.047631    0.3630996  36.14  0.004772918    2.603    0.616
         7 -12.7136    125.9704    244.3577   1.2714015175e+02   6.0504890232e+00    0.8395877    0.4334323  53.85  0.004074596    1.841    0.457
         8 -11.1880     45.9550    248.0132   1.4261028717e+02   1.7364883582e+01    0.3646677    0.2152459  79.16  0.001877826    1.485    0.327
         9 -12.5463     33.9185    246.4593   1.4458148624e+02   1.9162892750e+01    0.9120302    0.7243921 -46.43  0.006256917    2.095    0.523
        10 -14.1696     10.1083    238.5943   1.4808984785e+02   2.3382347358e+01     2.031451     1.503386 -85.94   0.01534955    1.244    0.196
        11 -12.7589      9.5167    206.8834   1.4612948688e+02   2.9955680254e+01    0.6955728    0.4684794  35.92  0.002884045    1.802    0.445
        12 -12.9710     43.2143    212.9053   1.4014106437e+02   2.4951579961e+01    0.9417594    0.6792386 -79.83  0.004175511    1.217    0.178
        13 -14.1195     32.6052    224.4378   1.4317045258e+02   2.3763718755e+01    0.7984493    0.5787467  76.06  0.002609534    1.066    0.062
        14 -11.1355    232.7815    235.3332   1.0477580383e+02  -1.0316160648e+01    0.4694432    0.3042968 -67.43   0.00180797    5.337    0.813
        15 -12.9094    127.6757    231.9226   1.2513298818e+02   8.1111778889e+00     1.221536    0.3552031  41.15  0.004383384    3.012    0.668
        16  -9.9205     86.8391    225.7926   1.3272401655e+02   1.6085753951e+01    0.1938163    0.1316119  67.07 0.0007824739    1.367    0.269
        17  -8.9839    152.4841    212.9683   1.1699619415e+02   7.3943510090e+00    0.1891672    0.1411177 -52.46  0.000352743    1.463    0.316
        18 -11.1996     57.9862    212.3751   1.3711600072e+02   2.3162524035e+01    0.4682758    0.2017421  63.15  0.001964354    2.755    0.637
        19 -12.9340     27.5371    230.5873   1.4456130900e+02   2.3079417360e+01    0.2765295    0.2586985  85.29 0.0007417279    1.457    0.314
        20 -10.5359     54.1155    203.9453   1.3701562013e+02   2.5549541959e+01    0.3181849    0.1730958  70.36  0.001562256    1.958    0.489
        21 -11.8617    123.3764    249.6446   1.2831702076e+02   5.5190684427e+00    0.6552806    0.2928723  45.65  0.003114687    1.858    0.462
        22  -9.4094    193.5177    196.0162   1.0519923639e+02   2.9403851354e+00    0.2012123    0.1269632 -67.39 0.0008101531    2.703    0.630
        23 -11.5537      6.0227    191.3678   1.4564172127e+02   3.3646583885e+01    0.3631595    0.2246384  83.10 0.0009114604    1.318    0.241
        24 -11.9972     62.7853    189.0840   1.3338418009e+02   2.7793684892e+01    0.2793506    0.2424047 -79.12 0.0004188209    1.117    0.105
        25 -11.2337      3.5860    183.7435   1.4552879382e+02   3.5541361939e+01    0.3769711    0.2159843  63.19  0.001708748    1.646    0.392
        26 -10.7916     73.8095    176.3042   1.2906021929e+02   2.9253694233e+01    0.2467809    0.2122509 -84.24 0.0002940315    1.031    0.030
        27 -13.2744     60.1995    174.1549   1.3199502000e+02   3.1671804014e+01    0.5449283    0.2798339 -47.12  0.001957151    2.285    0.562
        28  -9.3700     92.9553    170.2250   1.2342787860e+02   2.7725871220e+01    0.2294264    0.1801482  75.46 0.0008034533    1.317    0.241
        29 -11.9435     81.7290    167.2270   1.2570033952e+02   3.0246472797e+01     0.716931     0.585118 -53.53  0.003948391    1.257    0.205
        30 -12.5093     10.2735    120.6972   1.3722654591e+02   4.9393925930e+01    0.5792266    0.4082454  50.19   0.00316275    1.700    0.412
        31 -10.6440     95.0158    151.9268   1.1955259118e+02   3.1809855739e+01    0.3315957    0.3060916 -73.43 0.0007931231    1.017    0.016
        32 -11.8488     83.6041    150.6631   1.2230152026e+02   3.3980587586e+01    0.3182059    0.2534902 -47.92 0.0005812417    1.278    0.218
        33  -9.3203     98.2459    147.7914   1.1788325731e+02   3.2258435246e+01    0.2167194    0.1950699 -84.07 0.0006394614    1.086    0.079
        34 -11.9945     68.2323    143.2356   1.2502202707e+02   3.8065711703e+01    0.6556205    0.4447369  79.14  0.002178183    1.850    0.459
        35 -11.1026     64.6596    141.6882   1.2570600963e+02   3.8930203893e+01     0.362192    0.2322414 -46.92 0.0009005325    1.554    0.357
        36 -11.6828     55.9647    197.4105   1.3589385511e+02   2.6786969141e+01    0.2763675      0.22781 -70.76 0.0004753709    1.220    0.180
        37  -9.9590    108.0851    136.8409   1.1293384701e+02   3.3123242439e+01    0.4343407     0.294524 -16.88   0.00174616    2.429    0.588
        38 -10.6392     94.8138    134.1627   1.1594160842e+02   3.6134107091e+01    0.2511364    0.2242526 -40.92 0.0002800204    1.151    0.131
        39  -9.2495    105.5345    123.5225   1.1054794826e+02   3.6735041510e+01     0.150661    0.1441435 -55.15 0.0001000504    1.008    0.008
        40 -10.0214     74.9476    119.5363   1.1834291975e+02   4.2779570094e+01    0.2602331    0.2091733  72.20  0.001170183    1.495    0.331
        41  -8.9791     62.2063    118.7495   1.2191508907e+02   4.4737772691e+01    0.2164838    0.1366893  75.01 0.0009230335    2.580    0.612
        42  -9.2419     66.7548    113.2540   1.1936234561e+02   4.5407891003e+01    0.1951219    0.1775856 -80.98 0.0005680569    1.173    0.147
        43  -9.4071     62.9755     79.1919   1.1193520962e+02   5.3320288750e+01    0.1828711    0.1757075  61.11 0.0004831034    1.290    0.225
        44  -9.6800    159.2278     77.4227   8.4551708875e+01   3.4639076210e+01    0.2127697    0.1425932  66.64 0.0005868502    1.622    0.384
        45  -8.6212     51.6941     72.3039   1.1382797730e+02   5.6131342525e+01    0.1160528    0.1026488  87.16 0.0003893902    1.601    0.375
        46  -8.9348     42.9812     67.4817   1.1553364152e+02   5.8063741976e+01    0.1674204    0.1003842  51.13 0.0008100435    2.717    0.632
        47 -11.5750    200.5302    248.4840   1.1306227763e+02  -7.1910480889e+00    0.4122629    0.3080962  71.97  0.002250697    2.343    0.573
        48 -10.4365     64.8453    248.3480   1.3926580088e+02   1.4773338242e+01    0.2661477     0.174878  74.42  0.000747312    1.322    0.244
