#   1 NUMBER                 Running object number                                     
#   2 MAG_AUTO               Kron-like elliptical aperture magnitude                    [mag]
#   3 X_IMAGE                Object position along x                                    [pixel]
#   4 Y_IMAGE                Object position along y                                    [pixel]
#   5 X_WORLD                Barycenter position along world x axis                     [deg]
#   6 Y_WORLD                Barycenter position along world y axis                     [deg]
#   7 A_WORLD                Profile RMS along major axis (world units)                 [deg]
#   8 B_WORLD                Profile RMS along minor axis (world units)                 [deg]
#   9 THETA_WORLD            Position angle (CCW/world-x)                               [deg]
#  10 FWHM_WORLD             FWHM assuming a gaussian core                              [deg]
#  11 ELONGATION             A_IMAGE/B_IMAGE                                           
#  12 ELLIPTICITY            1 - B_IMAGE/A_IMAGE                                       
         1 -12.5846    132.5587     19.1975   2.6627877794e+01   5.0051814662e+01    0.4849452    0.2645403  39.26 0.0005233999    1.868    0.465
         2 -11.8190     31.2799     13.4309   5.7728638832e+01   6.9466817538e+01    0.3138705    0.2516698 -45.57 0.0005248797    1.648    0.393
         3 -12.1113    238.1103     17.6661   1.1552289428e+01   2.3977857795e+01     0.239112    0.1943124 -63.87 0.0002875619    1.062    0.058
         4 -11.8440     74.7740     15.7288   4.0879409090e+01   6.2827590840e+01    0.5537412    0.3306231  52.65   0.00291683    1.926    0.481
         5 -11.0696     77.2430     10.0039   3.7478753526e+01   6.3031622740e+01    0.3868774    0.1698704  37.34  0.001793983    2.147    0.534
         6 -10.1722     72.5121     10.4888   3.9292498612e+01   6.3842305124e+01    0.2222045    0.1292459  26.82 0.0007155985    1.683    0.406
         7 -11.0866     19.6172     16.4876   6.4819126580e+01   7.0137908987e+01    0.2962579    0.2492221 -21.09  0.002243623    1.195    0.163
         8 -10.8259     11.1297     14.7325   6.8416798618e+01   7.1093438000e+01    0.2468536    0.1311886 -22.61  0.001341523    1.729    0.422
         9 -11.6345      3.5054     16.3194   7.3024593318e+01   7.1323878064e+01    0.2797621    0.2371734  57.74  0.001846817    2.035    0.509
        10 -11.7626    130.0241     12.2667   2.4667226423e+01   5.1384245080e+01    0.4039307     0.260511 -50.24  0.002010338    1.922    0.480
        11 -12.2588    154.9184      9.5763   1.9284629576e+01   4.5490870694e+01    0.3882328    0.2743487 -38.28  0.001633383    1.541    0.351
        12 -10.9331    165.0265     11.7022   1.8404134223e+01   4.2719847161e+01    0.2008312    0.1675983  70.38 0.0007108903    1.072    0.067
        13 -11.9961    176.7044     10.6125   1.6440074026e+01   3.9854540603e+01    0.3374806    0.2193586  49.73  0.001211512    1.531    0.347
        14 -12.3247    145.7190      8.0455   2.0289549391e+01   4.7941346108e+01    0.4669906    0.3124656 -16.78  0.002451657    1.718    0.418
        15 -11.1020     37.2071      7.7375   5.2205360354e+01   6.9566062729e+01    0.2462816    0.2277816  57.63 0.0007828908    1.915    0.478
        16 -11.9359      9.3542      8.0288   6.6476083910e+01   7.2290285798e+01    0.2488984    0.1975462  -4.61 0.0008123973    1.232    0.188
        17 -10.8646     11.2633      3.1781   6.3169206707e+01   7.2872798670e+01    0.2416591    0.1845547 -39.61  0.001736972    1.450    0.310
        18 -10.6139    213.1865      8.5977   1.1730582453e+01   3.0920748965e+01    0.1914396    0.1066376  62.77 0.0008834052    1.688    0.408
        19 -10.7504    231.6138      5.9253   9.4285595801e+00   2.6811807105e+01    0.4065107    0.1575983  84.72  0.001302327    2.875    0.652
        20 -10.2439    222.7814      5.8494   1.0170082437e+01   2.8900396428e+01    0.1746538     0.164675  82.99 0.0005024368    1.204    0.169
        21 -11.4213    164.3136      4.8001   1.6394679299e+01   4.3564250334e+01    0.2446126    0.2171323 -87.44 0.0005619443    1.105    0.095
        22 -10.6244    201.6067      3.5323   1.1604359574e+01   3.4290073579e+01    0.2688945    0.1448711  47.67  0.001269977    2.123    0.529
        23 -11.1322    178.9805      3.9193   1.4224086820e+01   3.9929648917e+01    0.2032816    0.1760746  81.24 0.0002966639    1.011    0.011
        24  -9.9591    106.0028      4.0162   2.6794602792e+01   5.7715979089e+01    0.1554025    0.1243587  46.18            0    1.095    0.087
        25 -11.6001     27.4254      3.0658   5.4578000295e+01   7.1332732996e+01    0.2271222    0.1906548 -25.60  0.001171563    1.406    0.289
        26 -10.5749    126.2275      2.7504   2.1962197217e+01   5.3164116992e+01    0.1837302    0.1659051  21.90 0.0007705452    1.136    0.120
        27 -10.7371    129.5141      1.5827   2.0917116067e+01   5.2475590449e+01    0.1906306    0.1593858  58.59 0.0001260499    1.064    0.060
        28 -10.9359    168.0701      1.9622   1.5031599504e+01   4.2870359112e+01    0.2003732    0.1743339  77.30 0.0003142171    1.018    0.018
        29  -9.9817     90.9811      2.0346   2.9797060061e+01   6.1110325071e+01    0.1481764    0.1249146   8.89 0.0003204564    1.129    0.114
        30  -9.4717    241.3698      9.2451   9.3771348700e+00   2.4203091408e+01    0.1195265   0.08892495  53.13 0.0003125893    1.621    0.383
        31  -9.7447     73.4973      1.5152   3.4787478980e+01   6.4589282473e+01    0.1252202    0.1014708  19.55 9.663067e-05    1.006    0.006
        32 -10.4353     34.7247      1.4083   5.0160902566e+01   7.0678979119e+01    0.2691197    0.1010811  41.69  0.001285864    3.136    0.681
        33  -9.8897     22.4658      1.4986   5.6306779666e+01   7.2072214741e+01    0.1151723   0.08186749 -10.98 2.903105e-05    1.078    0.073
        34 -10.7682     18.2536    173.2145   9.5576688723e+01   3.6506303953e+01    0.1986669   0.09618532  67.06   0.00105223    1.999    0.500
        35 -10.4458    109.9013    249.7037   8.4580777327e+01   9.4522859206e+00    0.1744097      0.16205 -82.28 0.0009324446    1.334    0.250
        36 -11.8724     89.4596    249.5004   8.8241233438e+01   1.2504776920e+01    0.3067741    0.1853362  42.13   0.00108738    1.458    0.314
        37 -12.4050     14.4202    244.7333   1.0058920695e+02   2.2646638538e+01    0.2964628    0.1562857  86.76  0.001562083    1.543    0.352
        38 -12.0681     22.4970    248.6456   9.9498570648e+01   2.1106544383e+01    0.3405936     0.151018  54.02  0.001567012    1.635    0.389
        39 -11.2218     17.3556    247.2764   1.0024442637e+02   2.1893798304e+01    0.1645344    0.1191887  53.76 0.0007941031    1.325    0.245
        40 -12.3932      6.4761    244.6871   1.0182650698e+02   2.3457024945e+01    0.3453942    0.1781465  77.24  0.001280521    1.454    0.312
        41  -9.9291    176.7195    168.6716   5.8682037506e+01   1.2451456777e+01    0.1464912    0.1141236   0.41 0.0002876469    1.601    0.375
        42 -10.9518      5.5157    167.9724   9.7858638243e+01   3.8742348546e+01    0.1767742   0.08789961 -78.80 0.0007103574    1.569    0.363
        43 -10.8232     36.4193    165.9695   9.0940786047e+01   3.6341230533e+01    0.2992552    0.1653876  34.72  0.001643675    2.003    0.501
        44 -11.0806     50.6018    160.7310   8.7053636167e+01   3.5962015093e+01    0.4803937    0.2658587  75.38  0.002321343    2.067    0.516
        45 -10.8982     35.5817    161.1365   9.0629667890e+01   3.7531611921e+01    0.2019403    0.1952309  64.66  0.001444183    1.312    0.238
        46 -11.4051     21.0861    157.0460   9.3559951886e+01   3.9860187798e+01    0.2966202    0.2545301 -37.83  0.001793276    1.586    0.369
        47  -9.9864    216.4501    154.5153   4.7559535517e+01   6.9809564633e+00     0.143291    0.1334914  -4.37 4.188338e-05    1.012    0.012
        48 -10.9128     10.6667    152.9971   9.5573037997e+01   4.1648729152e+01    0.2343449    0.1688463  37.48  0.001566076    1.625    0.385
        49  -9.6906     21.2340    148.0051   9.2644428110e+01   4.1910364658e+01    0.1573453   0.08274228 -74.80 0.0003211024    1.534    0.348
        50 -10.8247    234.4783    146.9776   4.2589178207e+01   4.7072323699e+00    0.2189099    0.1301104 -34.61  0.001028819    1.581    0.367
        51 -10.4850      7.6787    145.3574   9.5599813174e+01   4.3597100030e+01      0.12608   0.06970795  71.59 0.0007045018    1.764    0.433
        52  -9.9679    187.5649    144.2018   5.1048833582e+01   1.4968484238e+01    0.2006218    0.1446867 -27.17 0.0003497304    1.515    0.340
        53 -10.6523      9.3367    137.0193   9.4433991766e+01   4.5368298048e+01    0.2477734   0.07303771 -67.35  0.001100597    2.444    0.591
        54 -11.2256      2.5745    135.4677   9.5937034193e+01   4.6185162463e+01    0.3259245   0.08638304 -74.21  0.001367444    2.822    0.646
        55 -10.0454     20.7138    134.3531   9.1306069281e+01   4.5107213841e+01    0.1272841   0.07792347  76.09 0.0004306794    1.666    0.400
        56 -11.8290     36.4787    131.5476   8.6830420657e+01   4.4351557372e+01     0.352845    0.1816607 -62.94 0.0006745543    1.606    0.377
        57 -10.0937     53.4596    132.5345   8.2397060771e+01   4.2291881475e+01    0.1336754    0.1148966 -71.17 8.829002e-05    1.044    0.042
        58 -13.0269    242.1112    133.3603   3.8241719704e+01   5.4958893239e+00    0.4685882    0.3104113 -11.36  0.001483392    1.853    0.460
        59 -10.8287     73.5037    128.9995   7.6263670644e+01   4.0545379884e+01     0.263592    0.2125734  43.29  0.001049332    1.330    0.248
        60 -10.1839     56.6664    126.8340   8.0574205300e+01   4.3274873356e+01     0.196008    0.1804135   7.66 0.0002183435    1.345    0.256
        61 -10.3460     22.0068    125.9809   8.9969330371e+01   4.6950186553e+01     0.150771     0.116425 -75.99 0.0003373328    1.034    0.033
        62 -11.5951     15.2782    125.3171   9.1678812396e+01   4.7623987984e+01    0.3041572    0.1597164  28.65  0.001701755    2.279    0.561
        63 -11.5622     10.6103    122.2573   9.2564862069e+01   4.8660441625e+01    0.2664877    0.1605441 -83.51  0.001581629    1.401    0.286
        64 -11.5297    243.5353    122.0354   3.5436603031e+01   7.1041752890e+00    0.2221103    0.1275992 -35.60  0.000864215    1.579    0.367
        65 -10.6349     19.8538    120.8990   8.9909094503e+01   4.8303795559e+01    0.2521333     0.108433 -64.45  0.001255738    1.790    0.441
        66 -11.7371     24.2508    118.2662   8.8342417857e+01   4.8569989519e+01     0.402879    0.1826156 -76.19  0.001922662    2.001    0.500
        67 -10.5313      1.3699    118.7322   9.4630308773e+01   5.0048801324e+01    0.2020567   0.08825538 -77.07 0.0004401625    1.795    0.443
        68 -11.9594    249.8016    117.7108   3.3466087999e+01   6.5658660531e+00    0.3258668    0.2088571 -37.04 0.0009466402    1.392    0.282
        69 -12.5762    248.4847    112.0579   3.2375457324e+01   7.7582546192e+00    0.4853466    0.3152751  34.10  0.001927228    1.881    0.468
        70 -11.0321     52.6006    115.6298   7.9756731005e+01   4.6430451857e+01    0.3053754     0.157084 -70.87  0.001250833    1.930    0.482
        71 -10.7765    182.6110    114.3103   4.4847881765e+01   2.2017925622e+01    0.2795548    0.2617458  10.04 0.0006593427    1.131    0.116
        72 -12.1674     23.1358    106.9906   8.7029702722e+01   5.1285387842e+01    0.6030337    0.3124651 -13.22  0.002277846    3.622    0.724
        73 -12.0586     14.3232    110.1307   9.0049998063e+01   5.1199352511e+01    0.3266536    0.2513168  85.70  0.001255939    1.264    0.209
        74 -10.1575     94.5085    112.0384   6.6656737249e+01   4.1296407869e+01    0.2304567    0.1379889 -52.11  0.000733508    1.570    0.363
        75 -11.2663     55.1169    109.0285   7.7746035860e+01   4.7704200994e+01    0.4431798    0.1716695 -55.42  0.001619826    2.148    0.534
        76 -11.1799      2.2734    106.6044   9.3040981930e+01   5.2745788829e+01    0.3635884    0.1409608 -66.50  0.001862412    1.854    0.461
        77 -12.1806    248.3665    105.3306   3.0843552554e+01   8.8860515034e+00    0.3798071    0.2544587 -88.46  0.001715346    2.419    0.587
        78 -11.0205     15.8922    115.1389   9.0263708553e+01   4.9933873537e+01     0.227179    0.1412842 -70.67 0.0007374627    1.263    0.208
        79  -9.5502    111.6934    105.7636   6.0162256637e+01   3.9593272106e+01    0.1429791    0.1187295   1.12  0.000684333    1.488    0.328
        80 -10.9722     37.9492    102.3878   8.1748574675e+01   5.1087574600e+01    0.2836797    0.1942491  75.24  0.001542112    1.820    0.450
        81 -11.5894     62.1980     99.0340   7.3421966266e+01   4.9178339978e+01    0.4137374    0.2736055 -36.96  0.001891323    1.600    0.375
        82 -10.9175     21.2594     98.4549   8.6254472900e+01   5.3397369277e+01    0.2281288    0.1389161 -66.44 0.0006550567    1.313    0.238
        83  -9.6012      9.6840     99.2881   8.9926211454e+01   5.3979229396e+01    0.1145913   0.08007836  74.72  0.000311477    1.590    0.371
        84 -11.7614    249.6063     91.7732   2.7521980442e+01   1.0826174183e+01    0.3042412    0.1033202 -41.25 0.0009699739    2.555    0.609
        85 -10.3076     34.2905     97.5676   8.2002007869e+01   5.2543599073e+01    0.2437047    0.1125165 -49.39  0.001168637    1.875    0.467
        86 -10.5185     41.3305     96.9100   7.9627323036e+01   5.2033799728e+01    0.1888126    0.1419686 -60.95  0.000580392    1.122    0.109
        87 -10.1191    227.2092     93.3725   3.1238874635e+01   1.5458778642e+01    0.1946198    0.1402442  72.40 0.0004879438    1.628    0.386
        88 -10.9870     38.3118     90.6687   7.9334624566e+01   5.3760251392e+01    0.3551639     0.131512 -58.08  0.001539267    2.134    0.531
        89 -11.1007    158.1078     90.3769   4.3826578599e+01   3.2608727476e+01    0.4472297    0.2723204  30.71  0.001596407    2.162    0.537
        90 -10.7675     83.6558     89.1927   6.4120662536e+01   4.8316715746e+01    0.2937079    0.2427538  40.19  0.001601993    1.307    0.235
        91  -9.7245     10.4952     90.5806   8.8380267776e+01   5.5900643340e+01    0.1195675   0.09375854 -63.76 0.0001369517    1.015    0.015
        92 -10.3299     47.5238     88.0474   7.5691423969e+01   5.3428053292e+01    0.1801861    0.1627696 -46.91 0.0003013049    1.065    0.061
        93 -11.2959     21.9660     87.1720   8.4065840034e+01   5.5915643573e+01    0.2248186    0.1507629 -64.56  0.001361977    1.214    0.176
        94 -11.6868    248.5128     98.4949   2.9238406855e+01   9.9704074338e+00    0.2608144    0.1254312 -35.97   0.00111301    1.859    0.462
        95 -11.3839    247.5639     84.2609   2.6050137793e+01   1.2457590237e+01    0.1937007    0.1278397 -26.28 0.0009470424    1.585    0.369
        96 -10.5614     65.3487     87.0790   6.9500946265e+01   5.1494586411e+01    0.1993402    0.1659827 -56.49  0.001145231    1.125    0.111
        97 -10.0429     54.2061     85.9839   7.2953421909e+01   5.3142584813e+01    0.1802794    0.1492506 -48.58            0    1.046    0.044
        98 -10.1560      9.9559     86.2172   8.7856267782e+01   5.6910697971e+01    0.1885536    0.1154215  60.78  0.001068703    2.156    0.536
        99 -10.1564    107.1238     84.6640   5.5609050829e+01   4.5094584257e+01    0.1984423    0.1840036  27.93 0.0003361309    1.108    0.098
       100 -11.7136     30.5255     81.6709   8.0067159599e+01   5.6485002024e+01    0.2874914    0.2211256 -42.85 0.0006124423    1.175    0.149
       101 -10.3452     15.8418     83.3838   8.5418022786e+01   5.7184544080e+01    0.1638578    0.1421866  65.22 0.0005231246    1.388    0.280
       102 -10.4101     68.9052     82.3168   6.7050034175e+01   5.2061709518e+01    0.1803724    0.1688852 -23.49 0.0003170913    1.076    0.071
       103  -9.4561     62.4530     82.4584   6.9263542588e+01   5.2905639385e+01    0.1371388    0.1194512 -41.15 9.889434e-05    1.027    0.026
       104 -10.5765     42.0458     82.0711   7.6170803131e+01   5.5340626263e+01    0.1856802    0.1477406  83.56 0.0004078074    1.582    0.368
       105 -10.1605    119.8069     80.7907   5.0784681992e+01   4.3294117911e+01    0.1986969    0.1782037  87.98 0.0003319188    1.304    0.233
       106  -9.8545     75.2945     81.6609   6.4738905265e+01   5.1274205427e+01    0.1366561    0.1103166 -88.06 0.0007029345    1.653    0.395
       107 -10.4580      7.6247     80.7975   8.7728799863e+01   5.8245143974e+01    0.2225587    0.1229898 -35.57  0.001097328    1.885    0.469
       108 -10.4270    111.9445     78.2336   5.2245639597e+01   4.5451846546e+01    0.2196808    0.1904204   4.83 0.0004354359    1.256    0.204
       109 -10.6678     88.1401     77.3998   5.9293197826e+01   5.0112150257e+01     0.246024    0.1857275 -45.08 0.0001313136    1.250    0.200
       110 -10.6375     99.9401     76.7521   5.5380532891e+01   4.8116764404e+01    0.2522827    0.2034077 -42.16 0.0005326378    1.194    0.162
       111 -14.4124     16.6610     67.3930   8.1940193913e+01   6.0635410106e+01    0.5732334     0.409038 -76.14  0.001266882    1.467    0.318
       112 -11.2800     44.7628     74.8823   7.3449082126e+01   5.6648168323e+01      0.19608    0.1839629  21.92 0.0003529486    1.240    0.194
       113 -11.6499    167.7548     73.4509   3.6769218032e+01   3.3391802212e+01    0.2595555    0.2497938 -52.04 0.0002873147    1.044    0.043
       114 -11.2412      5.4611     57.9148   8.4130583789e+01   6.3276835651e+01    0.2942279    0.1879569  60.90  0.001728026    2.415    0.586
       115 -12.1439      6.9125     73.0160   8.6605314399e+01   5.9987768327e+01     0.358853    0.2818601 -43.14  0.001845702    1.188    0.159
       116 -10.5124      6.0000     69.0141   8.6184033996e+01   6.0899533170e+01    0.2658966   0.09992849 -58.63  0.001024271    1.860    0.462
       117 -12.4428      2.6332     63.4608   8.6350271891e+01   6.2247188361e+01      0.50284     0.275103 -79.23  0.002167483    1.940    0.484
       118 -10.8951     53.9717     72.0190   6.9378188108e+01   5.6233285229e+01    0.1936393    0.1724083 -41.01 -0.005334738    1.046    0.044
       119 -12.1041     50.3270     68.3422   6.9662527535e+01   5.7439517107e+01     0.359915     0.220216 -57.52 0.0005755887    1.574    0.365
       120 -10.9371    122.8296     67.2936   4.5690920826e+01   4.5239211872e+01    0.2611387     0.205523 -34.39 0.0005456744    1.270    0.212
       121 -10.2502    139.7276     66.1067   4.0916619042e+01   4.1563841911e+01    0.2625996    0.2022455  60.75  0.001254057    1.362    0.266
       122 -11.6740    156.0008     63.4631   3.6292390254e+01   3.8052182289e+01     0.269509    0.2328703 -38.71 0.0003311028    1.180    0.153
       123  -9.6136    106.2413     63.9947   4.9354397611e+01   4.9371254303e+01    0.1805953    0.1200409 -38.33 0.0008441356    1.475    0.322
       124 -11.1537     32.1005     64.0000   7.5294422836e+01   6.0191078704e+01    0.2758065    0.1570449  35.44  0.001108558    2.115    0.527
       125 -11.0856     28.2857     60.6328   7.5873803407e+01   6.1217952778e+01    0.4537694    0.2131845  18.07  0.001795104    2.594    0.615
       126 -12.3599    236.9203     62.4448   2.2266081836e+01   1.8205797382e+01    0.4748313    0.2498498 -71.18  0.001802247    2.991    0.666
       127 -11.0254     76.4558     62.1789   5.8382284736e+01   5.5120039486e+01    0.3169954     0.205041  33.36  0.001372026    1.637    0.389
       128  -9.5577    168.7774     62.6785   3.3361743023e+01   3.4972224915e+01    0.1441481    0.1180693   7.51 0.0001479736    1.498    0.333
       129 -11.2807     46.0575     60.6589   6.9016299338e+01   5.9511564861e+01    0.2992014    0.1526799 -48.64 0.0009726996    1.654    0.395
       130 -10.1898    115.1427     59.9329   4.5390412130e+01   4.8245717713e+01    0.3357344    0.1868683  26.27   0.00127388    2.575    0.612
       131 -10.0768     98.2474     60.0192   5.0456671272e+01   5.1685794937e+01    0.1944294    0.1762448 -18.37  0.001098588    1.043    0.041
       132 -10.9494     58.8792     59.1971   6.3723292771e+01   5.8259066842e+01    0.2231763    0.1935567 -25.59 0.0005968073    1.021    0.020
       133 -10.4096    202.1271     62.4168   2.7268769628e+01   2.6573865159e+01    0.2299536    0.1955784 -25.02  0.001203151    1.276    0.216
       134 -10.4263     80.6985     55.9748   5.4810654688e+01   5.5603903807e+01    0.4376027     0.238248 -10.92  0.001460758    4.128    0.758
       135  -9.9680    115.7607     56.3270   4.3986131428e+01   4.8738794018e+01     0.198523    0.1286639  40.50 0.0003141223    1.534    0.348
       136 -10.7701     74.8698     56.0943   5.6879730940e+01   5.6535348820e+01    0.2068567    0.1737921 -12.70 0.0007116289    1.132    0.117
       137 -12.8876     37.7287     49.7519   6.8918655866e+01   6.2557610458e+01    0.6501213    0.4854467 -44.19  0.004120182    1.153    0.133
       138 -10.7634     27.3280     48.8395   7.2919196640e+01   6.3687656409e+01    0.3099016    0.1862592 -68.07  0.001662476    2.105    0.525
       139 -12.5122     12.4414     47.6414   7.8815078873e+01   6.4992652242e+01    0.4790712    0.2558796 -69.58  0.001470628    2.102    0.524
       140 -11.9771      3.8420     48.4489   8.2616882113e+01   6.5296197592e+01    0.6136427    0.1804338 -55.98  0.002962615    2.228    0.551
       141 -10.8013      6.9182     42.6383   7.9827807510e+01   6.6297187713e+01    0.4263104    0.1025119 -52.94  0.001915666    2.566    0.610
       142 -10.0413    154.4464     52.6440   3.3240720014e+01   4.0193377725e+01    0.2581386    0.1369261  56.21 0.0009900589    1.804    0.446
       143 -11.6022    129.9535     49.6877   3.7932351374e+01   4.6615418380e+01    0.5446085     0.379945  43.52  0.001292276    1.387    0.279
       144 -10.1876     78.4872     47.4668   5.2525035014e+01   5.7498859682e+01    0.2138386    0.1197329 -29.57 -9.387028e-06    1.811    0.448
       145 -12.5720    105.0918     52.4348   4.5717056182e+01   5.1658034043e+01    0.2906274    0.2708835   8.30 0.0003213892    1.011    0.011
       146 -11.6591     51.8274     46.3727   6.2094494026e+01   6.1614513512e+01    0.3860797    0.2122431 -51.02  0.001717353    1.862    0.463
       147 -10.6720     83.0443     47.8308   5.1087660390e+01   5.6651692335e+01    0.1991401    0.1927776 -82.03  0.001221012    1.330    0.248
       148 -10.6100     69.1080     48.0484   5.6097372077e+01   5.8906207719e+01    0.1940815    0.1681773 -15.05 0.0003316639    1.010    0.010
       149 -10.5224    112.3264     45.3748   4.1091894351e+01   5.1274800701e+01     0.233888    0.1967074  13.23 0.0005510929    1.206    0.171
       150 -10.8429     27.8522     53.1347   7.3971634877e+01   6.2788832244e+01    0.3315946    0.2232584 -19.47  0.001680319    1.540    0.351
       151  -9.8568     56.8797     50.6263   6.1612855487e+01   6.0175300657e+01    0.2342451    0.1486065 -62.49 0.0009672191    2.264    0.558
       152 -11.7731     44.5889     43.3589   6.3946972161e+01   6.3034001962e+01    0.2874566    0.2214965 -54.40  0.001017787    1.477    0.323
       153 -11.4978     44.8406     38.1106   6.1927952478e+01   6.3949200962e+01    0.2032965    0.1677516 -24.64 -0.0006383859    1.038    0.037
       154 -10.9293     24.0932     41.8830   7.2129360077e+01   6.5300227456e+01    0.4315514    0.1357984 -49.86  0.001619738    2.388    0.581
       155 -13.2690     27.0114     37.1286   6.9264739981e+01   6.5946207082e+01     0.401651    0.3586951  49.62  0.001424742    1.623    0.384
       156 -10.9315     72.6395     42.6536   5.2800670415e+01   5.9286209336e+01    0.3009956     0.205612 -45.40 -0.0001541599    1.570    0.363
       157 -10.6626     67.1098     42.2892   5.4694494075e+01   6.0217156077e+01    0.2433498     0.155034 -30.28  0.001293564    1.459    0.315
       158 -11.0931     89.4566     41.4288   4.6546470089e+01   5.6540562137e+01    0.2625805    0.2065779  25.12 0.0008126419    1.234    0.190
       159 -10.6479     18.2910     42.2202   7.4757806894e+01   6.5673966083e+01    0.1974674     0.107426 -40.80 0.0008173736    1.448    0.310
       160  -9.5387     88.6569     50.2882   5.0106499914e+01   5.5222011114e+01    0.1301962    0.1132419 -88.41 0.0005018503    1.648    0.393
       161  -9.6611    236.2685     39.6788   1.6877759681e+01   2.1614816460e+01    0.1417172   0.08919633 -61.15 0.0002230215    1.564    0.360
       162 -10.1957    159.4844     38.3156   2.7676251807e+01   4.1002030233e+01    0.2398181      0.12745  60.46 0.0001907362    1.766    0.434
       163 -11.1869     82.7687     36.6115   4.6900919738e+01   5.8524621593e+01    0.3925221    0.2286533   1.73  0.001635723    2.736    0.635
       164 -10.4987     53.7577     36.6201   5.7693597156e+01   6.3089862169e+01    0.2149473    0.1648854 -63.47 0.0006011362    2.006    0.502
       165 -12.0666     57.7066     33.9450   5.5055205266e+01   6.2990820515e+01    0.2925051    0.2225223 -31.54 0.0005389578    1.206    0.171
       166 -10.0032      1.4711     37.0753   8.0720225968e+01   6.7650642040e+01    0.1702165   0.08295153 -55.56  0.001007926    1.534    0.348
       167 -10.0271    248.2687     36.0564   1.4783719350e+01   1.9366395245e+01    0.1828165    0.1510378 -52.81 0.0005323353    1.086    0.080
       168  -9.8477    194.3232     36.2647   2.1286389393e+01   3.2348094203e+01    0.1941025    0.1229715 -41.25  0.000919816    1.567    0.362
       169 -12.0690     75.1845     34.8443   4.8833813666e+01   6.0125106453e+01    0.4541901    0.3069914 -10.71  0.001035483    1.588    0.370
       170 -11.6178    111.3271     34.6885   3.7434082922e+01   5.3064603834e+01    0.2613502    0.2385606  44.90  0.000540105    1.116    0.104
       171 -10.2263      8.9969     34.5055   7.6549888638e+01   6.7745006930e+01    0.2014094    0.1142961 -38.28  0.001265614    1.371    0.271
       172 -10.9432      7.9476     30.6744   7.5830898116e+01   6.8519942964e+01    0.2358076    0.2066234  87.55  0.001185486    1.710    0.415
       173  -9.6454    177.3274     34.3280   2.3323476783e+01   3.6956991035e+01    0.1505187     0.106268  33.24 0.0007050647    1.704    0.413
       174 -10.2136    122.5100     33.4645   3.4071472050e+01   5.0706695730e+01     0.288328    0.1885286  42.23   0.00120265    1.446    0.309
       175  -9.6511    140.4378     33.6017   2.9977123729e+01   4.6401733374e+01    0.1431502    0.1309724  46.88 4.438208e-05    1.019    0.018
       176 -10.8789     96.3992     42.4430   4.4719092392e+01   5.5040592627e+01    0.3013628    0.1954082  16.50 0.0007684747    1.914    0.478
       177 -10.7144    221.6960     31.7972   1.6594358978e+01   2.6113623153e+01    0.2124976    0.1712251 -47.35 0.0002813132    1.189    0.159
       178 -11.0882     17.8854     31.1809   7.1340122628e+01   6.7767536767e+01    0.2970009     0.211465   6.83  0.002033852    1.496    0.331
       179 -10.9743     49.4760     29.2075   5.6479791271e+01   6.4873435729e+01    0.3697328    0.1716919 -34.19   0.00145705    1.954    0.488
       180 -10.4027      1.3921     30.9673   7.9010354494e+01   6.8813971328e+01    0.1584486   0.08287489 -54.82  0.000316697    1.485    0.327
       181 -10.0480    207.6455     30.7186   1.7998805978e+01   2.9706489104e+01    0.1400826    0.1017901  40.90 0.0004023615    1.659    0.397
       182 -10.1345    144.9552     30.0293   2.7823946073e+01   4.5740151266e+01    0.1656855    0.1593226  44.81 0.0003304691    1.040    0.038
       183 -11.6160    156.8179     28.2865   2.4973449143e+01   4.2970219268e+01    0.2378945    0.2239539  56.17  0.000258166    1.032    0.031
       184 -10.9939     79.4444     28.5535   4.4779303059e+01   6.0310325402e+01    0.3088869    0.2083247  -3.38 -2.991263e-05    1.629    0.386
       185  -9.8805    238.1939     28.0991   1.3951034959e+01   2.2682573422e+01     0.184119    0.1289661 -61.26  0.000261667    1.296    0.229
       186 -10.6261    197.7020     28.0519   1.8563519713e+01   3.2540941335e+01    0.1933207    0.1759094  88.34  0.000586812    1.019    0.019
       187 -11.0393    112.2881     26.9508   3.4249225543e+01   5.3872362749e+01    0.3628518    0.2366225 -14.96  0.001640533    1.693    0.409
       188  -9.7715    135.4643     34.9721   3.1542948956e+01   4.7434694992e+01     0.198404     0.112337 -53.22 0.0008069007    2.371    0.578
       189 -10.4438    226.5364     24.7826   1.4345458519e+01   2.5833198576e+01    0.3638948     0.138708 -42.50 0.0008112444    2.332    0.571
       190  -9.4402     16.3074     26.3121   7.0341811430e+01   6.8752276625e+01    0.1208856   0.06622429 -27.69 0.0007024867    1.621    0.383
       191 -10.0331      6.9541     25.0000   7.4417161148e+01   6.9608442260e+01    0.1916593    0.1145582  37.87    0.0011813    2.438    0.590
       192 -10.5744      2.0083     25.7541   7.7092307708e+01   6.9744461396e+01    0.2078671    0.1337794 -39.58 0.0008111788    1.138    0.121
       193 -10.8293      2.4328     22.5027   7.5799477490e+01   7.0306813777e+01    0.1937497    0.1524201  -9.94 0.0006967118    1.290    0.225
       194 -11.0670    215.4819     25.0878   1.5617695736e+01   2.8470214184e+01    0.3392122    0.1778567  67.95   0.00149663    1.792    0.442
       195 -10.5142     22.3506     24.1289   6.6610783597e+01   6.8644654803e+01    0.1875952    0.1314712  -9.74 0.0005708557    1.325    0.245
       196 -10.7234    101.1324     28.4342   3.7891055997e+01   5.6096004805e+01    0.2732453    0.2018885 -53.05   0.00109017    1.796    0.443
       197 -10.6287    219.3681    248.1399   6.4338545549e+01  -7.6078937699e+00    0.1409276    0.1086518 -41.58 0.0009469215    1.770    0.435
       198 -10.2108     54.8886     23.4497   5.1799711919e+01   6.5015950562e+01    0.1759052    0.1141091  34.24  0.001019225    1.581    0.367
       199  -9.8057     93.9834     22.2334   3.7498133889e+01   5.8359399816e+01    0.1717669    0.1038883  48.55 0.0002971939    1.578    0.366
       200  -9.6727    155.6970     21.7007   2.3054737771e+01   4.4027137140e+01    0.1447254   0.09958412  35.71 0.0003005729    1.586    0.369
       201 -11.1843     66.3684     20.6690   4.6092082114e+01   6.3642390111e+01     0.301733    0.1995915  63.57  0.001240998    2.864    0.651
       202 -11.2379     58.9639     20.9354   4.9058434227e+01   6.4774684410e+01    0.2030188    0.1592178 -18.37 0.0004708127    1.141    0.123
       203 -10.0134     34.5949     20.9855   5.9544224512e+01   6.7959307687e+01    0.2287391    0.1523162 -55.86 0.0006853735    2.241    0.554
       204 -10.4918     10.9537     24.2283   7.2181164169e+01   6.9494417716e+01     0.209163   0.09869923 -39.69  0.000930129    1.605    0.377
       205 -10.1039    181.4748     19.8550   1.8466869105e+01   3.7646991066e+01    0.1884298    0.1383733 -30.49 0.0004908983    1.476    0.323
       206  -9.9176     87.2128     20.1445   3.8702781818e+01   5.9962423010e+01    0.1578787    0.1552905 -39.63 0.0003500968    1.310    0.236
       207 -11.2961     28.5146     19.7679   6.1871415573e+01   6.8788099725e+01    0.3967793    0.2034332  12.82  0.002142872    2.283    0.562
       208  -9.6404     72.2785    250.3583   9.1331488267e+01   1.4749991325e+01   0.09167457   0.08889484 -42.88 0.0007011299    1.661    0.398
       209 -10.9863     72.8415    244.8731   9.0801271691e+01   1.5629155050e+01    0.2433306    0.1729347  44.69   0.00129088    1.348    0.258
       210 -10.3760    108.1935     18.0295   3.1852219151e+01   5.5835845037e+01    0.2178004    0.1614429  18.91  0.001195197    1.374    0.272
       211 -12.9271     75.8210    238.4243   8.9732998886e+01   1.6372372119e+01    0.4948938    0.3934855 -66.77  0.003501331    1.519    0.342
       212 -11.1469     18.2048    236.5214   9.9588120550e+01   2.3727037901e+01    0.4152993   0.09780234  54.12  0.001965736    3.058    0.673
       213 -10.5895     30.6076    234.8197   9.7430070327e+01   2.2699429082e+01    0.1540705   0.07896877  84.76 0.0007207136    1.711    0.415
       214 -10.8923    183.7409    234.5906   6.8818407144e+01  -1.4851701235e-01    0.1818073     0.100633  46.14 0.0009528647    1.630    0.387
       215 -10.3285    160.0346    235.4964   7.3469555619e+01   3.6848221803e+00    0.1759547   0.09802994  23.45 0.0005959797    2.444    0.591
       216 -10.4204     15.1505     13.7975   6.5939021614e+01   7.0938351175e+01    0.1956014    0.1360799  19.27 0.0006537753    1.578    0.366
       217  -9.6532    166.6700    232.6685   7.1796869967e+01   3.0095007062e+00    0.1266614   0.09176961  12.78 0.0007051881    1.719    0.418
       218 -10.8456    194.3775     16.7377   1.5908506111e+01   3.4712037571e+01    0.2549195    0.2025889  75.98 0.0008754825    1.139    0.122
       219 -10.5574    103.2153     17.0038   3.2752321722e+01   5.7036641444e+01    0.1783722    0.1740129 -30.20  0.000411497    1.221    0.181
       220 -10.3275     51.1989     15.6218   4.9809055451e+01   6.6647062351e+01    0.1754907    0.1408407 -14.81  0.001171627    1.111    0.100
       221 -10.8968     41.5125     18.9515   5.5512683412e+01   6.7462912459e+01    0.2218821     0.190465  13.25  0.001386178    1.268    0.211
       222  -9.9288    159.2823     15.6467   2.0520322345e+01   4.3775720438e+01    0.1425817   0.09982514 -63.75 0.0004064936    1.658    0.397
       223 -10.0744    185.2761     14.3890   1.6400265759e+01   3.7277932081e+01    0.1887086     0.121071  82.11 0.0004469639    1.516    0.340
       224  -9.7173     24.2328    232.0347   9.8349240352e+01   2.3914432253e+01    0.1307764   0.07273369 -83.59 0.0004216324    1.565    0.361
       225 -11.2111     59.9206     13.9199   4.5499275364e+01   6.5559053543e+01    0.1936522    0.1554404   3.74  0.000670175    1.027    0.026
       226 -10.8299    184.1627    229.6960   6.7998514422e+01   5.0379899829e-01    0.2599485    0.1428511 -18.37  0.001103041    3.431    0.709
       227  -9.8589    151.5241    228.5038   7.4153260089e+01   6.2515789474e+00    0.1294539    0.1074277  45.56 0.0002341822    1.015    0.015
       228 -10.5491    191.4847    226.4499   6.6095144613e+01  -2.5104721701e-01    0.2111199    0.1924914 -50.40   0.00130887    1.405    0.288
       229 -10.2446      3.5130    226.0264   1.0149556957e+02   2.7124232744e+01    0.1527249   0.07913759 -85.16 0.0008175035    1.567    0.362
       230  -9.9680    230.2053    221.9581   5.8162675092e+01  -5.9744510244e+00    0.1522695   0.09328695 -31.62  0.000864571    1.734    0.423
       231 -10.2479    211.9737    218.5028   6.0911684942e+01  -2.5414436032e+00    0.1914764     0.161451 -16.50   0.00119473    1.242    0.195
       232 -10.5327     50.3042    218.1555   9.2774198217e+01   2.3573421432e+01    0.1729856     0.133089 -70.18  0.001189045    1.446    0.308
       233 -10.7599     29.2925    215.7843   9.6483507172e+01   2.6482450703e+01    0.1954023    0.1488601  39.02  0.001139749    1.580    0.367
       234 -10.5887     24.1130    216.1446   9.7440137588e+01   2.6966188866e+01    0.1588944   0.09579646  71.10 0.0004364127    1.292    0.226
       235 -12.2256     11.4693    209.7086   9.9320696251e+01   2.9508463015e+01    0.4246864    0.1802993  84.42  0.002342195    2.090    0.521
       236 -12.4550      5.7648    208.6016   1.0027150380e+02   3.0262238775e+01     0.391937    0.1702928 -79.08  0.002332919    1.886    0.470
       237 -11.1375      1.9096    206.0617   1.0082068897e+02   3.1112189008e+01    0.1875882    0.1102321 -72.95  0.001282041    1.582    0.368
       238 -10.7154    217.3796    210.8138   5.8562269991e+01  -2.3382426417e+00    0.1797158    0.1138284 -21.94 0.0009585293    1.738    0.425
       239 -11.4500     14.7133    222.0221   9.9423180796e+01   2.6792966625e+01    0.2720567    0.1173419  37.43  0.001365857    2.324    0.570
       240 -11.1522     19.9148    201.0514   9.7251673834e+01   3.0428857059e+01    0.4508734   0.08169924 -66.53  0.001773728    4.144    0.759
       241 -11.0439    175.4209    202.4739   6.5306680130e+01   6.4515008993e+00    0.2376924    0.2044086  34.51 0.0005385173    1.031    0.030
       242  -9.7176    238.3525    200.6817   5.2877029184e+01  -4.3722478398e+00      0.11402    0.1047707  81.18 0.0007047116    1.743    0.426
       243 -11.5386     15.5094    193.1312   9.7569781656e+01   3.2495900837e+01    0.2552677    0.1720189  38.35  0.001075085    1.676    0.404
       244 -10.1301    244.3507    187.7012   4.9329750730e+01  -3.4989319061e+00    0.1149993    0.1064684 -88.12 0.0007036417    1.689    0.408
       245  -9.6002     61.7328    184.6469   8.7300299674e+01   2.9144653872e+01    0.1189895   0.09284916 -48.82 0.0005721192    1.627    0.385
       246 -12.6975     17.1913    181.6086   9.6436764756e+01   3.4780015923e+01    0.4451854     0.242566  40.17  0.002714515    1.878    0.468
       247 -10.6443    244.1674    178.8451   4.7606129380e+01  -2.1577785650e+00    0.1909423    0.1393119  -3.75 0.0007137712    1.365    0.267
