#   1 NUMBER                 Running object number                                     
#   2 MAG_AUTO               Kron-like elliptical aperture magnitude                    [mag]
#   3 X_IMAGE                Object position along x                                    [pixel]
#   4 Y_IMAGE                Object position along y                                    [pixel]
#   5 X_WORLD                Barycenter position along world x axis                     [deg]
#   6 Y_WORLD                Barycenter position along world y axis                     [deg]
#   7 A_WORLD                Profile RMS along major axis (world units)                 [deg]
#   8 B_WORLD                Profile RMS along minor axis (world units)                 [deg]
#   9 THETA_WORLD            Position angle (CCW/world-x)                               [deg]
#  10 FWHM_WORLD             FWHM assuming a gaussian core                              [deg]
#  11 ELONGATION             A_IMAGE/B_IMAGE                                           
#  12 ELLIPTICITY            1 - B_IMAGE/A_IMAGE                                       
         1 -14.9143    161.9433     43.8573   2.9017466708e+02   6.3502313428e+00   0.06392935    0.0484437 -51.06  0.003438557    1.377    0.274
         2 -13.4485    189.8491     12.7581   2.8965677265e+02   6.5510993090e+00   0.05927143   0.03133645  60.51  0.004831067    2.696    0.629
         3 -14.5299    176.5539     10.1085   2.8980828393e+02   6.6581662994e+00   0.06479833   0.03891087  48.08  0.004914934    1.756    0.430
         4 -13.6516    173.1002     15.8751   2.8988285648e+02   6.6110717566e+00   0.04207576   0.02215066  42.29  0.003414243    1.866    0.464
         5 -13.7251    165.1736    189.0826   2.9092360413e+02   4.6438321687e+00   0.03517348   0.02220232  26.37  0.003521556    1.471    0.320
         6 -20.1225     76.4821    176.0408   2.9195909436e+02   5.3017880767e+00    0.8686485    0.3736333 -67.78   0.07054616    2.603    0.616
         7 -12.1443    170.1967    183.5353   2.9083092307e+02   4.6796122791e+00   0.02003177   0.01195529  32.57  0.001332241    1.535    0.348
         8 -13.6823    173.0785    189.1786   2.9082561575e+02   4.5975061700e+00   0.02639526    0.0217328 -64.34  0.002253436    1.294    0.227
         9 -13.2395    175.3825    185.6588   2.9077781561e+02   4.6252551315e+00    0.0315425   0.01711483  85.54  0.002477661    3.089    0.676
        10 -10.6398    163.2702    250.0599   2.9127755951e+02   3.9455847075e+00  0.009122328  0.008987632 -71.73 0.0004324896    1.085    0.079
        11 -10.8851     28.6744    239.5494   2.9289810093e+02   4.8346354256e+00  0.009806619  0.008884003 -88.24 0.0004009846    1.209    0.173
        12 -11.6219    120.5398    183.4749   2.9144968115e+02   4.9640675971e+00   0.01488518   0.01106393  56.50 0.0007342097    1.473    0.321
        13 -11.9945    117.3257    180.6673   2.9147456587e+02   5.0150735327e+00   0.01755178   0.01421595  36.29   0.00133097    1.170    0.145
        14 -12.3612     30.6734    182.4993   2.9256568812e+02   5.4872263776e+00   0.01343907   0.01154516  20.40   0.00032261    1.102    0.092
        15 -11.7528     27.8352    179.7763   2.9258642077e+02   5.5350367263e+00    0.0197216   0.01269909 -11.98   0.00185109    1.978    0.495
        16 -11.1978    200.0684    162.0363   2.9034200873e+02   4.7585732807e+00   0.02321107   0.01599331  41.84  0.002415643    1.412    0.292
        17 -13.3784    204.5090    176.5183   2.9036534379e+02   4.5647951966e+00   0.05165076   0.03123483 -85.34  0.004737948    2.198    0.545
        18 -11.7769    202.4712    170.4624   2.9035784148e+02   4.6468635385e+00   0.01339581   0.01250091  37.94 0.0008482882    1.051    0.049
        19 -11.6491    205.2691    169.0117   2.9031511069e+02   4.6476989195e+00   0.02563089   0.01502135 -85.06  0.002123227    2.316    0.568
        20 -12.0959    199.0453    178.5599   2.9044448559e+02   4.5723528338e+00   0.03091809   0.01516525  67.63  0.002105205    4.019    0.751
        21 -13.2071    195.4524    168.7905   2.9043620052e+02   4.7064970824e+00   0.02205866   0.01997309  33.78 0.0007363519    1.053    0.050
        22 -12.2505    193.1717    164.1673   2.9043951164e+02   4.7733045570e+00   0.02141083   0.01516441  13.90  0.001982114    1.425    0.298
        23 -12.6618    152.9625    184.6228   2.9105162877e+02   4.7655108630e+00   0.02658385   0.01483289  85.68  0.002164013    2.860    0.650
        24 -14.1135    145.0937    169.5690   2.9106812524e+02   4.9855664019e+00    0.0562368   0.02363293  48.38  0.004274936    2.817    0.645
        25 -12.1730    141.1803    174.3940   2.9114308158e+02   4.9518127796e+00   0.01736152   0.01088949  37.01 0.0008331825    1.492    0.330
        26 -13.3968    137.9050    171.1476   2.9116632920e+02   5.0082862801e+00   0.03364896   0.01766043  29.58  0.002501355    1.729    0.422
        27 -12.2282    126.0129    172.0748   2.9131967150e+02   5.0654304308e+00   0.01687391   0.01479186 -56.77  0.001302503    1.203    0.169
        28 -12.4457    122.1294    165.5472   2.9133274489e+02   5.1635331566e+00   0.03243525   0.01003782  41.89  0.001131236    3.240    0.691
        29 -10.8140     17.9221    173.7352   2.9267757102e+02   5.6616299745e+00   0.01018274  0.008431449  -1.98 0.0007423896    1.263    0.208
        30 -11.2442     26.0240    172.3546   2.9256897881e+02   5.6316912527e+00   0.01465619   0.01183863  27.00 0.0008414165    1.156    0.135
        31 -10.3199    165.5086    172.0677   2.9082715168e+02   4.8397788137e+00    0.0100677  0.006869836 -66.37  0.001027324    1.576    0.365
        32 -12.2659    177.0268    169.9481   2.9067208538e+02   4.7985232539e+00    0.0140163  0.009669282 -63.86  0.001255599    1.538    0.350
        33 -12.2009    230.2760    167.1682   2.8999368433e+02   4.5258062420e+00   0.01738584   0.01010916 -82.96  0.001549404    2.286    0.563
        34 -11.9297     21.6972    237.8850   2.9297613196e+02   4.8936194539e+00     0.010532  0.009053964 -34.41   0.00090877    1.227    0.185
        35 -12.8395    209.2752    235.3317   2.9062507992e+02   3.8538306006e+00    0.0154125   0.01152163 -64.24  0.001667552    1.424    0.298
        36 -10.0951    145.1642    234.8860   2.9142098698e+02   4.2254566772e+00  0.008036559  0.005131986 -68.48 0.0002820193    1.712    0.416
        37 -11.3613     17.5811    153.8927   2.9257474085e+02   5.8944637888e+00   0.01604448    0.0120863 -81.09   0.00138802    1.527    0.345
        38 -10.6254    191.5654    157.8512   2.9042522441e+02   4.8559271783e+00   0.01675697  0.009677405 -12.16  0.001400037    2.520    0.603
        39 -14.2618    134.1658    146.2316   2.9107786651e+02   5.3194319876e+00   0.06738245   0.02480886 -76.75  0.004111192    4.887    0.795
        40 -12.1965    162.9980    154.9898   2.9076578316e+02   5.0527227474e+00   0.01527365   0.01384641 -86.55  0.000988825    1.208    0.172
        41 -11.8838    160.3216    152.3184   2.9078465583e+02   5.0990971493e+00    0.0134007   0.01164035  -9.06 0.0008701855    1.201    0.168
        42 -10.4649     22.9533    156.0739   2.9251942888e+02   5.8385799099e+00   0.01020653  0.009436508  22.46 0.0004223156    1.016    0.016
        43 -10.1767      6.9618    150.1911   2.9268738724e+02   5.9977990057e+00   0.01156384  0.007338941 -14.77  0.001060792    2.037    0.509
        44 -11.1144    174.3941    148.8118   2.9059015781e+02   5.0593358411e+00   0.01476618   0.01101261  53.25 0.0009437668    1.428    0.300
        45 -13.8132    143.5470    143.5451   2.9094625747e+02   5.2970497796e+00   0.04418881   0.02227264 -85.00  0.003410356    3.148    0.682
        46 -11.6740     27.5785    145.6620   2.9240542620e+02   5.9334574623e+00   0.01566029   0.01361255 -40.02   0.00125474    1.206    0.171
        47 -10.8536    160.4262    247.4455   2.9129883209e+02   3.9922320045e+00   0.01806124   0.01152932  -7.04  0.001060578    1.986    0.496
        48 -12.1491    134.5580    105.7955   2.9085347805e+02   5.7873561531e+00   0.02112612  0.006926257 -65.43  0.001504242    3.289    0.696
        49 -13.9955    135.7556    128.1251   2.9095978044e+02   5.5208971781e+00   0.06355624   0.01886309 -70.61  0.003819081    4.843    0.794
        50 -12.1033    131.0797    235.0220   2.9159720407e+02   4.3042714287e+00   0.01279545  0.009611002 -67.87 0.0007085422    1.437    0.304
        51 -10.1572     17.3779    223.4809   2.9295245804e+02   5.0857749052e+00  0.006843662  0.006166773 -20.68 0.0002335144    1.156    0.135
        52 -10.7401    130.6851    213.2882   2.9148456532e+02   4.5593423334e+00   0.01510504  0.009697967  79.79  0.001402235    2.135    0.532
        53 -10.4554     16.4356    208.7867   2.9288507890e+02   5.2621398058e+00   0.01352352  0.006327901 -45.11  0.001126167    2.348    0.574
        54 -12.2449    160.8000    127.8612   2.9064588957e+02   5.3807132900e+00   0.01874568   0.01432777  68.59  0.001931822    1.525    0.344
        55 -13.0442     11.5117    206.0656   2.9293184997e+02   5.3217509251e+00   0.03033792   0.01586187  18.11   0.00221541    1.959    0.490
        56 -12.2852    140.4421    120.5683   2.9086027095e+02   5.5819647240e+00   0.01746617  0.008968616  48.04 0.0009538158    2.126    0.530
        57 -10.8223    167.6065    112.6361   2.9047825316e+02   5.5187251965e+00   0.01455494  0.008585079  56.53    0.0012158    2.050    0.512
        58 -10.9088    139.7343    249.9885   2.9157029487e+02   4.0807945085e+00   0.01534393   0.01001787 -86.84  0.001477363    1.954    0.488
        59  -9.8748    136.0722    243.3936   2.9158026285e+02   4.1784014528e+00   0.03571281   0.02306188 -28.03   0.00344761    1.868    0.465
        60 -11.3278    139.9239    200.2822   2.9129900232e+02   4.6578773216e+00   0.01841825   0.01174194  19.96 0.0009387426    1.524    0.344
        61 -10.7188    205.2239    110.1695   2.8999577545e+02   5.3317956272e+00    0.0138634  0.009237837   8.85 0.0009490047    1.620    0.383
        62 -10.3172     17.5661    199.9118   2.9282315558e+02   5.3590128844e+00  0.008666417  0.005144513 -35.35 0.0007844028    1.984    0.496
        63 -11.2885    126.9799    250.5170   2.9173203108e+02   4.1474221714e+00  0.009114118  0.007059442  22.83 3.554442e-05    1.217    0.178
        64 -13.4553    180.4044    193.7045   2.9075888171e+02   4.5029709524e+00   0.03059031    0.0209149  19.29  0.002763673    1.420    0.296
        65 -11.7909    169.7809    195.5696   2.9090135966e+02   4.5420482947e+00   0.01156455  0.009755231 -89.09 0.0005538004    1.338    0.253
        66 -10.5761    143.7150     80.9766   2.9060427433e+02   6.0234384342e+00  0.009272132  0.008989546 -67.18 0.0004328214    1.103    0.093
        67 -14.5260    150.4632     58.5765   2.9039815354e+02   6.2450557204e+00   0.06020444   0.05155535 -18.04  0.003379272    1.240    0.194
        68 -10.5731     15.5819    246.8690   2.9310070519e+02   4.8237721069e+00   0.01124682  0.006830505 -81.46  0.001035915    2.076    0.518
        69 -13.0753    165.5688     35.4164   2.9008341409e+02   6.4274522433e+00   0.01995916   0.01844383  -9.06 0.0008000961    1.104    0.094
        70 -10.8918     13.3988     59.8687   2.9211849878e+02   7.0117288975e+00   0.01157996  0.008631133  36.69 0.0004412734    1.268    0.211
        71 -10.3503    144.8874     34.0843   2.9033443611e+02   6.5614273210e+00   0.01044046  0.008491401  47.88 0.0003260405    1.243    0.195
        72 -13.4367    125.1660    241.1384   2.9170395071e+02   4.2668639179e+00   0.03286313  0.009777367 -62.86  0.002310502    3.359    0.702
        73 -11.5488     12.8131    242.3397   2.9311086095e+02   4.8921942653e+00   0.01174162  0.009267623 -30.31  0.001123648    1.377    0.274
