#   1 NUMBER                 Running object number                                     
#   2 MAG_AUTO               Kron-like elliptical aperture magnitude                    [mag]
#   3 X_IMAGE                Object position along x                                    [pixel]
#   4 Y_IMAGE                Object position along y                                    [pixel]
#   5 X_WORLD                Barycenter position along world x axis                     [deg]
#   6 Y_WORLD                Barycenter position along world y axis                     [deg]
#   7 A_WORLD                Profile RMS along major axis (world units)                 [deg]
#   8 B_WORLD                Profile RMS along minor axis (world units)                 [deg]
#   9 THETA_WORLD            Position angle (CCW/world-x)                               [deg]
#  10 FWHM_WORLD             FWHM assuming a gaussian core                              [deg]
#  11 ELONGATION             A_IMAGE/B_IMAGE                                           
#  12 ELLIPTICITY            1 - B_IMAGE/A_IMAGE                                       
         1 -12.4587    178.7093     10.3719   2.2043052878e+01   3.8946113175e+01     1.420092    0.5919455 -43.54  0.006968109    2.130    0.531
         2 -11.8362    202.3837     14.3437   2.1004065435e+01   3.3309874064e+01     1.022516    0.3431355 -35.56  0.004701956    2.633    0.620
         3 -13.1365    245.5813      7.5733   1.6888504208e+01   2.5493731291e+01     2.058718    0.9971048 -29.60   0.01177562    2.357    0.576
         4 -13.1885    234.8637      8.4886   1.7635465161e+01   2.7391784653e+01     1.332554     1.056323 -37.47  0.009833822    1.445    0.308
         5 -11.9055    219.8797      5.2070   1.7842192774e+01   3.0666621671e+01     1.259464    0.4125351 -38.42    0.0062605    2.438    0.590
         6 -11.2964    171.0650     16.5424   2.4358168195e+01   4.0046351657e+01    0.3699913    0.2418781  81.60  0.001543387    1.370    0.270
         7 -10.3958    177.9407     23.6035   2.5447289773e+01   3.7673352437e+01    0.4448224    0.1984065 -66.42  0.001871033    2.719    0.632
         8 -12.9099    211.4418     18.7055   2.1274224361e+01   3.0917767626e+01      2.16367     0.941184 -46.17   0.01137551    1.872    0.466
         9 -10.1989    163.4211     17.1554   2.5351830813e+01   4.1761652109e+01    0.2892587    0.1122209 -33.28  0.001278999    2.556    0.609
        10 -11.3699    147.1938     15.4053   2.6825109744e+01   4.5798290464e+01    0.2912003    0.2639101 -53.64  0.001902016    1.187    0.158
        11 -11.0426    155.1233     11.6955   2.4793269666e+01   4.4287652433e+01    0.3512821    0.2026725 -61.39  0.001421113    1.744    0.427
        12 -12.8176    190.9321      6.9897   2.0203461196e+01   3.6565447753e+01     1.861045     0.933845 -45.99   0.01027664    1.739    0.425
        13 -10.5081    170.2466      5.0673   2.1465330435e+01   4.1406856532e+01    0.3433222    0.1589549 -31.89  0.001733873    2.229    0.551
        14 -10.6959    165.3965     11.4528   2.3608096183e+01   4.1897375214e+01    0.2501428    0.1919264 -68.77  0.001104266    1.160    0.138
        15  -9.7848    162.4860      6.9438   2.2699273438e+01   4.3023950141e+01    0.1737826      0.12142 -31.84  0.001030807    1.592    0.372
        16 -10.3750    157.2021      4.0296   2.2440485208e+01   4.4536486563e+01    0.4829841    0.1472773 -46.26  0.001977161    3.073    0.675
        17  -9.5979    145.6316      6.1753   2.4312273114e+01   4.7077058623e+01    0.1592138    0.1236118  -6.73  0.000950445    1.734    0.423
        18  -9.2884    136.4839      3.4836   2.4611228624e+01   4.9505464072e+01     0.127968    0.1070978  87.85 3.957953e-05    1.024    0.023
        19  -7.9868    211.4998    146.5337   4.9176484545e+01   1.1137181691e+01    0.1324488    0.1157929 -39.54 0.0001074183    1.073    0.068
        20 -13.7394    235.6233     59.1903   2.7771349916e+01   2.0964014141e+01     1.791426     1.189602  65.00  0.008969746    1.720    0.419
        21 -13.6932    223.2378    126.8696   4.3319913111e+01   1.2580218644e+01     1.135617    0.8891383 -32.83  0.002949303    1.153    0.133
        22 -14.0456    248.0766     55.9327   2.6011834169e+01   1.9157812883e+01     1.269307    0.4098482 -39.47   0.00589464    2.392    0.582
        23 -14.9726    228.6646     80.6821   3.2965051126e+01   1.9114759550e+01     1.211721    0.6480231 -51.43   0.00458098    1.633    0.388
        24 -16.1470    228.3029     93.4851   3.5696033338e+01   1.7188793911e+01     2.112859     1.660676  70.90   0.01332777    1.477    0.323
        25 -13.8086    239.7267     80.4122   3.1688573317e+01   1.7156333239e+01    0.3436826    0.3248833 -19.28 0.0009237711    1.353    0.261
        26 -15.2000    245.4308     74.0047   2.9819973918e+01   1.7096209179e+01    0.8816038    0.5157192 -41.16   0.00520395    1.392    0.281
        27 -15.8454    240.2602     89.9443   3.3559150317e+01   1.5626946481e+01     1.085748     0.801986  22.12  0.006284023    2.262    0.558
        28 -17.1833    240.8006    106.4438   3.6812571876e+01   1.2978635809e+01     5.692635     1.412806 -38.86   0.02089184    3.301    0.697
        29  -8.7671    215.0887    142.9207   4.7855020441e+01   1.1178123563e+01    0.1928135    0.1628294 -58.72 0.0005649526    1.314    0.239
        30  -8.5336    213.2598    139.1841   4.7391116217e+01   1.2138024494e+01    0.1768836    0.1388461 -55.58 0.0004236823    1.345    0.257
        31  -8.1087    205.5870    137.2831   4.8268675718e+01   1.3793580255e+01    0.1335509    0.1036263 -80.32 0.0004343711    1.810    0.448
        32  -9.4403    190.8073    135.3304   5.0454584106e+01   1.6811428022e+01    0.2838404    0.2283111  73.23 0.0008799323    1.591    0.372
        33  -8.7475    204.0729    131.3134   4.7266798966e+01   1.5138442486e+01     0.377572    0.2061918 -66.35  0.001349099    3.841    0.740
        34  -8.1882    198.1975    131.0353   4.8210529013e+01   1.6253278197e+01    0.1829454   0.09843559 -40.96 0.0004082092    1.664    0.399
        35 -10.1819    181.6233    130.5250   5.1122681956e+01   1.9464227268e+01    0.2567506    0.2273759 -56.45 0.0002719907    1.129    0.114
        36  -8.2210    188.7357    130.3118   4.9742457704e+01   1.8148523412e+01    0.1365718    0.1055101 -67.90 0.0002202708    1.538    0.350
        37  -8.7033    193.2044    116.7936   4.5945604253e+01   1.9816919703e+01    0.2011084    0.1711082 -61.28 0.0003904286    1.180    0.153
        38  -9.2799    200.1323    109.3486   4.3125779270e+01   1.9816015504e+01     0.264404    0.1755721 -39.72 0.0005779382    1.361    0.265
        39  -8.8897    182.5433    109.3538   4.6118217561e+01   2.3321178503e+01    0.2894987    0.1307495 -41.41 0.0008168549    2.043    0.510
        40  -8.4571    167.7049    110.6582   4.9243835919e+01   2.6151683898e+01    0.1453356    0.1165991  -5.09   0.00030547    1.660    0.398
        41  -8.9006    196.2695    105.9910   4.2992542523e+01   2.1169757101e+01    0.1907189    0.1558709 -45.54 0.0003211448    1.094    0.086
        42 -14.5378    236.4529     75.0282   3.0936568163e+01   1.8538605901e+01    0.7798802    0.5504008  -8.01  0.004188983    2.488    0.598
        43 -10.5742    158.1019    102.7293   4.9246529618e+01   2.9760344741e+01     0.468607    0.2063963 -35.52  0.001693206    2.574    0.611
        44  -9.7797    146.8754     99.2448   5.0775302516e+01   3.2912824860e+01    0.4776943    0.1824398 -56.26  0.001321575    4.393    0.772
        45  -8.2525    190.4208    102.9796   4.3264479971e+01   2.2881913306e+01    0.2067224    0.1252941 -41.87 0.0003972988    1.498    0.333
        46  -9.4817    197.4286     95.4216   4.0391408278e+01   2.2789719090e+01     0.286898    0.2210873  68.95  0.000943345    1.437    0.304
        47  -8.1802    185.5188     95.4534   4.2314365742e+01   2.5239298043e+01    0.1399601    0.1280648 -55.51 0.0008083861    1.026    0.026
        48  -8.8162    198.1228     90.2039   3.9082622856e+01   2.3539412555e+01    0.1822323     0.173888 -34.37  0.000279544    1.178    0.151
        49  -8.9765    203.2307     85.6451   3.7292702697e+01   2.3260983003e+01    0.5208048    0.1324832 -39.15  0.001741983    3.435    0.709
        50 -15.7730    241.9099    129.1718   4.1161411442e+01   9.1889676227e+00     1.465878     1.190358 -16.91  0.008640038    1.323    0.244
        51  -8.8389    199.0154     85.5107   3.7865150021e+01   2.4142848370e+01     0.320138    0.1853718  58.08  0.001287359    1.880    0.468
        52 -10.1845    196.0225     82.0538   3.7494698594e+01   2.5334419804e+01    0.2301805    0.1901729 -55.37 0.0002941708    1.069    0.064
        53  -8.2270    212.0000     64.8515   3.1457300606e+01   2.4735660246e+01    0.2058954    0.0649512 -37.19 0.0007860219    2.830    0.647
        54  -8.4584    205.3441     65.0896   3.2305437220e+01   2.6064514300e+01    0.1765158    0.1373188 -53.48 0.0003116635    1.105    0.095
        55  -8.1488    177.4082     65.4969   3.6225587276e+01   3.2055709388e+01    0.1385726    0.1220217 -66.53 0.0001317355    1.019    0.019
        56 -10.1705    207.8843     56.9644   3.0152222199e+01   2.6731517217e+01    0.3473623    0.1616129 -52.03  0.001268689    1.959    0.490
        57  -8.9932    233.2899     45.8180   2.5237900121e+01   2.3217349007e+01    0.2169501     0.146395 -60.61 0.0005150698    1.219    0.180
        58  -8.8079    232.3350     42.3050   2.4597341114e+01   2.3858919496e+01     0.165699    0.0893899 -47.58 0.0006110308    1.472    0.321
        59 -10.0369    229.7206     39.7930   2.4296646234e+01   2.4685688107e+01    0.2920782    0.2235568 -73.91 0.0004835687    1.140    0.123
        60  -7.9948    211.2988     46.3003   2.7384169133e+01   2.7511529486e+01    0.1090302   0.09935936  25.84 0.0006997226    1.579    0.367
        61  -8.5724    153.3692     43.6858   3.4121729259e+01   4.0891107152e+01    0.1496431   0.09608273 -72.70 0.0007036299    1.777    0.437
        62  -8.9600    249.9713     40.9915   2.2964657502e+01   2.0778929278e+01    0.1677886    0.1277719 -60.94 0.0003453335    1.036    0.035
        63  -8.5878    242.5964     39.7515   2.3269472912e+01   2.2266578455e+01    0.1964445    0.1096834 -69.14 0.0006590861    1.706    0.414
        64 -15.6858    248.9698    105.6528   3.5687898908e+01   1.1773543716e+01     2.012702    0.2141736 -40.37  0.005467962    6.220    0.839
        65  -9.0380    211.9803     37.9593   2.5462017107e+01   2.8471332305e+01    0.2905391    0.1108325 -53.64  0.001282392    2.431    0.589
        66  -8.7104    168.1653     39.1624   3.0684478935e+01   3.8007399979e+01    0.2413446    0.1269397 -67.24   0.00104465    2.309    0.567
        67  -8.5029    159.3185     37.6723   3.1518110164e+01   4.0285736217e+01     0.144537   0.09195457 -68.62 0.0003275686    1.681    0.405
        68  -9.1800    139.2994     35.9653   3.4189346571e+01   4.5305470607e+01    0.2272126   0.07278965 -50.30 0.0007032845    4.157    0.759
        69  -8.7727    197.4321     33.1165   2.5759223034e+01   3.2172707530e+01    0.2981461   0.07177858 -42.33  0.001126688    3.173    0.685
        70  -8.5774    244.1218     33.0628   2.1847685849e+01   2.2823280876e+01    0.1876822    0.0984669 -61.86 0.0007288171    1.634    0.388
        71  -9.1769    191.3693     32.0698   2.6127021445e+01   3.3632301212e+01      0.25662    0.1249404 -49.78  0.001225881    1.829    0.453
        72  -9.7064    173.3296     31.8561   2.8094047692e+01   3.7743150209e+01    0.4428049    0.2035696 -77.82  0.001666605    3.338    0.700
        73 -15.3272    249.6702     95.7637   3.3675841083e+01   1.3165184760e+01    0.9258823     0.257291 -41.32  0.003828226    2.716    0.632
        74 -10.7275    237.8660    233.6631   6.0287654892e+01  -6.0507492817e+00    0.2424032    0.1177066  16.70   0.00136187    2.194    0.544
        75  -9.5606    218.8474    203.6547   5.8588183667e+01   4.7024259180e-01    0.1845837    0.1323618   5.52  0.000669767    1.357    0.263
        76 -10.7295     16.5103    201.2467   1.0464557687e+02   2.9041128515e+01    0.2480565    0.1611994   5.09  0.001301389    2.180    0.541
        77  -9.6641    161.3809     30.1326   2.9145191684e+01   4.0751167047e+01    0.1905141    0.1066483 -46.78  0.000916692    1.718    0.418
        78 -12.0829     37.7661    194.1121   9.8744142140e+01   2.8561087894e+01      0.59817    0.2343219  47.24  0.002487944    2.324    0.570
        79 -10.0037    142.0864     27.8620   3.1266931806e+01   4.5640766824e+01    0.2164122    0.1692113 -75.72  0.001237774    1.254    0.203
        80  -9.9938    167.7017     26.9977   2.7494270336e+01   3.9642792183e+01     0.250931    0.1589476 -75.21  0.001265706    1.595    0.373
        81  -8.7287    174.7549     26.3997   2.6512305268e+01   3.8076632374e+01    0.2143127    0.1255262 -69.29  0.001088449    1.738    0.425
        82 -10.5446     18.9592    194.2653   1.0356516540e+02   3.0466110199e+01    0.1865255    0.1585613  63.06  0.001174819    1.048    0.046
        83  -9.1929      6.3234    190.3375   1.0648440976e+02   3.2543364304e+01    0.1252499   0.08931195 -47.70 0.0007050961    1.717    0.418
        84  -9.3685    183.3925     23.5656   2.4870969282e+01   3.6439483508e+01    0.2341467   0.09971337 -39.83  0.000803798    2.119    0.528
        85 -10.7192    152.1229     24.3511   2.8764966236e+01   4.3639398109e+01    0.3988894    0.1799656  87.30  0.001549237    2.941    0.660
        86 -10.1061    167.9379     21.3668   2.5967783931e+01   4.0240056283e+01    0.2856984    0.1565295 -65.96  0.001404582    1.905    0.475
        87 -10.3910    160.8874     21.9899   2.6968022053e+01   4.1824860193e+01    0.2665656    0.1447992 -75.74  0.001244261    2.096    0.523
        88 -10.4307    154.3999     20.6372   2.7403309976e+01   4.3515161991e+01    0.3066795    0.1438806 -65.23  0.001273039    2.694    0.629
        89  -9.3373      2.1920    193.8005   1.0770187367e+02   3.2059976650e+01    0.2362868   0.07906325  57.96 0.0009488953    2.834    0.647
        90 -11.2229    232.3715    179.3526   5.2049419054e+01   2.5088951653e+00    0.4765133    0.2540251  17.15  0.002281793    2.785    0.641
        91  -9.6881    159.4413     17.6232   2.5939448275e+01   4.2648396724e+01    0.2313781    0.1114145 -37.40  0.001122251    2.040    0.510
        92  -9.3463    233.9835    174.0081   5.0822722067e+01   3.1379046754e+00    0.2321277    0.1419976 -22.88 0.0007354503    1.593    0.372
        93  -9.4336    225.3817    179.2446   5.3160770626e+01   3.4768064264e+00    0.1724491    0.1029873 -44.48 0.0005290146    1.627    0.385
        94  -9.8485    234.1486    167.8555   4.9664289102e+01   4.0967142807e+00    0.1743533    0.1496571 -39.92  0.000317744    1.226    0.184
        95  -8.2263    224.3068    168.6068   5.1366295814e+01   5.3700749778e+00    0.1227339   0.09491514 -63.22  0.000265194    1.824    0.452
        96 -11.0622    221.7914    158.7218   4.9892206442e+01   7.3971408603e+00     0.433199    0.2504493  45.65 0.0006468048    2.068    0.517
        97  -8.4296    203.4771    152.7470   5.1808938813e+01   1.1359246771e+01    0.2024717    0.1149844 -30.61 0.0009520865    1.790    0.441
        98  -8.7209    215.0946    151.3710   4.9548610107e+01   9.7035417686e+00    0.1804522    0.1594139  79.71 0.0003390881    1.525    0.344
        99  -9.6002    216.6285    148.0321   4.8632182991e+01   1.0036995176e+01    0.2182101     0.203486   4.34 0.0001843462    1.163    0.140
