#   1 NUMBER                 Running object number                                     
#   2 MAG_AUTO               Kron-like elliptical aperture magnitude                    [mag]
#   3 X_IMAGE                Object position along x                                    [pixel]
#   4 Y_IMAGE                Object position along y                                    [pixel]
#   5 X_WORLD                Barycenter position along world x axis                     [deg]
#   6 Y_WORLD                Barycenter position along world y axis                     [deg]
#   7 A_WORLD                Profile RMS along major axis (world units)                 [deg]
#   8 B_WORLD                Profile RMS along minor axis (world units)                 [deg]
#   9 THETA_WORLD            Position angle (CCW/world-x)                               [deg]
#  10 FWHM_WORLD             FWHM assuming a gaussian core                              [deg]
#  11 ELONGATION             A_IMAGE/B_IMAGE                                           
#  12 ELLIPTICITY            1 - B_IMAGE/A_IMAGE                                       
         1 -14.0101    204.0013     47.4850   7.8573085614e+01   2.8542792238e+01     3.128694     2.090272  52.79   0.01556853    1.576    0.365
         2 -13.7144    180.0006     29.5266   7.6344656009e+01   3.6542207872e+01     1.306668      1.09453 -22.11  0.007043628    1.138    0.121
         3 -13.3864    186.8031     16.9830   7.1342481619e+01   3.6166732973e+01      1.00948    0.7373625  -7.56  0.001445827    1.412    0.292
         4 -12.4786      4.0723     30.8832   1.3858878828e+02   6.9620039024e+01     0.876673    0.4463632 -71.49  0.004593888    1.680    0.405
         5 -13.3549      8.7366      9.6048   1.2840522779e+02   7.4157349396e+01     1.527815    0.8963665 -27.56  0.008257791    1.614    0.380
         6  -9.2916    164.9801     11.9742   7.2415658357e+01   4.2246873784e+01    0.1716664    0.1639444  -6.33 0.0004028576    1.030    0.029
         7 -10.7153    246.2263      2.3558   6.2091537915e+01   2.3701360003e+01    0.3709978    0.2233039  64.43  0.001054358    1.848    0.459
         8 -13.7528      8.7644    228.5461   1.5349136824e+02   2.6755709430e+01      1.26528    0.6322127  26.71  0.007298346    2.099    0.524
         9 -12.0702    170.2509    243.1299   1.2598288062e+02   6.8059058458e+00    0.5577154    0.2852552  19.73  0.003314669    2.036    0.509
        10 -12.7907    194.5584    243.7886   1.2196191967e+02   3.6742383455e+00    0.7827793    0.3338619  37.24  0.004702907    1.851    0.460
        11 -12.2645    166.7200    249.3478   1.2728799652e+02   6.5580013559e+00     1.309985     0.202465  34.00  0.004236056    6.094    0.836
        12 -12.9064    180.7591    246.0421   1.2454083757e+02   5.1647670460e+00    0.7841032    0.4533786  31.75  0.005518051    1.267    0.211
        13  -8.8798    134.2668    249.9087   1.3290089563e+02   1.0492814385e+01    0.1356855    0.1100757  31.86 0.0007535436    1.110    0.099
        14  -9.4209     80.5640    248.6728   1.4209483930e+02   1.6879524223e+01    0.2050046    0.1262043  87.53  0.001131446    2.112    0.526
        15 -13.4097     11.2259    207.1493   1.5240243180e+02   3.0100737331e+01     1.905779     1.453411   9.87  0.004073778    1.877    0.467
        16 -13.0254     84.2965    164.5404   1.3364645310e+02   3.0669885952e+01    0.8471105    0.3601253  44.02  0.003934697    2.162    0.538
        17 -13.3771     67.9739    144.9773   1.3516480011e+02   3.6848247496e+01     5.595702     3.208764 -44.08   0.02811645    2.087    0.521
        18 -12.3401    156.2217    228.1852   1.2668879227e+02   1.0408981487e+01     1.171343    0.2649544  33.56  0.004414926    4.010    0.751
        19 -14.3002      6.5758    242.8039   1.5421519127e+02   2.4745065390e+01    0.6573045    0.5930442  53.93   0.00487195    1.393    0.282
        20 -10.1520    167.6688    212.9219   1.2262972052e+02   1.0819626545e+01    0.3553989    0.2473924  65.70  0.001138587    2.808    0.644
        21 -10.3189    119.6623    206.3247   1.3104333314e+02   1.8424036674e+01    0.2510868    0.1506744  57.80  0.001208883    2.016    0.504
        22 -14.2692     20.9753    243.7207   1.5190667822e+02   2.3416022585e+01    0.6151765    0.4999647 -83.29  0.001889456    1.483    0.326
        23 -10.5453     24.5980    202.2624   1.4968243381e+02   2.9842197995e+01     0.327795    0.2808195  61.98  0.002750979    1.149    0.129
        24  -9.9067    190.1268    189.9742   1.1496896159e+02   1.0583740577e+01    0.2643358    0.2140509 -55.91 0.0009738649    2.007    0.502
        25 -10.6362    192.7754    195.3493   1.1536327491e+02   9.4865144938e+00    0.6376453    0.3673369 -57.99  0.002590355    5.248    0.809
        26 -11.3009     86.1466    184.7379   1.3559782893e+02   2.6526520653e+01    0.3437652    0.2726143 -40.37   0.00146145    1.561    0.359
        27 -11.1007     89.1001    179.2762   1.3433169360e+02   2.7170514766e+01    0.2517545    0.2160328 -29.07 0.0006405088    1.448    0.310
        28  -9.5581     63.6468    181.5569   1.4021332487e+02   2.9814873211e+01    0.2611482    0.1699055  74.44  0.001162129    1.610    0.379
        29  -9.7655    136.6788    172.4384   1.2284431067e+02   2.1579051082e+01    0.4379353    0.1612271  42.22  0.001817855    2.497    0.599
        30  -9.4946     33.8222    171.0084   1.4600035038e+02   3.4947131996e+01    0.1773214    0.1357298  50.08 0.0004169925    1.167    0.143
        31 -11.4285     17.7618    165.1852   1.4924611269e+02   3.7499488603e+01    0.8131501    0.3690671  60.81  0.004527696    1.985    0.496
        32  -9.6485     12.4084    155.8545   1.4996174358e+02   3.9840636189e+01     0.298418    0.1533982  27.67  0.001767787    2.039    0.510
        33 -11.1028     99.9708    161.1742   1.2946776804e+02   2.9203480587e+01    0.5105321    0.3284504 -35.24  0.002659869    2.000    0.500
        34 -13.6885     66.7869    244.8539   1.4423245952e+02   1.8884620377e+01     1.031947    0.6195145  34.57  0.004214374    1.379    0.275
        35 -10.6741     21.6018    157.0961   1.4788266421e+02   3.8871913766e+01    0.3230428    0.1905788  17.58  0.001918458    2.121    0.528
        36 -15.4049     70.3533    215.5048   1.4163517298e+02   2.3011139364e+01     3.488902     1.651517  34.15   0.01186337    1.781    0.438
        37  -9.8900    133.0000    143.0019   1.1847186547e+02   2.7583525078e+01    0.8527137    0.2020976 -53.77  0.001930723    8.397    0.881
        38  -9.5541    133.9396    137.1969   1.1708677211e+02   2.8545032022e+01    0.2924259    0.2160472  -0.19  0.001464501    1.702    0.412
        39 -10.0106    110.1257    144.0973   1.2424905960e+02   3.1134729952e+01    0.4785195     0.239515 -36.40  0.001975225    2.682    0.627
        40 -11.4892     98.9320    145.0772   1.2722776533e+02   3.2642007391e+01    0.2587063    0.2350226  24.09 0.0004338504    1.136    0.120
        41  -8.1121    143.3335    145.6730   1.1658602816e+02   2.5291419053e+01     0.134933    0.1097276  74.66 0.0007051562    1.716    0.417
        42  -9.5293    116.4568    133.4745   1.2066146527e+02   3.2297157816e+01    0.2761952    0.2293846 -14.46 0.0007759319    1.374    0.272
        43 -10.0621    104.6267    130.0641   1.2306268497e+02   3.4953600681e+01     0.269671     0.218284 -30.98 0.0006807864    1.362    0.266
        44  -8.8972    120.4617    126.4744   1.1819731177e+02   3.3062419501e+01    0.1409775    0.1333696  -0.30 0.0001384121    1.054    0.051
        45  -8.4096    198.5188    125.5396   1.0053479162e+02   1.8482013393e+01    0.1417731    0.1214273   1.14 7.799251e-05    1.004    0.004
        46 -12.9477    242.5413    116.7480   9.1078470539e+01   1.1612484798e+01     1.116236    0.7585472  22.25   0.00142235    1.463    0.316
        47  -9.8525    135.1301    122.6659   1.1365464366e+02   3.1189802023e+01    0.4511858   0.09606151 -47.42   0.00118579    5.125    0.805
        48  -8.6143    131.1669    121.8614   1.1445878758e+02   3.2084470866e+01    0.1925482    0.1615114  -6.67            0    1.294    0.227
        49  -9.2291    111.4297    121.7483   1.1955521417e+02   3.5614124667e+01    0.2327045    0.1892095  37.42 0.0004182513    1.225    0.184
        50 -16.1068     37.1497    243.7420   1.4922581451e+02   2.1969132520e+01     2.880876     1.355161 -63.80   0.01290569    2.641    0.621
        51 -12.2701    221.1783    104.3520   9.1440532726e+01   1.7191254517e+01     1.279405    0.7069756 -10.05  0.005644646    2.076    0.518
        52 -11.4786    213.0439    108.9576   9.3930485871e+01   1.8129841529e+01    0.3858104    0.2535064  -8.04  0.001215596    1.557    0.358
        53 -13.5657     44.9851    248.8012   1.4813323049e+02   2.0496187212e+01    0.6536612    0.1895499  33.84  0.001186795    2.579    0.612
        54  -9.0784    145.7565     74.9150   9.8044469825e+01   3.8201204448e+01    0.2513308    0.1737466 -57.95  0.001078425    1.904    0.475
        55 -10.3492    164.5993     64.2697   9.0467785008e+01   3.5599768360e+01    0.2879401    0.1903177 -17.13  0.001271827    1.585    0.369
        56 -10.8888     91.5807    248.0797   1.4015107905e+02   1.5744274892e+01    0.1822777    0.1347294  50.73 0.0003712259    1.150    0.130
        57 -12.2262    186.3000     39.9773   7.8811884695e+01   3.3726695602e+01    0.8635703    0.5244395   8.10  0.002192543    2.165    0.538
        58 -11.5335    199.8252     34.3662   7.5191295472e+01   3.1096757688e+01    0.5119117     0.437735  -8.64 0.0008290628    1.136    0.120
        59 -10.1685    207.3166     26.4857   7.1928685285e+01   3.0166497964e+01    0.3933487    0.2807313   1.81  0.001187948    1.538    0.350
        60 -12.4821    170.0966     37.8958   8.0700909993e+01   3.8026765808e+01    0.7460759    0.5965465  -3.65 0.0009137458    1.276    0.217
        61  -8.3940    121.4842    248.4552   1.3498230008e+02   1.2217161112e+01    0.1039538    0.0763819  36.29 0.0001367843    1.004    0.004
        62 -11.2736    146.9158    248.7564   1.3060723757e+02   9.0806820288e+00     0.630192    0.2171442  27.08  0.002839114    3.408    0.707
        63 -12.0329    237.0664     43.4834   7.3473794981e+01   2.1625074525e+01     1.040012    0.7121512  89.27  0.005513306    1.958    0.489
        64 -11.5492    229.2518     44.8115   7.4675032066e+01   2.3151006075e+01    0.7366417    0.3723552 -38.26  0.003418769    1.784    0.440
        65  -8.6659    136.6720     45.9938   9.0311042931e+01   4.5226034681e+01    0.2144021     0.184511 -18.66 0.0003345927    1.112    0.100
        66  -8.9646    250.7296     40.5413   7.1369135672e+01   1.9127509896e+01    0.2116768   0.09680206 -24.21 0.0009822388    1.828    0.453
        67  -8.8930     82.8175    244.1116   1.4139813993e+02   1.7268704215e+01    0.1556551    0.1055529  53.69 0.0009447248    1.256    0.204
        68 -10.4170    145.3363     21.8000   7.9226949762e+01   4.6324862393e+01     0.255063     0.236183  32.71 0.0002264143    1.050    0.048
        69  -9.6487    106.1060    242.1871   1.3714393963e+02   1.4872994639e+01    0.1509807    0.1244567  55.18 0.0002862386    1.223    0.182
        70 -11.6965    157.0809    245.6353   1.2852810480e+02   8.1805909535e+00    0.5890319    0.2624346  30.02  0.003503081    1.796    0.443
        71 -11.0151    160.1870     60.3181   9.0097456336e+01   3.7277743197e+01    0.3859082    0.3273444 -45.25  0.001212838    1.257    0.205
