#   1 NUMBER                 Running object number                                     
#   2 MAG_AUTO               Kron-like elliptical aperture magnitude                    [mag]
#   3 X_IMAGE                Object position along x                                    [pixel]
#   4 Y_IMAGE                Object position along y                                    [pixel]
#   5 X_WORLD                Barycenter position along world x axis                     [deg]
#   6 Y_WORLD                Barycenter position along world y axis                     [deg]
#   7 A_WORLD                Profile RMS along major axis (world units)                 [deg]
#   8 B_WORLD                Profile RMS along minor axis (world units)                 [deg]
#   9 THETA_WORLD            Position angle (CCW/world-x)                               [deg]
#  10 FWHM_WORLD             FWHM assuming a gaussian core                              [deg]
#  11 ELONGATION             A_IMAGE/B_IMAGE                                           
#  12 ELLIPTICITY            1 - B_IMAGE/A_IMAGE                                       
         1 -13.8810      2.9840    142.3948   1.4114058559e+02   4.4941696709e+01     2.639368     0.398025 -68.93  0.008838397    4.199    0.762
         2 -12.9833    196.8571     31.8361   6.5386805457e+01   3.2347511501e+01     1.070556    0.7141312  49.61  0.005734966    1.654    0.395
         3 -13.8241    210.7941     14.7264   5.9837979324e+01   3.1134519918e+01     1.189373    0.9289923  40.52  0.007294544    1.741    0.426
         4 -11.2683      2.0046     12.9843   1.1333246880e+02   7.0679309877e+01    0.4544505   0.09917752 -44.72  0.002043968    3.600    0.722
         5 -12.0541      2.2240      4.0517   1.0951438086e+02   7.1857972224e+01    0.6265512    0.3293089   9.31  0.004253125    1.794    0.442
         6 -11.5123    176.2813    242.3641   1.1602375415e+02  -2.3538484331e+00    0.3715996    0.3093787  58.89  0.001350629    1.357    0.263
         7  -9.8133    204.9489    250.5134   1.1172743661e+02  -8.3184192178e+00    0.1905953    0.1061173  36.15  0.000436238    1.550    0.355
         8 -10.4017    184.4023    250.4158   1.1567127573e+02  -5.0036239184e+00    0.2636301    0.1393967  35.73 0.0005264865    1.639    0.390
         9 -10.6050    169.9167    248.4112   1.1820788520e+02  -2.2766644231e+00     0.356742     0.243003   5.05  0.001287865    2.129    0.530
        10 -11.3635    149.6815    248.4089   1.2221579898e+02   1.1429079234e+00    0.3877669    0.3067673 -77.58  0.002332263    1.595    0.373
        11 -10.4053    143.7883    244.2004   1.2280381063e+02   2.8853952504e+00    0.2609245    0.1470144  53.71  0.001284556    1.763    0.433
        12 -10.8720    143.7824    240.3979   1.2226840358e+02   3.5729114692e+00    0.2818598    0.1710001  41.62  0.001466533    1.429    0.300
        13 -11.3729    133.9676    248.7180   1.2537346601e+02   3.7391552879e+00    0.5538043     0.267049  41.74  0.002676041    1.760    0.432
        14 -10.5702     84.2164    240.6034   1.3419909251e+02   1.3304845868e+01    0.5104333    0.3018785  69.56  0.002721792    1.723    0.419
        15 -12.8284    124.5533    244.0741   1.2664010142e+02   6.1651215361e+00    0.9089867    0.8409809 -19.30  0.005918711    1.419    0.295
        16 -11.4932    122.6779    233.4875   1.2561757445e+02   8.5053324518e+00    0.3544185    0.3246727 -55.84  0.001511875    1.276    0.216
        17 -11.4146    100.5015    247.5493   1.3179835410e+02   9.4289530173e+00     0.633574    0.3051661  47.14  0.003173364    1.734    0.423
        18 -11.9836     98.7072    232.5605   1.3040315247e+02   1.2664970985e+01    0.9299814     0.493413 -88.79  0.003829482    2.933    0.659
        19 -11.4660     90.9777    240.4445   1.3286178593e+02   1.2300833932e+01    0.6846094    0.3632201  87.24  0.002521629    2.714    0.632
        20 -10.7739     96.9122    239.7219   1.3161048199e+02   1.1514995016e+01     0.295838    0.2387185 -44.90  0.001101358    1.662    0.398
        21 -10.9993    113.3306    230.7208   1.2717384797e+02   1.0635773327e+01     0.382833    0.3070629 -47.81  0.001597519    1.510    0.338
        22 -12.1700    105.4430    228.2086   1.2847688069e+02   1.2458485526e+01    0.9055989    0.5584202  80.94  0.004367866    2.070    0.517
        23 -11.0516     99.1668    223.3965   1.2916340981e+02   1.4487007097e+01    0.4478575    0.3584073 -89.50  0.002131173    1.220    0.181
        24 -10.6228    115.3411    250.4541   1.2925082684e+02   6.5043100051e+00    0.4086708    0.1731977  43.52 0.0008295972    1.968    0.492
        25 -11.4741    109.6899    246.6387   1.2990129537e+02   8.1320276366e+00    0.6100228    0.3419926 -77.78  0.002993912    2.360    0.576
        26 -11.0102     87.1836    247.8218   1.3438742914e+02   1.1440020436e+01    0.3717115    0.2691973  43.03 0.0006846789    1.346    0.257
        27 -12.6811     61.3217    246.0479   1.3905842827e+02   1.5534298876e+01     1.690336    0.8120338  42.11  0.007488759    1.898    0.473
        28 -14.4538     11.4657    210.3035   1.4541298165e+02   2.8935349819e+01        3.006     1.272378 -79.47   0.01588234    1.956    0.489
        29 -12.8446     14.1551    238.8411   1.4685276818e+02   2.2756360827e+01    0.6426408    0.4315868  55.79  0.001049379    1.319    0.242
        30 -11.6123     39.6523    230.3776   1.4172096103e+02   2.1543665781e+01    0.2967095     0.223823 -80.25 0.0002242897    1.248    0.199
        31 -12.8806     34.1128    227.6460   1.4252626270e+02   2.2782988645e+01    0.4464363    0.3162598 -65.70 0.0008525728    1.527    0.345
        32 -14.4093     40.8088    218.6103   1.4048913774e+02   2.3893438475e+01      1.62545     1.456667 -11.51    0.0109447    1.850    0.459
        33 -12.0419    135.5359    241.0462   1.2402856199e+02   4.8692668704e+00    0.4634818    0.3633936  52.17  0.001890924    1.115    0.103
        34 -11.8746    135.4743    236.4163   1.2339613946e+02   5.7450919400e+00    0.5212215    0.3867818  16.48  0.001941102    1.805    0.446
        35 -11.7210    134.1025    232.3493   1.2310030031e+02   6.7589255626e+00    0.5050784    0.3285286 -32.59  0.001895117    2.262    0.558
        36 -10.3060     81.8458    247.0357   1.3532098200e+02   1.2395288860e+01    0.3901553     0.236229 -81.10   0.00219859    1.751    0.429
        37 -10.9185    166.1672    242.0024   1.1798872059e+02  -5.6703626304e-01    0.3634277    0.1738376  38.44  0.001669631    1.835    0.455
        38 -10.9332    244.6854    240.8702   1.0274444177e+02  -1.2885956417e+01    0.1951734    0.1320901 -11.14 0.0007883123    1.416    0.294
        39  -9.4247     61.5165    238.6948   1.3835679115e+02   1.6976629277e+01    0.2331562    0.1930765  28.60  0.001513147    1.683    0.406
        40  -9.6936    173.0837    235.9022   1.1564609779e+02  -7.1120285976e-01    0.1869967    0.1656222  56.03  0.001151727    1.211    0.174
        41  -9.8656    165.5393    234.4926   1.1695408541e+02   8.5003609578e-01    0.1339614    0.1181867  34.80 -0.0001187518    1.023    0.023
        42 -10.9023    156.7735    231.6747   1.1831054039e+02   2.9014449072e+00    0.2758185    0.2334781 -36.76 0.0004347585    1.356    0.263
        43  -9.8507     62.9166    232.9856   1.3754904821e+02   1.7951942628e+01    0.1805471    0.1488254  74.80 0.0003170244    1.066    0.062
        44 -10.8278    142.1979    229.6033   1.2101630393e+02   5.8682827411e+00    0.4763404    0.2545763 -41.59   0.00212419    2.339    0.572
        45  -8.8353     57.3707    231.1290   1.3843909803e+02   1.9098110698e+01    0.1650409   0.09930587 -88.44  0.000597564    1.583    0.368
        46 -10.6708    143.2188    249.2905   1.2361855340e+02   2.0817698336e+00    0.3075795    0.2226237 -82.45  0.001436707    1.859    0.462
        47 -10.3762     84.8034    229.4091   1.3284775512e+02   1.5495970548e+01    0.2268226      0.20477  79.55 0.0001116952    1.152    0.132
        48 -10.2395     85.0492    234.6900   1.3339305995e+02   1.4370272456e+01    0.3285831    0.1865456  72.07  0.001420913    1.973    0.493
        49 -10.5962     79.4077    225.6976   1.3351847076e+02   1.7093790205e+01    0.4661103    0.2730131 -71.19  0.001639832    1.710    0.415
        50  -9.5271     77.2763    220.9333   1.3341091152e+02   1.8430094287e+01    0.2037107    0.1490728  71.11 0.0004618629    1.222    0.182
        51  -9.8478     92.5148    226.0288   1.3087474111e+02   1.5001210171e+01    0.2287075    0.1710008  50.45 0.0005964936    1.207    0.171
        52  -9.6936     89.5352    224.4701   1.3130001273e+02   1.5798769929e+01    0.3808489    0.1697985  53.18  0.001678736    2.144    0.534
        53 -10.1452    132.8369    224.4729   1.2221463614e+02   8.5270865232e+00     0.211963    0.1971229  -8.81 0.0009556331    1.324    0.245
        54 -10.2223    117.3393    224.3215   1.2546715040e+02   1.1256533160e+01    0.2476464    0.2231811  59.91 0.0002032184    1.056    0.053
        55  -9.5822     64.9520    224.4100   1.3629002962e+02   1.9469486707e+01    0.2314397    0.1683813 -66.08 0.0009349898    1.427    0.299
        56 -10.5967    160.9570    223.3407   1.1611012860e+02   3.7062942787e+00    0.4201744    0.2524105  19.23  0.001146768    2.455    0.593
        57 -10.9040    142.2010    221.6206   1.1979397052e+02   7.4256125718e+00    0.3989922    0.2410663  35.88  0.001026793    1.615    0.381
        58  -9.7816    110.8480    220.6394   1.2633006470e+02   1.3127167494e+01     0.358223    0.1026237 -62.39  0.001102609    4.637    0.784
        59 -10.7738     69.8674    217.6549   1.3456518806e+02   2.0227241472e+01    0.7423791    0.3277549 -80.16  0.003050103    2.866    0.651
        60 -10.8109    246.0195    219.7187   9.8734656873e+01  -1.0055278715e+01     0.321401    0.1394457 -28.35  0.001429987    2.501    0.600
        61  -8.5975    104.5475    218.5627   1.2738724086e+02   1.4625413920e+01    0.1370218    0.1186112  67.14 6.795145e-06    1.004    0.004
        62  -8.8363     89.0111    218.4837   1.3067201462e+02   1.7160399565e+01    0.1963768    0.1188705  45.34 0.0005840497    1.519    0.342
        63  -9.6072     88.2657    213.1435   1.3015186794e+02   1.8441989624e+01    0.4385063    0.2229451 -80.90  0.001753134    2.608    0.617
        64  -9.1284     62.4616    217.9473   1.3611348751e+02   2.1210312824e+01    0.1761096    0.1643476 -82.35 0.0005729657    1.296    0.229
        65  -8.6365    118.7223    217.6501   1.2421977295e+02   1.2403197035e+01    0.1295049    0.1101255 -17.26 0.0007008221    1.641    0.391
        66 -10.2653    138.0227    214.1688   1.1951207503e+02   9.6883204951e+00    0.4252561    0.2983698  26.83  0.001271054    1.648    0.393
        67  -9.5229    101.9471    212.0714   1.2705318076e+02   1.6459999317e+01    0.4015014    0.1661852  61.14  0.001273896    4.097    0.756
        68 -10.3276    157.9367    242.4698   1.1971162261e+02   7.6552850011e-01    0.2239206    0.2014637 -54.96 0.0006857474    1.292    0.226
        69  -9.6888    106.9027    209.7966   1.2564691429e+02   1.6124124169e+01    0.1938112     0.189853 -78.48  0.000532689    1.201    0.167
        70  -9.8354     96.5356    206.6047   1.2747325626e+02   1.8562903514e+01    0.3795108    0.2250713  83.06  0.001658418    2.271    0.560
        71 -10.3801     91.3759    204.5335   1.2832447608e+02   1.9865732415e+01    0.4818836    0.3489099  40.28  0.001370712    1.417    0.294
        72  -9.6240     73.8111    209.3201   1.3276715569e+02   2.1494175090e+01    0.3600584    0.2545081   8.24   0.00173115    2.691    0.628
        73  -9.9016    112.6755    208.3508   1.2416230861e+02   1.5448910145e+01    0.2561582    0.2179173  67.86 0.0006209344    1.082    0.076
        74  -9.2201     29.3540    208.6448   1.4184942630e+02   2.7408394277e+01    0.1977304    0.1103195  70.15  0.001091432    1.664    0.399
        75  -9.4980    160.0415    213.6604   1.1468195105e+02   5.7384563794e+00    0.2042149     0.190001 -81.75 0.0003711057    1.189    0.159
        76 -11.2413    249.9906    202.2246   9.4746246073e+01  -7.9599419152e+00    0.5217791     0.228233 -29.35  0.002276262    2.412    0.585
        77  -9.4316     32.8439    206.9279   1.4100489848e+02   2.7391724592e+01    0.1724108    0.1387803 -72.11 0.0004181782    1.283    0.220
        78  -8.5513    125.6787    205.6910   1.2086432613e+02   1.3722618447e+01    0.1368899    0.1149224  -5.19 0.0006780144    1.645    0.392
        79  -9.5287     74.8260    203.6425   1.3184553328e+02   2.2624697750e+01    0.2783842    0.2214718   0.81  0.000748734    2.091    0.522
        80  -9.7020    103.1829    202.6714   1.2542687629e+02   1.8337089383e+01    0.3695124    0.2143796  56.86  0.001305368    1.757    0.431
        81 -10.8609     84.2477    201.5526   1.2949668955e+02   2.1669815189e+01    0.3502238    0.2401391 -44.13  0.001163908    1.854    0.461
        82  -9.0471     85.7156    195.6992   1.2835549671e+02   2.2785704672e+01    0.1992077    0.1692222  62.58 0.0002030804    1.101    0.092
        83 -11.0902    116.7482    238.2112   1.2745264541e+02   8.5844311824e+00    0.4718889    0.3102786 -38.27  0.002086518    2.195    0.544
        84  -9.6086     44.3867    199.2595   1.3788353953e+02   2.7746795486e+01    0.3100811    0.2810376  -9.18  0.001985131    1.676    0.403
        85  -8.6707    183.3767    200.4639   1.0733258661e+02   3.9396344350e+00    0.1385309    0.1330778   9.41 6.180753e-07    1.029    0.029
        86  -9.5033    127.9434    199.5523   1.1934967636e+02   1.4650421190e+01    0.2045374    0.1874085 -79.60 0.0002919068    1.103    0.094
        87  -9.2972    120.0121    199.3305   1.2110886483e+02   1.6143562291e+01    0.2038179    0.1692148  54.40  0.000233823    1.124    0.111
        88 -10.1360     55.5980    198.1019   1.3535820004e+02   2.6586272699e+01    0.5354274    0.2384916  42.61  0.002507175    2.158    0.537
        89 -11.6911     60.7412    194.3259   1.3378249232e+02   2.6769700835e+01    0.4446064    0.3427317  48.68   0.00137954    1.316    0.240
        90 -13.7169     28.8205    246.9889   1.4489176055e+02   1.9500196552e+01     1.561633    0.6980793  45.26  0.008978446    1.936    0.484
        91  -9.6680    102.4523    196.2215   1.2461699113e+02   1.9924833723e+01    0.3957723    0.2673076 -22.77  0.001497939    2.794    0.642
        92  -9.3716     97.3304    196.2102   1.2578552245e+02   2.0788400301e+01     0.306609    0.1884732  37.54 0.0007234815    1.689    0.408
        93  -8.5748    153.6211    196.4807   1.1303965304e+02   1.0461071192e+01    0.1423497    0.1376388  65.50 0.0001076588    1.033    0.032
        94  -9.0783     38.8364    196.0672   1.3872408482e+02   2.9139319818e+01    0.2626601    0.1358775  83.27  0.001254923    2.101    0.524
        95  -9.5807     38.6006    192.1948   1.3837136744e+02   3.0053844562e+01    0.1914656     0.168692 -67.67 0.0005994667    1.288    0.224
        96  -9.8516     41.0536    188.8531   1.3748039782e+02   3.0538767955e+01    0.2817976    0.1991761  85.47 0.0008084556    1.246    0.198
        97  -8.9078     31.8185    195.3321   1.4012441326e+02   3.0107617045e+01    0.2382781   0.08317647  43.75  0.001069752    2.666    0.625
        98  -8.5386    119.9327    194.3078   1.2029741633e+02   1.7284853876e+01    0.2543465   0.09302338  55.54 0.0003477076    4.433    0.774
        99  -9.0632     72.6730    193.0399   1.3094544951e+02   2.5385086596e+01    0.1836394    0.1548802 -78.77 0.0003323916    1.102    0.092
       100  -9.8614     25.8339    192.5440   1.4110442773e+02   3.1388261207e+01     0.264406     0.180382  61.33 0.0007498542    1.366    0.268
       101  -9.8213    191.4773    191.4991   1.0389900248e+02   4.1398457862e+00    0.2455402    0.2345291  -2.99 0.0006265838    1.024    0.023
       102  -9.3472    113.1523    191.8009   1.2144557070e+02   1.9075288626e+01    0.1852918      0.17327 -21.27 0.0003025167    1.316    0.240
       103  -9.2648     19.9831    191.0539   1.4217931076e+02   3.2327041150e+01    0.1913822     0.145541 -84.08  0.001268352    1.070    0.065
       104  -9.7013     31.8746    189.8746   1.3957075201e+02   3.1347097138e+01     0.343264    0.1548539  39.48  0.001719379    2.258    0.557
       105 -13.4999     40.2157    242.8542   1.4260982582e+02   1.8935708901e+01     1.215936     0.766614  65.59  0.006152653    1.268    0.212
       106 -10.9851    249.7529    187.6058   9.1944463599e+01  -5.5489294154e+00    0.3842504    0.2416009 -24.73  0.002015691    1.560    0.359
       107  -9.7812     76.8256    188.7953   1.2941362068e+02   2.5765207633e+01    0.2236123    0.2156898  53.08 0.0004386774    1.236    0.191
       108 -11.6114     67.2230    187.1939   1.3140409885e+02   2.7541595936e+01    0.3120805    0.2387468 -54.27 0.0005165613    1.411    0.291
       109  -9.5895     83.5906    186.9812   1.2758043709e+02   2.5158159377e+01    0.1977965    0.1732518  80.70 0.0003396025    1.024    0.023
       110 -10.4889    249.7153    194.2927   9.3262631482e+01  -6.6431005482e+00    0.3343217     0.228029 -22.16  0.001866579    1.393    0.282
       111 -10.2711     28.4344    184.5766   1.3977147259e+02   3.2936761056e+01    0.3260499    0.2497314  31.64  0.001281818    1.639    0.390
       112  -9.4811     24.2043    184.3575   1.4066049621e+02   3.3425760919e+01    0.1869403    0.1468825 -76.93 0.0004543292    1.130    0.115
       113  -9.1922     37.1193    183.4281   1.3774732937e+02   3.2254554037e+01    0.2576341    0.1618305  67.76  0.001008593    1.572    0.364
       114  -9.3902    140.1447    183.1796   1.1362653466e+02   1.5984224432e+01    0.2079303     0.202118  13.94  0.000284097    1.126    0.112
       115  -9.4932    107.8824    182.4370   1.2110815866e+02   2.2185598046e+01      0.20931    0.1861407 -73.39 0.0003658984    1.093    0.085
       116 -12.8860    247.6041    100.9787   7.4179892401e+01   1.0139610669e+01     0.970596     0.568283 -42.14  0.004796505    1.513    0.339
       117 -10.3154    249.7138    117.9254   7.7500073328e+01   6.7326230143e+00    0.4002867    0.2736584 -26.89  0.001450984    1.646    0.392
       118 -12.3075    248.0721    112.8896   7.6665985512e+01   7.9499147290e+00     1.167595    0.7294757 -16.69  0.004991842    2.682    0.627
       119 -11.7410    247.7909    142.1716   8.2954370319e+01   2.7376823790e+00    0.6543126    0.5674617  44.03  0.003891831    1.304    0.233
       120 -12.8349    248.4764    134.1579   8.1146513789e+01   4.0560662237e+00     1.488507    0.6040184 -40.19  0.006052856    2.173    0.540
       121  -8.7064     65.9169    182.0158   1.3100161111e+02   2.8953152986e+01    0.1599893    0.1393984  81.26 0.0003264105    1.046    0.044
       122  -9.4607    115.5513    178.2569   1.1853493394e+02   2.1788394767e+01      0.36458    0.1831751 -51.72  0.001249899    1.994    0.499
       123 -10.9343    249.6666    150.9138   8.4486533192e+01   8.2618752491e-01    0.5707824    0.2945145 -47.11  0.002590132    1.849    0.459
       124  -9.0163     47.5112    179.7267   1.3496955526e+02   3.1904908924e+01    0.2020781    0.1142814  35.29 0.0006961633    1.967    0.492
       125  -9.2559     20.0392    179.1150   1.4104275975e+02   3.5044634344e+01    0.1770994     0.137871 -65.55 0.0003198202    1.272    0.214
       126  -8.7851     92.6115    178.2269   1.2406836093e+02   2.5794282489e+01    0.1838092    0.1289679 -54.05 9.710724e-05    1.433    0.302
       127 -13.3696      3.9024    245.5144   1.4892814553e+02   2.2526055789e+01     1.040084    0.5194875  84.60  0.006590012    1.599    0.374
       128 -11.0881     11.5837    173.8810   1.4237281353e+02   3.7026507867e+01    0.3769535    0.1592132 -56.90  0.001656182    2.206    0.547
       129  -8.4672    125.7295    177.3374   1.1592324786e+02   2.0102125559e+01    0.1528305    0.1147041  84.30 0.0002613963    1.600    0.375
       130 -10.8833     77.2612    175.0070   1.2727182422e+02   2.8988649444e+01    0.2948375    0.2419998 -54.85  0.000408388    1.269    0.212
       131 -11.7955     64.0516    173.3186   1.3021480425e+02   3.1296133171e+01    0.3850585    0.2385083 -52.93 0.0004609188    1.626    0.385
       132  -9.9586     68.6209    166.5509   1.2807758826e+02   3.2298162342e+01    0.2454616    0.2048323 -89.70 0.0003604639    1.110    0.099
       133 -10.5134     19.4580    172.9509   1.4055171042e+02   3.6523972598e+01    0.4454065    0.2258736  56.89  0.001463691    2.076    0.518
       134 -11.1378     12.6411    161.5114   1.4090815287e+02   3.9786211414e+01    0.4547286     0.217586  73.82  0.002127815    2.559    0.609
       135 -10.1845     15.4828    167.5024   1.4088272672e+02   3.8151075713e+01    0.2532341    0.1657053 -89.25 0.0008412768    1.307    0.235
       136 -10.1629     12.6471    167.3407   1.4150331236e+02   3.8437315877e+01    0.2737707    0.1505744  74.62  0.001273889    1.894    0.472
       137 -11.7532    107.8054    172.8875   1.1944383656e+02   2.4462663077e+01     0.283573    0.2633674  75.73 0.0002886682    1.029    0.028
       138 -10.1521     44.9160    164.8707   1.3366613634e+02   3.5760083623e+01    0.2719238    0.1673596 -75.88 0.0003475748    1.453    0.312
       139 -10.7323     46.0582    172.2342   1.3436306026e+02   3.3861743328e+01    0.3470456    0.1908768 -55.01 0.0003720796    1.758    0.431
       140 -10.5864     43.6259    169.1957   1.3454740035e+02   3.4873639809e+01    0.3194807    0.2548723 -53.27  0.001009587    1.347    0.258
       141 -13.1850      2.5545    163.0173   1.4333485255e+02   4.0251028635e+01     1.980417    0.3330006 -72.12  0.006636103    4.339    0.770
       142 -12.3007     15.4811    138.8974   1.3758880358e+02   4.4822244092e+01     1.074521    0.2720648  43.79  0.003952329    4.671    0.786
       143 -11.8839    199.2203    246.3595   1.1215881380e+02  -6.7888339157e+00    0.5428347     0.216296  39.91  0.002435174    2.201    0.546
       144 -12.0099     12.8963    153.4560   1.3997723922e+02   4.1636166135e+01    0.4444752    0.2639925 -52.51 0.0007365987    1.643    0.392
       145 -10.7171     10.9931    150.0331   1.4004931220e+02   4.2585095791e+01    0.2259839    0.2077189 -68.05 0.0003349397    1.229    0.186
       146  -9.8672     28.3898    170.8371   1.3830740374e+02   3.6142172673e+01    0.3586659     0.162616 -60.41   0.00110508    1.891    0.471
       147  -8.3705    166.7511    170.6443   1.0500696017e+02   1.3397968297e+01    0.1515696    0.1193678 -14.98 0.0001968886    1.599    0.374
       148  -8.5287    150.7361    170.3121   1.0861099657e+02   1.6766469770e+01    0.1509052    0.1198932  88.74            0    1.538    0.350
       149  -8.6182     52.6177    170.7728   1.3260776114e+02   3.3410325448e+01    0.1210568    0.1015981 -27.47 0.0003253412    1.617    0.382
       150 -11.7476     85.0516    166.6436   1.2398850278e+02   2.9812298647e+01    0.6075676    0.4936876  36.33  0.003283786    1.359    0.264
       151 -10.8762      7.2419    167.1007   1.4268168114e+02   3.8947297007e+01    0.3185901    0.1681406 -77.14 0.0009543811    1.493    0.330
       152  -8.5611    118.6861    162.7055   1.1481194377e+02   2.4890466167e+01    0.1479173    0.1226819 -12.95 0.0002690564    1.598    0.374
       153  -8.8133     58.4683    162.5069   1.2998733704e+02   3.4660137163e+01     0.138574    0.1190028 -82.39 4.700399e-05    1.017    0.017
       154 -10.0824     89.8238    160.1973   1.2164218408e+02   3.0613976054e+01    0.2389441    0.2167206 -83.92 0.0002818156    1.021    0.021
       155  -9.4454     73.7106    159.2759   1.2560993097e+02   3.3338980375e+01    0.1875069    0.1581538 -43.99 0.0007258215    1.312    0.238
       156  -8.5170     52.4659    158.4561   1.3088638299e+02   3.6403915199e+01    0.1359483     0.116955 -75.18 0.0003205864    1.030    0.029
       157 -10.6724     31.9157    155.7180   1.3563424260e+02   3.9365449073e+01    0.3591206    0.1977897 -52.50 0.0007668803    1.742    0.426
       158  -9.2210     31.2134    150.6374   1.3513558473e+02   4.0646528435e+01    0.1967622    0.1498292  62.07  0.001182094    1.394    0.282
       159 -12.0306     23.3995    155.1399   1.3764581409e+02   4.0326141614e+01    0.4026076     0.373106 -77.75  0.002816291    1.190    0.160
       160  -9.0365    228.2137    155.2555   8.9106206638e+01   4.0239241442e+00    0.1932252    0.1601465 -60.53 0.0005361913    1.345    0.256
       161  -9.5964    104.8728    153.4499   1.1646673257e+02   2.9671145232e+01    0.2379717    0.1948782 -74.93 0.0003577077    1.236    0.191
       162  -9.7361    113.9908    150.5611   1.1351365266e+02   2.8687469405e+01    0.3213715    0.2162809 -55.91 0.0003244063    1.450    0.310
       163 -10.4027     97.4557    151.1767   1.1794437612e+02   3.1529219864e+01    0.3607752     0.305786 -49.37  0.001901613    1.187    0.157
       164  -9.5568     86.2896    149.6803   1.2059587809e+02   3.3754516702e+01    0.2659093    0.1660471 -68.52 0.0004040255    1.651    0.394
       165  -9.5363     84.3175    146.7128   1.2054805152e+02   3.4793403576e+01    0.2354722    0.1423193 -63.07 0.0004744353    1.596    0.373
       166 -12.2513     68.4091    144.3471   1.2438110637e+02   3.7745675693e+01    0.6919787    0.4901084  83.36  0.002240216    1.679    0.404
       167 -10.1550     84.1219    155.5321   1.2226197652e+02   3.2669827997e+01    0.3858803    0.2119954  24.48 0.0009408937    2.563    0.610
       168  -9.2284    101.0511    146.4290   1.1603178423e+02   3.2053059873e+01    0.3309749    0.1706529 -38.39  0.001232556    2.477    0.596
       169 -10.6979     72.5109    139.8285   1.2241721056e+02   3.8261612719e+01    0.3349598    0.2114128  34.61 0.0009027764    1.751    0.429
       170  -9.3326     53.2816    146.6226   1.2882429299e+02   3.9175383170e+01    0.2148307    0.1455725  77.36 0.0006195451    1.735    0.423
       171 -10.3488    236.2770    146.0284   8.5697010512e+01   4.2007983473e+00    0.2542996    0.2151866  57.43 0.0008168538    1.347    0.258
       172 -10.3034    133.3303    141.3232   1.0652929145e+02   2.7042576630e+01    0.5791371    0.2658432 -53.46  0.002080177    2.258    0.557
       173 -11.0012     32.8697    140.7151   1.3330679156e+02   4.2848222491e+01    0.2758105    0.1957021  73.15  0.001089929    1.561    0.360
       174  -9.0594     55.9583    138.7049   1.2675406013e+02   4.0763173720e+01    0.1777786    0.1677787  86.96 0.0003448975    1.110    0.099
       175 -10.9839     60.5382    136.8168   1.2515102697e+02   4.0636701327e+01     0.304939    0.2326444 -72.97 -4.634913e-05    1.242    0.195
       176  -8.5880     50.6802    138.2780   1.2812470185e+02   4.1507093667e+01    0.1337063   0.09747528  74.67 0.0002393104    1.578    0.366
       177  -9.6918     45.6435    138.1916   1.2948394062e+02   4.2108369629e+01    0.2067116    0.1015079 -56.00 0.0009576872    1.727    0.421
       178  -9.8495    109.5334    136.3000   1.1157603033e+02   3.2940142722e+01    0.3391048    0.2407639 -19.74  0.001452264    2.039    0.509
       179 -11.0999     44.7809    131.0082   1.2849911718e+02   4.3924392857e+01    0.3793654     0.304092 -80.40  0.002140366    1.209    0.173
       180 -10.7940     30.1663    126.6295   1.3185999277e+02   4.6438587413e+01    0.2239147    0.1661962  20.44 0.0006507345    1.672    0.402
       181 -10.5825     33.0081    131.7251   1.3188990064e+02   4.4969722855e+01    0.2236755    0.1583214 -64.66 0.0003023595    1.169    0.145
       182  -9.2807     19.3145    130.3255   1.3541240276e+02   4.6513501468e+01    0.1296649   0.07786147 -44.92 0.0007042789    1.667    0.400
       183  -8.7209    105.0093    142.9770   1.1425313495e+02   3.2176777690e+01    0.1762661    0.1688774 -81.97 0.0003092698    1.019    0.019
       184 -11.4496     67.4695    128.3076   1.2154782259e+02   4.1754733389e+01    0.4163264    0.3284973  70.74  0.002088942    1.481    0.325
       185 -10.4463     59.4420    128.0400   1.2379187595e+02   4.2888127985e+01    0.2307854    0.2083312  31.97 0.0003698522    1.258    0.205
       186 -10.3066    209.8984    125.7285   8.5877823483e+01   1.3520622660e+01    0.3026706     0.233733 -46.08 0.0005068379    1.220    0.181
       187 -10.4734     23.4937    126.5342   1.3370556753e+02   4.7050928053e+01    0.2847859    0.1050913 -66.66   0.00122985    2.236    0.553
       188  -9.4321    238.5103    122.0318   8.0111324740e+01   8.2052843126e+00    0.2232154    0.1281051 -39.87  0.001027227    1.583    0.368
       189 -11.4308     22.2557    121.2486   1.3322602032e+02   4.8381777779e+01     0.281675    0.2062664  23.41  0.001746533    1.682    0.405
       190  -9.6832     54.4281    120.5378   1.2375789058e+02   4.5292393196e+01    0.2164775    0.1362231  10.96  0.000616078    2.243    0.554
       191 -10.7642     29.2819    118.9653   1.3083173947e+02   4.8307080557e+01    0.2290787    0.1933486  -7.16  0.001471957    1.446    0.308
       192 -12.3012     11.7430    116.0173   1.3540231510e+02   5.0377379279e+01    0.4705364    0.2699588  22.90  0.002715965    2.168    0.539
       193 -10.2148    168.0385    113.1263   9.1314978650e+01   2.5604573492e+01    0.3674234    0.2857777 -83.38 0.0008656901    1.583    0.368
       194  -9.8838    231.9737    116.3205   7.9899684710e+01   1.0596354652e+01    0.1966752    0.1857438 -69.60  0.000678286    1.067    0.063
       195  -8.9022    203.5099    111.4936   8.3711511886e+01   1.7727678042e+01    0.1494776    0.1432837 -54.24 0.0008100483    1.051    0.049
       196 -10.1181     66.5381    115.8285   1.1916469419e+02   4.4830152105e+01    0.2773772    0.1747167  53.05  0.001053447    1.971    0.493
       197  -8.3854    127.2630    182.3104   1.1648237075e+02   1.8661293609e+01     0.141156      0.11865 -19.17 0.0001655094    1.534    0.348
       198 -12.1546      8.8230    142.8791   1.3975839322e+02   4.4410453146e+01    0.5425555    0.2597317 -60.93  0.002609982    1.644    0.392
       199  -9.8670     17.1579     99.1963   1.3096025972e+02   5.3763329173e+01    0.1557809    0.1333818  88.62 0.0003700817    1.340    0.253
       200 -11.9172    249.3496    172.0923   8.8905866911e+01  -2.8489588522e+00    0.5942269    0.4643934  11.84  0.003411976    1.420    0.296
       201  -8.9428     28.9606     94.4781   1.2624868254e+02   5.3860702821e+01     0.161632    0.1235665  23.32 0.0006264937    1.538    0.350
       202 -13.6382    245.2449    158.0415   8.6711394235e+01   3.4281721894e-01     2.672975    0.8713598 -48.37  0.008880985    3.556    0.719
       203 -10.1486    192.5533    248.7048   1.1382199778e+02  -6.0692286286e+00    0.2252205    0.1794752  36.96 0.0006152641    1.139    0.122
       204 -10.1787    193.8497    245.1758   1.1300960575e+02  -5.7356289378e+00    0.2216828    0.1632319 -13.19 0.0002714458    1.569    0.363
       205 -10.0873    222.8120    244.6006   1.0738519752e+02  -1.0216039441e+01    0.1679475    0.1047136  41.68 0.0005593197    1.623    0.384
