#   1 NUMBER                 Running object number                                     
#   2 MAG_AUTO               Kron-like elliptical aperture magnitude                    [mag]
#   3 X_IMAGE                Object position along x                                    [pixel]
#   4 Y_IMAGE                Object position along y                                    [pixel]
#   5 X_WORLD                Barycenter position along world x axis                     [deg]
#   6 Y_WORLD                Barycenter position along world y axis                     [deg]
#   7 A_WORLD                Profile RMS along major axis (world units)                 [deg]
#   8 B_WORLD                Profile RMS along minor axis (world units)                 [deg]
#   9 THETA_WORLD            Position angle (CCW/world-x)                               [deg]
#  10 FWHM_WORLD             FWHM assuming a gaussian core                              [deg]
#  11 ELONGATION             A_IMAGE/B_IMAGE                                           
#  12 ELLIPTICITY            1 - B_IMAGE/A_IMAGE                                       
         1 -12.9119     99.7313     76.3212   9.2784692591e+01   4.7625038713e+01     3.460637     1.866794  44.63   0.01552932    1.833    0.454
         2 -13.2031     17.0610     56.8724   1.1570790046e+02   6.2687802834e+01     1.433627    0.9161292  17.21  0.009081728    1.653    0.395
         3 -12.5046    118.7515     49.1729   7.9437417945e+01   4.8037529473e+01     2.709088    0.9593083 -42.44  0.005384283    3.188    0.686
         4 -11.7859      4.9866     80.3351   1.2625161002e+02   5.8978654087e+01     1.772869    0.3731374 -56.37  0.007109487    3.024    0.669
         5 -12.2918     39.6904     46.4619   1.0333510066e+02   6.2169983205e+01     1.310734     1.096273 -22.32  0.009076235    1.143    0.125
         6 -12.7094     51.9118     91.8091   1.1248321403e+02   5.2253784634e+01     3.678332     1.437536 -31.97   0.01165649    4.421    0.774
         7 -12.1593     54.2906     35.2918   9.3820211290e+01   6.1841309426e+01    0.7727231    0.7099166 -39.03  0.005448144    1.477    0.323
         8 -10.9082     90.2509     21.4898   7.7558677911e+01   5.7230879619e+01    0.4309195    0.2684459  26.19  0.002227089    1.674    0.403
         9 -13.1577     74.5307     31.2548   8.5530834151e+01   5.9072440391e+01     2.256137    0.8566319  48.80  0.009984111    2.568    0.611
        10 -10.7710     69.0912     19.4851   8.2886982896e+01   6.1339391278e+01     1.044749    0.5379323  33.39  0.004998097    1.780    0.438
        11 -12.6776     86.3344     54.8447   9.0018312364e+01   5.3734843126e+01     1.980622     1.325324  59.33   0.01010359    1.953    0.488
        12 -13.0296     18.8722     98.7539   1.2529111495e+02   5.4084456262e+01     2.079094    0.7919945 -40.62  0.009070241    2.511    0.602
        13 -12.7963    150.0315     54.8752   7.4328325069e+01   4.0188500347e+01     3.117942     1.353191  64.81  0.007233365    2.544    0.607
        14 -11.2131     59.2545     49.5447   9.7122665263e+01   5.9053604992e+01     1.237715    0.6865343 -41.14  0.006545069    1.849    0.459
        15 -11.9327    143.3878     38.4955   7.1068962613e+01   4.3928035601e+01     2.059184     0.837031  44.66  0.008293234    2.654    0.623
        16 -12.1889     39.4362     86.1975   1.1533463008e+02   5.4883470837e+01     2.210835    0.7626976 -41.57  0.008771628    2.723    0.633
        17 -10.9094     99.1601     39.9434   8.1443556062e+01   5.3353541539e+01     1.325413    0.7187316 -10.31  0.005696217    2.955    0.662
        18 -12.0200    112.5007      7.3953   6.7813604768e+01   5.3967030604e+01      1.07452    0.3640032  61.68  0.003797666    2.507    0.601
        19 -12.0599    131.2285     19.6939   6.7967845167e+01   4.8777299173e+01     1.178774     0.404807  56.82  0.005075834    2.312    0.567
        20 -10.7234    131.8992     13.7056   6.6120362939e+01   4.9202014238e+01     1.024332    0.2380388  57.65  0.003881918    3.068    0.674
        21 -11.5849    112.3731     22.3748   7.2551738313e+01   5.2620241315e+01    0.9234323     0.773832 -71.24  0.005883656    1.502    0.334
        22 -11.8016    118.0579     14.5118   6.8922481509e+01   5.2159997485e+01     0.581413    0.2976706  36.84  0.001552847    2.124    0.529
        23 -12.7670     99.9066      6.2543   7.0053215742e+01   5.6682028481e+01     0.480222    0.3433041 -25.60 0.0006346704    1.637    0.389
        24 -11.7971     93.9658      7.9547   7.1967613720e+01   5.7743164596e+01    0.5605218    0.3440464  42.23  0.003391091    1.363    0.266
        25 -10.2132    193.3401     34.0041   6.2232648714e+01   3.2973475757e+01    0.8930281    0.4655181 -12.92  0.003042879    5.763    0.826
        26 -10.7708    211.1394     15.9619   5.6386350774e+01   3.1179859477e+01    0.4820904    0.4275404 -19.28  0.003365434    1.649    0.394
        27  -9.4090    231.4165     17.5383   5.4865367745e+01   2.6707332171e+01     0.489484    0.2781475 -44.64  0.002945813    1.690    0.408
        28 -11.0708    236.2957     31.4135   5.7070208554e+01   2.3981444599e+01    0.4960359    0.4322796 -62.47    0.0035261    1.268    0.211
        29 -11.0468    215.4019     24.6232   5.7734144551e+01   2.9242343724e+01    0.6067894    0.4883176 -60.17  0.004088319    1.200    0.167
        30  -9.4803    219.1120     14.3305   5.5320266286e+01   2.9656075273e+01    0.4106756    0.1713523  81.64  0.001278837    2.364    0.577
        31 -10.4964    201.0863     30.7190   6.0566136266e+01   3.1641012037e+01     0.609059    0.5031614  26.59  0.003743175    1.846    0.458
        32 -10.8245    233.3050      9.1536   5.3149675685e+01   2.7286972010e+01    0.4030066    0.2781804 -51.16  0.002747044    1.388    0.280
        33  -9.9524    223.9952     11.8336   5.4409675842e+01   2.8908963635e+01    0.5959989    0.2588642 -84.92  0.002768483    2.655    0.623
        34  -9.4604    226.2039      8.4552   5.3584145799e+01   2.8825246961e+01    0.2248145    0.1692059  75.52  0.000856878    1.286    0.222
        35 -10.9678    243.2488     12.2630   5.2952291911e+01   2.4929300952e+01    0.6245601    0.3120511 -34.43  0.003495397    2.404    0.584
        36 -11.0599    239.2703     18.7529   5.4438854613e+01   2.4958209640e+01    0.8623507    0.2252235 -42.00  0.003792536    3.151    0.683
        37 -10.6021    185.6156     13.8318   5.8592322384e+01   3.7051191362e+01    0.5089819    0.4674089 -36.39  0.002401328    1.382    0.276
        38 -10.5283    176.8529     21.7292   6.1481327587e+01   3.8185124149e+01    0.5438369    0.3452143 -11.47  0.002807528    2.586    0.613
        39 -10.9229    177.8998     28.2017   6.2887331737e+01   3.7207035771e+01     1.096771    0.5109112  39.31  0.004256431    3.801    0.737
        40 -10.3980     41.3243      4.2579   8.6235050290e+01   6.7243747089e+01    0.6360457    0.3266152   5.14   0.00345131    2.442    0.591
        41 -10.9039     51.4429     23.7198   9.0461426317e+01   6.3719402279e+01    0.7201543    0.3769867  -7.28 0.0004801389    2.646    0.622
        42 -10.9714     69.3743      3.6829   7.6783299350e+01   6.2743519833e+01    0.7138398    0.2503895  38.77  0.003379764    2.489    0.598
        43 -11.2894     24.9285      5.3789   9.3311316991e+01   6.9319296259e+01    0.5735038    0.4217611  29.38  0.003521014    1.419    0.295
        44  -9.8993     23.7831     31.8442   1.0459789026e+02   6.6153799019e+01    0.7031476    0.2707105 -46.96  0.003384696    2.964    0.663
        45 -11.5268     30.0098     23.0778   9.8583997175e+01   6.6661380325e+01     1.345717    0.7265685  -3.17  0.007066093    2.252    0.556
        46 -10.5760     31.8484     11.4373   9.3028342781e+01   6.7814815719e+01    0.2796694    0.1822047  -1.45  0.001189924    1.364    0.267
        47 -11.8915     50.2212      9.9691   8.5399122506e+01   6.5376421905e+01    0.9969849    0.5067843  14.40  0.005166339    2.470    0.595
        48 -11.8786     56.4278      3.1370   8.0509329414e+01   6.5004936274e+01    0.5144328    0.3763637  41.14  0.001798963    1.251    0.201
        49 -11.6433     19.6313     13.6548   9.9217080108e+01   6.8998746790e+01    0.6726035    0.4355989  20.32   0.00332762    1.367    0.268
        50 -11.1566     40.5337     21.4953   9.3691423172e+01   6.5529004323e+01    0.3669513    0.1851521 -32.37   0.00211853    1.960    0.490
        51 -12.3961      8.9964     25.4914   1.0878945752e+02   6.8446967286e+01    0.7908695    0.5267524  -7.35  0.003805341    1.253    0.202
        52 -11.8167     12.6697      7.6529   9.9828875201e+01   7.0431659773e+01    0.5490687    0.3009665 -24.88  0.002753227    1.577    0.366
        53 -12.5412      3.2492     17.4311   1.0839921832e+02   7.0043085843e+01    0.3583819    0.1952862 -20.50 0.0003970655    1.554    0.356
        54 -13.7363      3.9868      9.5427   1.0481296553e+02   7.1013364268e+01    0.5229973    0.3109084 -30.58  0.001646523    1.437    0.304
        55  -9.4993    156.9340      5.7823   6.0183952309e+01   4.4303546000e+01    0.5427428    0.2105515  68.13  0.002535949    2.125    0.529
        56 -10.8395    159.2428     22.6765   6.4158006927e+01   4.2116564353e+01     0.543229    0.4603397  -0.42  0.002554355    1.571    0.364
        57 -10.7133    156.4718     14.3344   6.2420049807e+01   4.3607787421e+01    0.5240797    0.3961442 -59.34  0.003026426    1.428    0.300
        58 -11.1676    163.8956      4.6576   5.9016194133e+01   4.2837478011e+01     1.067881    0.3739565 -28.57  0.004835486    3.355    0.702
        59 -11.6985    148.7264     17.0017   6.4269843567e+01   4.5104932422e+01      0.87341    0.5845659   6.69  0.004443827    2.326    0.570
        60 -10.3261    169.8470     13.4012   6.0385779731e+01   4.0659529524e+01    0.3115164    0.2405951 -63.88 0.0006628541    1.319    0.242
        61 -10.1400    165.7505     11.5829   6.0470000358e+01   4.1769079238e+01     0.288644    0.1985771  89.06  0.001008422    1.371    0.271
        62  -9.7107    198.5282     15.3613   5.7523735758e+01   3.4006972441e+01    0.3487776    0.2208186 -23.31  0.001972499    2.242    0.554
        63 -10.5172    201.8643     18.7911   5.7906587738e+01   3.2886705917e+01    0.5863813    0.2936558  58.15  0.003083254    1.956    0.489
        64  -9.7919    140.8801     10.6013   6.3764832909e+01   4.7481791880e+01    0.4022541     0.239605 -67.53  0.001214842    2.245    0.555
        65  -9.2843    189.7112      7.8992   5.6830602601e+01   3.6746590642e+01    0.2710899    0.1375997  66.16 0.0005857612    1.660    0.398
        66  -9.5939    173.6970      8.5215   5.8752417871e+01   4.0269562337e+01    0.2015543    0.1759695 -32.81 0.0005486308    1.426    0.299
        67 -10.5032    179.7479      4.6323   5.7167952888e+01   3.9284531781e+01    0.8807375    0.3641311  83.10  0.003664484    2.615    0.618
        68 -10.0704    204.3558      6.1525   5.5023203490e+01   3.3710609216e+01    0.2229117    0.1841121 -72.83 0.0005154392    1.143    0.125
        69 -10.2996    207.1384      2.8935   5.4112377126e+01   3.3443452799e+01    0.2885338    0.2048241 -79.09  0.001110353    1.160    0.138
        70 -10.4892    200.4400      6.7007   5.5504025006e+01   3.4505925354e+01    0.3253776    0.2183043 -38.05 0.0009284068    1.690    0.408
        71 -10.7113    196.8578      5.3507   5.5565687224e+01   3.5426454821e+01    0.4815316    0.2921692  44.37  0.002380248    2.274    0.560
        72 -10.9708     77.3082      9.0147   7.6566632456e+01   6.0860381271e+01    0.2423634    0.2044017  33.45 0.0004497002    1.069    0.065
        73  -8.4588     78.2423      4.2045   7.4540599558e+01   6.1084676316e+01    0.5644892    0.1317187  44.27  0.002260827    3.275    0.695
        74  -9.6286    249.8746      6.7501   5.1511838731e+01   2.4261948019e+01    0.3351302    0.1425562 -56.94  0.001882111    1.946    0.486
        75  -9.3167    248.8042      1.7851   5.0734675939e+01   2.5024380900e+01    0.1930975    0.1295296 -89.54 0.0006349004    1.190    0.159
        76 -10.6696    245.9243     19.0409   5.3960022734e+01   2.3592212872e+01    0.4957867    0.2200928  74.10   0.00195591    2.055    0.513
        77 -11.1645    132.3428      4.4259   6.3405216680e+01   4.9910480935e+01    0.5532247    0.2573221  56.35  0.002654368    1.708    0.415
        78 -11.0662    139.6092      1.7052   6.1535799542e+01   4.8524276918e+01    0.3706367     0.194117  70.85   0.00114538    1.641    0.391
        79  -9.9871    221.6768      2.0782   5.2743186596e+01   3.0451299400e+01    0.4247492    0.1717648  64.42  0.001820044    2.228    0.551
        80 -10.2700    211.3968      4.1700   5.3995717796e+01   3.2401213071e+01    0.4534539    0.2476415  46.54  0.002399804    2.718    0.632
        81  -9.3016    217.5471      4.9503   5.3626726707e+01   3.1014968984e+01    0.1751975    0.1648503 -88.93 0.0009413463    1.385    0.278
        82  -9.3702    230.1802      2.9449   5.2249869307e+01   2.8605838009e+01    0.2864988    0.1221602  69.83  0.001567303    2.031    0.508
        83  -8.8791    122.3662      3.2030   6.4717445576e+01   5.2188079931e+01    0.1906253    0.1382668 -81.88  0.001166546    1.670    0.401
        84  -9.7121     92.0959    114.0014   1.0547606215e+02   4.1293604693e+01    0.4976943    0.3249793 -58.47  0.001002545    1.612    0.379
        85  -9.5836    233.7642    249.7605   1.0069756999e+02  -1.2702842277e+01    0.3146425    0.1718685  20.62  0.001706558    1.852    0.460
        86  -8.8498    211.5125    250.4809   1.0498856840e+02  -9.7280337306e+00    0.1245433     0.104849   7.55 0.0006375175    1.009    0.009
        87  -8.9130    183.9684    250.2424   1.1035284946e+02  -5.5423455504e+00    0.1762303   0.09723824  36.23  0.000832392    1.624    0.384
        88  -8.4609    161.5060    250.4849   1.1494184173e+02  -2.0020886248e+00    0.1308616    0.1149411  28.26 0.0008103743    1.022    0.021
        89  -9.5338     59.8580    120.4341   1.1674796934e+02   4.4786785374e+01    0.3469786    0.2448835 -20.99  0.001715987    1.750    0.429
        90 -10.9242     41.2930    117.1892   1.2181007784e+02   4.7792877747e+01    0.4633145    0.2382789  52.35  0.001485784    2.828    0.646
        91  -9.8169    104.7523    117.4269   1.0269261487e+02   3.8201074223e+01    0.4303385    0.3174551  84.50   0.00190444    1.959    0.489
        92  -9.8447     98.5005    114.4133   1.0371394761e+02   4.0050028286e+01    0.4469452    0.3033814  40.95  0.001900454    1.528    0.345
        93  -9.2259     50.8714    118.0546   1.1900820512e+02   4.6490754406e+01    0.2827287    0.2348558  86.20  0.001587753    1.428    0.300
        94 -10.8257     82.3804    114.8870   1.0858888633e+02   4.2740477648e+01    0.3859605    0.2921675  22.95  0.000785233    1.482    0.325
        95  -8.6021     24.1276    116.1559   1.2694916194e+02   4.9702752781e+01    0.1633712    0.1334265 -81.25 0.0009985538    1.282    0.220
        96  -8.8811    109.9958    115.5051   1.0073737578e+02   3.7626447259e+01    0.2294329    0.1511432  41.32 0.0005015182    1.561    0.359
        97 -11.1924     67.2874    107.7854   1.1149486943e+02   4.6684309968e+01    0.9159366    0.4064979 -30.98  0.002929573    3.980    0.749
        98 -10.2287     74.2235    107.5137   1.0925352047e+02   4.5710340953e+01    0.4327647    0.3104295  26.11  0.001348982    1.527    0.345
        99 -10.5981     75.9387    101.9920   1.0730280379e+02   4.6665856593e+01    0.4916916    0.3378057  27.17  0.001831725    1.583    0.368
       100  -9.5819     81.0375    102.2305   1.0577793125e+02   4.5794198803e+01    0.2775202    0.2030399  32.99  0.001053136    1.435    0.303
       101  -9.2557     44.9987    113.7734   1.1993540589e+02   4.8180002243e+01    0.2644026    0.2087144 -12.67  0.001079479    1.447    0.309
       102  -9.5071    132.9964    111.8588   9.3685566891e+01   3.3692698892e+01    0.3905382    0.2840448 -42.71  0.001823251    1.370    0.270
       103  -9.9568     32.7206    109.6213   1.2297793004e+02   5.0427328498e+01    0.4927704    0.3532143 -40.33  0.002591479    1.279    0.218
       104  -8.7673    104.4552    109.0130   1.0061398964e+02   4.0138950400e+01    0.2293277    0.1439696 -46.66 0.0005501623    1.549    0.354
       105  -9.6132    133.7892    103.6552   9.1336127272e+01   3.5251185985e+01    0.5552502    0.2140997 -42.90  0.001908904    2.601    0.616
       106  -9.3521     52.9926    104.7534   1.1533933584e+02   4.9291816905e+01    0.3360623    0.2173716 -57.38  0.001715979    1.460    0.315
       107  -9.1982    150.9505    104.9216   8.7550738823e+01   3.1182014985e+01    0.2165394    0.2098975 -72.09  0.001170686    1.012    0.012
       108  -8.4886    195.5310    103.9578   7.8228699439e+01   2.1277728641e+01     0.204948    0.1320055 -18.43 0.0008097657    2.607    0.616
       109  -9.2230    141.3879    102.7405   8.9230101486e+01   3.3767026402e+01    0.3894777    0.2273385 -41.95  0.001645647    1.723    0.420
       110  -9.6637    171.1748    102.6459   8.2580559072e+01   2.7036609506e+01    0.3500358    0.2639024  31.86  0.001308329    1.642    0.391
       111  -9.0120     96.9050    103.0535   1.0121461928e+02   4.2850930630e+01    0.2103341    0.2014305 -22.18 -0.0009232552    1.014    0.014
       112  -9.6305     62.7953    101.5982   1.1138865799e+02   4.8700829253e+01    0.2857843    0.2229382  29.26  0.001576819    1.378    0.274
       113  -9.0329     63.8487     97.9548   1.1011532359e+02   4.9348755602e+01     0.337193    0.2813342 -10.09  0.001613373    1.255    0.203
       114  -9.1884     92.9809     89.0056   9.8492467637e+01   4.6483541026e+01    0.3708665    0.2569268  85.11  0.001516333    2.847    0.649
       115  -8.9009     77.4424     93.5457   1.0456501996e+02   4.8230540893e+01    0.3623909    0.3116218  13.32  0.001120264    1.202    0.168
       116 -10.8873     88.5167     91.4398   1.0053352525e+02   4.6794592749e+01      1.53461    0.8423352 -62.30  0.005952417    2.784    0.641
       117  -9.7636     82.1901     90.1454   1.0212338309e+02   4.8148703292e+01    0.2856355    0.2488837  25.71 0.0008569018    1.166    0.142
       118 -10.0224     82.3231     85.4026   1.0072809411e+02   4.9076615142e+01    0.6693879    0.2653693 -32.40  0.002153459    3.813    0.738
       119  -9.6395     87.2890    100.6776   1.0344847315e+02   4.5076923318e+01    0.2448862    0.2310233 -53.40 0.0005680207    1.102    0.093
       120 -10.3600     84.8607     97.3391   1.0328818407e+02   4.6204368925e+01    0.3335147    0.2484311  39.21 0.0003862849    1.398    0.285
       121 -10.1503    117.2404     99.2454   9.4449479248e+01   3.9675636402e+01    0.5088764    0.3141799  -3.92  0.001654809    3.888    0.743
       122  -8.7188    130.3007     98.3802   9.0801372689e+01   3.7086747540e+01    0.3326726    0.1792318  34.13  0.001273795    2.301    0.565
       123  -9.4641    159.6655     97.1035   8.3593845324e+01   3.0753118250e+01     0.295246    0.2175706  45.66 0.0007373545    1.402    0.287
       124 -10.3179    114.4481     94.5977   9.3927237306e+01   4.1195510515e+01    0.3721595    0.3524665 -77.08  0.002067435    1.140    0.123
       125  -8.5984    188.7745     94.4025   7.7178453456e+01   2.4591610432e+01    0.1953382    0.1357801  47.44 0.0005393001    1.561    0.360
       126  -9.9306    103.5502     92.5600   9.6402100210e+01   4.3780117687e+01    0.3140531    0.2468374  38.41 0.0007624897    1.281    0.219
       127 -10.9962    107.9312     85.8385   9.3249335182e+01   4.4236725077e+01     0.808184    0.4659383 -16.89  0.002923217    3.186    0.686
       128  -9.1647    112.5223     85.4974   9.1883760444e+01   4.3371339965e+01     0.280269    0.2358238  -4.48 0.0007881789    1.349    0.259
       129  -8.5741    187.2294     89.4296   7.6259624516e+01   2.5853132373e+01    0.1842663    0.1356753  74.85 0.0003077833    1.438    0.305
       130  -9.5383     73.4637     89.4979   1.0471445667e+02   4.9699179288e+01    0.5621681    0.1324417  37.80  0.001711541    4.346    0.770
       131 -10.2879    145.9900     86.3169   8.3769007345e+01   3.5924385413e+01    0.4748988    0.3061565 -31.09   0.00169337    1.776    0.437
       132  -8.5324     41.3063    221.0312   1.3650475395e+02   2.2661207457e+01    0.2029195   0.06443582 -52.07 0.0007041204    4.220    0.763
       133 -10.1343    164.5083     85.7891   7.9665763080e+01   3.1757110890e+01    0.2699561    0.2571077 -10.18  0.000546147    1.214    0.176
       134  -8.5045    153.0213     87.4739   8.2517233477e+01   3.4102153530e+01    0.2280421     0.142351  50.94  0.001020538    1.574    0.365
       135  -9.4237    140.8721     85.6108   8.4752187910e+01   3.7214724425e+01    0.4565037    0.2371153 -45.83  0.001884029    1.978    0.494
       136  -9.3134    238.6217     86.2147   6.7727002022e+01   1.5292360879e+01    0.1851827    0.1166448 -36.70 0.0006521853    1.668    0.401
       137  -8.1684    167.6959    220.6652   1.0880294531e+02   2.5240707027e+00    0.1423133    0.1072243  -5.82 0.0003501602    1.664    0.399
       138  -8.4816    105.2132    219.6167   1.2244775367e+02   1.3623423616e+01    0.1904282    0.1304861  32.33 0.0008839853    1.565    0.361
       139  -9.7704    217.0513     81.2237   6.9593863878e+01   2.0635303632e+01     0.448339    0.2043094 -35.13  0.001838415    2.479    0.597
       140  -9.6338    160.1644     81.8753   7.9532662394e+01   3.3466249522e+01    0.3715857    0.2826899  75.93  0.001854737    1.423    0.297
       141 -10.4163    134.0643     79.2683   8.4599716110e+01   3.9892531492e+01    0.7277704    0.3162307 -49.44  0.002687946    2.666    0.625
       142  -8.5273    188.6099     80.1879   7.3792928924e+01   2.7168435112e+01    0.1910744      0.13631 -31.86 0.0005596053    1.612    0.380
       143  -9.2877    179.3686     80.2045   7.5414612067e+01   2.9297369268e+01    0.2746668     0.198639  70.30 0.0007762942    1.403    0.287
       144  -9.5603    150.3796     77.4607   8.0408700136e+01   3.6504717519e+01    0.3953193    0.2963246  24.48  0.001910207    1.742    0.426
       145 -10.6698    144.9815     75.9767   8.1178794165e+01   3.8000959879e+01    0.4319876    0.3109677  -8.73  0.001986686    2.037    0.509
       146 -10.2959    139.0459     75.7755   8.2457557915e+01   3.9386131601e+01    0.4364074    0.2648985 -28.53  0.001928297    1.975    0.494
       147  -9.6784    247.6959     75.3272   6.4432422022e+01   1.5281835159e+01    0.2940282    0.1722841 -67.96   0.00105048    1.753    0.430
       148  -8.6405    219.4277     75.2014   6.7948808223e+01   2.1126116351e+01    0.2027877    0.1093835 -52.60 0.0009533468    1.717    0.418
       149  -9.1241    214.5328     72.9962   6.8142058735e+01   2.2549377972e+01    0.3965146    0.2467975 -18.46  0.001673845    3.024    0.669
       150  -9.1563    191.7823     73.3999   7.1644473082e+01   2.7586168251e+01    0.3799988    0.2271078 -84.09 0.0008651664    2.367    0.578
       151  -8.9171     84.5816     74.4985   9.6784368034e+01   5.0756069454e+01    0.2257855    0.1260834  28.94  0.001003446    2.009    0.502
       152  -8.8427      3.3263    213.8676   1.4351414276e+02   2.8420833992e+01    0.2451882    0.0889276 -84.91  0.001084817    2.590    0.614
       153 -10.4349    151.0704     67.2184   7.7487832475e+01   3.8057633242e+01    0.3642234    0.3461041  34.67  0.001587277    1.143    0.125
       154 -10.6186    138.3371     68.2688   8.0512100795e+01   4.0807813570e+01    0.7100685    0.3608616  42.31  0.002967563    2.085    0.520
       155  -8.9794    131.8093     67.8549   8.1889286644e+01   4.2343983979e+01    0.2657485    0.2060883  47.30 0.0008805992    1.231    0.188
       156  -9.2605     84.7997     67.8045   9.4648719414e+01   5.1904020798e+01    0.2626498    0.2098138  15.04  0.001206219    1.271    0.213
       157 -10.1359    250.4490     65.5453   6.2221117331e+01   1.6278992807e+01    0.5164397    0.1275211 -39.56   0.00182313    3.842    0.740
       158  -9.1151     92.6191     66.3986   9.1831615716e+01   5.0713654086e+01     0.276367    0.1845807   6.72 0.0007370823    2.064    0.515
       159  -8.8248    198.9974     63.2563   6.8162403968e+01   2.7565885784e+01    0.1867336    0.1591784  89.52 0.0001943579    1.058    0.055
       160  -8.7939     61.9339     62.5057   1.0048967974e+02   5.6544663643e+01    0.1888437    0.1563155 -24.64  0.000476111    1.115    0.103
       161  -9.1605    189.0479     49.4947   6.6395720579e+01   3.1883461829e+01    0.2717656    0.2037893 -84.42 0.0008194856    1.294    0.227
       162  -9.5206    186.0016     53.7252   6.7849419326e+01   3.1979113517e+01    0.3377216    0.2397543 -13.73  0.001684474    2.190    0.543
       163  -9.0330    179.1226     59.1947   7.0257680692e+01   3.2764071900e+01    0.4668703    0.2547467 -24.68  0.001970232    2.674    0.626
       164 -10.9033    182.0989     50.5336   6.7670571637e+01   3.3340982336e+01    0.4806994    0.3225325 -37.25  0.001478711    1.615    0.381
       165 -10.4782    174.1821     56.5682   7.0417403051e+01   3.4308484873e+01    0.5231781    0.3903427  -3.08  0.002189659    2.118    0.528
       166  -9.1127    137.2005     59.4429   7.8258875106e+01   4.2454587217e+01    0.2609485    0.1233204  50.41 0.0007998053    1.957    0.489
       167 -10.2559    222.5367     56.9359   6.3649242564e+01   2.3320840510e+01    0.3822731    0.2728228  81.05  0.001661514    1.325    0.246
       168 -10.1350    193.9516     53.9992   6.6747980500e+01   3.0111266719e+01    0.5075869    0.2415256  69.91  0.001793228    2.151    0.535
       169  -9.5058    201.7589     57.9693   6.6560752975e+01   2.7748497246e+01    0.3946338    0.3112904 -12.88  0.002154535    1.906    0.475
       170 -11.9720     16.0228     85.4057   1.2342432632e+02   5.7178741366e+01    0.9356938    0.3411868 -48.58  0.004380208    2.080    0.519
       171  -8.9285     26.3190    212.3325   1.3879019020e+02   2.6406055573e+01     0.119213   0.08860917 -50.11 0.0007048515    1.694    0.410
       172  -9.8984    244.3901    204.5253   9.0687355763e+01  -7.0665433187e+00    0.2429124    0.1845087 -11.84 0.0001103207    1.262    0.207
       173  -9.0662    233.8460    199.6733   9.1649038774e+01  -4.6439036154e+00    0.1970967    0.1508212 -25.91  0.001142525    1.173    0.148
       174  -8.8214     27.3263    194.6454   1.3687492867e+02   3.0425365145e+01    0.1406032    0.0811382  71.68 0.0007046321    1.770    0.435
       175  -9.7725     10.7458    191.6425   1.4021445449e+02   3.2800545058e+01    0.3096944    0.1485524 -89.41  0.001510622    1.989    0.497
       176  -8.6986    245.9541    186.9866   8.7068579790e+01  -4.2773800820e+00    0.1591831    0.1352636 -25.92 0.0003571663    1.004    0.004
       177 -12.1269    105.8224     33.5294   7.7644528262e+01   5.2778429915e+01    0.4319152    0.3568582 -78.78  0.000341338    1.630    0.386
       178 -11.8267    112.8961     31.7865   7.5407776187e+01   5.1493183864e+01     0.522427     0.357994  84.85  0.001243397    2.117    0.528
       179 -10.1943     12.0819    183.8062   1.3919264071e+02   3.4523577993e+01    0.2793955    0.1451618 -62.86  0.001485005    1.653    0.395
       180 -10.0393     18.8253    184.0814   1.3770092869e+02   3.3819555758e+01    0.3025741    0.1818092  30.47  0.001674886    1.980    0.495
       181  -9.0265    243.0794     54.6178   6.0881641146e+01   1.9385849862e+01    0.2172924    0.1429073 -59.25 0.0006892286    1.276    0.216
       182  -9.7811    173.1460     48.2383   6.8498568581e+01   3.5744145264e+01    0.4712014    0.2726315  72.11  0.002272911    1.723    0.420
       183 -10.0119    230.5514     45.5167   6.0399355553e+01   2.3271725223e+01    0.3044378    0.2006026  74.07 0.0009462663    1.436    0.303
       184  -8.7497    221.7632     46.0073   6.1458401444e+01   2.5069984524e+01    0.1816556    0.1521914 -70.85  0.001024227    1.074    0.069
       185  -8.7312    219.9110     42.6785   6.0975208468e+01   2.5931218459e+01    0.1771769    0.1414048  88.36 0.0009236164    1.100    0.091
       186  -9.5653    205.7221     46.0453   6.3370980554e+01   2.8583868500e+01    0.3000488    0.1498875  59.07   0.00145378    1.939    0.484
       187  -9.2232    106.3393     45.1139   8.1243561073e+01   5.1215818019e+01    0.3859029    0.2020442  39.96  0.001659568    1.852    0.460
       188  -8.9009    104.9976     42.1386   8.0633755326e+01   5.1885005168e+01    0.2798626    0.2181612   8.08  0.001617906    1.435    0.303
       189  -9.0038     12.0317     34.0000   1.1050162977e+02   6.6927144950e+01    0.2057507    0.1362498  23.06 0.0009359026    1.613    0.380
       190 -10.4170     16.4624     31.2999   1.0757599415e+02   6.6946517038e+01    0.2260616    0.2200181  14.98  0.000935935    1.643    0.391
       191  -9.5836      9.4912     42.4822   1.1445903346e+02   6.5772022714e+01    0.2186889    0.1219696 -37.20 0.0008212907    1.421    0.296
       192  -9.3348     12.8184     41.3911   1.1267021012e+02   6.5691347981e+01     0.514156    0.3629128  32.81  0.003488673    1.812    0.448
       193  -9.6307     21.2014     40.3583   1.0874221231e+02   6.5121295753e+01    0.2791678    0.2283458  32.97 0.0008521329    1.618    0.382
       194  -9.3770     17.5743     37.2564   1.0921691001e+02   6.5942348364e+01    0.8619753    0.5676795 -66.06  0.004637736    3.209    0.688
       195 -10.0349    213.8604     42.8273   6.1693775655e+01   2.7227195747e+01    0.4420289    0.3159055  -2.72   0.00219286    2.905    0.656
       196  -8.6345    196.7192     45.6126   6.4435542080e+01   3.0672178358e+01    0.1729628    0.1129854  80.00 0.0002353285    1.463    0.316
       197  -8.1295    234.5703     59.5103   6.2775109681e+01   2.0395061298e+01    0.1302409    0.1047612 -70.53 0.0001566566    1.017    0.017
       198  -9.3600    152.5470     44.1716   7.0941503858e+01   4.1090250290e+01    0.3080792    0.2172776 -44.53  0.001678777    1.518    0.341
       199  -9.7903    156.3365     43.9802   7.0214103266e+01   4.0236447608e+01    0.2994648    0.2069338  73.61   0.00106753    1.416    0.294
       200  -9.8276     66.8548     43.2260   9.2295637804e+01   5.8805479618e+01    0.3428849    0.2226431 -26.32 0.0009416682    1.534    0.348
       201  -8.1292    248.6720     44.6844   5.8431719699e+01   1.9694060716e+01    0.1040686   0.09592222  43.52 0.0003478708    1.675    0.403
       202  -9.8713      1.7261    178.0449   1.4096457589e+02   3.6778538788e+01    0.3259943    0.1412016 -76.80  0.001610499    1.860    0.462
       203  -9.3049    235.4004     38.7348   5.8566644217e+01   2.3196402532e+01    0.2297553    0.1840978 -86.10  0.000696395    1.093    0.085
       204  -8.5938     37.7728    179.3945   1.3273342194e+02   3.2954424025e+01    0.1661715    0.1330994  11.97 0.0008404897    1.710    0.415
       205  -8.6154     80.2323    176.6887   1.2177071111e+02   2.7914600637e+01    0.2332111   0.09955576 -51.04 0.0007587811    2.307    0.566
       206  -9.4031     26.3742    176.3586   1.3510249000e+02   3.4928364480e+01    0.2701224      0.24308  65.69  0.001389224    1.200    0.167
       207 -11.1583    213.9528     33.2208   5.9659997531e+01   2.8482596111e+01     1.069773    0.4690247  78.57  0.003389701    2.413    0.586
       208  -9.1038     32.6507    170.6772   1.3288825489e+02   3.5661756595e+01    0.1353416   0.09153186 -42.15            0    1.746    0.427
       209 -11.2454     14.4716    164.8171   1.3665083919e+02   3.8858730883e+01    0.7192907    0.2372899  34.21   0.00312494    3.136    0.681
       210 -10.6806    203.3958     37.9657   6.1880537467e+01   3.0197695465e+01    0.5302721    0.4378228 -17.66  0.002896938    1.730    0.422
       211 -10.2453      2.3759    160.8823   1.3915285935e+02   4.0786592768e+01     0.420945     0.187928 -68.27  0.002134413    1.716    0.417
       212 -10.3718     16.7039    159.4809   1.3547497013e+02   3.9953792644e+01    0.2587355    0.1999179   7.90  0.001575686    1.767    0.434
       213  -9.2209     10.0584    157.9007   1.3694928140e+02   4.0898022103e+01    0.2038798    0.1241073 -46.82  0.001000048    1.731    0.422
       214  -8.5933    125.0013    249.4962   1.2233496096e+02   4.1454558892e+00     0.182889    0.1130692  16.54 0.0006960173    2.551    0.608
       215  -8.9639     11.3282    248.8004   1.4437638474e+02   2.0161663144e+01    0.2647754   0.07501271  49.63   0.00123665    2.742    0.635
       216  -9.0783      3.6527    245.9228   1.4553034715e+02   2.1554968298e+01    0.2412663    0.1000627 -67.23  0.001315993    2.242    0.554
       217  -8.8596    196.9481     41.6268   6.3500491455e+01   3.1162823678e+01    0.1914132    0.1457405  77.48  0.001132773    1.171    0.146
       218  -9.7208    162.4618     41.4871   6.8513720446e+01   3.9139103959e+01    0.5938028    0.2235996  72.89  0.001927987    4.020    0.751
       219  -8.8014    161.9994     37.7108   6.7610345792e+01   3.9728379355e+01    0.2626535    0.1998376 -27.13 0.0008220176    1.575    0.365
       220 -10.9615    167.3660     24.4490   6.3426211981e+01   4.0056851921e+01    0.5186259    0.2515319  52.42 0.0008208294    1.972    0.493
       221 -10.0826    180.4168     38.0385   6.4899906601e+01   3.5418330858e+01    0.6190891    0.2810347 -61.69   0.00243805    3.132    0.681
       222 -11.6873      5.0298     98.8209   1.2987776033e+02   5.5033207187e+01    0.7613204    0.2983732 -40.63  0.003313124    2.349    0.574
       223  -9.7170    176.0744     15.1250   6.0017040684e+01   3.9070290536e+01    0.2344665    0.1721793  65.09  0.000485079    1.218    0.179
       224  -9.5359    142.5077    243.4749   1.1783666354e+02   2.4088780346e+00    0.2943753    0.2104279  16.03  0.001477073    1.723    0.420
       225 -10.3108     13.7684    237.1452   1.4318148315e+02   2.2312927232e+01    0.3329068    0.1670253 -62.50  0.001777341    2.048    0.512
       226 -10.0002    183.0086     27.3224   6.2006721474e+01   3.6140840275e+01    0.2828283    0.2420335  59.87  0.000639825    1.250    0.200
       227  -9.2486    186.2618     25.6424   6.1205734625e+01   3.5596557414e+01    0.3257982    0.1404314 -46.84  0.001291931    2.336    0.572
       228  -7.9984      5.5024     40.5254   1.1556721120e+02   6.6386068653e+01     0.115245    0.0819836 -25.02 0.0001702084    1.076    0.070
       229 -10.1875    173.6767     38.5620   6.6008499501e+01   3.6910372520e+01    0.3279344    0.2077934  81.05  0.001379487    1.597    0.374
       230 -10.1003    123.7032     36.4804   7.4449116397e+01   4.8601260804e+01     0.375739    0.2930509  72.10 0.0009269931    1.347    0.257
       231  -9.4695    125.2327     32.5365   7.2936169054e+01   4.8729815249e+01    0.2559047    0.1639835  40.85 0.0006638429    1.529    0.346
       232  -9.6159    155.0470     33.4019   6.7621102029e+01   4.1865335643e+01    0.3550426    0.2021214 -23.50  0.001693158    2.279    0.561
       233 -10.5135    134.9464     33.8812   7.1372312160e+01   4.6404806772e+01    0.2902032     0.248307 -18.75 0.0003222018    1.362    0.266
       234  -9.2958    138.3042     31.3485   7.0006239959e+01   4.5940144445e+01    0.2521729    0.1808824  39.37 0.0008247791    1.457    0.314
       235  -9.5223    248.5581     26.0590   5.5013160102e+01   2.2200317537e+01    0.2819825    0.2333931  49.75   0.00194555    1.837    0.456
       236  -9.8521    247.9546     32.7272   5.6277945877e+01   2.1458539697e+01    0.3494837     0.203921  57.21  0.001641223    2.076    0.518
       237  -9.4236     32.4149     33.3096   1.0152829881e+02   6.4999375425e+01    0.2152546    0.1431327 -20.19 0.0009908903    1.315    0.239
       238 -12.2367     20.6193    148.0228   1.3299249634e+02   4.2390565956e+01    0.7911499    0.6594591  71.41  0.003781553    1.270    0.213
       239 -11.5397      5.9700    143.2103   1.3624613900e+02   4.4728434122e+01    0.5416222    0.4972866  88.39  0.001583663    1.183    0.154
       240 -12.9758     11.1635    130.6159   1.3314393632e+02   4.7338857869e+01     1.711543     1.354527  -9.00   0.01053541    1.593    0.372
       241 -11.7641     16.7301    120.2089   1.2990972392e+02   4.9364573787e+01     1.269329    0.6232348  47.29  0.006038174    2.668    0.625
       242  -9.3642     12.6121    232.1115   1.4304627108e+02   2.3506579421e+01    0.2645468    0.1380706  67.56  0.001130391    1.685    0.406
       243  -8.5600     41.0344    236.5322   1.3798141051e+02   1.9271979599e+01    0.1449545    0.1117775  -3.34 0.0007978716    2.485    0.598
       244  -8.7825    180.4748    234.5341   1.0849388628e+02  -2.2644790917e+00    0.1343842    0.1196433  13.52 5.874253e-06    1.038    0.037
       245 -11.9129     67.2272     62.1568   9.8559670613e+01   5.5801296447e+01    0.2836534    0.2641633 -13.45 0.0004421241    1.135    0.119
       246 -11.4649     77.7613     62.2969   9.5124170479e+01   5.4061476775e+01    0.9713899    0.4083718 -28.95  0.002447033    3.193    0.687
       247  -8.7512    227.2566    231.5781   9.8759158595e+01  -9.0350795870e+00    0.1680465    0.1094005  20.31 0.0005557772    1.530    0.346
       248 -11.6894     36.9297     25.6379   9.6759548974e+01   6.5487343393e+01    0.3569085    0.2870825  24.72 0.0005838099    1.313    0.238
       249  -8.8874    202.0447    229.0023   1.0316866375e+02  -4.7823730295e+00    0.1967084    0.1770709   7.48 0.0003886348    1.038    0.036
       250 -11.9117    101.4391     55.4459   8.5844313722e+01   5.0744870656e+01     1.159453    0.7792587  30.13  0.004619534    1.548    0.354
       251  -8.5836     50.4598    227.4956   1.3525130481e+02   2.0041708161e+01    0.1312469     0.104595  76.60 -5.34359e-06    1.035    0.034
       252 -12.2181     25.4522     82.8818   1.1946908912e+02   5.6938595948e+01    0.7720069    0.6912807 -50.18  0.005037605    1.173    0.148
       253 -11.6816     24.2289     72.7233   1.1733456451e+02   5.9094470476e+01    0.7755841    0.3281171  30.50   0.00043691    2.609    0.617
       254  -8.9288    171.8632     32.3986   6.4752136775e+01   3.8096979275e+01    0.2267516    0.1779326  48.90  0.001015278    1.379    0.275
       255  -9.6068    228.2191     31.4477   5.7839457974e+01   2.5654955636e+01    0.2691289    0.1713569 -74.24  0.001240936    1.404    0.288
       256  -9.8768    225.9322     27.0714   5.7197181844e+01   2.6692012953e+01    0.3917896    0.2078665 -89.61  0.002068709    1.885    0.470
       257 -12.2432     56.3918     69.8416   1.0472889496e+02   5.6028180486e+01     1.427835    0.4653336  30.96  0.005356847    3.424    0.708
       258  -9.8902    154.4864     24.3480   6.5318841173e+01   4.3026599241e+01    0.4140882    0.2135766 -43.71  0.002079212    2.116    0.527
       259 -12.5180     39.6513     65.4564   1.0948165938e+02   5.8929212677e+01     1.822703    0.8443342  24.58  0.008833105    2.338    0.572
       260  -8.4878    110.3405    224.6603   1.2203257797e+02   1.1658390846e+01    0.1500515   0.09977364  70.06 0.0007049868    1.768    0.434
       261 -10.2276     45.8841    145.3009   1.2566553619e+02   4.0473835125e+01    0.5453939    0.3513141 -26.85  0.002293522    2.129    0.530
       262  -9.7959    148.8408     23.7604   6.6064213288e+01   4.4382024457e+01    0.4108451     0.166152  57.15  0.001090516    2.049    0.512
       263 -10.9264     34.5704    150.3368   1.2958015814e+02   4.0477433155e+01    0.4243061    0.2831407  32.81  0.002308502    1.717    0.418
       264 -10.7198     39.0941    147.3155   1.2787960248e+02   4.0740741619e+01     0.387753    0.3245063 -56.84  0.001376043    1.111    0.100
       265 -10.2548     38.2989    143.0963   1.2742125493e+02   4.1866569623e+01    0.2971812    0.2467608 -17.91 0.0003029029    1.475    0.322
       266  -8.6944      8.0218    150.9886   1.3665659246e+02   4.2717787749e+01     0.194269    0.1205262 -49.52 0.0004830292    1.574    0.365
       267  -8.7542    197.6293     22.8106   5.9231794831e+01   3.3364963612e+01    0.1744923    0.1233252 -75.89 0.0004146722    1.293    0.226
       268  -9.0463     87.0524    149.0374   1.1487777171e+02   3.3745283552e+01    0.2337439    0.2170115 -70.16 0.0006819946    1.013    0.013
       269  -9.4150     97.5681     22.1258   7.5912077134e+01   5.5715116390e+01    0.2308782    0.1834335  50.94 0.0007714513    1.146    0.128
       270  -8.5409     86.9800     15.9482   7.6476939650e+01   5.8408704128e+01    0.1436704    0.1175686  35.99 0.0006821834    1.011    0.011
       271  -8.7252     91.9552     15.4609   7.5034384710e+01   5.7483668829e+01    0.1837361    0.1008589  51.15  0.001007926    1.534    0.348
       272  -8.6770     83.0554     12.9068   7.6430396404e+01   5.9440444400e+01    0.1661986     0.110519  34.56 0.0007221802    1.298    0.229
       273  -9.6571     66.8680    148.3894   1.2035061517e+02   3.6997387766e+01     0.283659    0.2400712 -66.21  0.001202321    1.075    0.070
       274  -8.3982     60.5305    147.5641   1.2196711990e+02   3.8076527279e+01    0.1428606    0.1281407 -62.45 9.886778e-05    1.032    0.031
       275 -11.0745     29.9508    140.3781   1.2932412574e+02   4.3385458906e+01    0.6554535    0.4239386 -81.36   0.00211952    1.559    0.358
       276 -10.3196     22.8519    136.2030   1.3067306038e+02   4.5055708049e+01    0.5288001    0.2232938 -63.72  0.002405327    1.899    0.473
       277  -8.7985     80.5962    140.3314   1.1488911375e+02   3.6943083664e+01    0.2079468    0.1298574 -48.41 0.0007480026    1.518    0.341
       278  -9.4968     49.0182    138.5458   1.2359446144e+02   4.1771189922e+01    0.4168693     0.198969  49.86  0.001715162    2.649    0.622
       279 -10.0883     55.0114    137.7223   1.2171351092e+02   4.1235384899e+01    0.2947408    0.1814411 -52.71  0.001433316    1.445    0.308
       280  -8.8812    237.6339    135.3027   7.8049919310e+01   6.6492032853e+00    0.1407852    0.1020281 -74.61 0.0007035112    1.738    0.425
       281  -9.1009     85.9736    134.3753   1.1207544487e+02   3.7532803934e+01    0.2847571    0.1983429  16.75   0.00115851    1.868    0.465
       282 -11.2053     39.9024    127.1383   1.2417242828e+02   4.5579134200e+01    0.6376546    0.2583433 -59.75  0.002684938    2.072    0.517
       283 -10.3860     72.2883    130.0006   1.1509395022e+02   4.0742998040e+01    0.4339844    0.2355269 -48.77  0.001896332    1.699    0.411
       284 -11.1606     46.2422    130.9446   1.2299937660e+02   4.3954398835e+01    0.6750791    0.3485672 -39.94  0.002973135    2.121    0.528
       285  -9.8683     69.0625    115.8865   1.1288638339e+02   4.4570453411e+01    0.3996536    0.2342047 -69.93  0.001672462    2.214    0.548
       286  -9.8866     55.8689    125.4948   1.1904075882e+02   4.4100361897e+01    0.4820938     0.151897 -53.19  0.001731864    2.639    0.621
       287 -10.0573     60.1450    125.6824   1.1778963394e+02   4.3497358988e+01    0.3496524    0.2414069   8.56 0.0003298006    1.912    0.477
       288 -10.2969     65.9888    125.2334   1.1593416871e+02   4.2803710371e+01      0.26484    0.2528448  56.12 0.0009640279    1.149    0.129
       289 -10.3866     68.2558    121.7327   1.1447536168e+02   4.3314728714e+01    0.4427195    0.2280671 -46.11   0.00175593    1.814    0.449
       290  -8.9336     74.9862    124.3580   1.1304423473e+02   4.1691621529e+01    0.1945873    0.1893977  39.79 0.0004968796    1.110    0.099
       291  -9.6508     92.4791    119.9922   1.0684955911e+02   3.9850048444e+01    0.4277268    0.2338166 -43.94  0.001413989    1.787    0.440
