#   1 NUMBER                 Running object number                                     
#   2 MAG_AUTO               Kron-like elliptical aperture magnitude                    [mag]
#   3 X_IMAGE                Object position along x                                    [pixel]
#   4 Y_IMAGE                Object position along y                                    [pixel]
#   5 X_WORLD                Barycenter position along world x axis                     [deg]
#   6 Y_WORLD                Barycenter position along world y axis                     [deg]
#   7 A_WORLD                Profile RMS along major axis (world units)                 [deg]
#   8 B_WORLD                Profile RMS along minor axis (world units)                 [deg]
#   9 THETA_WORLD            Position angle (CCW/world-x)                               [deg]
#  10 FWHM_WORLD             FWHM assuming a gaussian core                              [deg]
#  11 ELONGATION             A_IMAGE/B_IMAGE                                           
#  12 ELLIPTICITY            1 - B_IMAGE/A_IMAGE                                       
         1  -8.0996     30.1363     16.1983   2.9167218081e+02   7.4240089994e+00   0.00953026   0.00758875  55.39 0.0004495913    1.339    0.253
         2  -7.8228     83.4957     10.9949   2.9097617523e+02   7.1805008265e+00  0.009297212  0.005660783  73.19 0.0006319202    2.352    0.575
         3  -8.6203     55.6489     10.2530   2.9132056095e+02   7.3478742263e+00    0.0118191    0.0096315  52.79 0.0007104316    1.281    0.219
         4  -7.8228     47.5389     10.0558   2.9142098816e+02   7.3963399988e+00  0.009661245  0.005694971  75.63 0.0008090252    2.559    0.609
         5  -8.3023     90.9607      9.0150   2.9087202436e+02   7.1608737730e+00   0.01125902  0.007628046  58.23 0.0005870903    1.703    0.413
         6  -7.6233    101.3831      8.1924   2.9073719357e+02   7.1108928667e+00  0.008865407  0.006587095 -87.46 0.0003637918    1.605    0.377
         7  -8.5674     33.4678      5.0114   2.9156971467e+02   7.5349600842e+00   0.01747866    0.0102778  77.05  0.001487786    2.584    0.613
         8  -8.8289    235.7953      3.4971   2.8903311211e+02   6.3943347641e+00   0.01283702  0.009768647 -65.93   0.00139767    1.409    0.290
         9  -7.4014     44.6768      3.3325   2.9142027197e+02   7.4906860101e+00  0.007305314    0.0048666  56.03 0.0004287634    1.704    0.413
        10  -7.9208     15.7075      3.2923   2.9178274512e+02   7.6558367822e+00  0.006944332  0.004910848  54.74 0.0003108414    1.552    0.356
        11  -8.3835     62.4000      1.6371   2.9118922220e+02   7.4094351080e+00   0.01258475  0.007039667  36.57 0.0005645366    1.657    0.397
        12  -8.5654     79.1301      3.7800   2.9099153349e+02   7.2891659449e+00   0.01457018  0.009570788  86.86  0.001218653    2.014    0.503
        13  -9.6408    223.5299    243.0190   2.9048937817e+02   3.6829197271e+00   0.01659699   0.01201684 -88.61  0.001132056    1.676    0.403
        14  -9.3681    211.0562    247.0537   2.9066644503e+02   3.7073887165e+00   0.02291344   0.01250132  88.96  0.001470884    2.919    0.657
        15  -8.3368    191.5606    249.7074   2.9092344452e+02   3.7880241813e+00   0.01192809  0.007199015  45.03 0.0007721532    1.676    0.403
        16  -8.5380     93.9391    249.4989   2.9213821265e+02   4.3476205568e+00    0.0126059  0.009369706  74.96 0.0009022826    1.628    0.386
        17  -8.6439    132.1441    247.8319   2.9165318782e+02   4.1491921481e+00   0.01235851   0.01047225  62.90 0.0007331009    1.281    0.219
        18  -8.9860    147.0567    245.9884   2.9145746085e+02   4.0855222259e+00   0.01731766   0.01033636  68.69  0.001067705    2.365    0.577
        19  -9.0990    146.9690    240.2610   2.9142757750e+02   4.1526362057e+00   0.02209211      0.01213  65.84  0.001778127    2.746    0.636
        20  -9.1639    120.2998    245.5005   2.9178815316e+02   4.2438783197e+00    0.0204558   0.01210834  64.97  0.001522311    2.303    0.566
        21  -8.6271    139.4658    244.4241   2.9154355793e+02   4.1470467291e+00   0.01222496  0.006784825 -85.18  0.001025083    2.562    0.610
        22  -8.0327     67.5053    245.0826   2.9244383871e+02   4.5495073850e+00  0.009957879  0.006823972 -64.69  0.001020471    1.553    0.356
        23  -9.2284      9.4225    243.7190   2.9316054874e+02   4.8953775156e+00   0.02022843  0.009528759 -84.20  0.001448858    3.603    0.722
        24  -8.6120    201.9731    243.3763   2.9075955415e+02   3.8020865840e+00   0.01411851  0.009607562 -83.92 0.0008053501    1.795    0.443
        25  -8.3581    169.0396    243.3645   2.9116948800e+02   3.9904852019e+00   0.01211507  0.008920901  65.35 0.0005893057    1.589    0.371
        26  -9.0331     77.6683    243.0559   2.9230623387e+02   4.5152469998e+00   0.01696822  0.009858231  61.02  0.001495967    2.253    0.556
        27  -8.9149    194.1704    240.2164   2.9083955542e+02   3.8834415093e+00   0.01825646   0.01004191 -74.77  0.001019617    2.197    0.545
        28  -9.3662    183.3821    240.3711   2.9097469779e+02   3.9433236233e+00   0.02639884   0.01221425  53.06  0.002035546    2.833    0.647
        29  -9.5207    160.2722    240.5389   2.9126338096e+02   4.0734301373e+00   0.02140689   0.01273118  76.05  0.001453821    2.505    0.601
        30  -7.8000    153.4144    242.1963   2.9135776234e+02   4.0933231107e+00  0.009075778    0.0066465 -88.76 0.0007062572    1.646    0.393
        31  -8.0913     88.0850    242.3214   2.9217243766e+02   4.4644766027e+00  0.009457049  0.008506828  35.69 0.0006043623    1.065    0.061
        32  -8.8016    240.7872    239.6305   2.9025634256e+02   3.6235231152e+00   0.02146791  0.006524332 -54.81  0.001550589    3.095    0.677
        33  -8.2451    214.4606    241.0530   2.9059156258e+02   3.7576613262e+00   0.01030461  0.006751286 -62.82  0.001034587    1.610    0.379
        34  -9.0250    135.4768    238.9554   2.9156368489e+02   4.2334238368e+00   0.01363801  0.008311301  42.71   0.00106792    1.613    0.380
        35  -8.3760    129.5201    239.0179   2.9163823806e+02   4.2666895297e+00   0.01445184  0.006166437  52.87  0.001022491    3.279    0.695
        36  -8.9517    231.0291    237.2309   2.9036470120e+02   3.7072673589e+00   0.01555262   0.01050055  79.05 0.0009683439    1.942    0.485
        37  -8.0582    208.8432    238.3665   2.9064690603e+02   3.8210263555e+00  0.009284653  0.008575594  72.57 0.0005368115    1.167    0.143
        38  -8.0448     13.6575    238.3163   2.9307869085e+02   4.9342287200e+00  0.007367617  0.004812082  54.32 0.0007048442    1.712    0.416
        39  -7.8879    189.6484    237.1941   2.9087947620e+02   3.9444365113e+00  0.009454742  0.006080152 -53.50 0.0006295288    1.606    0.377
        40  -8.4485     25.4935    237.0166   2.9292412577e+02   4.8821738045e+00   0.01004853  0.005723402  77.13 0.0008093322    2.775    0.640
        41  -8.7791    217.3167    235.6815   2.9052690446e+02   3.8037531116e+00   0.01391618  0.009675753  51.62 0.0007809817    1.535    0.349
        42  -9.6225    213.9964    232.1170   2.9054889777e+02   3.8641845440e+00   0.02050801   0.01283167  70.63  0.001438914    2.186    0.542
        43  -8.8391    203.1718    234.7549   2.9069791884e+02   3.8954521032e+00   0.01584084   0.01024779  80.75  0.001292628    2.105    0.525
        44  -9.7576    175.8811    233.4126   2.9103041539e+02   4.0671115302e+00   0.02605473    0.0136688 -82.56  0.002138753    2.731    0.634
        45  -8.3140    170.3164    235.9940   2.9111369094e+02   4.0688967538e+00  0.009314067  0.008836586 -85.42 0.0005985902    1.138    0.121
        46  -8.6319    123.4224    234.7625   2.9169121639e+02   4.3509805413e+00   0.01988116   0.01024417  59.77  0.001578063    2.789    0.641
        47  -9.3384    108.9585    234.5080   2.9187009329e+02   4.4364317710e+00   0.02410905   0.01222902  42.54  0.001917989    1.948    0.487
        48  -8.8579     79.0481    234.6071   2.9224345277e+02   4.6056998460e+00   0.01407528  0.009639109  64.72 0.0009764315    1.772    0.436
        49  -9.4245      8.1170    234.3574   2.9312647662e+02   5.0117355055e+00   0.01402654  0.006907423 -49.04     0.001226    2.116    0.527
        50  -8.2456     99.6191    234.1310   2.9198446086e+02   4.4940563925e+00   0.01061145  0.008323549  75.37  0.001144759    1.494    0.331
        51  -9.0424     68.6865    232.7697   2.9236271383e+02   4.6860627496e+00    0.0255803   0.01149034  55.93   0.00183858    3.341    0.701
        52  -8.6348    194.8105    233.0409   2.9079271136e+02   3.9632029187e+00    0.0108503  0.008679703  55.34 0.0007702727    1.329    0.248
        53  -8.9716    140.1941    230.1295   2.9145717861e+02   4.3091578111e+00    0.0182341  0.008602045  47.75  0.001423555    2.355    0.575
        54  -8.7113    132.2964    232.9183   2.9157066702e+02   4.3217986358e+00   0.01355897  0.008479914  46.60  0.001320744    1.643    0.391
        55  -9.2559    186.5356    230.8210   2.9088370816e+02   4.0363329623e+00   0.01861195   0.01188176  72.51  0.001321492    2.123    0.529
        56  -8.1511    157.9559    232.0522   2.9124630377e+02   4.1853603008e+00   0.01113386  0.007559246  57.31 0.0007391311    1.679    0.405
        57  -9.0414      1.9432    231.4723   2.9318794143e+02   5.0803267698e+00   0.01276305  0.009496124  77.27  0.001334053    1.629    0.386
        58  -8.2166     92.1555    231.2139   2.9206174094e+02   4.5705265309e+00  0.009634733  0.007574324  56.66 0.0004396563    1.370    0.270
        59 -10.0106    149.8569    226.4272   2.9131675422e+02   4.2970417945e+00    0.0336978   0.01736852  73.27  0.002410651    3.710    0.730
        60  -7.8176    229.7860    229.0218   2.9033564113e+02   3.8097838383e+00  0.008789327    0.0056241 -65.61 0.0004865791    1.674    0.403
        61  -8.9046    162.3376    227.9441   2.9116948564e+02   4.2081024016e+00   0.01737408   0.01064985  53.27  0.001269557    1.844    0.458
        62  -8.8667    128.1892    227.5517   2.9159282893e+02   4.4076644960e+00   0.01511693  0.009791176  56.32  0.001121948    1.776    0.437
        63  -8.1800    120.0457    227.9858   2.9169666448e+02   4.4490785422e+00   0.01141393  0.007555649  57.29 0.0008263856    1.740    0.425
        64  -9.0525    236.2328    230.5546   2.9026375634e+02   3.7550618685e+00   0.01420334   0.01173791 -81.74 0.0008434477    1.356    0.263
        65  -8.9610    206.2275    225.9075   2.9061192480e+02   3.9808186248e+00   0.01717605  0.009772784 -62.83   0.00117084    1.844    0.458
        66  -8.1831     49.7415    226.9250   2.9256741296e+02   4.8618440570e+00   0.01153328  0.007288398  64.76  0.001068834    2.031    0.508
        67  -8.2815    199.9374    226.2157   2.9069189731e+02   4.0132241035e+00   0.01077775  0.008588639  51.16 0.0006680744    1.299    0.230
        68  -8.8629     94.6628    224.8579   2.9199615919e+02   4.6301926745e+00   0.02437945   0.01009536  47.93   0.00183708    2.830    0.647
        69  -9.0400    216.6592    223.5774   2.9046945124e+02   3.9482046186e+00   0.01709843    0.0127241 -71.85  0.001341772    1.481    0.325
        70  -8.9171    180.6205    224.2402   2.9092171125e+02   4.1466725707e+00   0.01300497   0.01146604  78.63 0.0005593164    1.256    0.204
        71  -8.8394    105.1160    224.1175   2.9186184730e+02   4.5792257393e+00   0.01675284   0.01064709  67.13  0.001338004    2.058    0.514
        72  -8.1206     38.5281    224.7941   2.9269576218e+02   4.9503800706e+00  0.009257426  0.006646725  88.50 0.0009375965    1.711    0.416
        73  -9.1044    172.9600    223.1345   2.9101112893e+02   4.2033252509e+00   0.01355822  0.009307614  74.90 0.0009152674    1.869    0.465
        74  -7.8539    113.9487    224.4431   2.9175350510e+02   4.5250702965e+00   0.01013418  0.004542925  45.53 0.0007541298    2.374    0.579
        75  -7.9498     59.7635    223.9316   2.9242629820e+02   4.8396800598e+00   0.01137533  0.007220808  64.87 0.0007177898    2.017    0.504
        76  -7.6640    233.4968    223.4966   2.9025949809e+02   3.8527480080e+00  0.006845118   0.00639887  27.00 0.0008106484    1.012    0.012
        77  -9.4833    225.2077    221.8614   2.9035376166e+02   3.9192136190e+00   0.01442467   0.01062512 -52.26 0.0007485479    1.413    0.292
        78  -7.9855    140.3318    222.8515   2.9141608695e+02   4.3930268827e+00   0.01044609  0.008163711  72.94 0.0007571793    1.495    0.331
        79  -9.0708    239.0538    221.0218   2.9017693641e+02   3.8496833349e+00   0.01517203   0.01055905 -72.50 0.0009323147    1.605    0.377
        80  -9.2360    159.7472    220.8557   2.9116337472e+02   4.3053399043e+00   0.02234684  0.009354265  44.52  0.001447272    2.509    0.601
        81  -9.2355    120.6160    219.4829   2.9164358206e+02   4.5447416260e+00   0.02254071   0.01142692  52.38  0.001883286    2.386    0.581
        82  -8.6240     83.0012    220.7802   2.9211953119e+02   4.7440763103e+00   0.01552606   0.00862807  58.11  0.001335055    2.321    0.569
        83  -8.0314     73.2208    220.8316   2.9224176205e+02   4.7991705499e+00   0.01192072  0.006124415  59.38 0.0009344298    2.775    0.640
        84  -7.7570     27.7493    220.9770   2.9280962317e+02   5.0560345697e+00   0.00869666  0.005897946 -64.08 0.0006686812    1.564    0.360
        85  -8.2881    202.7976    220.1512   2.9062341244e+02   4.0673618104e+00   0.01043814  0.008920546  58.35 0.0006090436    1.243    0.195
        86  -9.4046    248.4652    217.1940   2.9003909148e+02   3.8402513118e+00    0.0280483   0.01729576  66.44  0.002564524    2.170    0.539
        87  -9.3242    192.4512    221.4223   2.9075911879e+02   4.1117774675e+00   0.01833013   0.01173061  62.92  0.001083965    1.954    0.488
        88  -8.4841    209.9272    219.1540   2.9052925147e+02   4.0381536964e+00   0.01068803  0.008723354  52.60 0.0005788329    1.275    0.216
        89  -8.7338    179.4203    217.7374   2.9090142440e+02   4.2291485246e+00   0.01203224  0.006959847 -73.78 0.0008606669    2.029    0.507
        90  -8.8144    169.4545    216.7063   2.9101997187e+02   4.2981169625e+00   0.01678683   0.01030421  72.01 0.0009616084    2.292    0.564
        91  -9.3677    132.7977    215.9602   2.9147269223e+02   4.5161998471e+00   0.02605295   0.01376636  64.53  0.002048983    2.941    0.660
        92  -8.7663     51.6739    217.3711   2.9249179707e+02   4.9620386706e+00   0.01173385  0.008602701  89.01 0.0006425926    1.653    0.395
        93  -8.6256    142.9712    216.5984   2.9134935621e+02   4.4506886067e+00   0.01485242  0.009612842  68.02  0.001401716    2.007    0.502
        94  -7.8539    111.9892    217.4812   2.9174029524e+02   4.6172396826e+00   0.01019989  0.004551517  45.60 0.0005946208    2.392    0.582
        95  -8.3132     61.8693    217.1397   2.9236339657e+02   4.9067379035e+00   0.01098138  0.008620874  55.93  0.001198794    1.365    0.268
        96  -8.7825    232.4307    214.6956   2.9022500204e+02   3.9611320446e+00   0.01329588   0.01095875  66.27  0.001041745    1.350    0.259
        97  -8.5292    185.7996    214.5359   2.9080462376e+02   4.2298907954e+00   0.01248744   0.00892222  81.17 0.0007690458    1.755    0.430
        98  -8.0646    154.4151    215.2269   2.9119932937e+02   4.4012709089e+00  0.009202515  0.006667363 -87.82 0.0007159369    1.668    0.400
        99  -8.6906     93.1553    214.0295   2.9195645617e+02   4.7647748952e+00   0.01648716  0.008649862  56.82    0.0009644    2.504    0.601
       100  -9.6543    214.0520    211.4804   2.9043628273e+02   4.1037406339e+00   0.02584454   0.01866649 -88.56  0.001794117    1.682    0.406
       101  -9.5151     73.1108    211.9263   2.9219505863e+02   4.9034225129e+00   0.03404337   0.01325906  51.32  0.002298259    3.663    0.727
       102  -8.3960    224.8152    212.4933   2.9030781520e+02   4.0303403748e+00    0.0127777  0.008892613  84.60 0.0009301775    1.829    0.453
       103  -8.7005    161.6531    212.5537   2.9109466821e+02   4.3910005707e+00   0.01276449   0.01084722  51.66 0.0006816825    1.211    0.174
       104  -8.2968    106.4785    212.9674   2.9178459422e+02   4.7011824820e+00   0.00975389  0.006910509 -70.02 0.0009391272    1.547    0.353
       105  -8.9746    204.3991    211.1596   2.9055471279e+02   4.1627253665e+00    0.0145684    0.0107001  71.92  0.001103113    1.648    0.393
       106  -9.3122    175.5053    210.2435   2.9090957885e+02   4.3386761288e+00   0.02029359   0.01166718  64.28  0.001244111    2.423    0.587
       107  -9.3224      6.0324    208.7183   2.9301449484e+02   5.3219613440e+00   0.01892637   0.01105626  80.87  0.001606773    2.604    0.616
       108  -8.2178    192.2816    210.4494   2.9070174425e+02   4.2403236806e+00   0.01132143    0.0080405  76.37 0.0006753588    1.767    0.434
       109  -8.8572    147.8264    210.3968   2.9125527676e+02   4.4950900375e+00   0.01612881  0.009873658  56.29  0.001129179    1.929    0.481
       110  -8.8979    116.4337    210.6235   2.9164780439e+02   4.6716696737e+00   0.01714576   0.00963637  51.95  0.001232562    2.033    0.508
       111  -8.5842     85.5448    209.5891   2.9202736769e+02   4.8598057086e+00   0.01555244  0.008661333  58.99  0.001323119    2.351    0.575
       112  -8.1840     46.7687    210.1651   2.9251411365e+02   5.0737898653e+00   0.01260805   0.00616246  57.16 0.0009620835    2.897    0.655
       113  -7.8530     32.3038    210.6297   2.9269705582e+02   5.1505880353e+00  0.007333816  0.004891154  58.96 0.0007033046    1.751    0.429
       114  -9.2475    236.5250    207.7745   2.9013648904e+02   4.0181115350e+00    0.0212896   0.01413898 -74.51  0.001600214    1.723    0.420
       115  -8.3094    139.2986    208.2794   2.9135009628e+02   4.5684265346e+00   0.01420449  0.008498428  57.40 0.0008911476    2.031    0.508
       116  -7.9743    126.2797    208.4708   2.9151341301e+02   4.6405279212e+00   0.01141431  0.008061881  74.20 0.0006227258    1.772    0.436
       117  -9.3893    246.3749    207.3744   2.9001177422e+02   3.9663245813e+00   0.01458438   0.01252505 -66.95 0.0005751991    1.248    0.199
       118  -9.4380    250.1223    202.0272   2.8993611723e+02   4.0069797561e+00   0.02090899   0.01082163 -63.63  0.001327496    2.034    0.508
       119  -8.1019    156.4018    208.1800   2.9113640907e+02   4.4718769078e+00  0.009037021  0.006647361 -87.42 0.0005174138    1.627    0.385
       120  -9.1741     99.3105    205.9873   2.9183623610e+02   4.8232632478e+00   0.01931443   0.01239866  75.75  0.001277982    2.123    0.529
       121  -8.6546     56.9980    206.0303   2.9236420304e+02   5.0637321097e+00   0.01926582  0.009503881  56.09  0.001518182    2.756    0.637
       122  -8.2835    109.2968    205.4539   2.9170882688e+02   4.7725242823e+00   0.01094594  0.007953271  72.55 0.0006776333    1.680    0.405
       123  -8.7500     12.0361    206.3129   2.9292663963e+02   5.3158967721e+00  0.009954138   0.00875178  26.78 0.0006688772    1.065    0.061
       124  -9.3959    194.9246    203.5656   2.9063149899e+02   4.3052336810e+00   0.02133995   0.01617582  61.55  0.001726941    1.487    0.327
       125  -9.2252    192.3984    197.3873   2.9062944939e+02   4.3915213389e+00   0.01838805   0.01287079  68.73  0.001210394    1.759    0.432
       126  -9.0793    183.8298    203.9833   2.9077194966e+02   4.3638578763e+00   0.01690232   0.01113845  52.98 0.0008878796    1.668    0.400
       127  -8.0411     24.6722    205.3322   2.9276370829e+02   5.2555855419e+00  0.007344069  0.004853478  55.83 0.0002924257    1.715    0.417
       128  -9.5311    163.7911    203.0220   2.9101638806e+02   4.4896304399e+00   0.02269943   0.01101757  44.80  0.001209154    2.129    0.530
       129  -8.5149    131.1180    204.0008   2.9142890717e+02   4.6649071699e+00   0.01335638  0.009849742  57.73 0.0009334236    1.503    0.335
       130  -8.2639    227.5333    202.4918   2.9021970200e+02   4.1310128602e+00   0.01257546  0.005404764 -51.45  0.001032231    2.360    0.576
       131  -8.3994    210.9845    201.8371   2.9042214574e+02   4.2333970723e+00   0.01494081  0.009272615  84.98 0.0008251835    2.263    0.558
       132  -9.2282    243.1176    200.8368   2.9001679189e+02   4.0609554627e+00   0.01608429   0.01111075 -75.52 0.0009508913    1.655    0.396
       133  -9.0496    140.5466    201.0700   2.9129550597e+02   4.6451575572e+00   0.01988237    0.0110565  59.67  0.001340002    2.391    0.582
       134  -8.4636     80.1485    201.5866   2.9205143379e+02   4.9836602295e+00    0.0169718  0.007383361  57.19  0.001131877    3.856    0.741
       135  -8.0928    221.8094    200.9891   2.9028278764e+02   4.1812644210e+00   0.01100732  0.007401069  71.40 0.0007853834    1.915    0.478
       136  -9.5246    149.7856    198.9734   2.9116899068e+02   4.6167614071e+00   0.02283702   0.01317685  66.39  0.001451393    2.476    0.596
       137  -9.2136    237.0248    197.9509   2.9007692758e+02   4.1294056096e+00   0.02192433   0.01141952 -67.65  0.001856833    2.114    0.527
       138  -8.8740    123.9006    199.2453   2.9149314729e+02   4.7614276744e+00   0.01590569   0.01016951  66.42  0.001429259    2.024    0.506
       139  -9.4783    113.1455    198.6905   2.9162425085e+02   4.8292547202e+00   0.02371518   0.01226608  56.42  0.001927467    2.547    0.607
       140  -9.1676     88.6693    198.7910   2.9193004518e+02   4.9676448938e+00   0.01763295   0.01196285  72.99  0.001316986    1.894    0.472
       141  -8.7147    177.1302    198.9557   2.9082814851e+02   4.4606405786e+00   0.01235033   0.01038911  59.19 0.0007024817    1.273    0.214
       142  -8.6631    202.3264    197.6539   2.9050725244e+02   4.3315957873e+00   0.01281681   0.01065626  84.60 0.0008664252    1.375    0.272
       143  -9.0418     61.6227    197.2963   2.9225935964e+02   5.1390560911e+00   0.02031832   0.01140291  56.33   0.00168897    2.208    0.547
       144  -8.6300     12.7820    197.5289   2.9287001053e+02   5.4138965355e+00   0.01607521  0.009509019  81.85  0.001381463    2.524    0.604
       145  -8.6671    215.8135    195.5468   2.9032788532e+02   4.2788620198e+00   0.01282076  0.008880394  80.43 0.0008095349    1.854    0.461
       146  -8.8144    185.3272    194.9974   2.9070456667e+02   4.4597728390e+00   0.01323308  0.009836636  73.56  0.000701821    1.624    0.384
       147  -8.0964    133.0064    196.0529   2.9136233637e+02   4.7465783483e+00   0.01102609  0.007586141  59.15 0.0006038384    1.678    0.404
       148  -7.6794     36.3035    196.6589   2.9257182111e+02   5.2904543012e+00  0.007222718  0.004914057  57.57 0.0006182551    1.678    0.404
       149  -9.6201    245.9039    193.1915   2.8994059651e+02   4.1338213243e+00   0.02110677   0.01610654 -63.45  0.001540739    1.391    0.281
       150  -8.3661     48.8296    202.7083   2.9244817490e+02   5.1488500694e+00    0.0136724  0.008427667  68.44  0.001233233    2.205    0.546
       151  -9.0649    160.9873    194.4572   2.9100491105e+02   4.6052641512e+00   0.01671254  0.009712148  50.27  0.001031647    1.890    0.471
       152  -8.9122     44.0624    193.6928   2.9245900453e+02   5.2808719320e+00   0.02181643   0.01177196  60.92  0.001803037    2.594    0.615
       153  -8.0647    230.9789    194.3109   2.9013239952e+02   4.2063497208e+00  0.009632058  0.008796608  27.21 0.0006351081    1.028    0.027
       154  -8.7503     77.0746    193.9423   2.9204847208e+02   5.0901169101e+00   0.01225178   0.01015119  58.90 0.0006457809    1.296    0.228
       155  -8.7750    224.2375    194.0952   2.9021513607e+02   4.2474804741e+00   0.01387878  0.009454476 -81.36 0.0007777514    1.760    0.432
       156  -8.1735    198.7585    191.8031   2.9051993761e+02   4.4200383635e+00  0.009526358  0.007600423  59.72  0.000448582    1.369    0.270
       157  -8.0947    179.1411    191.8777   2.9076471405e+02   4.5314397498e+00   0.01061258  0.008659302  55.57  0.000521102    1.298    0.230
       158  -8.5147    172.3111    191.8250   2.9084952927e+02   4.5711227281e+00   0.01312421  0.009691539  66.35  0.001016183    1.591    0.372
       159  -9.1837    139.5370    190.5704   2.9125122511e+02   4.7730514522e+00   0.01966696   0.01208726  65.43  0.001213251    2.156    0.536
       160 -10.4474     91.8210    188.2545   2.9183376312e+02   5.0722775496e+00   0.04730265   0.01944757  42.53  0.003213668    2.434    0.589
       161  -8.3102     21.3950    191.4146   2.9272957376e+02   5.4361671032e+00   0.01565286   0.00645118  49.25  0.001144658    2.995    0.666
       162  -8.6155    148.3616    189.0643   2.9113305421e+02   4.7401496041e+00   0.01335886  0.008495831 -78.56 0.0008010656    1.890    0.471
       163  -8.8818    129.4735    188.7603   2.9136689524e+02   4.8515801267e+00   0.01743306   0.00999973  55.01  0.001046466    2.085    0.520
       164  -7.7281      6.3174    190.6681   2.9291371411e+02   5.5304199588e+00    0.0072764  0.004879595  56.27  0.000704754    1.689    0.408
       165  -9.0678    216.5992    187.8933   2.9027655141e+02   4.3633214222e+00   0.01656177   0.01167225 -78.01  0.001161865    1.641    0.391
       166  -9.3211    156.0410    187.4932   2.9102881228e+02   4.7145309489e+00    0.0172468   0.01131867 -82.81  0.001013264    1.878    0.468
       167  -9.0032    122.2740    188.6727   2.9145619801e+02   4.8937025026e+00   0.01271952   0.00964851  31.99 0.0004764436    1.227    0.185
       168  -9.4306    120.3125    185.6427   2.9146425352e+02   4.9401464459e+00   0.01775758    0.0121058 -87.68  0.001337609    1.832    0.454
       169  -8.7764     34.3108    188.1145   2.9255059029e+02   5.4012125617e+00   0.01759857   0.01034577  69.68  0.001243795    2.461    0.594
       170  -7.4754    242.6831    188.3049   2.8995412236e+02   4.2090637741e+00  0.007167571  0.004883886  54.66 0.0007026829    1.626    0.385
       171  -8.2759    237.1938    187.8350   2.9001987837e+02   4.2459895509e+00   0.01411578   0.00872824 -53.81  0.001184561    1.665    0.400
       172  -8.6754    191.4908    187.5180   2.9058720997e+02   4.5114600078e+00   0.01519875  0.008713865  59.82 0.0008064265    2.269    0.559
       173  -8.8522    164.8838    186.9219   2.9091550082e+02   4.6706157623e+00   0.01388729  0.009851641  85.39 0.0007216021    1.766    0.434
       174  -9.1553     54.6253    186.7312   2.9228961416e+02   5.3018129916e+00   0.02255931   0.01350767  72.71   0.00197463    2.422    0.587
       175  -8.0779    230.4858    187.0544   2.9009912518e+02   4.2935062400e+00   0.01003321  0.006912909 -69.09  0.001010709    1.586    0.370
       176  -9.1623    109.5292    186.0737   2.9160107689e+02   4.9966672214e+00   0.01971839   0.01190418  59.81  0.001088137    2.072    0.517
       177  -8.7402    249.2148    185.5159   2.8985769744e+02   4.2040231802e+00   0.01382357   0.01053491  75.04 0.0008817854    1.566    0.361
       178  -9.0389    182.6778    184.8074   2.9068229742e+02   4.5934131545e+00   0.01479325   0.01179331  66.10  0.001410956    1.416    0.294
       179  -8.7273    210.3331    184.5204   2.9033626145e+02   4.4384188931e+00   0.01168057   0.01044559 -82.68 0.0005867722    1.226    0.184
       180  -8.6052    202.8598    184.5923   2.9042972182e+02   4.4803829719e+00   0.01278044  0.008958458  80.44 0.0007813177    1.815    0.449
       181  -9.0979     66.7601    184.4419   2.9212582335e+02   5.2593960605e+00   0.02029667   0.01174544  55.95  0.001204939    2.089    0.521
       182  -8.7339    224.3673    182.9749   2.9015312856e+02   4.3759799592e+00   0.02114117  0.009066152 -53.51  0.001596673    2.331    0.571
       183  -8.1488    197.0374    183.7541   2.9049769114e+02   4.5234662824e+00   0.01188109  0.008752509  82.49 0.0006728978    1.665    0.400
       184  -9.0287    174.1963    183.4492   2.9078061330e+02   4.6577344970e+00   0.01576843   0.01097589  74.09 0.0008967159    1.819    0.450
       185  -8.7766    241.4736    182.2007   2.8993600476e+02   4.2869261639e+00   0.02207582   0.01143279  61.92  0.001727731    2.920    0.658
       186  -8.9614     44.3188    182.4013   2.9239485289e+02   5.4108151982e+00   0.01798743   0.01148483  62.76  0.001179347    1.955    0.488
       187  -8.2267      2.2152    183.6184   2.9292692630e+02   5.6357306962e+00    0.0136882  0.005696444  29.85  0.001119877    2.129    0.530
       188  -9.2082    147.5872    180.6749   2.9109724168e+02   4.8421491589e+00   0.01822267   0.01163373  61.82  0.001093229    1.937    0.484
       189  -9.5444     25.7684    179.0660   2.9260838606e+02   5.5550419984e+00   0.03538058   0.01751383  76.53  0.002310216    4.502    0.778
       190  -8.5442    137.5673    179.3645   2.9121507290e+02   4.9146435757e+00   0.01461091  0.009432505  62.15  0.001085623    1.909    0.476
       191  -9.3266    191.5872    178.4738   2.9053692548e+02   4.6160555732e+00   0.01598147   0.01056069  44.90 0.0005780804    1.517    0.341
       192  -7.9675    169.4805    178.9178   2.9081480422e+02   4.7374036287e+00  0.009642825  0.006910862 -70.05 0.0009125054    1.529    0.346
       193  -9.0823     35.9879    176.9908   2.9246962461e+02   5.5211318681e+00   0.02568188   0.01323135  80.82  0.001827486    3.774    0.735
       194  -9.5481    248.4896    176.4901   2.8981766411e+02   4.3130483574e+00   0.02232431   0.01513602  88.66  0.001972919    1.888    0.470
       195  -8.5299    250.5289    172.9044   2.8977279570e+02   4.3430121352e+00   0.01119231  0.008353471 -68.34 0.0006176429    1.451    0.311
       196  -8.4790    217.6375    177.3035   2.9020611160e+02   4.4804574610e+00   0.01156461  0.008421487 -86.60 0.0006950602    1.647    0.393
       197  -8.4976    205.2008    177.7337   2.9036332808e+02   4.5467040620e+00   0.01146228   0.00921037 -87.52 0.0006886969    1.430    0.301
       198  -8.5491    129.1426    177.3985   2.9130948059e+02   4.9856317562e+00   0.01525065    0.0104928  78.73  0.001057111    1.873    0.466
       199  -7.9056     97.4046    177.7838   2.9170746055e+02   5.1622658534e+00  0.009307139  0.006153384 -50.59 0.0007202275    1.571    0.364
       200  -8.6918     89.1062    177.2572   2.9180814798e+02   5.2157023925e+00   0.01354696  0.008903833  52.03 0.0008141619    1.654    0.395
       201  -8.4495    231.1540    176.8129   2.9003516714e+02   4.4086945224e+00   0.01151299  0.009100803 -89.00 0.0006931103    1.470    0.320
       202  -9.1470    183.0996    176.1821   2.9063023883e+02   4.6912850247e+00   0.01547032   0.01166343  66.49  0.000659924    1.543    0.352
       203  -9.2361    158.9870    175.2955   2.9092595547e+02   4.8395416793e+00   0.02094935   0.01116105  56.82  0.001238268    2.440    0.590
       204  -9.3926    104.5690    174.9609   2.9160280019e+02   5.1542470736e+00   0.02735369   0.01286769  55.19  0.001788875    2.946    0.661
       205  -9.9068     57.4481    173.3730   2.9218222103e+02   5.4411935409e+00   0.04177781   0.02038431  70.47  0.002739718    4.403    0.773
       206  -8.9588     12.7811    176.5802   2.9275709395e+02   5.6577004583e+00   0.01533317   0.01001243 -87.23  0.001099893    1.954    0.488
       207  -7.8093    211.7071    176.3659   2.9027486911e+02   4.5253332271e+00  0.007243673  0.004932582  59.64 0.0007028089    1.713    0.416
       208 -10.6934     76.0939    171.1753   2.9193762700e+02   5.3606095926e+00   0.05018584   0.02279836 -87.42  0.003189541    4.716    0.788
       209  -9.2413     74.7762    160.4009   2.9189579034e+02   5.4934729140e+00   0.03831706   0.01593403   4.45  0.002106308    5.665    0.823
       210  -8.4795    224.3313    173.9083   2.9010432320e+02   4.4815568598e+00   0.01050203  0.008423688  82.54 0.0007235461    1.453    0.312
       211  -9.4227    175.7472    172.1623   2.9070004927e+02   4.7801016131e+00   0.01763367   0.01190274 -57.86 0.0009340936    1.539    0.350
       212  -8.4830    143.1899    173.0802   2.9111090069e+02   4.9556092261e+00   0.01365783  0.007392894  48.29 0.0007323127    1.999    0.500
       213  -8.7056    134.7996    171.9124   2.9120920272e+02   5.0171324079e+00   0.01210409  0.009252633  71.65  0.000749024    1.542    0.352
       214  -9.5694    121.4597    170.4269   2.9136753784e+02   5.1105964599e+00   0.01944579   0.01301131  71.87   0.00111878    1.934    0.483
       215  -9.3591     45.2797    170.9839   2.9232120144e+02   5.5382110975e+00   0.02220792   0.01415834  77.87  0.001346441    2.160    0.537
       216  -8.8989    230.1881    169.5644   2.9000780136e+02   4.4984649800e+00   0.01972441   0.01020601 -82.85   0.00158672    2.833    0.647
       217  -8.2825    205.6563    170.1414   2.9031642314e+02   4.6323485233e+00   0.01383732  0.008612073 -86.45 0.0009381983    2.115    0.527
       218  -8.2340    237.2290    169.8492   2.8992170293e+02   4.4547856942e+00   0.01035948  0.008794001  56.27 0.0005974683    1.241    0.194
       219  -8.5210    198.2188    170.1363   2.9040904405e+02   4.6750102970e+00   0.01259805  0.009302323  42.60 0.0007946203    1.325    0.245
       220  -9.1554    167.2338    168.7983   2.9078790925e+02   4.8679265384e+00   0.01769189   0.01049953  50.28  0.001063798    1.841    0.457
       221  -8.3130    149.7885    169.6888   2.9101023412e+02   4.9573376404e+00   0.01244913  0.008219237  68.36 0.0007896849    1.941    0.485
       222  -8.0377    244.4188    169.2179   2.8982878681e+02   4.4208884480e+00  0.008960761  0.006684599 -87.62  0.000558119    1.596    0.373
       223  -8.1632     88.7969    169.0343   2.9176751614e+02   5.3131347636e+00   0.01101152  0.008603906  54.51 0.0008927115    1.361    0.265
       224  -8.3089    218.8380    168.2478   2.9014196678e+02   4.5788269133e+00   0.01031533  0.008741157  51.84 0.0005729286    1.216    0.177
       225  -8.0383    211.4708    168.0452   2.9023261483e+02   4.6234011412e+00  0.009909249  0.006858767 -66.43  0.000575743    1.554    0.356
       226  -8.6571    111.7498    167.6175   2.9147345013e+02   5.1987021801e+00   0.01761773  0.008717081  54.02  0.001137374    2.590    0.614
       227  -8.8283    191.8070    166.6830   2.9047017617e+02   4.7518731141e+00    0.0120232   0.01101644  84.96 0.0005776521    1.193    0.162
       228  -8.7462    185.0739    166.6647   2.9055397762e+02   4.7906373835e+00   0.01147507  0.009236921 -86.93 0.0006599273    1.425    0.298
       229 -10.0515     94.9768    163.0777   2.9165815501e+02   5.3471992447e+00   0.04135112   0.01864122  61.50  0.002677828    4.323    0.769
       230  -8.9899     20.5001    166.2035   2.9260474433e+02   5.7346389966e+00   0.01916949    0.0105468  57.09  0.001293427    2.315    0.568
       231  -9.9627    136.5751    164.3781   2.9114621894e+02   5.0946190170e+00   0.02975372   0.01095897  42.65    0.0019877    2.751    0.636
       232  -8.1320    239.9420    164.4731   2.8985870878e+02   4.5016943136e+00   0.01014569  0.009197911 -69.65 0.0006089526    1.185    0.156
       233  -8.2316    233.9985    164.9793   2.8993544432e+02   4.5298979310e+00   0.01076372  0.007708923  60.27 0.0005385262    1.599    0.375
       234  -8.7992    159.5670    164.3934   2.9085958944e+02   4.9630046186e+00   0.01435564   0.01031101  53.06 0.0008108428    1.495    0.331
       235  -9.3192     33.7123    163.5360   2.9242538247e+02   5.6906316639e+00    0.0300131   0.01055527  45.78   0.00208587    3.278    0.695
       236  -9.2532    245.8917    161.9330   2.8977084677e+02   4.4970789338e+00   0.02510285   0.01164333 -74.47  0.002000924    2.787    0.641
       237  -8.6179    212.9075    163.6493   2.9019083867e+02   4.6662609877e+00   0.01248811   0.00990645  89.46 0.0006798054    1.467    0.318
       238  -8.6316     57.3627    163.9885   2.9213256490e+02   5.5508754326e+00    0.0198023  0.007588731  11.32  0.001204568    4.329    0.769
       239  -8.5724    204.8433    162.8012   2.9028667906e+02   4.7223271517e+00    0.0125454   0.00952014  89.58 0.0005400165    1.568    0.362
       240  -9.6592      3.6374    162.4046   2.9279480053e+02   5.8745371849e+00   0.02567173   0.01150283  47.63  0.001672978    2.513    0.602
       241  -9.2314    177.6013    160.8909   2.9061576353e+02   4.9005422771e+00   0.01649397   0.01199544  68.35 0.0009958342    1.648    0.393
       242  -8.8941    151.7308    161.1074   2.9093947178e+02   5.0460286030e+00    0.0146318   0.01005198  73.53 0.0009004554    1.858    0.462
       243  -8.7968     60.7263    160.4567   2.9207147984e+02   5.5728259810e+00   0.01752688  0.009507479  55.21  0.001311634    2.284    0.562
       244  -8.5825    227.5183    159.2923   2.8998520819e+02   4.6331402731e+00   0.01419434  0.009459347  64.98 0.0009538307    1.862    0.463
       245  -9.6288    250.2227    157.7508   2.8969420138e+02   4.5208176611e+00   0.01660881   0.00971479 -66.44 0.0009057131    1.847    0.459
       246  -8.4162    237.1871    159.1951   2.8986430343e+02   4.5788208586e+00  0.009719915  0.007720516  57.38 0.0008583185    1.358    0.264
       247  -9.2192    167.7209    157.4920   2.9072048009e+02   4.9966062889e+00   0.01784719   0.01037268  53.46  0.001210516    1.992    0.498
       248  -8.2708    128.0217    158.9619   2.9122354892e+02   5.2064793548e+00   0.01120905  0.007508363  55.83 0.0006241508    1.685    0.407
       249  -9.7008    105.7712    157.5307   2.9149341102e+02   5.3501549128e+00   0.02508541   0.01978244 -79.59  0.001520211    1.430    0.301
       250  -8.6470    196.6383    157.9779   2.9036270075e+02   4.8253976013e+00   0.01235586  0.009814081  57.39 0.0008176384    1.358    0.264
       251  -8.3670    188.0053    157.7697   2.9046914730e+02   4.8772629229e+00   0.01158486  0.009790133 -67.70 0.0005268508    1.271    0.213
       252  -8.5410    217.9931    156.5358   2.9008884154e+02   4.7197852023e+00   0.01273181  0.009353186  83.64  0.000788283    1.672    0.402
       253  -8.8154    157.5584    155.9290   2.9083870688e+02   5.0729193722e+00   0.01378991   0.01103695  83.12 0.0008714981    1.457    0.314
       254  -9.4496    119.5332    155.2416   2.9130928522e+02   5.2982283592e+00    0.0228331   0.01387193  83.26  0.001670051    2.379    0.580
       255  -8.5192    144.7372    155.2371   2.9099484640e+02   5.1542807226e+00   0.01332006  0.009257803  51.90  0.001027917    1.540    0.351
       256  -9.5090     81.4883    154.7432   2.9178138906e+02   5.5210529354e+00   0.02286924   0.01297218  56.68  0.001426733    2.185    0.542
       257  -9.3892     49.6964    155.3987   2.9218184102e+02   5.6944380987e+00   0.02190718   0.01092169  51.21   0.00147668    2.378    0.579
       258  -9.1406    242.6306    154.8613   2.8977297640e+02   4.5979476568e+00   0.01379367  0.009127681  60.42 0.0005730296    1.803    0.445
       259  -7.9423    204.5733    155.1161   2.9024828788e+02   4.8131994172e+00  0.009726731  0.006819428 -67.88  0.000980794    1.546    0.353
       260  -9.6986    132.7816    152.9769   2.9113171910e+02   5.2488945937e+00    0.0216127   0.01311032  53.30  0.001058637    1.871    0.466
       261  -9.5349    133.4749    148.5021   2.9109880130e+02   5.2969750317e+00   0.01854913   0.01004684 -53.65  0.001723324    1.884    0.469
       262  -9.7005     68.0508    153.8697   2.9194441177e+02   5.6077644874e+00   0.02275821   0.01279026  55.78  0.001468367    2.182    0.542
       263  -7.9257    232.8604    154.0558   2.8989022386e+02   4.6633514883e+00   0.01136092  0.007247815  65.11 0.0007213387    2.010    0.503
       264  -8.6008    151.8422    153.0819   2.9089454101e+02   5.1387181107e+00   0.01057177   0.00874779  56.78 0.0005908819    1.284    0.221
       265  -9.1879     20.0723    152.9360   2.9253846355e+02   5.8914521318e+00   0.01104805  0.007491921  55.82  0.000662861    1.656    0.396
       266  -9.6417     29.2969    150.7096   2.9241123612e+02   5.8649652206e+00   0.02476946   0.01239669  57.98  0.001948115    2.827    0.646
       267  -9.5294    248.7505    149.4028   2.8966711218e+02   4.6262448881e+00   0.01590395    0.0109603 -63.19 0.0008316348    1.535    0.349
       268  -9.3411    247.0720    143.9989   2.8965860323e+02   4.6986541349e+00    0.0121827  0.009688294 -53.51 0.0004896662    1.314    0.239
       269  -8.9897    189.4768    150.4275   2.9041092674e+02   4.9541875242e+00   0.01424827   0.01138841  74.09 0.0006528433    1.448    0.309
       270  -7.9786    182.4212    151.2484   2.9050332593e+02   4.9850514318e+00  0.008910136  0.006670676 -88.71  0.000442692    1.593    0.372
       271  -8.5156    162.7100    150.4461   2.9074471038e+02   5.1072027616e+00   0.01172119  0.008608082 -85.91 0.0005526447    1.621    0.383
       272  -8.7049     98.2470    150.7127   2.9155038130e+02   5.4723904348e+00   0.01425289  0.009813932  67.02 0.0009401835    1.788    0.441
       273  -8.3187    212.8923    150.0760   2.9011726218e+02   4.8240989301e+00   0.01024124  0.008711073  52.40 0.0003313588    1.214    0.176
       274  -9.8954     39.6191    147.8104   2.9226665986e+02   5.8400346786e+00   0.02844293   0.01571685  61.76  0.001929369    2.515    0.602
       275  -8.5479     40.3853    141.3887   2.9222237434e+02   5.9103923210e+00   0.01251824  0.006655306   9.49  0.001048948    2.261    0.558
       276  -8.5307    198.9421    148.8214   2.9028424511e+02   4.9186322757e+00   0.01111271  0.009829861 -78.30 0.0004310721    1.235    0.190
       277 -10.0797     89.1735    146.2654   2.9163955039e+02   5.5758689760e+00   0.03271406   0.01707524  67.80  0.002473665    3.250    0.692
       278  -8.5230    233.3936    147.6388   2.8984868736e+02   4.7348530972e+00   0.01256388  0.008276821 -62.75 0.0007183135    1.601    0.375
       279 -10.9036     54.8030    143.3949   2.9205316045e+02   5.8050429995e+00    0.0486431   0.03086847 -87.73  0.003243041    2.062    0.515
       280  -8.2776    223.1656    147.0900   2.8997306897e+02   4.7998948474e+00   0.01015601  0.008957159  -8.65 0.0004674665    1.175    0.149
       281  -7.9748    206.7707    146.7433   2.9017540792e+02   4.8979216781e+00  0.009379599  0.007509579  54.49  0.000692768    1.320    0.243
       282 -10.2006    148.9736    144.9195   2.9088602455e+02   5.2500381011e+00   0.02646825   0.01515868  64.32  0.001692108    2.444    0.591
       283 -10.0171    139.1717    145.0345   2.9100892022e+02   5.3047428636e+00    0.0228637   0.01422823  73.75  0.001320183    2.249    0.555
       284  -9.1964    139.6376    137.8558   2.9096415556e+02   5.3855573694e+00   0.01982155   0.01093202 -14.60  0.001570795    2.834    0.647
       285 -10.3029    106.6632    144.0847   2.9140942362e+02   5.5014666407e+00   0.03693346   0.02070441  71.29   0.00251349    2.808    0.644
       286  -8.8565     77.9553    147.1494   2.9178438688e+02   5.6295279703e+00   0.01105395  0.008569093  53.72 0.0006263899    1.367    0.268
       287  -8.5342    240.2005    145.2169   2.8975076781e+02   4.7239382526e+00   0.01222181  0.008836723 -74.46 0.0006164481    1.554    0.357
       288  -9.1062    242.7279    143.3469   2.8970913076e+02   4.7311587669e+00   0.01013358  0.008731695  23.72 0.0007612013    1.090    0.082
       289  -8.1842    175.6671    146.1673   2.9055992565e+02   5.0827920253e+00   0.01046787   0.00832853  73.98 0.0006854129    1.458    0.314
       290  -9.2896     13.0788    146.0580   2.9258867100e+02   6.0111799827e+00   0.01467987  0.009458118  55.22  0.001076276    1.766    0.434
       291  -9.9652    124.9576    142.6568   2.9117337014e+02   5.4136168620e+00   0.02816541   0.01692072  86.05  0.002161133    2.403    0.584
       292  -8.2729    194.4019    144.1444   2.9031540795e+02   4.9990077129e+00   0.00906116  0.006576974  89.97 0.0004292042    1.679    0.404
       293  -8.8337    165.5029    143.9219   2.9067446371e+02   5.1670774213e+00   0.01314193  0.009358799  49.54 0.0007638293    1.461    0.316
       294 -10.9914     68.9769    139.1703   2.9185329733e+02   5.7734972907e+00   0.04318218   0.02362806 -71.96   0.00328776    2.117    0.528
       295 -10.3928     73.2804    128.4444   2.9174147470e+02   5.8737498967e+00   0.03286016   0.01734533 -63.21  0.002374106    1.985    0.496
       296  -9.6125     71.0767    119.9540   2.9172300661e+02   5.9850573043e+00   0.02054252   0.01297024 -87.67  0.001310759    2.081    0.519
       297 -10.1068      2.6810    141.0087   2.9269129513e+02   6.1289207730e+00    0.0294032   0.01532648 -75.52  0.002539353    2.386    0.581
       298  -8.5473    243.3111    150.4051   2.8974026794e+02   4.6458146554e+00   0.01242704  0.008591683 -72.15 0.0009014499    1.613    0.380
       299  -9.7826     23.4303    138.3197   2.9241756851e+02   6.0424451738e+00   0.02783884   0.01426387  57.19  0.002259649    2.642    0.621
       300  -7.8633    218.6288    138.7939   2.8998446108e+02   4.9223151039e+00  0.008951834  0.006611668 -84.09 0.0003354939    1.595    0.373
       301  -8.7836    172.2325    138.2968   2.9055999914e+02   5.1939531155e+00   0.01458283   0.01075764  86.59  0.000911837    1.652    0.395
       302  -7.5181    235.2667    138.6464   2.8977644996e+02   4.8285830340e+00  0.007009775  0.004991774  61.36 0.0002691798    1.627    0.385
       303  -8.3123    207.6341    138.0725   2.9011751369e+02   4.9937420464e+00   0.01057222  0.008288478  75.58 0.0007749737    1.497    0.332
       304  -8.7038    197.6045    137.6047   2.9023995111e+02   5.0566674408e+00   0.01300256  0.009906168  74.79 0.0008224423    1.565    0.361
       305  -8.9144     80.7976    137.8213   2.9169838984e+02   5.7218413110e+00   0.01260374   0.00975361  24.04 0.0009053756    1.213    0.176
       306 -10.2221     83.4896    132.8473   2.9163783259e+02   5.7643547239e+00   0.02680249   0.01676959 -88.34   0.00128182    2.126    0.530
       307  -8.7958     84.4612    123.0661   2.9157269916e+02   5.8725806186e+00   0.02266406   0.01325175 -17.61  0.001943879    2.415    0.586
       308  -8.2012    162.6625    136.5029   2.9066959690e+02   5.2695875790e+00   0.01104958  0.007972739  72.76  0.000612803    1.702    0.413
       309  -8.7885    151.2565    136.2350   2.9081040834e+02   5.3379617171e+00   0.02037846   0.01036863   9.58  0.001659265    2.450    0.592
       310  -9.4178     38.9488    136.2358   2.9221245450e+02   5.9785078617e+00   0.01539555   0.01033236  60.19 0.0008571504    1.759    0.431
       311  -9.1577    248.3544    135.4275   2.8959599643e+02   4.7908588538e+00   0.01307821   0.01141601 -71.26 0.0008097604    1.238    0.192
       312  -9.1636    250.7031    129.9202   2.8953678405e+02   4.8413432249e+00   0.02158687  0.006487295 -65.09  0.001474939    3.565    0.720
       313  -7.7289    231.6334    134.2560   2.8979780584e+02   4.9004393878e+00  0.007255141  0.004690642  49.29 0.0005864932    1.634    0.388
       314  -8.5983    179.4701    133.8377   2.9044552986e+02   5.2043454579e+00   0.01318566   0.00959987  54.12 0.0007134866    1.483    0.326
       315  -9.2711    112.8941    133.3323   2.9127335704e+02   5.5909559836e+00   0.01694788   0.01189886  62.28  0.001079476    1.674    0.402
       316  -9.0954    143.2632    131.8822   2.9088649735e+02   5.4342878198e+00   0.01580627   0.01091137  65.21 0.0008753203    1.759    0.431
       317 -10.2883    132.3414    131.1807   2.9101896934e+02   5.5048826199e+00   0.02934324    0.0185415  68.75  0.001902291    2.112    0.527
       318 -10.4520     98.0972    129.8843   2.9143938266e+02   5.7155097357e+00   0.03404173   0.01552562 -71.88  0.002139396    2.663    0.624
       319  -8.9031     98.8684    120.9508   2.9138131729e+02   5.8150062546e+00   0.01887141   0.01026215 -25.91  0.001220146    2.635    0.620
       320  -8.4088    246.9020    130.4083   2.8958675738e+02   4.8574980521e+00   0.01058172  0.009312595  79.00 0.0005661408    1.260    0.206
       321  -8.1725    204.7088    130.4139   2.9011232034e+02   5.0995135560e+00   0.01152078   0.00841389 -86.39 0.0005873467    1.639    0.390
       322  -9.7309    152.9068    128.3640   2.9074708157e+02   5.4200342350e+00   0.02944109   0.01344033 -65.92  0.002037773    2.368    0.578
       323  -9.8856     12.9418    129.4242   2.9250053901e+02   6.2054834485e+00   0.02531615   0.01438883  60.20  0.002011927    2.316    0.568
       324  -7.9897    221.1077    130.1731   2.8990669145e+02   5.0082653182e+00  0.009746692  0.007583098  50.66 0.0007749819    1.331    0.248
       325  -8.1785    192.8630    130.1183   2.9025835155e+02   5.1708489220e+00   0.01067273  0.008646076  57.36 0.0005413894    1.324    0.245
       326  -9.2016    168.3809    129.5303   2.9056040522e+02   5.3179154960e+00   0.01409882   0.01045928  60.17 0.0008057998    1.519    0.341
       327  -8.7269    161.4224    130.2237   2.9065095882e+02   5.3496849998e+00  0.009401806  0.006713598 -86.37 0.0009538892    1.694    0.410
       328  -8.3551    122.7529    129.6703   2.9113043977e+02   5.5772362080e+00   0.01006673  0.008350164  30.73 0.0001658504    1.127    0.113
       329 -10.0172    117.6963    125.1761   2.9116917302e+02   5.6583821058e+00   0.02766146   0.01490443  54.06  0.001372265    2.256    0.557
       330  -8.4636    181.9959    141.5725   2.9045606791e+02   5.0999679561e+00   0.01222019  0.009409117  77.33   0.00063342    1.546    0.353
       331  -9.6785    236.6735    127.9945   2.8970096974e+02   4.9442547145e+00   0.01541441   0.01112256  21.41 0.0008921503    1.321    0.243
       332  -8.0952    211.6938    129.1743   2.9001853990e+02   5.0738672499e+00   0.01044764  0.008307631  75.12 0.0006447368    1.463    0.316
       333 -10.4927     60.1572    125.2224   2.9188793861e+02   5.9859671993e+00   0.04175088   0.02132433  61.07  0.002644616    2.942    0.660
       334  -9.0049     59.3661    115.4827   2.9184507912e+02   6.1037565843e+00   0.02056344   0.01099049  -0.15  0.001633791    2.720    0.632
       335 -10.7088     44.9499    123.8613   2.9207054785e+02   6.0883355401e+00   0.05240322   0.02514455  62.19  0.003729999    3.594    0.722
       336  -8.1684    228.4503    125.5085   2.8978985033e+02   5.0203300192e+00  0.006849567  0.006356991  35.28  0.000577147    1.043    0.041
       337  -9.0094    179.2381    124.6875   2.9039869437e+02   5.3120332036e+00   0.01352574    0.0112201  56.97 0.0008032317    1.282    0.220
       338 -10.4054     28.1925    121.6596   2.9226800800e+02   6.2092073004e+00   0.04334773    0.0235401  81.57  0.003375545    3.162    0.684
       339  -8.2194    188.5215    124.0100   2.9027926393e+02   5.2667198976e+00  0.009873752  0.006893138 -68.18 0.0006796559    1.555    0.357
       340 -10.0698    131.0511    118.9318   2.9096858648e+02   5.6546829710e+00   0.02761799   0.01340689  54.00  0.001767837    2.678    0.627
       341  -9.6349    158.9057    121.9337   2.9063731769e+02   5.4604624832e+00   0.01700925   0.01118346  57.39  0.001022007    1.761    0.432
       342  -7.8057    195.0075    122.0131   2.9018754960e+02   5.2527544135e+00  0.007946443  0.007818879 -58.60 0.0003957624    1.083    0.077
       343  -9.0190    172.0387    121.7528   2.9047252368e+02   5.3873784782e+00   0.01113276  0.009898311 -69.83 0.0004813804    1.210    0.174
       344 -10.2139    141.5070    118.1597   2.9083390217e+02   5.6038786792e+00   0.02574408   0.01574422 -84.68  0.001130914    2.140    0.533
       345  -9.6458      2.9790    117.4939   2.9256057391e+02   6.4007931617e+00   0.02725933   0.01545007  71.83  0.002253885    2.737    0.635
       346  -7.8700    231.5730    117.7667   2.8970882058e+02   5.0923427669e+00  0.009045167  0.006677093 -88.56 0.0007113458    1.627    0.385
       347  -7.8000    203.3320    122.2056   2.9008483712e+02   5.2027931904e+00  0.009244776  0.006477447 -82.38 0.0004673372    1.703    0.413
       348  -9.8864    109.3894    114.2497   2.9121359654e+02   5.8328770037e+00   0.02535792   0.01528957  71.90  0.001285406    2.379    0.580
       349  -9.0594    109.4012    107.6732   2.9117776000e+02   5.9092773199e+00   0.01566503   0.01004747 -12.57  0.001458584    2.000    0.500
       350  -7.9285    219.2983    116.6748   2.8985578560e+02   5.1754728962e+00  0.007125712  0.004934623  57.09 0.0003142806    1.630    0.387
       351  -8.4684    185.9546    116.0557   2.9026801684e+02   5.3738725938e+00   0.01119584  0.007474317  56.09 0.0005836773    1.698    0.411
       352  -8.0727    250.2479    115.3803   2.8946328249e+02   5.0128248609e+00  0.009930311  0.005773658  34.19 0.0009412603    1.578    0.366
       353  -8.1075    193.0039    115.3184   2.9017611668e+02   5.3420378751e+00  0.009484874  0.008451189  29.36 0.0004515201    1.053    0.051
       354  -8.3839    167.0514    114.5602   2.9049563621e+02   5.4995396028e+00   0.01197395  0.008454278 -36.54 0.0007899043    1.558    0.358
       355  -7.8825    153.4745    115.5445   2.9067036440e+02   5.5658170556e+00  0.006920778  0.006283034  39.29  0.000807361    1.074    0.069
       356 -10.0786     92.7072    112.6570   2.9141328163e+02   5.9466073640e+00   0.02600042   0.01836501 -83.30  0.001236268    1.692    0.409
       357  -8.8425     92.4406    105.7526   2.9137916225e+02   6.0284141600e+00   0.02941891   0.01444703 -13.94  0.001905399    4.316    0.768
       358 -10.0703     79.0644    112.7461   2.9158416927e+02   6.0233685261e+00   0.02837353   0.01691427  64.03  0.001796366    2.247    0.555
       359  -8.8749     78.5130    105.2756   2.9155055783e+02   6.1133857104e+00   0.01685948    0.0108634  -7.10  0.001227592    1.948    0.487
       360  -8.6217    174.9276    112.1836   2.9038447601e+02   5.4820531407e+00   0.01425416  0.009684797  83.86  0.000919298    1.911    0.477
       361 -10.0964    133.5182    109.9647   2.9088910245e+02   5.7448329036e+00   0.02812562   0.01619006 -63.03  0.002128567    1.826    0.452
       362 -10.5545    121.5486    111.3814   2.9104621605e+02   5.7967760156e+00   0.02762072   0.02154949  78.27  0.002223202    1.515    0.340
       363  -8.8011    159.1794    111.9039   2.9057940326e+02   5.5754843247e+00   0.01244399   0.01041626  60.85 0.0007273141    1.291    0.226
       364 -10.2029     66.2886    109.9468   2.9172860129e+02   6.1287199208e+00   0.02672582   0.01659762 -69.30  0.001580243    1.776    0.437
       365  -9.8554     14.0345    110.8625   2.9238655351e+02   6.4151997031e+00   0.02041851    0.0141017  73.35  0.001596184    1.838    0.456
       366  -7.7714    149.7685    109.9616   2.9068627273e+02   5.6519215526e+00  0.008618478  0.005730563 -63.36 0.0003230906    1.591    0.371
       367  -9.5744    249.0942    108.6587   2.8944103716e+02   5.0975102112e+00    0.0149532   0.01339673 -72.47   0.00177097    1.205    0.170
       368  -9.2539    249.1470    103.0995   2.8941009730e+02   5.1617622532e+00   0.02427444  0.008413875 -40.53   0.00152958    4.263    0.765
       369  -8.5128    189.0240    107.8643   2.9018519201e+02   5.4514713709e+00   0.01166312   0.00880339  82.09 0.0005784497    1.601    0.375
       370  -9.5903    150.7283    103.4219   2.9063875614e+02   5.7224456372e+00   0.02141013   0.01319114  65.74  0.001576082    2.156    0.536
       371 -10.4996     45.5352    102.3764   2.9194692190e+02   6.3348942568e+00   0.03860939   0.01987525  63.28  0.002982042    3.053    0.673
       372  -9.2845     46.4020     92.8021   2.9188422325e+02   6.4412993181e+00   0.02535827   0.01235796   3.29  0.001853509    3.190    0.686
       373 -10.6927     23.0448    102.9359   2.9223105543e+02   6.4562308696e+00   0.04163116   0.02139147  61.63  0.002868662    2.942    0.660
       374  -8.6185    166.5659    104.4144   2.9044653640e+02   5.6202413301e+00    0.0115612   0.01112991  46.58 0.0006558629    1.065    0.061
       375  -9.2887    139.8094    104.5247   2.9078102457e+02   5.7720964272e+00   0.01649183   0.01152975  56.12 0.0008934283    1.594    0.373
       376 -10.3883    128.8505    101.5159   2.9090148213e+02   5.8697380034e+00   0.02629709   0.01534454 -55.08    0.0017447    1.756    0.431
       377 -10.7110    109.8445     99.3517   2.9112705447e+02   6.0034950560e+00    0.0447672   0.01457817  45.59  0.002959926    3.629    0.724
       378  -8.9989    108.3216     92.4321   2.9110850572e+02   6.0926354141e+00   0.02286104   0.01161809   6.17  0.001806546    2.669    0.625
       379  -8.9582      6.8003    102.9595   2.9243424770e+02   6.5481706438e+00   0.01265921  0.009445025  74.44  0.000948727    1.617    0.381
       380  -7.9849    175.4562    102.2317   2.9032376397e+02   5.5946804768e+00  0.009065541  0.006688844  89.94 0.0006059856    1.637    0.389
       381  -8.3719    159.8322    101.1583   2.9051284706e+02   5.6966419926e+00   0.01070516  0.008569376  56.59 0.0005820241    1.338    0.253
       382  -9.2585     81.9833     99.8888   2.9147798993e+02   6.1562387433e+00   0.01794139   0.01189814  69.96  0.000837001    1.946    0.486
       383  -8.5885     43.6239    109.4642   2.9200918817e+02   6.2633355517e+00   0.01502267  0.006519593  22.90  0.001219736    2.223    0.550
       384  -9.2127     95.0406     97.0337   2.9129937890e+02   6.1149549098e+00   0.01394313   0.01089057  86.09 0.0005802381    1.510    0.338
       385 -10.0988     63.8898     95.8882   2.9168238018e+02   6.3058663940e+00    0.0285024   0.01677174  68.31  0.001619132    2.429    0.588
       386  -8.3559     64.0231     88.4806   2.9164055242e+02   6.3912376286e+00   0.01922692   0.00898909 -22.85  0.001204306    4.537    0.780
       387  -8.4459     68.5006     86.5048   2.9157387644e+02   6.3887002898e+00   0.01742029   0.00676981  20.84  0.001307283    2.647    0.622
       388  -8.5425    151.1867     95.7958   2.9059158218e+02   5.8084572280e+00   0.01964806   0.00971715 -27.66  0.001455386    3.216    0.689
       389  -8.4626    176.7926     93.5386   2.9025980575e+02   5.6880369780e+00   0.01309839  0.008964412  80.55  0.001212993    1.895    0.472
       390  -8.2605    164.8362     94.1658   2.9041238557e+02   5.7492490806e+00   0.01050879  0.008684982  53.40 0.0005206681    1.262    0.208
       391  -9.4626    139.0983     91.9948   2.9072181178e+02   5.9218044366e+00   0.02105886   0.01520007  82.60  0.001058089    1.723    0.420
       392 -10.3784    123.9991     91.4960   2.9090762573e+02   6.0139435673e+00   0.02615645   0.02134463  12.79  0.001552203    1.206    0.171
       393  -8.5238    126.1935     84.6472   2.9084300883e+02   6.0810037716e+00   0.01510739  0.008157595  -8.87  0.001157321    2.978    0.664
       394  -9.4504      5.1093     92.2113   2.9239726031e+02   6.6827599308e+00   0.02068117    0.0111673  49.58   0.00132864    2.057    0.514
       395  -8.4256    157.8567     91.3716   2.9048428378e+02   5.8216896122e+00   0.01370176  0.008078128 -66.65  0.001018692    1.835    0.455
       396  -9.5134     34.7823     89.8865   2.9201368384e+02   6.5412835666e+00   0.02320583   0.01375842  77.31  0.001697332    2.528    0.604
       397  -9.1972     23.0907     90.4536   2.9216292400e+02   6.6011278174e+00   0.01885889   0.01285555   5.50  0.001335343    1.611    0.379
       398  -8.1586    150.8447     89.1194   2.9055955102e+02   5.8880067602e+00   0.01059682  0.009004345  55.51 0.0006156858    1.235    0.190
       399  -9.9204     86.2478     86.6177   2.9135270586e+02   6.2862148580e+00    0.0229199   0.01410991  57.47  0.001107079    1.945    0.486
       400  -8.7407     87.2724     80.7275   2.9130793281e+02   6.3488421974e+00   0.01373133  0.008531287 -10.55 0.0009766194    2.123    0.529
       401  -7.7677    164.4527     87.4850   2.9038083205e+02   5.8290776479e+00   0.00693226   0.00626741  42.59 8.457452e-05    1.092    0.084
       402  -9.9573     48.5231     84.4911   2.9181267135e+02   6.5258645734e+00   0.02716783   0.01470739  60.80  0.001740832    2.577    0.612
       403  -7.6972    179.4614     85.9618   2.9018528493e+02   5.7607728252e+00  0.009267934  0.005657838  73.29 0.0008060067    2.340    0.573
       404  -9.7699    104.6685     83.2290   2.9110415970e+02   6.2204759051e+00   0.02095275    0.0135574  65.74  0.001186028    1.971    0.493
       405  -8.7292    105.2195     77.1805   2.9106442313e+02   6.2876321952e+00   0.01584864  0.009855445 -17.92  0.001440117    2.116    0.527
       406  -8.4564    157.8480     84.0635   2.9044464478e+02   5.9066614683e+00   0.01028883  0.008892542  55.73 0.0004304404    1.211    0.174
       407  -9.3795    140.9879     82.4821   2.9064650815e+02   6.0215484440e+00   0.01823362   0.01057568 -68.59 0.0008578787    1.903    0.474
       408  -8.2220     35.8161     82.3880   2.9196013934e+02   6.6225921962e+00   0.01008817  0.006331292   9.46 0.0009525606    1.746    0.427
       409  -9.6392     24.6301     80.3631   2.9208903863e+02   6.7097083320e+00   0.02526773   0.01490727  80.90  0.001537224    2.556    0.609
       410  -9.3401      9.9094     81.0567   2.9227688047e+02   6.7852269611e+00   0.02143965   0.01022458  51.67  0.001313559    2.580    0.612
       411  -8.4966    150.0853     80.5367   2.9052235536e+02   5.9920883486e+00   0.01268634  0.009444391  80.13 0.0008047207    1.638    0.389
       412  -8.8821    119.3298     80.2392   2.9090477587e+02   6.1714692688e+00   0.01651845   0.01160949 -89.75  0.001095621    1.765    0.433
       413  -9.0030     74.4844     80.2398   2.9146510201e+02   6.4274335697e+00   0.01684114   0.01106873  89.72  0.001181094    1.978    0.495
       414  -8.5384    166.6363     79.5249   2.9031027367e+02   5.9090560445e+00   0.01232063  0.008344077 -67.06 0.0006302018    1.595    0.373
       415  -8.7851    184.3420     78.7706   2.9008525828e+02   5.8163324786e+00  0.009609282  0.005973067 -53.07 0.0007451709    1.659    0.397
       416  -9.0170     64.6820     63.3907   2.9149620208e+02   6.6791387930e+00   0.03634658   0.01306849 -41.61  0.002458642    3.711    0.731
       417  -9.4289     65.3040     77.6685   2.9156590047e+02   6.5096384403e+00   0.01588726   0.01239867  57.10  0.001168448    1.388    0.280
       418  -9.9091     63.4814     73.9801   2.9156867486e+02   6.5628964014e+00   0.02255691   0.01393198  88.25  0.001810584    2.238    0.553
       419  -9.4018    128.0780     75.4298   2.9076937395e+02   6.1773489877e+00    0.0164119    0.0119623  75.82 0.0007930248    1.688    0.408
       420  -8.6451    163.2164     73.4923   2.9032012605e+02   5.9987347336e+00   0.01290882  0.008888466  84.59 0.0008253643    1.864    0.464
       421  -9.7217     82.4435     72.7228   2.9132482590e+02   6.4694295129e+00   0.02042623   0.01357375  81.31  0.001063073    1.998    0.499
       422  -8.9316     84.2652     65.0692   2.9126049702e+02   6.5479923773e+00   0.02744399   0.01323421 -21.06  0.001804808    4.179    0.761
       423  -8.8589    115.6954     72.9261   2.9091043183e+02   6.2772296175e+00   0.01195692  0.009278291  82.25 0.0006798703    1.531    0.347
       424  -8.3338     42.6812     73.3246   2.9182518046e+02   6.6889191648e+00   0.01076972  0.007185221  56.07 0.0005970341    1.700    0.412
       425  -7.6632    175.5244     72.5278   2.9016128084e+02   5.9394042783e+00  0.006822422  0.006403333  20.30 0.0001741387    1.009    0.009
       426  -8.8724    105.8998     71.7864   2.9102661755e+02   6.3464380898e+00   0.01231915   0.01002296 -87.36 0.0005983153    1.405    0.288
       427  -9.3287     95.0075     70.9403   2.9115812577e+02   6.4184627896e+00   0.01897842    0.0120637  81.21 0.0009943338    2.179    0.541
       428  -9.4347     51.4901     69.7078   2.9169542146e+02   6.6808373506e+00   0.02150018   0.01299048  84.09  0.001301997    2.399    0.583
       429  -8.5179     32.0056     68.4652   2.9193234164e+02   6.8061123547e+00   0.01394245  0.008266421  15.18 0.0007690388    1.751    0.429
       430  -9.3185     16.5254     69.6409   2.9213232427e+02   6.8803886738e+00   0.02272358    0.0119774 -76.51  0.001960389    2.397    0.583
       431  -8.3763    157.3511     70.1352   2.9037506696e+02   6.0713342825e+00  0.009745684  0.007791196  54.63 0.0004126692    1.324    0.245
       432  -8.1951    153.5954     69.1452   2.9041656379e+02   6.1043442956e+00  0.009402069  0.008707482 -39.12 0.0003895023    1.130    0.115
       433  -8.6971    140.5252     75.3851   2.9061369319e+02   6.1066662050e+00   0.01450816  0.009420344  61.82 0.0007592743    1.886    0.470
       434  -8.8231    147.1535     68.4424   2.9049316579e+02   6.1493947303e+00   0.01343638   0.01050852  73.88 0.0008457522    1.498    0.332
       435  -9.1265    138.7691     66.2542   2.9058595779e+02   6.2228069603e+00   0.01511301    0.0101625  76.62 0.0008018259    1.951    0.487
       436  -8.9342    121.5790     66.1129   2.9079989584e+02   6.3227713346e+00   0.01455413   0.01036577  64.51 0.0007335516    1.665    0.400
       437  -7.8233    191.7436     65.0170   2.8991803083e+02   5.9336198724e+00   0.01279282  0.006472718 -19.73 0.0008912255    3.591    0.722
       438  -7.2319    163.6650     65.7087   2.9027216251e+02   6.0865842604e+00  0.007074747  0.005054245 -20.94 0.0005360962    1.637    0.389
       439  -9.2286    110.1802     63.4204   2.9092767064e+02   6.4192046598e+00   0.02168689   0.01112703 -66.48  0.001497394    2.115    0.527
       440  -8.7264     37.3009     64.5915   2.9184511657e+02   6.8210336277e+00   0.01494241   0.00987989  57.01 0.0008993784    1.740    0.425
       441  -9.7003     97.6339     60.4005   2.9106804186e+02   6.5259523573e+00   0.01759592   0.01502788 -75.07  0.001117936    1.280    0.219
       442  -7.4427    187.4776     63.5127   2.8996305365e+02   5.9755645582e+00  0.006831672  0.006401203  24.92 -7.346562e-06    1.005    0.005
       443  -8.2223    158.2319     62.0187   2.9031989671e+02   6.1605741017e+00  0.009057316  0.008790841  71.59 0.0003415796    1.095    0.087
       444  -8.5193     28.1955     71.0037   2.9199374948e+02   6.7982582490e+00   0.01350597  0.008472908 -14.23  0.000940874    2.085    0.520
       445  -9.6499     73.3296     59.5058   2.9136699318e+02   6.6750066777e+00   0.01904704   0.01270744 -86.92  0.001021718    1.890    0.471
       446  -8.2951    147.1151     59.1403   2.9044302891e+02   6.2576780087e+00  0.009465081  0.007726176  54.71 0.0004895951    1.291    0.226
       447  -8.1134    151.3784     73.2548   2.9046660098e+02   6.0692946338e+00  0.008992812  0.006635942 -84.20 0.0007174049    1.598    0.374
       448  -9.9016     23.4376     56.6409   2.9197542067e+02   6.9922355773e+00   0.02625226   0.01505552  73.00  0.002192368    2.691    0.628
       449  -8.9917    130.7576     57.8997   2.9064057069e+02   6.3657053212e+00   0.01232675  0.009251909  77.63 0.0008428823    1.613    0.380
       450  -9.5732      7.4831     57.2615   2.9217838480e+02   7.0756052977e+00   0.01750717   0.01184579  63.35  0.001214805    1.790    0.441
       451  -9.4220    119.1571     55.3169   2.9077144601e+02   6.4620524842e+00   0.02221033   0.01260184 -79.35  0.001594943    2.257    0.557
       452  -9.5329     54.3691     55.6203   2.9158298922e+02   6.8281794424e+00    0.0174784   0.01240603  87.57  0.001166401    1.754    0.430
       453  -8.2762    139.8557     56.1941   2.9051765300e+02   6.3334584168e+00   0.01051617  0.008814015  57.20 0.0005435674    1.267    0.211
       454  -8.5580     44.0956     55.5885   2.9171130721e+02   6.8870203752e+00   0.01261143  0.009434729  84.51 0.0007426594    1.621    0.383
       455  -8.6634    105.8430     53.2666   2.9092666992e+02   6.5619592012e+00   0.01401036  0.009586964  84.89 0.0008447674    1.883    0.469
       456  -9.3665    246.2694     52.3659   2.8916935278e+02   5.7672276440e+00   0.01232016   0.01144565   3.99 0.0003242833    1.068    0.064
       457  -9.4675     92.3715     50.7142   2.9108117669e+02   6.6685403602e+00   0.01805779   0.01214533 -89.55  0.001123391    1.896    0.473
       458  -8.2184     75.1307     51.6723   2.9130193048e+02   6.7557649679e+00   0.01512539  0.008117134  -7.06  0.001156762    2.977    0.664
       459  -8.1703    144.8479     49.1715   2.9041708123e+02   6.3864498099e+00  0.009332746  0.007601922 -33.04 0.0005127635    1.314    0.239
       460  -8.4715    129.8936     49.1361   2.9060368335e+02   6.4724497229e+00   0.01053009  0.008858455  57.02 0.0005021948    1.260    0.206
       461  -7.7524    149.5654     48.5528   2.9035479833e+02   6.3666202241e+00  0.006769434  0.006377454  12.90  0.000108043    1.030    0.029
       462  -8.9841    120.9943     47.4398   2.9070564279e+02   6.5430544115e+00   0.01234998   0.01026058 -66.60 0.0005344836    1.291    0.225
       463  -8.4977    112.2698     46.9560   2.9081203426e+02   6.5985484367e+00    0.0129404  0.009195041 -86.08 0.0006880283    1.705    0.414
       464  -9.0636     82.0374     46.3222   2.9118650579e+02   6.7785366575e+00   0.01342947   0.01005469 -78.57  0.000637613    1.523    0.344
       465  -8.5561     45.0161     44.6560   2.9164047118e+02   7.0088199863e+00   0.01235819  0.009294586  82.39 0.0006191373    1.610    0.379
       466  -8.8448     16.5011     44.7925   2.9199797711e+02   7.1693189857e+00   0.01353137  0.009689276  53.94 0.0009410655    1.515    0.340
       467  -8.6451    133.1107     43.5989   2.9053335790e+02   6.5183557946e+00   0.01397512  0.009642597  63.70 0.0009465488    1.741    0.426
       468  -9.1035     58.2039     42.6727   2.9146473890e+02   6.9567879758e+00   0.01903339   0.01154627  88.35  0.001229944    2.319    0.569
       469  -9.2567     69.5914     41.2107   2.9131437082e+02   6.9088898000e+00   0.02247071   0.01366208 -73.77  0.001538203    1.906    0.475
       470  -9.6533      5.1352     41.9298   2.9212469229e+02   7.2670912433e+00   0.02132726   0.01241134 -88.68  0.001809758    2.445    0.591
       471  -8.4667    105.9640     41.5207   2.9086128413e+02   6.6977182350e+00    0.0121285  0.009496902  81.16 0.0005523454    1.510    0.338
       472  -7.8596    140.2156     41.5758   2.9043358855e+02   6.5011848509e+00  0.009187604   0.00640451  10.71 0.0005148457    1.494    0.331
       473  -8.7021     36.8182     40.8031   2.9172212225e+02   7.1002197098e+00   0.01283682  0.009694276  88.45 0.0007176105    1.585    0.369
       474  -9.0682     95.4645     37.9567   2.9097315379e+02   6.7990842925e+00   0.01366193   0.01040654  74.99  0.001322014    1.567    0.362
       475  -8.8769    104.9043     36.2567   2.9084589685e+02   6.7649137325e+00   0.01689424  0.009126748  88.15  0.001126092    3.029    0.670
       476  -8.3158     80.6880     36.9989   2.9115270966e+02   6.8945419599e+00  0.009249532   0.00892549  88.84 0.0004131825    1.114    0.102
       477  -9.5123     26.1430     35.4905   2.9182687249e+02   7.2226247585e+00   0.01771259   0.01270809  86.75 0.0009257924    1.728    0.421
       478  -7.6009    133.4784     36.4568   2.9048988442e+02   6.5991953744e+00  0.006851871  0.006354295  30.43 0.0001474729    1.026    0.026
       479  -8.0826    126.0017     35.5251   2.9057823345e+02   6.6527952655e+00   0.01012703   0.00643905  22.97 0.0003807113    1.491    0.329
       480  -9.0725    111.8670     34.2218   2.9074779196e+02   6.7487586507e+00   0.01478899  0.009839891 -83.89 0.0008738489    1.858    0.462
       481  -8.6211    119.2809     33.5570   2.9065150974e+02   6.7140914347e+00   0.01159722  0.008399506 -85.09 0.0006010127    1.649    0.394
       482  -8.0578     88.5195     34.5575   2.9104150559e+02   6.8782132775e+00  0.006883909  0.006298695  35.23 3.995106e-05    1.052    0.049
       483  -8.9393     48.5831     33.5710   2.9153566769e+02   7.1173026825e+00   0.01281826   0.01080901  54.18 0.0008118569    1.239    0.193
       484  -8.6722     60.5155     32.7721   2.9138204741e+02   7.0586353783e+00   0.01312877  0.009574134  52.01 0.0006818717    1.455    0.313
       485  -8.7645     72.0618     31.2556   2.9122937645e+02   7.0104471600e+00   0.01369685  0.009661464 -84.72 0.0007820519    1.711    0.416
       486  -8.1286    139.4580     31.5210   2.9038830176e+02   6.6222795239e+00  0.006847339  0.006357866  33.32 0.0001422511    1.036    0.035
       487  -9.1795     12.9050     30.3932   2.9196489984e+02   7.3570269322e+00   0.01588117   0.01034056 -79.81  0.001121142    1.851    0.460
       488  -8.3405    101.3306     29.4344   2.9085345813e+02   6.8645629605e+00   0.01100099  0.008002871  75.50 0.0006142027    1.694    0.410
       489  -7.9809     42.1279     30.1675   2.9159795453e+02   7.1935714681e+00  0.009491755  0.007639826  54.45 0.0004293974    1.313    0.239
       490  -8.8067     81.5504     27.6758   2.9109123923e+02   6.9979080336e+00   0.01436826  0.009373441  61.74  0.000732044    1.871    0.466
       491  -9.0056      3.4209     27.6943   2.9206897989e+02   7.4421958436e+00   0.01476985  0.009795467  56.27 0.0009587071    1.720    0.418
       492  -8.9331     91.8302     26.3306   2.9095536506e+02   6.9548614877e+00   0.01394612  0.009693705  86.04 0.0009061237    1.827    0.453
       493  -7.9479     34.4465     23.1932   2.9165621326e+02   7.3182682769e+00  0.008886741  0.006679982  89.93 0.0003429613    1.591    0.371
       494  -7.8260    111.7946     21.9704   2.9068201805e+02   6.8914367487e+00    0.0087247  0.005494452 -63.95 0.0003665449    1.684    0.406
       495  -7.8067    104.4803     22.5829   2.9077679713e+02   6.9261287721e+00  0.006822155  0.006319643  21.09 0.0001007521    1.016    0.015
       496  -9.0179     63.5658     21.0682   2.9128028742e+02   7.1771892074e+00   0.01609597   0.01069137  69.68 0.0009785882    1.940    0.485
       497  -8.9016     48.3631     21.6682   2.9147377108e+02   7.2568050463e+00    0.0130523   0.01052019  66.49 0.0005693244    1.397    0.284
       498  -7.9727     19.6222     21.6978   2.9183364465e+02   7.4198830183e+00  0.008806721  0.006641377 -83.16 0.0005800495    1.542    0.352
       499  -7.9183    120.4070     21.1756   2.9057003293e+02   6.8514171440e+00  0.009313559  0.006671782 -86.45 0.0009473605    1.688    0.408
       500  -8.9433     74.0634     19.4904   2.9114037865e+02   7.1356691137e+00   0.01521635   0.01019603  74.42 0.0008840127    1.953    0.488
       501  -7.9822     87.6377     17.8170   2.9096148273e+02   7.0776539913e+00  0.008963907  0.006558937 -85.01 0.0004058164    1.625    0.384
       502  -7.6576     39.0190     18.7185   2.9157468702e+02   7.3442311000e+00  0.008681607  0.005736736  25.31 0.0004714564    1.412    0.292
       503  -8.0536    112.6278     16.7711   2.9064329701e+02   6.9470368109e+00  0.008780688  0.006614463 -83.97 0.0002904135    1.551    0.355
       504  -9.8023    248.6582    242.3094   2.9017299321e+02   3.5473345531e+00    0.0207762   0.01316716 -78.18  0.001109912    1.894    0.472
       505  -7.9422     17.3857     14.2318   2.9182112140e+02   7.5192893476e+00   0.00905935  0.006594139 -87.14 0.0004434844    1.652    0.395
       506  -9.0842    247.6739    235.0501   2.9014584805e+02   3.6373137279e+00   0.01364496   0.01231481  60.11 0.0008236156    1.169    0.145
       507  -9.6690    246.6931    229.4868   2.9012785626e+02   3.7075704434e+00   0.03286428   0.01239264 -56.14   0.00244509    2.585    0.613
       508  -8.6036    218.6793    247.7072   2.9057513747e+02   3.6561861584e+00   0.01780094  0.008351474 -68.58   0.00128503    2.405    0.584
       509  -8.1968      7.4248     15.2866   2.9195155603e+02   7.5635858247e+00  0.009154081  0.006694183 -87.25  0.000944155    1.642    0.391
       510  -9.1272    175.9024    247.9666   2.9110894470e+02   3.8977582657e+00   0.01917029   0.01172136  56.78  0.001491154    1.946    0.486
       511  -8.6170    156.5657    248.6446   2.9135339493e+02   4.0003356353e+00   0.01669177  0.008776596  47.04  0.001428149    2.024    0.506
       512  -8.2919    113.2324    248.4364   2.9189206927e+02   4.2500269138e+00   0.01186146  0.008136759  77.69  0.001101518    1.880    0.468
       513  -9.1591    104.0044    246.9912   2.9199924937e+02   4.3194434115e+00   0.02232098   0.01213527 -89.56  0.001790181    2.864    0.651
       514  -8.9626    243.0883    246.9199   2.9026726200e+02   3.5256521363e+00   0.02024185   0.00971041 -60.75  0.001777219    2.133    0.531
       515  -9.2664    232.9912    246.4143   2.9039009401e+02   3.5893181096e+00   0.02272368   0.01184839 -53.75  0.001879118    1.951    0.487
       516  -9.1356    224.3210    246.3478   2.9049758261e+02   3.6397062027e+00    0.0146631   0.01098049 -41.85 0.0008919667    1.419    0.296
