#   1 NUMBER                 Running object number                                     
#   2 MAG_AUTO               Kron-like elliptical aperture magnitude                    [mag]
#   3 X_IMAGE                Object position along x                                    [pixel]
#   4 Y_IMAGE                Object position along y                                    [pixel]
#   5 X_WORLD                Barycenter position along world x axis                     [deg]
#   6 Y_WORLD                Barycenter position along world y axis                     [deg]
#   7 A_WORLD                Profile RMS along major axis (world units)                 [deg]
#   8 B_WORLD                Profile RMS along minor axis (world units)                 [deg]
#   9 THETA_WORLD            Position angle (CCW/world-x)                               [deg]
#  10 FWHM_WORLD             FWHM assuming a gaussian core                              [deg]
#  11 ELONGATION             A_IMAGE/B_IMAGE                                           
#  12 ELLIPTICITY            1 - B_IMAGE/A_IMAGE                                       
         1 -12.4516    154.4584     40.7323   4.1650269057e+01   4.1094283803e+01     1.198797    0.3825471 -46.18  0.004410172    3.425    0.708
         2 -12.8928    125.4595     28.1825   4.3163565266e+01   4.9330210340e+01     1.063512     0.465495  62.70  0.004605589    2.017    0.504
         3 -13.1766    120.6715     38.1577   4.7229421330e+01   4.9259122859e+01     1.047939    0.6769784 -61.59  0.005191615    2.043    0.510
         4 -13.2119    160.0790     29.6250   3.7869824151e+01   4.1140835038e+01    0.5384071    0.4645701 -48.64 0.0003600335    1.249    0.200
         5 -12.2225    107.2714     31.2754   4.8022836523e+01   5.3120289490e+01     0.747894    0.3804961  21.95  0.002684749    4.151    0.759
         6 -12.5881    105.8337     23.0929   4.5602499150e+01   5.4339926860e+01    0.4887461    0.3698802  36.52  0.001364755    1.309    0.236
         7 -13.2505    163.8961     18.9767   3.4649467711e+01   4.1434219929e+01    0.3651883    0.2501892  47.46  0.001188109    1.660    0.398
         8 -11.8596    155.7533     19.7430   3.5893201829e+01   4.3218410383e+01      1.01272    0.3771401  79.72  0.003709103    3.557    0.719
         9 -12.4321    104.6817     13.0353   4.2444322421e+01   5.5569709170e+01     0.465442    0.3311403  -9.08  0.001527924    1.748    0.428
        10 -12.6407    106.9208      2.7024   3.8531503502e+01   5.5923380310e+01     1.006824    0.3744037  71.23  0.004252123    2.714    0.632
        11 -11.8896    118.1940      1.9141   3.6334347287e+01   5.3445066575e+01    0.5697777    0.1578243  62.05  0.002370898    2.602    0.616
        12 -13.7329    140.8995     23.3060   3.9029340236e+01   4.6279740353e+01     1.193376    0.8063691 -57.69  0.006743542    1.634    0.388
        13 -12.9819    128.1493     13.5681   3.8261369464e+01   5.0189940080e+01    0.8798133    0.3799914 -38.63  0.004219471    2.534    0.605
        14 -13.0646    121.4492      8.8691   3.7949297362e+01   5.2142261349e+01    0.6238452    0.5188584 -15.58  0.003507646    1.481    0.325
        15 -11.3541    214.1063     25.2966   3.0859730477e+01   2.9803311818e+01    0.3628007    0.2365803 -83.29  0.001950678    1.355    0.262
        16 -11.9341     26.3753     27.9721   7.5749874182e+01   6.8289100283e+01    0.4596885    0.3384182 -14.67  0.002219683    1.183    0.155
        17 -12.2575     35.6743     18.4404   6.6954143952e+01   6.8334266653e+01    0.8035836    0.3799407 -23.94   0.00407188    2.356    0.576
        18 -12.6534     47.8742     12.6760   5.8994745687e+01   6.7049883029e+01    0.6542687    0.2712755  50.08  0.003095071    2.448    0.592
        19 -11.8616     29.0550      3.0073   6.2596132372e+01   7.1053849424e+01    0.2932581    0.2555682  55.58  0.001373974    1.823    0.451
        20 -12.9877    244.7679      5.2199   2.4918111392e+01   2.6104624237e+01    0.9091735    0.3164146  82.13  0.002882326    2.806    0.644
        21 -12.4962    233.5508      7.4075   2.5976848756e+01   2.7962208977e+01    0.9953233    0.2837433 -62.87  0.003879383    4.352    0.770
        22 -11.3597    230.2629     26.3245   2.9724333225e+01   2.6463275910e+01    0.4108354    0.3832994  62.57  0.002104661    1.514    0.339
        23 -12.1630    233.6108     19.8078   2.8247382275e+01   2.6580622211e+01      0.52145    0.4240031 -46.11    0.0038849    1.379    0.275
        24 -12.6070    223.5410     11.4026   2.7386808547e+01   2.9471529319e+01    0.4017604    0.2224073 -66.62   0.00124647    1.533    0.348
        25 -12.3203    246.0336     22.5691   2.7882344438e+01   2.3936493936e+01    0.5202463    0.2143935 -65.19  0.001963342    2.356    0.576
        26 -12.2011    245.2567     18.0002   2.7122995092e+01   2.4607398514e+01    0.4354375    0.1614173 -38.74  0.002323724    2.428    0.588
        27 -11.5741    248.4958     16.5060   2.6653584391e+01   2.4187778985e+01    0.3034064    0.1615214 -51.39  0.001321285    1.471    0.320
        28 -12.4218     20.1192     22.2531   7.6522902967e+01   6.9867801615e+01    0.6022156    0.2432638 -38.95  0.002975347    2.389    0.581
        29 -12.2494     22.8498     11.6365   7.0090606727e+01   7.0952037617e+01    0.4909434    0.2992727   1.37  0.002031111    1.639    0.390
        30 -12.6782     16.7133     13.6884   7.4424016805e+01   7.1444383827e+01    0.6420944    0.3397822  -8.00  0.002552547    2.261    0.558
        31 -11.5865     14.7695      8.0573   7.2741829704e+01   7.2393168719e+01    0.3069442    0.1860416   1.03 0.0007074227    1.557    0.358
        32 -12.3425     89.9734     19.7244   4.8246680908e+01   5.8154850416e+01     1.079887    0.5321046 -43.25  0.005166125    2.601    0.616
        33 -11.5501     85.9548     13.5824   4.7002903116e+01   5.9600800886e+01    0.3756036    0.2542234  -2.57  0.001472586    1.801    0.445
        34 -11.3215     90.8861     11.3197   4.4930903764e+01   5.8750271404e+01    0.3798307    0.1994662  69.07  0.001249344    2.050    0.512
        35 -11.3993     88.5242      7.9559   4.4254926277e+01   5.9545138645e+01    0.3576516    0.2886366  25.87  0.002109294    1.261    0.207
        36 -11.2775     46.6822     19.6652   6.2637396907e+01   6.6468602376e+01    0.3618477    0.2215566 -17.98  0.002086703    1.736    0.424
        37 -12.6789     68.6832     17.9414   5.3748443623e+01   6.2693747108e+01    0.5315759    0.3848128  31.52  0.002123884    1.203    0.169
        38 -10.8516    206.8191     17.7741   2.9952184190e+01   3.2163360102e+01    0.3112273    0.1568584 -55.62  0.001739329    1.776    0.437
        39 -11.1971    176.7474      5.7187   3.0054760942e+01   3.9863553194e+01    0.3447094    0.1634028  85.18 0.0009234531    1.993    0.498
        40 -11.4508    201.8892      2.6642   2.7248678842e+01   3.4759966302e+01    0.2450652    0.1885623  74.15  0.001273117    1.291    0.225
        41 -12.1600    195.2421      5.2558   2.8310275043e+01   3.5903412806e+01    0.5197855    0.3280558  52.30  0.002499315    1.938    0.484
        42 -13.3172    185.4196      8.5400   2.9876966371e+01   3.7691125999e+01      0.74308    0.3584853 -68.96  0.001495107    2.212    0.548
        43 -10.7749    182.4918      1.5008   2.8574921373e+01   3.8998245630e+01    0.1674756    0.1537574 -67.10 0.0006502456    1.262    0.208
        44 -11.6212    211.4849     11.1716   2.8232834323e+01   3.1915284695e+01    0.3833324    0.3261661   5.01  0.002570698    1.975    0.494
        45 -10.4181    140.4250     12.2569   3.5996622867e+01   4.7483881859e+01    0.2531231    0.1448958 -32.45  0.001083743    1.981    0.495
        46 -10.5886    139.0212      9.0000   3.5285611686e+01   4.8101803474e+01    0.2774969    0.1476622  73.00 0.0007636163    1.627    0.385
        47 -10.9222    157.4837     11.4707   3.3534072664e+01   4.3644726150e+01    0.2228175    0.2011881 -46.21 0.0009835769    1.286    0.222
        48 -12.3963    157.8078      3.7813   3.1546315898e+01   4.4273386676e+01    0.3719305    0.2623081 -62.25  0.001478001    1.414    0.293
        49 -10.4864      5.5683     12.5309   8.0399087939e+01   7.2770869168e+01    0.2196419    0.1253432  22.58  0.001391695    1.612    0.380
        50  -9.9471      5.2914      9.3416   7.9032450547e+01   7.3239489268e+01    0.1157349   0.08616686  -4.95 0.0004609584    1.018    0.018
        51 -10.7810    176.8747     10.7281   3.1201059024e+01   3.9352182646e+01    0.1967646    0.1651809  80.29 0.0006106389    1.122    0.108
        52 -10.1325    162.3151     10.7382   3.2777879566e+01   4.2616611796e+01    0.2443294    0.1505165  39.62  0.001327506    2.178    0.541
        53 -10.9977     65.6790     10.3401   5.1554149839e+01   6.4021289207e+01    0.3084415    0.1625755  47.75  0.001687106    1.549    0.354
        54 -10.7718     62.5151      6.7627   5.1045130385e+01   6.4952986697e+01    0.2837891     0.167511  31.79  0.001640954    1.538    0.350
        55  -9.8909    145.5552      9.3171   3.4480332105e+01   4.6573361326e+01    0.1395869    0.1207843   9.43 0.0006978479    1.533    0.347
        56 -10.6614    153.5999      7.0549   3.2867235937e+01   4.4937978256e+01    0.2113919     0.142259  85.06 0.0007173389    1.304    0.233
        57 -10.5094     68.4924      3.4535   4.7787427257e+01   6.4059413295e+01    0.3234807    0.1489684 -16.02  0.001609596    2.666    0.625
        58 -10.8187     55.6689      5.5798   5.2833807917e+01   6.6347259517e+01    0.2379864    0.1797393  88.63  0.001033168    2.444    0.591
        59 -11.0819    142.0394      4.6933   3.3684993308e+01   4.7782723196e+01    0.2747043    0.2256384 -85.18  0.001113396    1.143    0.125
        60 -11.1453    137.7755      4.4077   3.4173002425e+01   4.8781847300e+01     0.265054    0.1729474  58.33    0.0010011    1.342    0.255
        61 -11.5477    134.0410      2.4814   3.4140225296e+01   4.9792784837e+01    0.4114194    0.1794098  67.91  0.002048871    1.845    0.458
        62 -12.5618     35.9252      8.9570   6.2350173302e+01   6.9391682178e+01    0.6605166    0.2737762  51.35  0.002108707    3.421    0.708
        63 -11.6978    224.8733      2.0247   2.5538051725e+01   3.0191028919e+01    0.4123085     0.155916  81.11  0.001709556    2.414    0.586
        64 -10.6170    218.7298      2.6921   2.6060974197e+01   3.1331651850e+01    0.1976331    0.1609643  72.50  0.001487661    1.400    0.285
        65  -9.8663    207.4818      3.4450   2.6991096261e+01   3.3527422765e+01    0.1143653   0.08724672 -79.74 0.0003372474    1.008    0.008
        66 -11.7226      3.1933      1.8227   7.6511593483e+01   7.4427448225e+01     0.414021     0.154774  21.59  0.002103647    2.602    0.616
        67 -10.4609     13.5004      1.7513   7.0181308905e+01   7.3294970028e+01    0.2488572    0.1069454  29.87  0.001378932    2.013    0.503
        68 -12.4360     75.1627      4.4174   4.6297914782e+01   6.2634827250e+01    0.4803334    0.4035683  82.81   0.00244639    1.485    0.327
        69  -9.6425     65.7087    110.6436   8.5747126713e+01   4.6641188062e+01    0.1577965    0.1077725 -26.11 0.0007028481    1.686    0.407
        70 -10.0866     15.6382    109.0980   1.0362091282e+02   5.2550972709e+01    0.2893242     0.137389  41.52  0.001275871    2.538    0.606
        71 -11.4744     80.1225    107.9085   8.0128045060e+01   4.4993433593e+01    0.4449727    0.2587947  27.14 0.0007454518    1.897    0.473
        72 -10.8707    228.3199    107.2964   4.6162999599e+01   1.4961447095e+01    0.2590771    0.1819986  51.40  0.001192318    1.668    0.401
        73 -11.4630    143.7158    106.1128   6.1402737467e+01   3.2636081925e+01    0.3842227     0.282856  68.14  0.001298746    1.600    0.375
        74 -11.2952    145.4063    100.5508   5.9559990338e+01   3.3383468002e+01    0.4979984    0.3003438 -25.99  0.001141907    2.252    0.556
        75 -11.3686    236.5535    100.5830   4.3710280042e+01   1.4605880025e+01    0.3536484    0.2385345 -35.99  0.001739403    1.437    0.304
        76 -12.3500    180.8222    102.8539   5.2786003646e+01   2.5191631999e+01    0.6869269    0.5253071  84.37  0.003189502    1.550    0.355
        77 -11.7376    240.9806    103.1619   4.3663882644e+01   1.3404693219e+01      0.47076    0.1589266 -46.54  0.001965408    2.470    0.595
        78 -10.7899     49.3427    102.0860   8.9569162997e+01   5.0936231798e+01    0.5224265    0.3054556 -19.12  0.001764154    2.342    0.573
        79 -10.7839     35.8799    103.5992   9.4979139207e+01   5.2118949928e+01    0.2989008    0.1359653  22.20  0.001249612    2.400    0.583
        80 -10.7618    194.6138    101.8814   5.0129497330e+01   2.2471310204e+01     0.247995    0.2054543  74.63 0.0007389697    1.293    0.227
        81 -11.8150     17.3400    100.7896   1.0147841410e+02   5.4451405165e+01    0.2643792    0.2141423 -40.23 0.0005194782    1.103    0.094
        82 -11.6371    226.1203     99.3978   4.4836442946e+01   1.6701361699e+01    0.6042777    0.3542423 -87.77  0.002652275    2.944    0.660
        83  -9.7958    220.5488    101.4645   4.6037784136e+01   1.7398435838e+01    0.1337012    0.1131126 -56.62 0.0002591376    1.027    0.027
        84 -11.9355      9.6037     97.5094   1.0385488634e+02   5.5771429028e+01    0.4404593    0.3500393  57.69 0.0005921874    1.563    0.360
        85  -9.5745     27.7093    100.2851   9.7385279117e+01   5.3713407252e+01    0.1268072    0.1039507  68.19 0.0003190704    1.535    0.349
        86 -10.3986     80.6635     98.4976   7.7425903273e+01   4.7046445468e+01    0.2526254    0.2019321   1.77 0.0005958613    1.411    0.291
        87 -11.2524    210.8039     97.1490   4.6523121444e+01   2.0025751780e+01    0.4589462    0.2882127  34.67  0.002175305    2.409    0.585
        88 -10.4185    190.6817     96.5827   4.9572587521e+01   2.4242194879e+01    0.2801736    0.1631106 -45.39  0.001221358    1.590    0.371
        89 -10.3986    189.6821    103.9266   5.1444536151e+01   2.3123176939e+01    0.3117768     0.167585 -31.84  0.001054537    2.173    0.540
        90 -11.4746     68.9918     95.5841   8.0681622355e+01   4.9641313249e+01    0.2917366    0.2512203  15.37 0.0005246625    1.168    0.144
        91 -10.5772     30.3587     95.4923   9.5304322927e+01   5.4605436081e+01    0.2772317    0.1633421 -62.30  0.001346033    1.639    0.390
        92 -10.8842    199.6174     94.9360   4.7739453410e+01   2.2669113808e+01    0.4111228    0.1851448  49.32  0.001739372    2.465    0.594
        93 -11.1299    125.9440     94.0378   6.2590407705e+01   3.8961377942e+01    0.3395093    0.3098958   0.78 0.0009189714    1.208    0.173
        94 -11.2379    121.6092     94.1672   6.3770093473e+01   3.9875594695e+01    0.6991056    0.3366516 -57.14   0.00241879    2.943    0.660
        95 -10.8554     42.9523     94.2361   9.0072065879e+01   5.3554492983e+01    0.2829554    0.2325861 -26.44  0.001591823    1.151    0.131
        96 -10.9730     19.7711     82.6413   9.6652256792e+01   5.8507428351e+01    0.2720826    0.2019732 -54.83 0.0008481217    1.229    0.186
        97 -11.4145     22.9618     94.7258   9.8058748781e+01   5.5452806565e+01    0.3035277    0.2315872  -1.24  0.001015311    1.397    0.284
        98 -12.3052     18.1114     90.4958   9.9098860960e+01   5.6835203265e+01    0.4690224     0.258428 -53.17 0.0005968419    1.514    0.339
        99 -12.8034    236.2210     91.4450   4.1924666290e+01   1.6150157132e+01    0.5394252    0.3598404 -52.67  0.002155642    1.263    0.208
       100 -10.7113    115.2708     94.0793   6.5477010850e+01   4.1248184379e+01    0.4669442    0.2063271  35.04  0.001596521    2.815    0.645
       101 -11.3852     35.1412     92.2810   9.2661092923e+01   5.4875421427e+01    0.6307063    0.3000417 -68.05  0.002526686    2.636    0.621
       102 -11.4116     44.5468     84.9973   8.7029080182e+01   5.5454165404e+01     0.458332    0.2908362   9.38  0.001630028    1.793    0.442
       103 -10.3324     37.2890     85.8857   9.0193259158e+01   5.6103256998e+01    0.2302466    0.1750242  31.76 0.0008072597    1.433    0.302
       104 -11.0735     82.5349     93.4717   7.5384314090e+01   4.7819385042e+01    0.3988304     0.144399  37.69  0.001161403    2.773    0.639
       105 -11.6245    217.6933     90.9288   4.4206309693e+01   1.9720436379e+01    0.3676911    0.2605514 -33.20  0.002042657    1.506    0.336
       106 -11.0041    151.9057     92.1580   5.5904924272e+01   3.3553422151e+01    0.3275328    0.2114178  56.36  0.001142372    1.574    0.364
       107 -10.4327    155.4771     90.4871   5.4707073664e+01   3.3062081412e+01    0.3165233    0.1989064 -33.57  0.001312635    1.750    0.428
       108 -12.2310     89.0367     89.8644   7.2187854662e+01   4.7392273749e+01    0.3706636    0.3132842 -31.05 0.0007991855    1.188    0.158
       109 -10.5612     98.6265     91.0159   6.9483100842e+01   4.5296915862e+01    0.2540455    0.2064054  39.18  0.001293833    1.212    0.175
       110 -10.4467     49.5380     91.2702   8.6754447704e+01   5.3421028032e+01    0.3015196    0.1564628  41.56   0.00129901    2.202    0.546
       111 -12.2483      7.1028     89.0779   1.0327736895e+02   5.7913225433e+01    0.5307495    0.3428062   8.97  0.001826295    1.718    0.418
       112 -11.2911    184.1375     87.2638   4.8488183346e+01   2.7279173724e+01    0.5364978    0.2681545 -47.85  0.002342837    1.915    0.478
       113 -10.7176     29.0541     84.6037   9.3245523943e+01   5.7242452369e+01    0.2485917     0.239011  66.18 0.0009793548    1.284    0.221
       114  -9.9015     27.3165     89.3224   9.5099125117e+01   5.6330200326e+01    0.2104489    0.1353247  11.64  0.001086863    1.687    0.407
       115 -10.5162     24.6786     86.4794   9.5509777152e+01   5.7220807941e+01    0.3220588    0.1953445 -50.11    0.0012784    1.416    0.294
       116 -12.3700    246.9467     85.7225   3.9564462499e+01   1.5143676242e+01    0.3991014    0.2839127  62.94   0.00188998    1.636    0.389
       117 -10.5228    212.4986     87.5313   4.4194325225e+01   2.1308223239e+01    0.2736992    0.2044719   9.57  0.001371341    2.416    0.586
       118 -10.2360    103.8204     87.7071   6.6945701676e+01   4.4920323726e+01    0.2154377    0.1888121 -29.96  0.001138403    1.168    0.144
       119 -11.0994    142.7871     84.6204   5.5908771527e+01   3.7003009601e+01    0.4302456    0.2590744  41.02 0.0008573932    1.801    0.445
       120 -10.8849    113.6618     83.0991   6.2767289930e+01   4.3750674252e+01    0.3922252    0.2521383 -59.83  0.001702587    1.997    0.499
       121 -11.1985     80.2945     84.0763   7.3394847487e+01   5.0198777814e+01    0.3485422    0.3101342 -24.89   0.00193314    1.102    0.092
       122 -11.4055     76.8939     79.3193   7.3124292762e+01   5.1767779424e+01    0.3719652    0.2580927 -42.55   0.00184973    1.448    0.309
       123 -10.9930    217.9413     83.2775   4.2548310606e+01   2.0921091875e+01    0.2704025    0.1943244 -72.97 0.0008378821    1.431    0.301
       124 -10.7451    165.5983     83.6972   5.0936423247e+01   3.2003349413e+01    0.2830587    0.2397011 -69.81  0.001095331    1.187    0.158
       125 -11.7428    239.5046     82.9674   3.9858021404e+01   1.6892411380e+01    0.3707446    0.1808125  46.43  0.001776755    2.919    0.657
       126 -12.3048    234.8180     60.7954   3.5996810202e+01   2.1067048804e+01    0.4724236    0.3089126 -63.37  0.001613003    1.342    0.255
       127 -11.0163    250.1828     76.1709   3.7403206583e+01   1.6027144249e+01     0.224185    0.1853392 -72.00 0.0007333054    1.125    0.111
       128 -12.3866    238.1331     69.1418   3.7292909270e+01   1.9235443968e+01    0.6775801    0.5546212  79.52  0.004625061    1.297    0.229
       129 -13.3950    242.8350     77.2334   3.8371378673e+01   1.7169156069e+01       0.5518    0.4073789 -89.28  0.002005397    1.425    0.298
       130 -11.8120    234.6705     77.9895   3.9419420961e+01   1.8546984426e+01    0.4047975    0.2824269 -77.72  0.001198276    1.493    0.330
       131 -10.2937     66.9987     82.4531   7.7636560927e+01   5.2802689764e+01     0.273945      0.18139 -27.01  0.001296143    1.656    0.396
       132 -10.1042      1.3551     80.9393   1.0407983985e+02   6.0099359742e+01    0.1811213    0.1003656 -61.22 0.0009618461    1.516    0.340
       133 -11.5947     53.2707     76.7195   8.1160724499e+01   5.6073017573e+01      0.50849    0.3235708 -54.14  0.002507207    1.691    0.409
       134 -10.8683     58.1173     77.8157   7.9592675602e+01   5.5142443033e+01    0.2862439     0.187534 -39.14  0.001186305    1.467    0.318
       135 -11.7184     13.7043     74.5550   9.7339133786e+01   6.0770193229e+01    0.5370685    0.2448469 -66.67  0.002401032    2.404    0.584
       136 -10.7126     13.9900     67.6742   9.5475837965e+01   6.2232326512e+01    0.2822471    0.1962994   5.41  0.001647951    1.468    0.319
       137  -9.9194    140.5461     77.5215   5.4460535776e+01   3.8777703561e+01    0.1441921    0.1373793  81.88  7.35033e-05    1.023    0.022
       138 -10.8195     94.4975     76.4365   6.6391589359e+01   4.8997115236e+01    0.4768518    0.2771807  45.88  0.002047476    1.688    0.408
       139 -11.8343    192.6324     66.0722   4.2183197029e+01   2.8879383240e+01    0.4323436    0.2730831 -84.31  0.001754042    1.903    0.475
       140 -13.4754    186.1738     69.8176   4.4008701480e+01   2.9711363645e+01     1.309366     0.500402 -47.80  0.005199646    2.556    0.609
       141 -11.2007    180.7901     63.5833   4.3333819193e+01   3.1866354636e+01    0.3030453    0.2168233  73.89 0.0008302679    1.379    0.275
       142 -10.3036    197.4395     74.7498   4.3489030431e+01   2.6493552633e+01    0.1786821    0.1261836 -30.96 0.0008914428    1.619    0.383
       143 -10.0515    112.1474     75.3603   6.0881843057e+01   4.5508750011e+01    0.2089938    0.1330049  58.02 0.0009357471    1.702    0.412
       144 -10.1027    103.9082     74.8865   6.3069889622e+01   4.7352262852e+01    0.2312991    0.1947255  18.46  0.001225512    1.267    0.211
       145 -12.0419     86.8606     72.9891   6.7753597928e+01   5.1143780689e+01    0.6462184     0.315555  38.98  0.002479411    2.002    0.501
       146 -10.0492     24.5009     74.1380   9.2483015289e+01   5.9978021913e+01    0.1980454    0.1156537 -52.84  0.001017555    1.546    0.353
       147 -11.1754    199.1516     64.2533   4.0871961128e+01   2.7751420022e+01    0.3728989    0.2688493 -69.96  0.001840701    1.347    0.258
       148 -12.2197    200.6717     69.9075   4.1939743000e+01   2.6567176231e+01    0.7535232    0.3846557  75.20  0.001906353    2.418    0.586
       149 -13.2621    220.0740     66.4563   3.8743523834e+01   2.3103539751e+01    0.8087728    0.4593306  49.39  0.004199274    2.227    0.551
       150 -12.0115    211.4956     67.5137   4.0000473928e+01   2.4677874633e+01    0.5568843     0.221227  51.10  0.002356119    2.997    0.666
       151 -11.5394     41.0611     72.1897   8.4791799614e+01   5.8620103609e+01    0.4290445    0.2729464 -54.52   0.00144347    1.648    0.393
       152 -11.1135     35.0648     71.9116   8.7266245417e+01   5.9378646669e+01    0.4132202    0.1702481  33.48   0.00176973    2.517    0.603
       153 -11.2321      2.1177     71.5584   1.0180069526e+02   6.2150264543e+01    0.3333486     0.185791 -55.98  0.001178602    1.473    0.321
       154 -11.9158    162.2367     71.1691   4.8348292398e+01   3.4877416187e+01    0.4388284    0.3431333 -81.30   0.00178829    1.382    0.277
       155 -11.2427    130.7188     72.0335   5.5161806494e+01   4.1960300941e+01    0.3691533    0.2213815 -51.31  0.001110233    1.862    0.463
       156 -10.4970    132.6744     69.3642   5.3935827756e+01   4.1963203082e+01     0.397217    0.2585985 -86.02  0.001305231    2.516    0.602
       157 -11.8956    122.7401     68.8974   5.6171487824e+01   4.4292783850e+01    0.4610095    0.3208126  50.24  0.001239339    1.361    0.265
       158 -11.4274    171.0927     68.3113   4.6057647275e+01   3.3318063945e+01    0.4347465    0.3149918 -46.15  0.001576447    1.357    0.263
       159 -10.4332    110.6448     69.0829   5.9378092127e+01   4.6937959426e+01     0.232191    0.1886201  59.78 0.0008122899    1.269    0.212
       160 -11.1240     79.1103     68.2617   6.8833304908e+01   5.3480550916e+01    0.4051502    0.3096937  58.03  0.002097649    1.601    0.376
       161 -11.9404     10.0803     62.4986   9.5922468713e+01   6.3598668332e+01    0.3914478    0.2709883 -46.91  0.001300356    1.231    0.188
       162 -12.1279      4.7032     62.1516   9.8379527303e+01   6.4017319515e+01    0.5151436    0.3043838 -41.31  0.002211093    1.365    0.268
       163 -11.7919     59.2577     63.6829   7.4620307625e+01   5.7735697460e+01    0.2762593    0.2561547 -33.52 0.0004538488    1.195    0.163
       164  -9.9665     21.1310     65.1298   9.1500494560e+01   6.2181466260e+01    0.1566879    0.1421854 -53.92 0.0005026964    1.277    0.217
       165 -11.4252     90.8692     61.8772   6.2855033223e+01   5.2317660159e+01    0.8080594    0.5128537 -68.68  0.003233874    3.119    0.679
       166 -10.4154     91.4857     57.4773   6.1194769961e+01   5.2913849117e+01     0.278234     0.170726  48.76 0.0008557711    1.561    0.359
       167 -10.2627    175.1903    246.6014   8.2726215302e+01  -2.0456265619e+00    0.1886993    0.1071942  20.32 0.0007435284    1.695    0.410
       168 -10.5640    161.7542     43.7891   4.1300136437e+01   3.9008716817e+01    0.2720662    0.1808381  74.00  0.001452589    1.428    0.300
       169 -12.0672    159.0439     62.2557   4.6596777831e+01   3.7014109481e+01    0.7273749    0.6238787 -25.12  0.003716549    1.368    0.269
       170 -12.3049    160.6059     56.2017   4.4731074521e+01   3.7556198235e+01    0.5872015    0.3015159  85.56  0.002124908    3.429    0.708
       171 -12.3036    153.8500     52.6979   4.4973274164e+01   3.9624070655e+01    0.6241184    0.3124624  70.72  0.002407717    2.219    0.549
       172 -10.0414     50.9768     56.7706   7.5589549511e+01   6.0259642772e+01    0.2679213    0.2531353 -24.81  0.001432936    1.225    0.183
       173 -12.5283     44.1338     61.5595   8.0117119429e+01   6.0337200376e+01    0.5798615    0.3183425 -22.92 0.0009654619    2.227    0.551
       174 -11.1101     52.0287     61.7916   7.6883453060e+01   5.9188373190e+01    0.3806278    0.2179248  43.45  0.001823902    1.993    0.498
       175 -11.2663     40.7854     57.1912   8.0096676071e+01   6.1596718911e+01    0.3880546    0.1992725  40.43  0.001827171    2.226    0.551
       176 -12.5769     74.9976     53.0361   6.5065501255e+01   5.6854871726e+01    0.7309349    0.5505646 -17.14  0.001001047    1.417    0.294
       177 -10.8619     72.7202     47.5620   6.3892089699e+01   5.8134171496e+01    0.3965709    0.2315758 -50.35  0.001426328    2.299    0.565
       178 -10.0915     65.1732     61.9264   7.1745012162e+01   5.7091083291e+01    0.1874449    0.1832133  42.24 0.0006146792    1.244    0.196
       179 -11.5649     92.5555     41.3167   5.5312912529e+01   5.5072565950e+01    0.6187948    0.2370663  46.72  0.002512414    2.298    0.565
       180 -11.8780    127.8336    241.8335   9.2294479792e+01   5.5986866391e+00    0.4479993    0.2423151  24.24  0.002096607    1.869    0.465
       181 -12.0485    120.1898     58.2129   5.3565628848e+01   4.6583374746e+01    0.8099526    0.5121514 -85.81  0.003233871    2.952    0.661
       182 -11.5644    113.8361     38.1804   4.8762438459e+01   5.0812326709e+01    0.2413794    0.2287256 -55.88 0.0002917441    1.178    0.151
       183 -11.7592    114.6566     49.0938   5.2063748182e+01   4.9174105589e+01    0.5313843    0.3797426  36.12   0.00200027    1.452    0.311
       184 -11.9021    117.8681     44.0367   4.9702067388e+01   4.9141340199e+01     0.998131     0.533053  80.50  0.003579909    3.679    0.728
       185 -11.4045     68.2823    240.4408   1.0563358859e+02   1.4282147262e+01    0.2467717     0.121802  27.10  0.001132398    2.100    0.524
       186 -12.6332    105.7851     42.8294   5.2242102245e+01   5.2011982552e+01     1.053116    0.3818126  49.98  0.002746513    2.396    0.583
       187 -11.2369    249.3856     58.8616   3.4234551617e+01   1.8664229944e+01    0.3444242    0.1700969 -35.97  0.001843288    2.066    0.516
       188 -10.4690     29.4589     59.7513   8.6042479138e+01   6.2448199149e+01    0.2904614    0.2327321 -51.88   0.00177253    1.377    0.274
       189 -10.8920     24.9880     59.5034   8.8032047614e+01   6.2956260075e+01     0.321346    0.2117551  22.79   0.00122747    1.543    0.352
       190 -11.1712     25.4676     56.0065   8.6695022531e+01   6.3589708291e+01    0.3557804    0.2016313 -22.98  0.001446297    1.835    0.455
       191 -11.5702    137.4653     55.4492   4.8873121039e+01   4.3034702364e+01    0.5287536    0.3865462  30.46  0.002715023    1.681    0.405
       192 -11.5390    215.3130     52.9284   3.6450086904e+01   2.6012555476e+01    0.3936418    0.2720276 -40.50  0.001913572    1.444    0.307
       193 -10.3198    126.8766     55.9742   5.1318168843e+01   4.5399305715e+01    0.3739531    0.1933375  66.40  0.001542771    2.261    0.558
       194 -10.3087     66.8839     55.3268   6.8805677646e+01   5.7944054583e+01    0.2122723    0.1848314 -42.02 0.0005772203    1.310    0.236
       195 -11.5346    194.3156     46.4168   3.7453950857e+01   3.1332916778e+01     1.018331    0.4078179  85.08  0.003071884    5.643    0.823
       196 -12.4838    197.9244     43.2729   3.6319055084e+01   3.0970232668e+01    0.8767959    0.4470488  78.26  0.003781398    2.053    0.513
       197 -11.9372    205.0923     37.3740   3.4242159418e+01   3.0204000491e+01    0.3824251    0.2901391 -85.41  0.001158245    1.150    0.130
       198 -12.1583    198.8600     36.0188   3.4609610351e+01   3.1700162507e+01     0.389837    0.3426909  64.61  0.001504617    1.316    0.240
       199 -11.7695    206.9907     53.3582   3.7482096215e+01   2.7672907202e+01    0.4375044    0.3179252 -54.60  0.002359313    1.223    0.182
       200 -10.8776    202.4986     52.5024   3.7826093767e+01   2.8740031082e+01    0.2182668    0.2153063  73.99 0.0009280791    1.312    0.238
       201 -11.0680     99.4084     53.9599   5.7670619313e+01   5.1808441024e+01    0.3815439    0.1880675  54.32  0.001405687    2.027    0.507
       202 -10.1779     13.8712     54.1357   9.1697395167e+01   6.5004279043e+01    0.1675822    0.1513871 -22.07 0.0002544009    1.175    0.149
       203 -10.2867      7.7003     53.8482   9.4664665134e+01   6.5518225270e+01    0.2193272    0.1187029 -35.77  0.001201675    1.551    0.355
       204 -11.9523     60.9118     46.2788   6.7774705427e+01   6.0437296664e+01    0.7812425    0.3707629 -30.83  0.003500366    2.338    0.572
       205 -10.6725     59.3003     41.6577   6.6643741420e+01   6.1416641265e+01    0.3113526    0.1908528  37.90  0.001657877    1.502    0.334
       206 -11.5475    245.8669     51.4812   3.3172420836e+01   2.0312837038e+01     0.361869    0.1815239  89.35  0.001881273    2.455    0.593
       207 -10.3586    230.1511     51.2639   3.4580106547e+01   2.3292815303e+01    0.2464057    0.1138561 -58.91  0.001056654    2.095    0.523
       208 -12.3173    218.8499     57.1539   3.6944510217e+01   2.4701871993e+01    0.5060211    0.2746761  82.42  0.002105572    2.114    0.527
       209 -10.2381    144.5863     52.2433   4.6548706701e+01   4.1842749304e+01    0.2262881    0.1853329  41.64  0.001275952    1.317    0.241
       210 -11.3496    145.9416     46.8595   4.4790363785e+01   4.2272500639e+01    0.4690518    0.2175448 -32.14  0.002036608    2.429    0.588
       211 -10.5035     33.7422     52.5787   8.1676578752e+01   6.3320837151e+01    0.2353555    0.1168992  21.38   0.00076419    2.068    0.517
       212 -12.1834     44.8496     46.2570   7.4382694595e+01   6.2963531650e+01     0.589591    0.3626404 -46.82  0.003105191    1.849    0.459
       213 -10.6855     39.2076     43.8326   7.5978870258e+01   6.4150319119e+01    0.2431674    0.1610574   2.77 0.0008872767    1.575    0.365
       214 -11.0482    176.7419     43.5755   3.9057457362e+01   3.5610177150e+01    0.3201545     0.247803  63.81   0.00178581    1.258    0.205
       215 -12.3474    171.9934     47.7216   4.0753668076e+01   3.6134017214e+01    0.5431669    0.3420336  68.03  0.002313501    1.486    0.327
       216 -10.1669     87.6133     49.5372   5.9672587625e+01   5.4932115362e+01    0.2181084    0.1311562 -34.11   0.00106811    1.788    0.441
       217 -10.2142     51.8361     48.4212   7.2217226027e+01   6.1565750675e+01     0.203696    0.1452051 -26.89 0.0005343506    1.374    0.272
       218 -11.4858     20.5684     46.2930   8.5806696376e+01   6.5892801582e+01    0.2878864    0.2302386 -28.07   0.00073456    1.107    0.097
       219 -10.4273     12.6629     47.9002   9.0336783065e+01   6.6300238470e+01    0.3309101    0.1470837 -22.66  0.001469468    2.669    0.625
       220 -11.0413    133.1747     45.9891   4.6992676553e+01   4.5360337720e+01    0.3453627    0.2164448  56.15  0.001032113    1.440    0.306
       221 -10.5639    138.5949     44.2064   4.5407199533e+01   4.4337982122e+01    0.3516986    0.1884941  37.73  0.001517996    2.430    0.588
       222 -10.8186    248.3668     45.0810   3.1777230110e+01   2.0713401193e+01    0.1714118    0.1438687  85.21 0.0005198257    1.296    0.228
       223 -11.7958    175.5141     48.4944   4.0433469926e+01   3.5229035962e+01    0.3244261    0.2841874  64.35  0.001455434    1.186    0.156
       224 -11.1196     33.7563     42.4142   7.7963612196e+01   6.5096379514e+01    0.3909711     0.247675 -14.79  0.002152136    1.637    0.389
       225 -10.9627     26.1900     42.8953   8.1794015572e+01   6.5909693748e+01    0.2230441    0.1762208 -54.00 0.0009099336    1.631    0.387
       226 -11.1269     22.2569     37.1475   8.1590019203e+01   6.7313935549e+01    0.4701618    0.2239335  40.92  0.002232518    2.850    0.649
       227 -11.6594    103.3861     63.7203   5.9718218242e+01   4.9407002898e+01    0.6373002    0.3490989  45.76  0.001795075    1.710    0.415
       228 -12.6556    227.1310     37.4189   3.2131585953e+01   2.5709071244e+01    0.6396556    0.2963409  87.61  0.003125917    2.546    0.607
       229 -11.3238    133.5495     37.7329   4.4483414862e+01   4.6338174088e+01    0.3846094    0.2690585 -88.55  0.001672834    1.681    0.405
       230 -11.6154     78.7531     38.1712   5.8384726504e+01   5.8316849147e+01    0.5917253    0.4065543 -86.97  0.002547233    3.376    0.704
       231 -11.4560     78.7070     34.0025   5.6837603870e+01   5.8869150338e+01    0.6560739    0.3127136  32.68   0.00284852    2.380    0.580
       232 -10.5203    217.9269     39.2283   3.3344447235e+01   2.7313611817e+01    0.1920308    0.1343581 -74.11 0.0007690766    1.249    0.199
       233 -11.2741    184.1314     38.1073   3.6787283036e+01   3.4657288391e+01    0.2549062    0.2032681  69.70  0.001319352    1.209    0.173
       234 -10.8775    142.6172     39.1057   4.3209886224e+01   4.4056636108e+01    0.4110255    0.1948813  70.82  0.001756131    2.255    0.556
       235 -11.1956     61.0299     36.4840   6.3959524642e+01   6.1863752351e+01     0.409029    0.2744247 -19.16  0.001352601    1.594    0.373
       236 -11.1531      4.8425     36.0830   9.0485420846e+01   6.9061603263e+01    0.3003329    0.1958454  12.09 0.0008490171    1.479    0.324
       237 -11.0640    176.7539     36.8672   3.7426830008e+01   3.6465818983e+01    0.3048323    0.2253106 -19.00  0.001742314    1.841    0.457
       238 -11.7982    181.6482     32.7691   3.5835104929e+01   3.5870001183e+01    0.5408005    0.3645593 -64.88  0.002582476    1.430    0.301
       239 -11.4667    170.4345     30.1152   3.6595369731e+01   3.8712912294e+01     0.566631    0.4017709  42.11   0.00323827    1.767    0.434
       240 -11.1524    146.9096    237.7887   8.7452972344e+01   3.5572624954e+00    0.2396079    0.1844487  82.66  0.001255493    2.101    0.524
       241 -11.9797    164.1540     27.7759   3.6836205861e+01   4.0416331800e+01     0.400023    0.2180369 -47.26  0.001251466    1.864    0.464
       242 -10.9573    197.5000    232.4843   7.5917709782e+01  -2.7158500241e+00    0.1290092    0.1072852  -2.37 0.0002599889    1.012    0.012
       243 -12.4435    113.6511     25.0739   4.4557761635e+01   5.2371044235e+01    0.5698566    0.2586004  55.10   0.00164572    1.833    0.454
       244 -10.2727    108.9013    229.3130   9.4927772654e+01   1.0943879147e+01    0.2299443    0.1531109  46.47   0.00117168    1.447    0.309
       245 -10.3460     94.1118     35.7900   5.2928756857e+01   5.5458419399e+01    0.1973192    0.1729761  74.46 0.0009313432    1.304    0.233
       246 -10.5955    248.3793     33.4428   2.9662433207e+01   2.2197407984e+01    0.3066837    0.1134717 -56.03  0.001541613    2.329    0.571
       247 -10.6678     58.4831    226.4529   1.0647754430e+02   1.8613758009e+01    0.1308626    0.1180037  60.73 0.0008082566    1.038    0.036
       248 -10.5299     63.5383    222.5108   1.0487443943e+02   1.8859509252e+01    0.1338005    0.1205248  61.93 0.0001531313    1.013    0.013
       249 -10.0367    164.6517    212.0215   7.9319384124e+01   5.8293393708e+00    0.1943866    0.1704663 -26.28 0.0006471344    1.120    0.107
       250  -9.6157    132.7028    207.6757   8.5961130762e+01   1.1885150183e+01    0.1468703    0.1094727 -13.28 0.0003738569    1.626    0.385
       251 -11.6152    154.0057     24.7404   3.7450233985e+01   4.3089718327e+01    0.6046355    0.2827236  83.56  0.002551817    2.674    0.626
       252  -9.4448     61.4740    206.5164   1.0357630835e+02   2.2885837913e+01    0.1387946    0.1256542  68.81 0.0008098545    1.012    0.012
       253 -10.1035    233.6143    196.7792   6.2876886214e+01  -1.5699606885e+00    0.1777261    0.1051924 -44.58 0.0009531332    1.640    0.390
       254  -9.5167     83.7399    195.9940   9.6456040702e+01   2.2344020815e+01    0.1817101    0.1242761 -62.96 0.0006064855    1.483    0.326
       255 -10.7587    170.1463    191.1751   7.4287470258e+01   9.1481121100e+00    0.3856257    0.1908237  19.81  0.001360402    3.168    0.684
       256  -9.7463     16.4359    191.5106   1.1337069684e+02   3.1590650419e+01    0.1307482    0.1113784  86.84 6.537537e-05    1.013    0.013
       257 -10.2948     67.8684     32.1097   5.9731161938e+01   6.1207007224e+01    0.1840146    0.1696913  37.71 0.0006197102    1.199    0.166
       258 -12.0201     57.4680     30.4857   6.2915017220e+01   6.3296397299e+01    0.3712249    0.2579103   6.62 0.0005529486    1.529    0.346
       259 -12.5655     48.3469     29.9715   6.6388715279e+01   6.4889107563e+01    0.6205457    0.2848043  38.81   0.00268593    1.972    0.493
       260 -11.8899    133.2987     24.0487   4.0499217157e+01   4.7964046367e+01    0.4326373    0.2640027 -77.89  0.002122073    2.163    0.538
       261 -11.4937      4.7437    185.8019   1.1581720208e+02   3.3991104362e+01    0.2749186    0.2463296  39.81  0.001829949    1.263    0.208
       262 -10.5174    240.2443    184.9549   5.9589910420e+01  -4.7319372724e-01    0.1971523    0.1717563   4.34 0.0005830177    1.210    0.174
       263 -10.0374    170.5143    171.9914   7.0411248525e+01   1.3098952711e+01     0.222515     0.139605 -44.33 0.0007458911    1.530    0.346
       264  -9.8192     35.6578    169.2987   1.0595326740e+02   3.5326116660e+01    0.1478402   0.09611984  63.30  0.000437291    1.669    0.401
       265  -9.6139    198.2671    167.9970   6.3816727576e+01   9.0359912477e+00    0.1827174    0.1130783 -41.87  0.000579172    1.473    0.321
       266 -10.2195    187.6869    168.3231   6.5998344958e+01   1.0802076246e+01    0.1386414    0.1154341 -82.39 0.0007040264    1.658    0.397
       267 -11.1856      9.0092    166.9035   1.1311338013e+02   3.8370337979e+01    0.2730151     0.195957  26.59  0.001119696    1.578    0.366
       268 -10.1345     19.1698    164.6106   1.1006753363e+02   3.8120734064e+01    0.1749075    0.1307796  -2.11 0.0009510985    1.719    0.418
       269 -11.3987    228.1539     15.5430   2.7841496579e+01   2.8115071922e+01    0.2681356     0.153294  74.82 0.0008371961    1.630    0.387
       270 -10.3541    205.0031    163.0557   6.1524858832e+01   8.8502031719e+00    0.2133985    0.1879358 -27.25 0.0006076444    1.022    0.022
       271 -10.5906    197.1644     29.1647   3.3284425613e+01   3.2900771624e+01    0.2429345    0.1694207 -87.72 0.0009269628    1.276    0.216
       272 -11.0434    198.2117     25.0563   3.2283499030e+01   3.3157604562e+01    0.3360135    0.2038453 -58.39   0.00186709    1.501    0.334
       273 -10.6697    189.1662     28.0922   3.3892698039e+01   3.4763428254e+01     0.322472    0.2252345 -15.57  0.001827976    2.170    0.539
       274  -9.8833     99.5099     30.5197   4.9657657023e+01   5.4924612234e+01    0.1310825    0.1153817  50.11 8.649952e-05    1.033    0.032
       275 -10.5148    239.8287     27.5303   2.9220264708e+01   2.4495861135e+01    0.2013307    0.1472989 -25.38  0.001323076    1.972    0.493
       276  -9.7821     78.4831    159.9812   9.2036693231e+01   3.2236745897e+01    0.2144634    0.1322168  88.83 0.0008094906    2.467    0.595
       277 -10.1786     13.7653    158.9995   1.1099765098e+02   4.0009481408e+01    0.1777398   0.09868966 -73.55 0.0002957119    1.561    0.360
       278 -10.9816    105.1191    154.1513   8.3176490971e+01   2.9314123852e+01    0.2525388    0.2192233 -18.58  0.001255508    1.272    0.214
       279 -10.3677     96.9723     26.1383   4.8765320522e+01   5.5971432655e+01     0.216764    0.1633994 -48.82  0.001260677    1.621    0.383
       280  -9.6126     46.4806    154.5324   1.0072575540e+02   3.7972684289e+01    0.1440247    0.1330021 -79.71 0.0001167785    1.026    0.026
       281 -10.7466    224.7607    151.0062   5.5607174620e+01   7.8119933449e+00    0.2010684    0.1874276  -5.78 0.0004555088    1.157    0.136
       282  -9.9618     30.6533    151.6965   1.0512942390e+02   4.0405716350e+01     0.146309   0.09658671 -37.49 0.0005712542    1.691    0.409
       283 -11.8217     23.2567    148.8028   1.0699585066e+02   4.1842452205e+01    0.5292183    0.2593203 -38.22  0.002209663    2.455    0.593
       284 -10.7502    182.2045     25.4883   3.4064930382e+01   3.6600007418e+01    0.2228395    0.1773579  51.35   0.00113275    1.480    0.325
       285 -10.8174    203.5488     24.1921   3.1585958915e+01   3.2123985401e+01    0.2547557    0.1460391 -69.60  0.000869536    1.663    0.399
       286 -10.3953    177.6266     24.8156   3.4429816750e+01   3.7697173054e+01    0.2177744    0.1605173 -55.05 0.0005585196    1.313    0.238
       287 -10.5882    178.4726     21.0279   3.3439099865e+01   3.7927352306e+01    0.3677944    0.1620467  42.17  0.001430988    4.149    0.759
       288  -9.5340    185.2881    150.3130   6.2700907808e+01   1.4902361076e+01    0.1454593    0.1111792 -11.46 0.0004994259    1.584    0.369
       289 -10.7346     15.6392    147.9268   1.0919823173e+02   4.2704255981e+01     0.235312    0.1927723  37.45 0.0006643932    1.349    0.259
       290 -11.6264    249.8977    144.0422   5.0409033029e+01   5.1001838596e+00    0.6410905    0.1928168 -41.84  0.002569621    2.670    0.626
       291  -9.6924     74.3171    146.2939   9.0712725115e+01   3.6400832193e+01    0.1546304     0.115234 -24.59  0.000701174    1.604    0.376
       292  -9.9697     59.6307     23.7603   5.9309916410e+01   6.3749546178e+01     0.154352    0.1135669 -34.78 0.0004140189    1.584    0.369
       293 -11.5726    223.8267     22.2218   2.9442531626e+01   2.8205979671e+01    0.3423938    0.1840652 -84.82  0.001814152    1.791    0.442
       294 -10.4567    170.0699     23.2174   3.4943302316e+01   3.9577411306e+01    0.2625923    0.1427638  59.68  0.001391494    1.699    0.411
       295 -10.9784     48.8758    145.9310   9.8602174971e+01   3.9938225874e+01    0.3854676    0.2029309  26.11  0.001318476    2.058    0.514
       296 -10.4965     13.9482     23.1745   8.0314875496e+01   7.0399320638e+01    0.1799587    0.1331925  -8.91  0.000930106    1.071    0.067
       297 -11.2438     33.3622    144.6367   1.0328528609e+02   4.1976632738e+01     0.330314    0.2549263  48.75   0.00122837    1.398    0.285
       298 -10.8220     73.5298     19.4796   5.2829388523e+01   6.1580053477e+01    0.2668857    0.1530637  42.94  0.001451007    1.465    0.318
       299 -10.7318    238.4224     33.0647   3.0353293375e+01   2.4084149721e+01    0.3128291    0.1456403  73.40  0.001748175    2.128    0.530
       300 -11.5760      2.0087    141.2547   1.1256537086e+02   4.5365925299e+01     0.404645    0.1832706 -72.36  0.001121308    1.831    0.454
       301  -9.8197    194.2883     19.3944   3.1433638547e+01   3.4637791757e+01     0.164704   0.09749068  86.78 0.0009012587    1.536    0.349
       302 -10.1483     79.4962     19.0584   5.0871199580e+01   6.0417595503e+01    0.1725331    0.1233869 -19.95 0.0008454684    1.577    0.366
       303 -11.1358    217.1307    138.1832   5.4258027645e+01   1.1459727870e+01    0.2737942    0.2413296 -65.74 0.0008849503    1.231    0.188
       304 -10.9137    186.7483     15.2924   3.1258210994e+01   3.6713815741e+01    0.4757233    0.1361069  69.37  0.001977277    2.964    0.663
       305 -11.1285    189.3877    135.5061   5.8654872215e+01   1.7108754198e+01    0.3130867    0.2848741  84.38 0.0009061102    1.247    0.198
       306  -9.9437     32.5122    137.5499   1.0247426016e+02   4.3900937880e+01         0.14    0.1274442 -72.97 0.0001230739    1.043    0.041
       307 -12.3807     27.6365    134.0487   1.0352098842e+02   4.5266970917e+01    0.8763492    0.4362867  -2.28  0.002536457    3.220    0.689
       308 -10.8281     11.4816    136.7853   1.0911720533e+02   4.5874072795e+01    0.3361983    0.1399155 -35.31  0.001298994    3.106    0.678
       309 -10.6571    210.5049     29.0224   3.1947978794e+01   3.0102296074e+01    0.5525338    0.1727654 -45.74  0.002475285    2.688    0.628
       310  -9.9742    173.4418     16.2209   3.2858715974e+01   3.9562533613e+01    0.1518235    0.1029304 -53.98 0.0003724047    1.444    0.307
       311 -11.4651    245.5453    134.3952   4.9168710641e+01   7.4043837694e+00    0.4642061    0.2701878  66.07  0.002296485    2.775    0.640
       312 -11.6149    242.3567    127.6935   4.8307813257e+01   9.0567587978e+00    0.2818977    0.1914708 -69.03  0.001532965    1.901    0.474
       313 -13.0105    240.6352    122.4085   4.7506881982e+01   1.0240985888e+01    0.8242508    0.4625048 -55.92   0.00373946    1.837    0.456
       314  -9.5069    103.6865    130.7471   7.8391780595e+01   3.5335370681e+01    0.1523648    0.1220161  -6.17 0.0001992599    1.523    0.344
       315 -11.3768    188.1495    128.2940   5.7286034538e+01   1.8781161815e+01    0.3364797      0.24881 -15.02  0.001619876    1.768    0.434
       316 -11.5083    223.4033    123.5212   5.0222396646e+01   1.3014514584e+01    0.5822757    0.2710047 -49.75  0.002587306    2.012    0.503
       317 -10.8130     22.9065    127.0336   1.0400555709e+02   4.7480842227e+01     0.206986    0.1750742 -51.88 0.0003949968    1.076    0.070
       318 -13.0885    103.7859    122.5163   7.6369179472e+01   3.7283396497e+01    0.3567632    0.3326102 -15.30 0.0006758281    1.104    0.094
       319 -10.8165    202.4709    120.0433   5.2861665651e+01   1.7552281971e+01    0.3207718     0.264452 -86.79  0.001777933    1.418    0.295
       320 -10.7811     43.6030    116.7674   9.4944611742e+01   4.8038900121e+01    0.3206287    0.1993537 -88.64  0.001075418    2.358    0.576
       321 -11.3206     21.7698    114.3273   1.0230066677e+02   5.0782768594e+01    0.4756838    0.2570271  -1.34  0.001782969    2.440    0.590
       322 -11.5167     28.0282    113.1071   9.9820072076e+01   5.0547725865e+01    0.2599343    0.2143944  16.08 0.0006545317    1.334    0.250
       323 -12.0962     24.0927    109.2044   1.0052762685e+02   5.1860192830e+01    0.9398573    0.3226175 -70.93  0.003193009    3.432    0.709
       324 -12.2291     26.9986    106.5121   9.8928813584e+01   5.2268168086e+01    0.5488902    0.3341979  87.82  0.002430159    2.419    0.587
       325 -12.0971      2.4258    111.8809   1.0882157393e+02   5.2700724177e+01    0.4235178    0.2131058 -71.35 0.0007458989    1.726    0.421
       326 -11.4193      3.9113    105.1085   1.0728090120e+02   5.4275606553e+01     0.383129    0.3319766 -19.11  0.002215024    1.235    0.190
       327 -12.3831    248.2622    107.4786   4.3604773332e+01   1.1461986732e+01    0.6565943    0.3258119 -58.59  0.003127976    2.288    0.563
       328 -11.2782    170.4059    110.5307   5.6643350861e+01   2.5951810199e+01    0.3641023    0.2957359 -39.46  0.001049006    1.215    0.177
       329 -10.0952     93.9994    112.3294   7.6780352238e+01   4.1503769252e+01    0.2145132     0.201339  34.36 0.0005620828    1.080    0.074
       330 -10.0751     48.9077    112.4924   9.2136213810e+01   4.8471965555e+01    0.2098194    0.1424504  25.80 0.0007847822    1.563    0.360
       331 -10.6984    212.2404    110.6227   4.9220024302e+01   1.7385607135e+01    0.3466129    0.2378521  86.08   0.00172045    2.023    0.506
       332 -11.0775    215.0157    107.6647   4.8161123074e+01   1.7377823798e+01    0.3449183    0.2290061 -59.80  0.001001147    1.538    0.350
       333 -10.7039    101.3548    109.9874   7.3897223750e+01   4.0649904044e+01    0.3305173    0.2306176 -27.54  0.001461011    1.680    0.405
       334 -10.1966      7.0508    114.6726   1.0759400295e+02   5.1743980381e+01    0.2197558    0.1645641  29.88  0.001020673    1.539    0.350
       335 -10.6827      6.6130     30.3739   8.7397992123e+01   6.9913951093e+01    0.2749179    0.1607476  -5.11  0.001627896    1.628    0.386
