#   1 NUMBER                 Running object number                                     
#   2 MAG_AUTO               Kron-like elliptical aperture magnitude                    [mag]
#   3 X_IMAGE                Object position along x                                    [pixel]
#   4 Y_IMAGE                Object position along y                                    [pixel]
#   5 X_WORLD                Barycenter position along world x axis                     [deg]
#   6 Y_WORLD                Barycenter position along world y axis                     [deg]
#   7 A_WORLD                Profile RMS along major axis (world units)                 [deg]
#   8 B_WORLD                Profile RMS along minor axis (world units)                 [deg]
#   9 THETA_WORLD            Position angle (CCW/world-x)                               [deg]
#  10 FWHM_WORLD             FWHM assuming a gaussian core                              [deg]
#  11 ELONGATION             A_IMAGE/B_IMAGE                                           
#  12 ELLIPTICITY            1 - B_IMAGE/A_IMAGE                                       
         1 -12.6565    201.5410     37.4273   4.5877979937e+01   3.0191720488e+01      1.34567     1.016784  29.37  0.007102035    1.662    0.398
         2 -12.5110    214.0058     24.8897   4.1138643370e+01   2.8748883522e+01     1.084977    0.7935987  33.14  0.005906447    1.768    0.434
         3  -9.6090     13.1521     14.0316   9.7611215977e+01   7.4885266761e+01    0.3062432   0.07679424 -58.73  0.001103974    3.505    0.715
         4 -10.1993     12.7257      5.4657   9.3388492662e+01   7.6649147312e+01    0.3827057    0.1250378 -42.59  0.001623243    2.615    0.618
         5 -10.4855    238.8001      2.3617   3.3653666124e+01   2.5582778564e+01    0.6136115    0.2565769  82.56  0.002928709    2.594    0.615
         6  -8.7885     20.9868      1.7417   8.4144260306e+01   7.6462148176e+01    0.1538114    0.1017941  25.55 0.0007856972    1.564    0.360
         7  -8.3276     92.9629    217.9920   1.0713110463e+02   1.8898609630e+01    0.1740786    0.1440695  45.64  0.000500478    1.042    0.040
         8 -13.2314     50.2423    220.4639   1.1622296703e+02   2.3602652067e+01      1.90968     1.664912  36.70   0.01463515    1.275    0.216
         9 -12.8245     85.6998    227.7243   1.0948751646e+02   1.8176667385e+01     1.778004     1.316953 -87.59  0.007365794    1.605    0.377
        10 -11.8783     10.3648    188.5004   1.2320224301e+02   3.3679302651e+01    0.4925297    0.4187444  43.67 0.0007382514    1.252    0.202
        11 -14.5925      3.3673    181.7313   1.2454169393e+02   3.5638552259e+01     11.00661    0.6629929 -80.63   0.02739969   10.307    0.903
        12  -7.8493     99.4131    180.7757   1.0156521059e+02   2.4933799591e+01    0.1652552    0.1223377 -49.15 0.0008952176    1.565    0.361
        13  -9.6948     42.6959    178.6777   1.1509640186e+02   3.2668553580e+01    0.3881615    0.2692994 -22.14  0.001401765    2.429    0.588
        14 -10.3657     66.6210    177.0391   1.0908173550e+02   3.0218919022e+01    0.3932825    0.2753724 -37.75  0.001967447    2.000    0.500
        15 -10.4530     71.5273    171.7407   1.0728994061e+02   3.0724641327e+01    0.3120096    0.2912172  27.16 0.0008117727    1.227    0.185
        16  -8.0699    115.3203    172.6744   9.6646414086e+01   2.4114018694e+01    0.1384493   0.09747375  64.85 0.0007046711    1.681    0.405
        17  -9.5583     99.9959    170.9941   1.0010205831e+02   2.6838652153e+01    0.2150322    0.1890759  48.57   0.00131201    1.013    0.013
        18  -8.9817     66.5752    195.7512   1.1086926019e+02   2.6376730938e+01    0.2121337    0.1422001  78.68 0.0007397892    1.562    0.360
        19 -10.7710     86.6116    155.9736   1.0135956898e+02   3.2088674738e+01     0.574231    0.4013553 -23.72  0.001087195    2.189    0.543
        20 -11.3411     80.8074    162.3149   1.0376321795e+02   3.1520981028e+01    0.8450519    0.3899954  51.55 0.0007772427    2.211    0.548
        21 -11.8603     67.9801    158.2658   1.0662791876e+02   3.4182810816e+01    0.5308501    0.4016001 -32.21   0.00110529    1.796    0.443
        22 -12.1148     68.6123    144.5293   1.0465516276e+02   3.7283617626e+01     1.136573    0.6230257  77.44  0.004750882    2.520    0.603
        23  -7.9097    158.5137    161.4903   8.4887645803e+01   1.8937804046e+01    0.1348858    0.1244833  31.31 6.036047e-05    1.079    0.073
        24 -10.6374     22.8493    154.7295   1.1842976604e+02   3.9969574926e+01    0.4158177    0.2033135 -74.96  0.002136499    1.882    0.469
        25 -13.5316      9.2389    207.3082   1.2408403189e+02   3.0062098975e+01     1.730255     1.133697 -28.77   0.00402387    2.937    0.660
        26  -9.5390    101.2277    140.6876   9.4933215502e+01   3.3220666158e+01    0.4772985    0.3315704 -14.91  0.002114135    2.332    0.571
        27 -10.5369     88.7699    140.4881   9.8335949311e+01   3.5285496229e+01    0.2732689     0.252718 -37.15 0.0003558838    1.229    0.187
        28  -9.1598     82.2096    141.8553   1.0040452047e+02   3.5972788194e+01    0.2121623    0.1755084  68.65 0.0004279303    1.190    0.160
        29  -8.0426     33.9893    139.4937   1.1407544746e+02   4.2539605948e+01     0.191682    0.1231202  30.94  0.001037201    1.603    0.376
        30 -10.7807     58.1564    129.1850   1.0554451899e+02   4.2359565742e+01     0.656535    0.3055225 -85.28  0.002447767    2.973    0.664
        31  -8.5783    110.6922    130.9779   9.0481432221e+01   3.3760314735e+01    0.2527214    0.2069038   4.89 0.0006927955    1.528    0.345
        32  -8.6966    105.8799    130.6726   9.1739902525e+01   3.4687692153e+01    0.2878202    0.2175332 -65.91  0.001444076    1.414    0.293
        33  -7.7854     29.3731    128.2995   1.1436419093e+02   4.5712734103e+01    0.1312457   0.09308851 -40.09 0.0004985339    1.747    0.428
        34  -9.0001     98.2131    126.7674   9.3113404301e+01   3.6922113178e+01    0.2583599    0.2204627 -12.76 0.0006201258    1.454    0.312
        35  -8.5248    116.9857    124.4988   8.7397141461e+01   3.4042053521e+01    0.2150758    0.1326365  16.12 0.0008104121    2.665    0.625
        36  -8.2330    107.6177    119.2068   8.8819495001e+01   3.6984779187e+01    0.2017233    0.1800993 -48.19 0.0008891326    1.148    0.129
        37 -10.8456     22.2543    111.5070   1.1493486327e+02   5.0517558381e+01    0.7898359    0.1630421 -73.78  0.002508125    4.014    0.751
        38  -8.4253    233.6827    113.6748   6.0939916976e+01   1.2903917324e+01    0.1333965   0.09213318   4.46  0.000485222    1.672    0.402
        39  -9.3409     63.0332    201.3157   1.1213850684e+02   2.5716312968e+01    0.1883477    0.1576734 -57.76 0.0002921284    1.479    0.324
        40  -7.9065    205.5252    110.4792   6.4590323029e+01   1.8685724571e+01    0.1391715    0.1246721 -12.46 4.664157e-05    1.025    0.025
        41  -8.3356    249.3180    103.6842   5.6607527727e+01   1.1515025630e+01    0.1233838   0.08843391 -51.35 0.0007038759    1.652    0.395
        42 -12.3438     41.1758    203.9457   1.1715075316e+02   2.7666124444e+01    0.7350901     0.530511  79.77  0.002774848    1.302    0.232
        43  -8.1341     41.4315     91.7902   1.0510913976e+02   5.3762948017e+01    0.1943655    0.1144228 -56.23 0.0003960249    1.554    0.357
        44 -13.3589     58.5070    246.8393   1.1611553025e+02   1.8253166360e+01     1.769774    0.6044841  28.56  0.004348906    2.856    0.650
        45  -7.9130     69.5200     81.5634   9.1961711784e+01   5.2585304614e+01    0.1454564    0.1387642 -69.05 0.0001746997    1.015    0.015
        46  -7.4868     37.3591     56.7357   9.8682910309e+01   6.2956235430e+01    0.1350083    0.1015969  63.54 0.0006140887    1.634    0.388
        47 -10.4755     12.3503     52.7394   1.1043587878e+02   6.6030046604e+01    0.2730976    0.1752117 -57.85  0.001478382    1.301    0.232
        48 -11.6061    192.4948     43.6515   4.8777536464e+01   3.1566345866e+01    0.6369071    0.4461483  46.98  0.001496003    1.589    0.371
        49 -15.3358     10.9018    240.9268   1.2470498633e+02   2.3942296726e+01     9.427049     4.597044 -89.21   0.06396177    2.075    0.518
        50  -9.0713    141.5276     46.9981   5.8413729823e+01   4.3948682243e+01    0.2835756    0.2128084  88.63 0.0009378525    1.587    0.370
        51  -8.5294    144.7873     41.7824   5.5898839182e+01   4.3903353833e+01    0.2129376    0.1721973 -70.25 0.0006654764    1.356    0.263
        52 -12.8715     50.9920    193.1810   1.1422959029e+02   2.8728959709e+01      1.42063     1.067228  50.88  0.006697251    1.087    0.080
        53  -8.6079    171.5888    239.7572   9.4176394614e+01   5.1718801113e+00    0.1230749    0.1087642 -53.06 0.0009510796    1.700    0.412
        54 -10.3325    149.4890    227.8363   9.6823114329e+01   9.6920457305e+00    0.2443611    0.1949351 -22.17  0.001735129    1.489    0.328
        55 -10.1949     31.6655    202.6035   1.1914413173e+02   2.8901787181e+01    0.3880433    0.2907607 -37.41  0.002539321    2.056    0.514
        56 -10.4002    158.9770    226.7461   9.4880971258e+01   8.5418493190e+00    0.3779826    0.1205426  32.89  0.001662618    2.656    0.623
        57  -9.4359    178.1358    222.7122   9.0777175510e+01   6.4487654537e+00    0.1686776    0.1564639 -24.08 0.0006360734    1.402    0.287
