#   1 NUMBER                 Running object number                                     
#   2 MAG_AUTO               Kron-like elliptical aperture magnitude                    [mag]
#   3 X_IMAGE                Object position along x                                    [pixel]
#   4 Y_IMAGE                Object position along y                                    [pixel]
#   5 X_WORLD                Barycenter position along world x axis                     [deg]
#   6 Y_WORLD                Barycenter position along world y axis                     [deg]
#   7 A_WORLD                Profile RMS along major axis (world units)                 [deg]
#   8 B_WORLD                Profile RMS along minor axis (world units)                 [deg]
#   9 THETA_WORLD            Position angle (CCW/world-x)                               [deg]
#  10 FWHM_WORLD             FWHM assuming a gaussian core                              [deg]
#  11 ELONGATION             A_IMAGE/B_IMAGE                                           
#  12 ELLIPTICITY            1 - B_IMAGE/A_IMAGE                                       
         1 -13.9571    175.6601     43.2365   6.7223085565e+01   3.6006566662e+01     1.270845     0.955806 -27.84 0.0008882821    1.319    0.242
         2 -14.1283    186.7372     33.6395   6.2231849155e+01   3.4363280834e+01      1.39814     1.112797 -22.86  0.004190359    1.257    0.205
         3 -15.1587    193.4896     23.8260   5.8082267746e+01   3.3741443692e+01     3.281924     1.994724  19.53  0.001298527    2.160    0.537
         4 -10.1057     82.5990      5.8043   7.4396018604e+01   6.2932730169e+01    0.1797842    0.1134074 -33.69 0.0004435773    1.557    0.358
         5 -10.6539     41.4926      2.4814   8.8704805461e+01   7.0110475475e+01    0.1227142   0.09734221 -19.23 0.0008103506    1.005    0.005
         6  -9.9680     54.6787      1.3319   8.2276865055e+01   6.8398608543e+01      0.11544   0.09533103 -52.77 0.0003784962    1.698    0.411
         7 -10.7946    177.5314    236.8937   1.0846005966e+02   6.3192802418e+00    0.2037725       0.1574  59.12  0.001008788    1.451    0.311
         8 -16.1791    117.2519    239.5563   1.1843801692e+02   1.4824954106e+01     6.387491     4.330818  60.57   0.04856981    1.256    0.204
         9 -19.3969     16.1697    133.4704   1.2833671356e+02   4.5470161933e+01      15.8632      2.06269 -75.72   0.04662122    7.107    0.859
        10  -8.6267     42.4432    221.2672   1.2917593772e+02   2.6836556336e+01    0.1279552    0.1019244  28.44 0.0007603856    1.900    0.474
        11 -12.5452    193.9519    194.1742   9.9832175476e+01   8.7691130230e+00    0.8386891    0.5627728 -60.90  0.004569878    2.560    0.609
        12 -12.9332    120.9356    200.5343   1.1384653406e+02   1.9945317257e+01    0.4061092    0.2413929 -49.25   0.00218844    2.123    0.529
        13 -13.8717    113.8841    197.3939   1.1477792966e+02   2.1516122522e+01    0.5648968    0.4490183  84.49  0.003739419    1.304    0.233
        14 -10.5827     47.8924    217.6512   1.2808715792e+02   2.6816130508e+01    0.3119462    0.1791424  28.06  0.001607187    2.630    0.620
        15 -10.8467     41.4102    213.8084   1.2892664915e+02   2.8138586723e+01     0.310493     0.083446  53.15  0.001616366    2.763    0.638
        16 -13.2133     69.9743    193.5071   1.2249975333e+02   2.8248324090e+01    0.5986986    0.5098796  54.39  0.004675475    1.257    0.204
        17 -10.4262     81.6068    195.2064   1.2051152911e+02   2.6455886342e+01    0.2765832    0.2199911  41.65  0.002020449    1.372    0.271
        18  -9.6255    180.3159    192.8934   1.0203007544e+02   1.1293304154e+01    0.1719912    0.1520403  87.41  0.001163187    1.506    0.336
        19  -8.9432     72.3372    203.2972   1.2290275763e+02   2.6281975957e+01    0.0895454   0.08488157  13.10 0.0007031835    1.654    0.396
        20  -9.6630     66.4623    232.9831   1.2604693772e+02   2.2325136673e+01    0.1337924    0.1024025  52.77  0.001119522    1.237    0.191
        21 -12.5482    109.7680    181.7555   1.1368830749e+02   2.4768964572e+01    0.4175965    0.2387222 -46.92  0.002311448    2.245    0.555
        22  -9.9467     58.7027    188.1311   1.2413008767e+02   3.0568841877e+01    0.1997356     0.150181 -51.02  0.001412793    1.887    0.470
        23  -9.4295     78.6324    232.2520   1.2405823395e+02   2.0951734320e+01    0.1394548    0.1021638  35.06  0.001064784    1.655    0.396
        24 -11.4176    207.6116    183.8015   9.5753499012e+01   7.6958724128e+00    0.3051196    0.2554882 -40.52 0.0009762538    1.510    0.338
        25 -11.3943    211.1011    179.9414   9.4480681968e+01   7.5608746608e+00    0.4196022    0.2750669 -13.75  0.002187505    1.803    0.445
        26 -11.4337     99.5470    180.6170   1.1554864978e+02   2.6501826409e+01    0.2153533    0.1907869  59.02 0.0005680988    1.140    0.123
        27 -10.9168    144.7003    178.8547   1.0649292459e+02   1.9563988276e+01     0.228581    0.1532789  37.52  0.001316659    1.405    0.288
        28 -10.3598    194.0250    165.9688   9.4988738133e+01   1.2566066537e+01    0.2884492    0.2601862 -82.60  0.001643564    1.499    0.333
        29 -10.5209    198.1096    176.8268   9.6208025934e+01   1.0306060218e+01    0.2919402    0.2132528  35.05  0.001068508    1.163    0.140
        30 -11.3493    196.6225    171.7997   9.5581088624e+01   1.1263604284e+01    0.3503573    0.3270561  -7.41  0.001188154    1.186    0.157
        31  -9.8745     70.7403    228.3109   1.2505403798e+02   2.2508727684e+01    0.1527607    0.1024157  73.01  0.001185106    1.268    0.212
        32 -15.3553     53.5746    232.0062   1.2801502051e+02   2.3961233495e+01     1.930765     0.714502 -61.43   0.01161426    3.314    0.698
        33  -9.9315     51.3715    174.3487   1.2437370290e+02   3.3941330826e+01    0.1643866    0.1393128 -85.35 0.0007633673    1.235    0.191
        34 -10.6317     74.8016    181.9364   1.2051552955e+02   2.9689121516e+01    0.2592698    0.1644711 -76.35  0.001013612    1.569    0.363
        35  -9.9983    177.4896    169.4976   9.8695510895e+01   1.5145831023e+01     0.130119    0.1126884  38.53 0.0002797047    1.012    0.012
        36 -11.3980    145.6385    168.3305   1.0466860644e+02   2.1140254188e+01    0.2557131    0.2167839  61.09 0.0005063188    1.136    0.120
        37 -10.9484    141.0578    157.6988   1.0382657690e+02   2.3794829520e+01    0.2154819    0.1963546 -87.95 0.0002786883    1.173    0.147
        38 -10.9115    165.9271    154.2997   9.8171281540e+01   1.9730720773e+01     0.407461    0.2235641  64.59  0.001651183    2.891    0.654
        39 -13.0647    105.7273    200.7631   1.1664635585e+02   2.2175065253e+01    0.5124198    0.3667598  77.55  0.002980873    1.422    0.297
        40 -11.9483    133.8306    144.5878   1.0303158160e+02   2.7493033519e+01    0.9434085    0.2753609 -55.13  0.002945719    4.741    0.789
        41 -10.9661    174.4397    148.7919   9.5422927721e+01   1.8973920499e+01    0.2991482    0.2454101  33.62   0.00103721    1.142    0.124
        42 -11.7353    143.8136    144.8350   1.0093556810e+02   2.5595127723e+01    0.2729051    0.2387525 -56.29  0.001634545    1.232    0.188
        43 -12.2320    108.2605    141.1760   1.0809561470e+02   3.2602676804e+01    0.4783015    0.3378399 -31.73   0.00251263    2.030    0.507
        44 -12.5248     96.5076    141.6299   1.1084055371e+02   3.4385113763e+01     0.290484    0.2508534  83.79 0.0004903047    1.069    0.065
        45 -11.7891    115.3324    131.1872   1.0468520047e+02   3.3401951988e+01    0.5903073    0.3263349  32.45  0.001437937    2.221    0.550
        46 -11.2318    119.3620    125.6347   1.0266203904e+02   3.3803427626e+01     0.490074     0.291259 -23.24  0.001842932    3.635    0.725
        47 -11.0406    105.7612    130.7572   1.0684544174e+02   3.5116336990e+01    0.3455729    0.2729628 -71.62  0.001268175    1.274    0.215
        48 -11.3341    103.0643    127.5029   1.0688989883e+02   3.6229116735e+01    0.2740929    0.2368702 -43.92 0.0007822097    1.301    0.231
        49 -10.8096    136.0000    128.0190   9.9316211931e+01   3.0234427963e+01    0.3653028    0.1619465 -47.97  0.001499359    2.352    0.575
        50 -11.1700    136.3723    123.0681   9.8183687674e+01   3.1118165711e+01    0.4201448    0.3045103 -62.84  0.001728818    1.560    0.359
        51 -10.5594    160.3879    127.8142   9.3928761425e+01   2.5401326328e+01    0.3200958    0.2689634 -64.77  0.001752871    1.378    0.274
        52 -10.4251    125.0409    127.0264   1.0161798457e+02   3.2491592210e+01    0.2257282    0.1646276  80.28  0.001133523    1.735    0.424
        53 -10.4353    110.6406    119.8270   1.0357420424e+02   3.6530305242e+01    0.2286939    0.2055885  59.21 0.0005534999    1.088    0.081
        54  -9.5654     66.0764    237.1952   1.2637256455e+02   2.1752983777e+01    0.1308909   0.07515072  61.00 0.0003753781    1.302    0.232
        55 -10.3452    168.0777    112.8574   8.8845431757e+01   2.6430298604e+01    0.3357171    0.2469778 -73.96  0.001352874    1.969    0.492
        56 -10.0615    135.0000    112.0228   9.6028075807e+01   3.3542721308e+01    0.3809243   0.08075757 -45.48  0.001035828    4.795    0.791
        57 -10.1980    205.4945    110.1805   8.0846286599e+01   1.8555518556e+01    0.3137994    0.1946663  41.63 0.0008914241    1.566    0.362
        58  -9.7383    134.5082    102.9600   9.3968501546e+01   3.5421776966e+01    0.2206875    0.1413078 -44.34 0.0009100193    1.570    0.363
        59 -10.3591     36.9330    231.9361   1.3058522606e+02   2.5775612877e+01    0.2284334    0.1607905 -61.36  0.000917125    2.052    0.513
        60  -9.3246    128.8224     95.2424   9.3398088630e+01   3.8103763416e+01    0.2360494    0.1568857 -88.92 0.0008366288    2.687    0.628
        61  -9.1820    153.2675     79.3294   8.3157121478e+01   3.5784167349e+01    0.1511494    0.1177909   6.02 0.0002648013    1.578    0.366
        62 -12.0030    169.4936     69.1429   7.6611070926e+01   3.3645361227e+01    0.5968735    0.3921368 -82.01  0.001222086    2.671    0.626
        63  -8.8997    107.6945     62.3661   8.9507069462e+01   4.8809756045e+01     0.147168    0.1129166 -74.56 0.0007036464    1.745    0.427
        64 -11.3549     93.3264    237.0727   1.2206254469e+02   1.8385210584e+01    0.2747584    0.1530932  51.14  0.001224939    1.304    0.233
        65 -10.6335     36.2882    223.1460   1.3025317567e+02   2.7192475945e+01    0.1530005    0.0904587  57.49 0.0002400083    1.209    0.173
        66 -11.2264     44.7203    210.6187   1.2819001048e+02   2.8301799397e+01    0.2230932    0.1077234  56.59 0.0008831533    1.576    0.365
        67 -10.2904    173.2372    245.8949   1.1017166207e+02   5.9735184951e+00    0.1703051    0.1280099 -40.32  0.001340775    1.845    0.458
        68 -10.0116    157.9781     27.9707   6.5259426064e+01   4.2637725965e+01    0.2382577    0.1769087 -62.74 0.0005552999    1.644    0.392
        69  -9.2398    114.1603     49.2324   8.3227124867e+01   4.9908942673e+01    0.1903089     0.168741 -64.27 0.0004433048    1.300    0.231
        70 -11.6565     40.1468    207.8373   1.2879098755e+02   2.9252577092e+01    0.2339366    0.1121091  47.38 0.0007439613    1.643    0.391
        71 -11.3950     85.3986    236.5360   1.2328563039e+02   1.9480650172e+01    0.2411899    0.1501521 -84.47 0.0004994143    1.791    0.442
