#   1 NUMBER                 Running object number                                     
#   2 MAG_AUTO               Kron-like elliptical aperture magnitude                    [mag]
#   3 X_IMAGE                Object position along x                                    [pixel]
#   4 Y_IMAGE                Object position along y                                    [pixel]
#   5 X_WORLD                Barycenter position along world x axis                     [deg]
#   6 Y_WORLD                Barycenter position along world y axis                     [deg]
#   7 A_WORLD                Profile RMS along major axis (world units)                 [deg]
#   8 B_WORLD                Profile RMS along minor axis (world units)                 [deg]
#   9 THETA_WORLD            Position angle (CCW/world-x)                               [deg]
#  10 FWHM_WORLD             FWHM assuming a gaussian core                              [deg]
#  11 ELONGATION             A_IMAGE/B_IMAGE                                           
#  12 ELLIPTICITY            1 - B_IMAGE/A_IMAGE                                       
         1 -14.8914     14.9797     69.4842   7.3111414502e+01   6.2386777829e+01     1.637798     1.161322   8.37  0.007433185    1.589    0.371
         2 -14.9594    240.0612     56.3633   8.1941909608e+00   1.9109295528e+01     2.590543    0.6661972 -47.67  0.009318246    3.485    0.713
         3 -14.2305    232.5279     44.5466   6.2464310759e+00   2.2194818834e+01     1.029815    0.6977236 -78.28  0.006003845    1.517    0.341
         4 -13.4561     93.0422      5.7313   1.3978885878e+01   6.0799958236e+01     1.349714    0.5597022  59.81  0.005788695    2.027    0.507
         5 -14.3600     77.7881     12.0149   2.1195118028e+01   6.3770551292e+01     1.101744    0.9443263 -52.99  0.006564201    1.388    0.279
         6 -15.0305     63.3888     27.2558   3.4058285810e+01   6.4830879504e+01      2.11281      1.56746 -27.43   0.01162984    1.378    0.274
         7 -13.4754     66.7612     14.5525   2.6314179226e+01   6.5898862190e+01    0.7219609    0.4727309  37.52  0.003738728    1.431    0.301
         8 -13.8761    249.9332     33.6868   2.4663136053e+00   2.0108195898e+01     1.543819    0.2682843 -31.14  0.004736385    5.498    0.818
         9 -15.0399    244.5928      9.6412   3.5774273167e+02   2.3913584987e+01     1.456526      1.15387  -7.64  0.009385663    1.855    0.461
        10 -13.4934     30.6766     15.6189   4.4652130209e+01   7.2217845138e+01    0.6494763    0.4923313 -41.97  0.003050889    1.424    0.298
        11 -14.0488     18.8498     20.9800   5.5174445955e+01   7.2734430154e+01     1.115686    0.7468584  -3.60  0.006477313    1.550    0.355
        12 -13.8195      5.5163     13.5437   6.1290472236e+01   7.5317522381e+01    0.9079286    0.6546145 -36.23  0.004512939    1.156    0.135
        13 -13.7852     10.0091     31.5019   6.5550105706e+01   7.1414400920e+01     1.163053      0.82903  35.90  0.007049789    1.673    0.402
        14 -12.2934      4.3528      2.8248   5.6449264964e+01   7.7333881123e+01    0.4788173    0.3126893   0.48  0.002686406    1.457    0.314
        15 -12.9491     80.8699     40.6603   3.3303678471e+01   5.9087174583e+01    0.7755694    0.5265101  65.81  0.003135005    1.860    0.462
        16 -12.1410    246.6098    249.9682   4.4253240569e+01  -8.5134981782e+00     0.448784    0.1209445  29.66   0.00215886    3.315    0.698
        17 -13.0735    236.1708    249.9275   4.5915293550e+01  -7.4045873966e+00    0.5383536    0.1355815  35.24   0.00244935    3.672    0.728
        18 -11.1295    184.5357    250.5142   5.4979720477e+01  -1.3694664558e+00    0.2438499   0.09038094  32.64    0.0012117    2.169    0.539
        19 -13.5641    160.5311    248.6382   5.9290744526e+01   2.0246364543e+00     1.275138    0.3052558  40.46  0.004771172    3.778    0.735
        20 -14.7650     97.2461    229.3953   7.0172688057e+01   1.3986181946e+01     2.640383    0.5641457  46.78  0.007829088    5.183    0.807
        21 -14.8832    100.9606    246.9914   7.1137182647e+01   1.0374908881e+01     1.372185    0.5796857  36.19  0.005297835    1.807    0.447
        22 -13.6781     85.8448    234.8166   7.3185005165e+01   1.4543115410e+01     1.061042    0.4492805  60.57  0.004281589    3.460    0.711
        23 -12.6368    121.4363    249.8695   6.7225889336e+01   7.1411825386e+00    0.4928217    0.2106672  36.91  0.001737077    1.785    0.440
        24 -15.2541    131.1524    247.4415   6.4987733303e+01   6.1965044190e+00     1.820918    0.6538007  36.83  0.007627229    2.135    0.532
        25 -13.5131     57.3565    241.6124   7.9777983085e+01   1.6909053408e+01    0.8944857    0.3841574 -85.46  0.004288854    3.098    0.677
        26 -13.6483     75.5059    248.7068   7.6541572458e+01   1.3396070411e+01    0.6898566    0.2961216  42.37  0.003585887    1.727    0.421
        27 -13.6904     66.3020    247.0943   7.8312122470e+01   1.4826985905e+01    0.5299071    0.3866841 -87.77  0.003047918    1.550    0.355
        28 -13.0236     71.8241    221.9273   7.5095765347e+01   1.8870764750e+01    0.6710647    0.4627902 -79.40  0.002987679    1.623    0.384
        29 -13.2807     65.5933    215.8731   7.5970898980e+01   2.0906839821e+01     1.008366    0.4393699 -83.10  0.004295338    3.141    0.682
        30 -13.1464     37.0297    202.1003   8.1537278232e+01   2.7292231307e+01    0.7349073    0.3137009  57.28  0.002705928    2.164    0.538
        31 -15.5268     56.3196    223.1819   7.8670105854e+01   2.0585824276e+01     2.335289    0.8586506  60.35  0.009263577    3.312    0.698
        32 -15.3667     49.7540    202.4559   7.8532177194e+01   2.5742459082e+01      2.14036    0.6591896  53.21  0.007875187    3.304    0.697
        33 -12.8479     34.4306    228.2437   8.3774242927e+01   2.2108907516e+01    0.5352612    0.2595359  84.90  0.002172683    2.195    0.544
        34 -13.1335     22.8459    214.5850   8.5545337636e+01   2.6114381634e+01      1.97276    0.5696765  87.24  0.006842492    4.905    0.796
        35 -13.3194     28.2605    212.7123   8.4238658922e+01   2.5949605351e+01    0.6486955    0.3917877  71.09  0.002314663    1.471    0.320
        36 -14.7961     25.3236    180.1185   8.2853963116e+01   3.3546386254e+01     3.050633    0.9949182 -57.23   0.01198577    3.356    0.702
        37 -15.1464     40.4007    243.0842   8.3357877182e+01   1.8602952410e+01     1.242733    0.5655257  62.09  0.006728778    2.024    0.506
        38 -14.5032      6.4229    211.5020   8.8995772570e+01   2.8329061755e+01     1.695811    0.5736367  66.93  0.007670419    2.720    0.632
        39 -13.5734     42.4032    226.1720   8.1936434769e+01   2.1631708635e+01    0.6807117    0.3560851  78.15  0.002654303    2.024    0.506
        40 -13.7276     37.1170    217.3389   8.2538223614e+01   2.4024638875e+01    0.5789341    0.3302244  73.28  0.001878061    1.678    0.404
        41 -15.8425      6.4810    157.7625   8.6366738729e+01   4.0591505918e+01     2.180997     1.319413 -61.42    0.0105672    1.683    0.406
        42 -16.0493      9.1596    141.7771   8.4507862787e+01   4.4366854879e+01     3.128708     1.058097  53.83   0.01223029    3.001    0.667
        43 -14.1915     23.7348    232.3416   8.6226900997e+01   2.2436987461e+01    0.8068513    0.3412195  62.62  0.003692291    2.066    0.516
        44 -13.3910     16.3543    227.9963   8.7560415357e+01   2.4032115517e+01    0.6433648    0.3345086  63.00  0.002908474    1.561    0.359
        45 -13.6724     13.9394    247.0375   8.8773322389e+01   2.0647521369e+01    0.8355184    0.4387882  38.91  0.003630459    1.482    0.325
        46 -13.5997      3.6249    233.8677   9.0347799815e+01   2.4091927953e+01    0.6579762    0.2491729  62.62  0.003538439    2.095    0.523
        47 -11.7486      2.8690    226.3434   9.0262830607e+01   2.5626389890e+01    0.3065413    0.1601081  72.51   0.00111556    1.590    0.371
        48 -14.1602     27.3584    247.5425   8.6185565534e+01   1.9195004652e+01    0.7526416    0.2907724  70.66  0.003754813    2.717    0.632
        49 -11.7359     19.6700    239.1462   8.7349697622e+01   2.1544867535e+01    0.3070898    0.1329048  48.73  0.001201968    1.652    0.395
        50 -12.2682     51.9010    190.5416   7.6954543465e+01   2.8154389888e+01    0.5423346    0.3205711  67.59  0.001801488    1.703    0.413
        51 -11.0197    250.1652    175.8114   3.1558656149e+01   6.9696946761e-02    0.1687794     0.116793  -7.47  0.000854165    1.332    0.250
        52 -10.3972     14.5115    176.5663   8.5386310757e+01   3.5402135320e+01    0.1285111    0.1031737  68.74 0.0001882037    1.020    0.019
        53 -12.7443     75.1448    150.5715   6.5590026125e+01   3.4654597949e+01      1.75963    0.8218246  28.56  0.006837318    2.344    0.573
        54 -14.5874     96.1561    126.5092   5.4683006956e+01   3.7163909030e+01     1.073228    0.8270644 -14.33  0.004899325    1.773    0.436
        55 -14.2013     89.1883    152.6978   6.1871475564e+01   3.1907784844e+01     1.456291    0.8702254  87.64  0.005650789    2.575    0.612
        56 -14.5992     88.4455    138.5667   5.9503096372e+01   3.5529611250e+01     1.309608    0.8344995 -53.00  0.005635863    1.584    0.369
        57 -10.7049    250.5032    158.5079   2.8282799793e+01   2.4344453278e+00    0.1218546   0.09703203 -18.17 0.0001136707    1.011    0.011
        58 -13.0802    145.0405    146.4898   4.5799393165e+01   2.3045292873e+01    0.8599179    0.5820777  14.47  0.003677203    2.065    0.516
        59 -13.3766     43.8102    143.6328   7.4072681042e+01   4.0627507351e+01    0.8922992    0.6652898 -76.97  0.003409449    1.255    0.203
        60 -11.7377     48.1397    133.1242   7.1236852843e+01   4.2839846053e+01    0.4059505    0.3505976 -32.08  0.001942146    1.361    0.265
        61 -12.5873     77.6128    136.7585   6.2459788699e+01   3.7762845798e+01    0.7819288    0.3795436 -50.91  0.003100186    2.099    0.524
        62 -11.9139    250.5106    136.0019   2.3892409075e+01   5.6836183600e+00    0.3374267    0.1016127 -35.94   0.00136536    2.738    0.635
        63 -14.6829     43.7900    115.3153   6.9865638949e+01   4.8012817720e+01     1.982243     1.254856 -64.58  0.008115758    1.452    0.311
        64 -13.4051     27.9069    114.3419   7.5412412535e+01   4.9917610170e+01     1.098812    0.6420712  57.08  0.005188345    1.874    0.466
        65 -12.1546    249.7812    123.3703   2.1440664447e+01   7.6573157370e+00    0.2386465    0.2031918 -36.21  0.001269737    1.100    0.091
        66 -13.3015     18.6753     49.1259   6.6103201186e+01   6.6913818380e+01    0.8006655    0.4752652 -55.07  0.002989989    1.467    0.319
        67 -12.6991     34.4484     64.0863   6.2347417555e+01   6.1954393290e+01     1.278552    0.3504485  38.08  0.004296377    3.878    0.742
        68 -14.6025      7.9096    105.4216   8.1594452242e+01   5.3753694867e+01     1.967418    0.9522874 -76.34  0.009285757    1.777    0.437
        69 -13.9155     17.0598     87.8658   7.5575038794e+01   5.7650402324e+01     1.411837    0.9592471 -70.69  0.007673973    1.301    0.231
        70 -13.5392    216.0986    246.9548   4.8844609636e+01  -4.8039662596e+00    0.5368554     0.315931  24.46  0.003575505    1.374    0.272
        71 -13.3515      7.0351     59.1754   7.4931906140e+01   6.5359578634e+01    0.8537568    0.4565437 -65.61  0.003231316    1.594    0.373
        72 -12.9017    134.1974    112.4189   4.0508850800e+01   3.2735836138e+01    0.6770067     0.465607 -72.08  0.002812744    1.980    0.495
        73 -11.9158    248.9977    117.9912   2.0439276695e+01   8.5804022160e+00    0.2029825    0.1664333 -29.16  0.001327288    1.035    0.034
        74 -14.7410    104.6081    107.5036   4.7543077263e+01   4.0133854300e+01     1.571942     1.225029   0.32  0.007073086    1.767    0.434
        75 -14.2288    153.1716    102.8964   3.3403862263e+01   3.0490435685e+01     1.465038     1.120885 -20.93  0.006262295    1.566    0.362
        76 -13.5962    141.1568     89.9067   3.2640611165e+01   3.5894462170e+01    0.9501752    0.8128632  89.37  0.004733155    1.294    0.227
        77 -13.9989     88.6903     65.9441   4.0219332563e+01   5.2704971752e+01    0.9793601    0.7222096  77.88  0.004407604    1.911    0.477
        78 -15.2937     96.4111     88.2117   4.4772997172e+01   4.6283116549e+01     2.488054     1.720362  65.07   0.01009987    1.810    0.448
        79 -14.1080     95.8200     75.4890   4.1018349710e+01   4.9208019639e+01    0.8960513     0.541832  41.11  0.003836797    1.672    0.402
        80 -13.1182    227.5858     89.2940   1.7008504853e+01   1.6777101939e+01    0.5947208    0.3644791 -44.39  0.002608537    1.417    0.294
        81 -13.1464    227.6282     82.3811   1.5427755025e+01   1.7825156281e+01    0.5717585    0.3961402 -41.23   0.00271962    1.230    0.187
        82 -13.9356    156.2096     75.5928   2.5142192428e+01   3.5001448886e+01     1.320507     0.812416 -27.63  0.005600825    1.899    0.473
        83 -11.1867      4.5096     83.1764   8.0206468241e+01   5.9600790727e+01     0.264668    0.1792046  30.24    0.0013803    1.663    0.399
        84 -11.9002    137.8883     72.7780   2.8330519078e+01   3.9994920453e+01    0.3037289    0.2217244  78.69  0.001367027    1.627    0.385
        85 -13.6042     71.4519     66.9477   4.6953267960e+01   5.5866024962e+01    0.7767858     0.578794 -54.64  0.003860031    1.392    0.282
        86 -13.2115     77.6709     65.1901   4.3947716104e+01   5.5077601637e+01    0.7187729    0.4249694 -34.34  0.003072627    1.891    0.471
        87 -13.7722     34.9784     90.1404   6.8501271909e+01   5.5498579227e+01     1.422799    0.8434329 -59.07  0.006665678    1.502    0.334
        88 -11.6176     61.2532     64.7861   5.0380206733e+01   5.8103593137e+01    0.3863439    0.2433776 -32.69  0.001750296    1.774    0.436
        89 -10.9827      1.0000    244.5869   9.1163600306e+01   2.2318030054e+01    0.2677567   0.05342559 -83.16  0.001058922    5.003    0.800
        90 -13.0723    230.5523    241.6596   4.5632061242e+01  -5.8604385798e+00    0.3521181    0.1655265 -21.86   0.00202906    2.190    0.543
        91 -12.3471     35.8884     51.3097   5.7570952243e+01   6.4687614515e+01    0.6250005    0.3927942 -52.68  0.003209439    1.495    0.331
        92 -11.2137     48.9711     52.7871   5.1631413761e+01   6.2615901893e+01    0.2577706    0.2004478 -45.80  0.001406079    1.238    0.192
        93 -12.6099    139.3467    116.9933   4.0361062658e+01   3.0616178991e+01    0.5549217    0.4475689 -43.39  0.002710333    1.244    0.196
        94 -13.3488     68.0578     42.3334   3.8944191385e+01   6.1407442648e+01    0.8147609    0.6028627  13.95  0.003959711    1.576    0.365
        95 -13.3779    237.2353    239.4469   4.4205932076e+01  -6.3606061436e+00    0.4623846    0.2007001 -14.70  0.002241659    3.175    0.685
        96 -12.8991      2.2572    182.3267   8.8740483383e+01   3.5092439873e+01     1.048124    0.2478597 -86.53  0.003652427    4.210    0.762
        97 -12.2571    249.6086    215.8949   3.8556762377e+01  -5.0148123688e+00    0.2241239    0.1426005 -29.73  0.001527342    1.483    0.326
        98 -12.2288     79.1436    212.6507   7.2528457708e+01   1.9765661341e+01    0.4607164    0.2849272  52.61  0.001541708    1.453    0.312
        99 -11.8881     92.7352    213.0277   6.9412251034e+01   1.7779105727e+01    0.1855721    0.1653202  53.19  0.001134375    1.066    0.062
       100 -11.4643     84.5223    207.0257   7.0664190028e+01   2.0180566819e+01    0.1881399     0.130549 -70.04  0.001038299    1.609    0.379
       101 -12.3954     96.7925    201.7546   6.7113566698e+01   1.9493820316e+01    0.3079417    0.2544029  88.85  0.001722846    1.341    0.254
       102 -12.2150     27.7407    196.0881   8.3342649223e+01   2.9624444939e+01    0.6446466     0.226022 -81.52   0.00270168    2.922    0.658
       103 -12.0794     11.2978    193.0552   8.7083269120e+01   3.1892433221e+01     0.453305     0.191631  67.35  0.001834667    2.171    0.539
       104 -12.0027     96.5286     25.3962   2.1785241265e+01   5.7773431827e+01    0.3756479    0.2549109 -39.92  0.001885081    1.587    0.370
       105 -11.1705     46.4549    186.1609   7.7932028826e+01   2.9823737974e+01    0.3931956    0.2607299  76.20  0.001661117    1.462    0.316
       106 -12.8836     90.8564     20.8861   2.1419174251e+01   5.9697608194e+01    0.4055849    0.3101676  54.63  0.002092395    1.200    0.167
       107 -11.1019    232.0187    179.9995   3.5173380957e+01   1.9751839461e+00    0.2027428     0.129796  -4.25  0.001138842    1.689    0.408
