#   1 NUMBER                 Running object number                                     
#   2 MAG_AUTO               Kron-like elliptical aperture magnitude                    [mag]
#   3 X_IMAGE                Object position along x                                    [pixel]
#   4 Y_IMAGE                Object position along y                                    [pixel]
#   5 X_WORLD                Barycenter position along world x axis                     [deg]
#   6 Y_WORLD                Barycenter position along world y axis                     [deg]
#   7 A_WORLD                Profile RMS along major axis (world units)                 [deg]
#   8 B_WORLD                Profile RMS along minor axis (world units)                 [deg]
#   9 THETA_WORLD            Position angle (CCW/world-x)                               [deg]
#  10 FWHM_WORLD             FWHM assuming a gaussian core                              [deg]
#  11 ELONGATION             A_IMAGE/B_IMAGE                                           
#  12 ELLIPTICITY            1 - B_IMAGE/A_IMAGE                                       
         1 -11.0533    234.3922     47.6516   3.5955072031e+02   2.3138363232e+01    0.4950203    0.3369106 -36.03  0.002745195    1.236    0.191
         2  -9.5769    108.7663     25.3040   9.1445740362e+00   5.5165813483e+01    0.3931902    0.2528434  35.97  0.001817723    1.887    0.470
         3  -9.8415    238.1810     15.2777   3.5210025559e+02   2.6202525890e+01    0.3325323    0.2208338  21.03  0.001804605    3.053    0.672
         4 -10.6158    166.0907      5.3273   3.5413951948e+02   4.2828440465e+01    0.5675889    0.4940741 -48.65  0.003492656    1.139    0.122
         5  -9.3298    221.4971      5.9851   3.5083965366e+02   3.0420457429e+01    0.1778819    0.0980439 -33.44  0.001024186    1.564    0.361
         6 -10.3708    236.2607      2.2815   3.4935261817e+02   2.7898104519e+01    0.3703749     0.183153 -75.35  0.002145145    1.922    0.480
         7 -10.3414    219.9451    220.9019   3.5831702005e+01   5.5949885450e-01    0.3575921    0.2560546   5.93  0.002527201    1.135    0.119
         8 -10.2594    214.1222    218.3649   3.6403349541e+01   1.5314406958e+00    0.5208593    0.1845555  30.57  0.002604555    2.694    0.629
         9 -10.2670    211.5102    213.7122   3.6122004748e+01   2.4447413311e+00    0.4590485    0.2435806  22.81  0.002728949    1.785    0.440
        10 -10.2640    205.5129    211.6639   3.6823224948e+01   3.4294393776e+00    0.4066715    0.2389537 -26.64  0.002504692    1.561    0.359
        11  -9.7163    191.0163    218.0515   4.0367921288e+01   4.2831949647e+00    0.3486578    0.3243907  -6.95  0.002629617    1.366    0.268
        12  -8.9423    226.1898    217.0904   3.4243932989e+01   3.5899260672e-01    0.2383066    0.1206164 -22.68  0.001421847    1.821    0.451
        13  -8.3627    250.5977    208.6840   2.9235562800e+01  -1.1826060287e+00    0.2041174   0.07917868 -30.78  0.001144859    2.126    0.530
        14  -9.3024    199.1824    207.4992   3.7270396136e+01   4.7864281228e+00    0.2366779    0.2008406   1.40  0.001388007    1.131    0.115
        15  -9.5526    194.0366    205.5823   3.7884015788e+01   5.7115748507e+00    0.2280068    0.2084396  66.20  0.001121307    1.814    0.449
        16 -10.1011    124.0091    206.0014   5.2233683206e+01   1.5161381532e+01     0.184714    0.1622714  22.81  0.001169806    1.010    0.010
        17  -8.8748    246.2014    204.7922   2.9254103171e+01  -2.6032704491e-01    0.1760948    0.1579909 -18.74  0.001429202    1.567    0.362
        18  -9.5004    224.7313    203.5750   3.2338070717e+01   2.2632221851e+00    0.1958661   0.09654391  26.65  0.001123104    2.022    0.505
        19 -10.6635    231.3656    199.8742   3.0689430506e+01   1.9879047846e+00     0.415406    0.2471769   1.76   0.00256244    1.748    0.428
        20 -10.3623    249.1378    197.0865   2.7581467309e+01   3.7378007064e-01    0.3762973    0.2521449 -14.95  0.002726187    1.145    0.126
        21 -10.0955    244.8424    193.4734   2.7605490891e+01   1.2948995077e+00    0.2770078    0.1597059 -33.38   0.00181029    1.502    0.334
        22 -10.2779    218.8580    197.0065   3.2206892450e+01   3.8469439303e+00    0.3060401    0.1844723 -23.44  0.001261975    1.456    0.313
        23 -11.6631    199.3570    194.2276   3.5063926075e+01   6.7139478706e+00    0.5373254    0.3097219 -32.85  0.003084695    1.601    0.375
        24 -10.6580    237.4225    188.6552   2.7891122528e+01   2.7640377864e+00    0.3297108    0.2476777 -25.26  0.002381528    1.187    0.158
        25 -10.4645    243.9651    184.0641   2.6144508779e+01   2.6071713616e+00    0.3937811    0.2206383  -2.26  0.002245707    2.144    0.534
        26 -10.6355    207.4527    188.8899   3.2740061200e+01   6.4478302596e+00    0.3435053    0.1694836 -22.65  0.001682317    2.282    0.562
        27  -9.6227    215.1345    190.2507   3.1678718681e+01   5.2595875385e+00    0.2105678    0.1511053 -54.35  0.001250544    2.192    0.544
        28  -8.3515    191.3250    185.3299   3.4985954776e+01   9.1820874319e+00    0.1313304   0.08604241  -5.97 0.0006403953    1.702    0.413
        29  -9.1152    185.6868    183.4874   3.5712408187e+01   1.0279485719e+01    0.2202819    0.1604904 -67.97   0.00114292    2.492    0.599
        30 -11.6945    225.9707    173.9632   2.7068723483e+01   6.2050525902e+00     1.087069    0.4916161 -53.22  0.003591907    6.502    0.846
        31 -11.1101    228.7133    190.6263   2.9557935813e+01   3.5313400272e+00     0.459637    0.2718123 -11.71  0.002751036    1.698    0.411
        32 -10.2933    213.5519    179.2296   3.0013179557e+01   7.0751125360e+00    0.2546319    0.1349056  21.48  0.001312946    2.217    0.549
        33  -8.8941    249.8968    177.6463   2.4195637949e+01   2.7577884846e+00    0.2090988    0.1164751 -25.16  0.001307542    1.443    0.307
        34  -8.6427    177.4160    180.7912   3.6823591096e+01   1.1937125960e+01    0.1887485    0.1097355 -30.07 0.0009540403    1.745    0.427
        35  -9.0051    124.6058    166.4527   4.5887581278e+01   2.3079495811e+01     0.419189    0.2036008 -46.77  0.001761313    2.114    0.527
        36 -10.2023    198.5303    163.2498   2.9626868046e+01   1.1710709276e+01    0.3795334    0.2577371  50.81  0.002093639    1.951    0.487
        37  -9.7907    198.5083    159.4961   2.8904514875e+01   1.2331842472e+01    0.3258894    0.1720039 -34.78  0.001619411    1.717    0.418
        38 -10.4259    218.1840    160.2921   2.5761171584e+01   9.2917878753e+00    0.3788627    0.1881086 -24.56  0.001833627    2.130    0.531
        39 -10.8892    213.8205    149.0797   2.4275133100e+01   1.1674835036e+01    0.4183827    0.1914988 -35.12  0.002008617    1.896    0.473
        40 -10.5811    217.8705    149.6358   2.3744122410e+01   1.0978249242e+01    0.2883808    0.1912346 -37.28   0.00169371    1.320    0.243
        41 -10.9913    223.4944    155.4946   2.4012811168e+01   9.2627537913e+00    0.5185614    0.1735062 -44.00  0.002106771    3.070    0.674
        42 -10.2774    220.1883    153.6090   2.4159910845e+01   1.0024450522e+01    0.2489851     0.173743 -10.61 0.0009341674    1.468    0.319
        43 -10.9315    243.3826    155.0234   2.1028586917e+01   6.6152437724e+00    0.3521275    0.2807744 -47.25  0.002434921    1.543    0.352
        44 -10.5524    227.9200    154.0968   2.3073901545e+01   8.8459173132e+00    0.3131037    0.1968507 -57.18  0.001609672    2.605    0.616
        45 -10.1849    217.3897    141.6666   2.2225545578e+01   1.2295959771e+01    0.5815957    0.1804628 -45.87  0.002083504    3.675    0.728
        46  -8.4134     81.1612    144.1868   5.3815294468e+01   3.5400371730e+01    0.2170735    0.1713846  65.67 0.0007792544    1.332    0.249
        47 -12.0357    225.4332    134.5651   1.9579085828e+01   1.2158557937e+01    0.8526592    0.4938763 -45.36  0.004637965    1.675    0.403
        48 -11.9121    239.9664    129.7808   1.6611875292e+01   1.0691344181e+01    0.6258044    0.3275595 -21.70  0.003178502    2.079    0.519
        49  -9.6437     56.3422    128.7191   5.9162395971e+01   4.3060005613e+01     0.540649    0.2349373 -54.15  0.002060629    2.223    0.550
        50 -11.1363    228.3892    124.9373   1.7181969326e+01   1.3166833059e+01    0.4546807    0.2491257 -39.11  0.002456614    1.508    0.337
        51 -10.5785    116.0398    121.2221   3.8762885889e+01   3.4871593749e+01    0.8381761    0.5895159 -37.05  0.003820653    1.540    0.350
        52 -10.7392    234.5470    116.7626   1.4661407062e+01   1.3424650020e+01    0.2958547    0.2458744 -54.82   0.00197372    1.348    0.258
        53 -10.6648    229.0056    110.7683   1.4115234561e+01   1.5211991039e+01    0.4899479    0.3895298 -37.64  0.002588837    1.053    0.051
        54 -12.7336    243.9010    104.9584   1.1066491668e+01   1.3671284592e+01     1.297699    0.6667333 -35.54  0.005465117    1.510    0.338
        55  -9.2867    180.9074    100.8335   1.9066911842e+01   2.5717316061e+01    0.4003214    0.2026212 -34.09  0.001710153    1.910    0.476
        56  -9.8706    160.1768    100.3639   2.2841267881e+01   3.0135195694e+01    0.5046032     0.389166 -40.43  0.002580614    1.214    0.176
        57  -8.2701     47.5115     99.4947   5.6905581276e+01   5.2099600029e+01    0.1497463    0.1403009 -71.80 3.893083e-05    1.013    0.013
        58  -8.3897      2.6589     99.3188   7.5760821965e+01   5.6167289642e+01    0.1477432   0.08811408  58.54 0.0006769131    1.715    0.417
        59 -10.6604    241.0752     88.3519   7.8803144384e+00   1.6479525638e+01    0.4047769    0.2594595 -33.96  0.002112161    1.253    0.202
        60  -9.0980     12.3475     94.7983   7.1088774311e+01   5.6832260686e+01    0.3947667   0.04307212 -64.59  0.001095879    4.376    0.771
        61 -10.4063    211.0137     87.1001   1.1159047092e+01   2.2033567720e+01    0.8286764    0.3071442 -39.33  0.003471424    2.188    0.543
        62  -9.3738     83.6121     82.4813   3.8342738212e+01   5.0471842603e+01    0.5025656    0.3484319  -4.79    0.0019754    2.492    0.599
        63  -8.7791    128.7170     82.8559   2.4957809269e+01   4.0589627841e+01    0.3031077    0.2066528  85.39  0.001245619    2.122    0.529
        64  -9.8940    213.8733     70.0936   6.7655906791e+00   2.4029780905e+01     0.516919    0.2981982 -42.41  0.002405238    1.419    0.295
        65 -10.3904    184.2062     63.2852   8.7816657669e+00   3.1255308259e+01    0.6954662    0.4527005 -23.33  0.003291774    1.748    0.428
        66 -10.9257    139.7848     64.4556   1.6706910141e+01   4.1439635821e+01    0.7359109    0.5420728 -59.56  0.003376833    1.394    0.283
        67 -10.0268    250.4179     61.3609   1.2401648240e+00   1.8541161884e+01    0.5729117    0.1133204 -33.13  0.002036431    3.831    0.739
        68  -9.2805      4.4924     65.4971   7.0609927300e+01   6.5094318950e+01    0.1351346    0.1187096 -65.12  6.46606e-05    1.005    0.005
        69  -9.6886     86.7288     64.5714   3.1192356812e+01   5.3808918880e+01    0.5444372    0.3286799  49.29  0.002353505    1.681    0.405
        70  -8.9270    242.4115     55.2620   5.8501592430e-01   2.0710577389e+01    0.1775463   0.08386148 -41.70 0.0009447815    1.575    0.365
        71  -9.6840     96.0546     53.5693   2.3981184335e+01   5.3886349274e+01    0.4555608    0.3527082  -4.93  0.002145889    1.740    0.425
        72  -8.6281    185.4887    248.9852   4.5682534322e+01   7.6915751843e-01     0.178059    0.1204191  17.82  0.001267429    1.166    0.143
        73  -8.7060     49.6710     43.3374   3.8155425157e+01   6.5450342124e+01    0.1415837    0.1138431  83.65 0.0007051933    1.731    0.422
        74  -9.9263    140.5489     38.3229   7.9411613111e+00   4.5362442840e+01    0.4995197    0.3690612 -60.83  0.002562113    1.341    0.254
        75  -9.8235    172.5685     36.0082   2.6268126147e+00   3.7812793056e+01    0.3970997     0.329921 -40.87  0.002019256    1.162    0.140
        76 -10.8520    199.4531     44.9408   2.0877601079e+00   3.0526616030e+01    0.7525123    0.4189183 -33.95  0.003407286    1.603    0.376
        77 -10.0127    180.6325     26.2833   3.5895203998e+02   3.7121531693e+01    0.4504926     0.342339  -4.90  0.002488343    1.778    0.438
        78 -10.0587     82.6190     41.4649   2.3382335757e+01   5.9131978520e+01    0.4497226    0.4005313 -13.23  0.002133708    1.225    0.184
        79  -7.7405    203.6861    248.6889   4.2495163870e+01  -1.1223669806e+00    0.1098809   0.06398875  -1.78  0.000703083    1.633    0.388
        80  -8.1888     64.5229     23.0351   2.1155012278e+01   6.6094740125e+01    0.1962587    0.1107018 -55.23 0.0008098157    2.530    0.605
        81  -9.3565    202.8650     18.1751   3.5491040514e+02   3.3039956170e+01     0.270394    0.2381482  69.27  0.001188863    1.353    0.261
        82  -9.6438    142.6433     17.9914   6.4971453563e-01   4.7362909706e+01    0.4043226    0.3175339  61.21  0.002264984    1.301    0.232
        83  -8.2008    225.7632    240.6057   3.7776549992e+01  -2.4128592954e+00    0.1321654   0.08210651  29.63 0.0009369536    1.679    0.404
        84  -8.5542    171.7784     13.1628   3.5599416934e+02   4.0679528397e+01    0.2459789    0.1455077  50.58  0.001108455    2.044    0.511
        85  -8.2007    151.3309    239.3202   5.0836911313e+01   6.0158189381e+00     0.119523   0.07793047  -1.71 -0.0001537653    1.693    0.409
        86  -8.2077    131.6588    238.6695   5.4706382092e+01   8.5114876718e+00    0.1212833   0.08172596  -2.99 0.0007051445    1.745    0.427
