#   1 NUMBER                 Running object number                                     
#   2 MAG_AUTO               Kron-like elliptical aperture magnitude                    [mag]
#   3 X_IMAGE                Object position along x                                    [pixel]
#   4 Y_IMAGE                Object position along y                                    [pixel]
#   5 X_WORLD                Barycenter position along world x axis                     [deg]
#   6 Y_WORLD                Barycenter position along world y axis                     [deg]
#   7 A_WORLD                Profile RMS along major axis (world units)                 [deg]
#   8 B_WORLD                Profile RMS along minor axis (world units)                 [deg]
#   9 THETA_WORLD            Position angle (CCW/world-x)                               [deg]
#  10 FWHM_WORLD             FWHM assuming a gaussian core                              [deg]
#  11 ELONGATION             A_IMAGE/B_IMAGE                                           
#  12 ELLIPTICITY            1 - B_IMAGE/A_IMAGE                                       
         1 -19.2255    225.6501     82.7771   6.0022111450e+01   1.7105961787e+01     7.067025     6.160033 -14.68    0.0279284    1.224    0.183
         2 -11.2292    119.2367     10.0378   5.6320149388e+01   5.4104436380e+01    0.6671404    0.3955581  38.65  0.003086028    1.621    0.383
         3  -8.9272    198.9613     11.0504   4.4220070627e+01   3.3743576462e+01     0.201172    0.1829112  74.31 0.0003689254    1.094    0.086
         4 -10.1811     49.1014      9.9252   7.8076907361e+01   6.7886415971e+01    0.2285826     0.143736 -21.50 0.0009558249    1.401    0.286
         5 -10.3778    207.8325      7.2431   4.2260387318e+01   3.1898642020e+01    0.7443446    0.1861956  55.59  0.002480122    3.760    0.734
         6  -9.2319    213.5036      5.0530   4.1144797709e+01   3.0711990215e+01    0.1772256    0.1284612 -31.83 -0.0002890331    1.440    0.306
         7  -9.2298    249.0819      3.4491   3.7884380989e+01   2.2463079073e+01    0.1914915    0.1239976  89.64 0.0004456755    1.453    0.312
         8 -12.1634     68.0394    144.4787   1.1095327234e+02   3.7274612860e+01     1.123854     0.600911  64.21   0.00494564    2.345    0.573
         9 -11.3639    246.1278    249.2233   9.1240881359e+01  -1.0930973966e+01    0.6098602    0.2041084  39.43  0.003049104    2.485    0.598
        10 -11.3066    103.0160    129.4366   9.9073433750e+01   3.5349050609e+01     0.389685    0.3413825  31.61  0.001507148    1.285    0.222
        11 -11.3465     33.8603    119.6980   1.1622869916e+02   4.7126734882e+01     0.453033    0.2149086 -63.55  0.002261096    1.689    0.408
        12 -12.5798     99.8857    121.8237   9.8251035262e+01   3.7689254302e+01    0.9325359    0.7394547  25.03  0.003750941    1.516    0.340
        13  -9.4601    106.7810     94.2337   8.9396157016e+01   4.2753483222e+01    0.2739676    0.1898713 -55.75 0.0009328978    1.459    0.315
        14  -8.0764    100.2418     89.9652   9.0099856651e+01   4.4938015647e+01    0.1837946    0.1201971 -48.54            0    1.442    0.306
        15  -9.3964    220.9787    192.4669   8.5908439711e+01  -3.1066235172e-02     0.188441     0.161963  -7.25 7.859044e-05    1.118    0.105
        16 -10.9156    139.2942     78.5380   7.5918605306e+01   3.9030060633e+01    0.4176334    0.3043486 -41.37  0.001101165    1.351    0.260
        17 -10.3119    126.3562     81.4967   8.0186207523e+01   4.1396461832e+01    0.4524878    0.1796283 -38.03  0.001527777    2.579    0.612
        18  -8.8659    101.2818     74.2808   8.5068281030e+01   4.8087532225e+01    0.2685155    0.1651661 -40.68 0.0007757869    1.544    0.353
        19 -10.3758    115.1078     68.8702   7.9260833409e+01   4.6348352305e+01    0.2416802    0.2243979  -9.02  0.001304905    1.073    0.068
        20 -11.4257    194.6297    185.8525   8.9643501393e+01   5.8196422743e+00     0.464349    0.2786216  60.05  0.001599893    2.367    0.578
        21 -10.3094    142.8891    180.5003   9.9371338667e+01   1.6690898068e+01    0.2484152    0.2032142 -69.58  0.000357781    1.357    0.263
        22  -9.9546    138.4116    178.7335   1.0003870207e+02   1.7884667909e+01    0.1969956    0.1756707  73.65 0.0007916644    1.120    0.107
        23 -11.9095    192.4633    193.9738   9.1575999323e+01   4.8920066440e+00    0.9539101    0.5360558 -62.88  0.003634247    3.916    0.745
        24 -10.5135    158.2621     33.1030   5.6863697855e+01   4.1732903098e+01    0.4643936    0.3045081  14.49  0.001677165    2.120    0.528
        25  -8.8689     75.9067    178.0145   1.1378765920e+02   2.8501678130e+01    0.1851172    0.1592485  83.37            0    1.046    0.044
        26 -10.4462    144.0488     32.9972   5.9604734100e+01   4.5377702941e+01    0.2833894    0.2426644  38.30 0.0003335198    1.148    0.129
        27  -9.4948    146.1593     29.0393   5.7794080019e+01   4.5354117657e+01    0.3244829    0.2201824  -7.55 0.0009488226    1.770    0.435
        28  -8.8703    122.6231     32.1356   6.4113995224e+01   5.0727288606e+01    0.2022565    0.1346193 -11.21 0.0005592991    1.718    0.418
        29  -9.7855    135.4126     22.5213   5.7640618217e+01   4.8839712774e+01    0.4498386    0.2646235 -10.50   0.00139109    2.068    0.517
        30  -9.3546    240.2775    174.4675   7.8918323497e+01  -7.8870783387e-01     0.263666    0.1905922 -25.98  0.000785015    1.310    0.237
        31 -10.7653    130.9549    166.4979   9.9528843219e+01   2.1824253813e+01    0.3028694    0.2494878  55.12 0.0009267397    1.150    0.130
        32  -8.4274     75.9977    162.4810   1.1168997485e+02   3.1968914827e+01    0.1785992    0.1266445  43.78 6.082678e-05    1.439    0.305
        33 -10.3878    123.7024    241.1184   1.1165365580e+02   9.0894523153e+00      0.20904    0.1723796  51.12 0.0003060536    1.079    0.073
        34 -12.4656     61.2345    133.0990   1.1089902744e+02   4.0878782006e+01    0.6643062     0.573958  38.46  0.000753188    1.338    0.252
        35 -14.3290     72.6403    129.7233   1.0726345743e+02   4.0144128719e+01      2.14541     1.585119  17.89  0.008061153    1.841    0.457
        36 -10.8767     58.5791    146.0965   1.1357069535e+02   3.8135200417e+01    0.5322924    0.2862035  85.59  0.002340404    2.395    0.582
        37  -9.9417    118.0822    144.6319   9.8383559057e+01   2.9075936195e+01    0.2915486    0.2007206 -75.06  0.001071237    1.720    0.419
        38 -13.7235      5.6726    147.3957   1.2635358160e+02   4.3105155709e+01     1.595887    0.7372313 -55.59  0.008713793    2.217    0.549
        39 -14.0526     39.9703    138.3472   1.1718791203e+02   4.2112680203e+01     1.614636      1.28467  30.22  0.007386276    1.560    0.359
        40  -9.0876    232.9415    197.5882   8.4722940664e+01  -2.8109995391e+00    0.2287279    0.1675534 -51.06  0.001285779    2.006    0.502
