#   1 NUMBER                 Running object number                                     
#   2 MAG_AUTO               Kron-like elliptical aperture magnitude                    [mag]
#   3 X_IMAGE                Object position along x                                    [pixel]
#   4 Y_IMAGE                Object position along y                                    [pixel]
#   5 X_WORLD                Barycenter position along world x axis                     [deg]
#   6 Y_WORLD                Barycenter position along world y axis                     [deg]
#   7 A_WORLD                Profile RMS along major axis (world units)                 [deg]
#   8 B_WORLD                Profile RMS along minor axis (world units)                 [deg]
#   9 THETA_WORLD            Position angle (CCW/world-x)                               [deg]
#  10 FWHM_WORLD             FWHM assuming a gaussian core                              [deg]
#  11 ELONGATION             A_IMAGE/B_IMAGE                                           
#  12 ELLIPTICITY            1 - B_IMAGE/A_IMAGE                                       
         1 -14.2933    234.0273     50.9888   5.0726145989e+01   2.0004784085e+01     1.818288    0.8489025 -44.47  0.005237659    1.945    0.486
         2 -10.5249      2.0000      5.0219   9.9366288370e+01   7.3587414611e+01     0.489787   0.04833051 -51.45  0.001360417    8.151    0.877
         3 -10.4727    248.0200      2.4932   3.7744741372e+01   2.2804407170e+01    0.2879465   0.09775358  67.55  0.001230608    2.761    0.638
         4 -13.6636    117.1251    230.7408   1.1171010249e+02   1.1829580672e+01     1.823886    0.5276425  43.93  0.007551894    2.736    0.634
         5 -13.7151    126.7994    243.9664   1.1140659973e+02   8.1572237412e+00     1.614239    0.5590253 -56.19  0.007501211    3.587    0.721
         6 -13.5949    117.6018    245.9698   1.1326366156e+02   9.2635844361e+00    0.8850753    0.5703794 -64.85  0.005699678    1.882    0.469
         7 -16.0108     12.8774    213.7605   1.2924014712e+02   2.8621529879e+01     1.961989    0.7814879 -88.58  0.005742297    2.183    0.542
         8 -14.8016      4.8063    194.8257   1.2965628622e+02   3.3088379287e+01     0.490947    0.3376154  88.96  0.001855504    1.129    0.114
         9 -13.3861     51.5078    249.1193   1.2483310317e+02   1.7923273478e+01    0.3339196    0.3203159  49.67  0.001304114    1.678    0.404
        10 -14.8688     39.5906    249.5002   1.2677005313e+02   1.9286102749e+01     1.143995    0.4249813  40.44  0.003225432    2.372    0.578
        11 -12.4833     85.2749    244.9917   1.1885475537e+02   1.4171001221e+01    0.4949366    0.4422171 -88.88   0.00387682    1.350    0.259
        12 -11.9896    246.3429    243.3264   9.0288589585e+01  -1.0358734549e+01    0.4807641    0.1839944  32.93  0.002490952    2.170    0.539
        13 -11.4205    161.0962    240.9841   1.0483999511e+02   3.1206798987e+00    0.4056069    0.2851915  21.26  0.002010144    1.640    0.390
        14 -12.8049     96.1497    240.1831   1.1651523335e+02   1.3419564293e+01    0.4842944    0.3338483 -74.80  0.003246975    1.607    0.378
        15 -15.2006      4.5542    127.5730   1.2487982920e+02   4.7652907759e+01     13.96775      1.65949 -75.87    0.0330687    8.934    0.888
        16  -9.7361     74.3194    237.3085   1.2012741554e+02   1.6999119462e+01   0.09388027   0.08999542  21.03 0.0003457071    1.639    0.390
        17 -11.3784     84.0614    232.0208   1.1793349039e+02   1.6575703106e+01    0.3439513    0.2043334 -73.74  0.002114037    1.801    0.445
        18  -9.9843    168.9424    229.9627   1.0190132720e+02   3.4363453790e+00    0.1901295    0.1421774  67.72  0.001135681    1.704    0.413
        19 -13.1113     32.3760    117.1910   1.1627190171e+02   4.7858455317e+01     1.821869    0.1894218 -66.62  0.004582208    6.679    0.850
        20 -13.3212     39.6930    228.1738   1.2547990777e+02   2.3028754094e+01    0.3461335    0.2729903  47.20 0.0009094989    1.439    0.305
        21 -10.1343     70.5789    144.8111   1.1036354515e+02   3.6846192750e+01     0.264421    0.1795505  60.72  0.001104825    1.522    0.343
        22 -12.3850     32.6242    149.1049   1.2027678297e+02   4.0362665149e+01     1.406526     0.143647 -70.84  0.003031781    9.972    0.900
        23 -13.9505     30.4581    221.3993   1.2664694530e+02   2.5336964113e+01     1.039139    0.6172611  70.20  0.004178239    1.292    0.226
        24 -10.9365    248.7460    249.0387   9.0785547509e+01  -1.1271749235e+01    0.3898945    0.1781412  28.59  0.002248294    1.810    0.448
        25 -10.6095    221.9827     52.3084   5.2593469524e+01   2.2706255491e+01    0.7725043    0.2649583 -32.59  0.002741089    2.714    0.632
        26 -15.5369      8.7025    246.0359   1.3138604766e+02   2.3220828303e+01     1.446528    0.9067208  41.10  0.005385857    1.747    0.428
