#   1 NUMBER                 Running object number                                     
#   2 MAG_AUTO               Kron-like elliptical aperture magnitude                    [mag]
#   3 X_IMAGE                Object position along x                                    [pixel]
#   4 Y_IMAGE                Object position along y                                    [pixel]
#   5 X_WORLD                Barycenter position along world x axis                     [deg]
#   6 Y_WORLD                Barycenter position along world y axis                     [deg]
#   7 A_WORLD                Profile RMS along major axis (world units)                 [deg]
#   8 B_WORLD                Profile RMS along minor axis (world units)                 [deg]
#   9 THETA_WORLD            Position angle (CCW/world-x)                               [deg]
#  10 FWHM_WORLD             FWHM assuming a gaussian core                              [deg]
#  11 ELONGATION             A_IMAGE/B_IMAGE                                           
#  12 ELLIPTICITY            1 - B_IMAGE/A_IMAGE                                       
         1 -12.2454    168.9544     24.7544   4.4002988640e+01   3.9743799581e+01    0.5024584    0.2487264 -12.86  0.001587996    3.144    0.682
         2 -11.3898     88.9978     10.3732   5.4840882958e+01   6.0249926985e+01    0.2606973    0.1787653 -14.44  0.000767228    1.544    0.352
         3 -13.7538     55.6475    149.7524   1.0758668748e+02   3.7793372809e+01    0.4522591    0.4257311  20.59 0.0009700249    1.264    0.209
         4 -17.0600    137.1877     32.5645   5.1887213246e+01   4.6731621227e+01     10.60221     4.464456 -31.65   0.04298109    2.464    0.594
         5 -11.4894    192.3851    153.5920   7.3902471325e+01   1.1976729203e+01    0.4440196    0.2332889 -40.02  0.001847693    1.843    0.457
         6 -10.9977    189.6704    148.6707   7.3352374764e+01   1.3496609552e+01    0.3592917     0.255945 -68.17   0.00137652    2.041    0.510
         7 -11.9260    150.4619    150.3962   8.2564749723e+01   2.1278516204e+01    0.4862903    0.2983177  57.86  0.001968229    2.007    0.502
         8 -12.1740    143.9794    146.4598   8.3255699238e+01   2.3493842244e+01    0.8661803    0.4090185 -63.59  0.002498612    4.091    0.756
         9 -12.0147    133.8658    146.1436   8.5719626066e+01   2.5628762809e+01     1.196845    0.3497435 -55.73  0.002893437    5.293    0.811
        10 -10.7547    132.2772    138.6268   8.4407576636e+01   2.7687117297e+01    0.3051249     0.226434 -75.94  0.000939768    1.735    0.424
        11 -11.2881    172.1879    149.8490   7.7395306688e+01   1.6880198275e+01    0.2363673    0.2163684 -88.17   0.00122852    1.282    0.220
        12 -11.8963    215.3827    148.0053   6.8134318402e+01   8.4795748300e+00    0.4067837    0.2596057  44.35  0.001340945    1.680    0.405
        13 -10.8831    180.7017    148.0232   7.5106790722e+01   1.5482141405e+01    0.2438755    0.2175113  42.72 0.0003629805    1.157    0.135
        14 -11.7798    178.2972    144.5188   7.4818378398e+01   1.6702237916e+01    0.4935403    0.2209091 -43.10  0.001726308    2.187    0.543
        15 -13.1705    185.4890    171.4943   7.9232328173e+01   9.8473294520e+00    0.6989681    0.4029273 -66.76  0.002328065    4.017    0.751
        16 -10.9373    216.4925    142.6783   6.6731412078e+01   9.2359810272e+00    0.2581459    0.2286804 -10.08 0.0005597149    1.099    0.090
        17 -15.1742    192.8593     79.4770   5.5424048434e+01   2.5931538110e+01     2.379847     1.098839  40.84  0.008526371    2.900    0.655
        18 -11.0428    162.9702    141.1047   7.7462198373e+01   2.0676946345e+01    0.2340173    0.2130408  89.30  0.000514354    1.260    0.206
        19 -13.0597    188.5591    137.8318   7.1063089215e+01   1.5882609163e+01    0.5867432     0.428058  42.10  0.001711282    1.418    0.295
        20 -11.9562    174.8170    138.8300   7.4242370134e+01   1.8617242610e+01    0.3610208    0.2650733  61.13  0.001647014    1.618    0.382
        21 -13.0644    176.4893    133.3620   7.2560899786e+01   1.9386509372e+01    0.6322535    0.4644927  36.90  0.002957513    1.427    0.299
        22 -10.3386     93.9514    219.9961   1.0776211004e+02   1.6147427386e+01    0.1574161    0.1351757  60.07 0.0003980457    1.005    0.004
        23 -12.9636    156.9505    133.8610   7.7136347572e+01   2.3538934100e+01    0.9171345    0.5342602 -73.77  0.002699515    4.245    0.764
        24 -14.4351    160.8181    128.2964   7.4853735432e+01   2.3893430011e+01     1.239342     0.932921 -84.19  0.005365699    1.903    0.474
        25 -13.6170    161.2137    118.6928   7.2322655434e+01   2.5846444389e+01    0.7502047    0.6013538  83.79 0.0008915395    1.596    0.374
        26 -12.8721    168.1244    114.0869   6.9554797799e+01   2.5230610369e+01    0.5385798    0.5360793 -49.80 0.0009730623    1.024    0.024
        27 -13.4108    170.5996    124.7495   7.1733783110e+01   2.2468781238e+01    0.8674546    0.6719932 -49.19  0.004125975    1.299    0.230
        28 -11.5601    240.6387    132.7906   6.0381513754e+01   6.3774674937e+00    0.2875212    0.2128351  60.15 0.0009030214    1.717    0.417
        29 -11.2325    189.2362    130.0958   6.9070258970e+01   1.7275510893e+01    0.2674207    0.2565863  89.89 0.0008175963    1.152    0.132
        30 -11.3995    149.9370    130.7529   7.8064203026e+01   2.5742092106e+01    0.3153012    0.2321943 -53.91 0.0009386271    1.416    0.294
        31 -10.1491    195.6960    128.3536   6.7347454260e+01   1.6222371185e+01    0.1963754     0.141414  39.07  0.000905201    1.479    0.324
        32 -12.4631    187.2303    168.3892   7.8209668774e+01   1.0112685689e+01    0.3278961    0.2005818  49.10  0.001091925    1.787    0.440
        33 -11.9103    183.2803    123.1654   6.8600404886e+01   1.9964240973e+01    0.4234423    0.3521914 -27.54  0.001501146    1.213    0.176
        34 -11.4929    186.1644    120.4362   6.7322586365e+01   1.9865233487e+01    0.4344183    0.3225767 -65.03   0.00147646    1.652    0.395
        35 -11.1202    208.2910    122.7960   6.3608107977e+01   1.4588057651e+01    0.2218651    0.2070043 -61.93 0.0005745982    1.145    0.127
        36 -10.6974    203.7846    123.2070   6.4543696752e+01   1.5471322138e+01    0.4574029     0.262003  66.80  0.001758702    2.686    0.628
        37 -12.4119    142.5768    121.9353   7.7674448088e+01   2.9298074097e+01    0.6736454    0.3304577  62.11   0.00201305    3.687    0.729
        38 -10.6064    137.1615    170.7269   9.0065251820e+01   1.9399208563e+01    0.2517739    0.1887623  60.43  0.001199184    1.497    0.332
        39 -10.6054    174.7075    114.5353   6.8229526010e+01   2.3633108546e+01    0.3270714    0.2419646 -81.58 0.0007800053    1.923    0.480
        40 -18.4216    233.8012     90.2765   5.1733411291e+01   1.4908402923e+01     14.57607     4.063854 -40.02    0.0500924    2.994    0.666
        41 -15.8616     66.9500    144.1603   1.0353034106e+02   3.7707630094e+01     1.835075     1.498703 -11.67  0.003686063    1.605    0.377
        42 -10.2510    194.4605    104.4777   6.1650872821e+01   2.1067098949e+01    0.2655622    0.1410095 -37.80 0.0008387439    1.797    0.444
        43 -11.0229    188.3106    108.1522   6.3777271176e+01   2.1775906108e+01    0.3964383    0.2542245 -20.05 0.0009825515    2.024    0.506
        44 -10.4873    191.4981    106.4738   6.2725597418e+01   2.1367446074e+01    0.3008593     0.268105 -65.48  0.001575078    1.178    0.151
        45 -10.5812    205.7395    102.4975   5.9101538659e+01   1.8883604509e+01    0.2580207    0.1583233 -54.80  0.001048803    1.799    0.444
        46 -13.1928    198.9148     98.9775   5.9426727851e+01   2.1065450367e+01    0.4989539    0.4019849 -39.05   0.00214533    1.175    0.149
        47 -11.8057    187.4190     98.3589   6.1409440032e+01   2.3836876873e+01    0.4596341    0.3479138  -7.22 0.0006280605    1.733    0.423
        48 -12.6923    183.2051    206.7846   8.6563582816e+01   3.7417262550e+00     0.514288    0.2808128 -16.33  0.001974575    3.259    0.693
        49 -14.3531    205.4553     73.8799   5.1904881043e+01   2.3890017384e+01    0.6296784    0.4894232  46.44  0.003293013    1.432    0.302
        50 -10.8537    193.4890     89.9571   5.8074752519e+01   2.3950695249e+01    0.2577947    0.2057013  31.57 0.0008329723    1.477    0.323
        51 -10.6707    201.2641     88.5750   5.6353468291e+01   2.2382735121e+01    0.3490301    0.1504921  65.72  0.001176246    3.224    0.690
        52 -12.1885    177.2696    169.6279   8.0605945937e+01   1.1809840234e+01    0.2699778    0.1789222 -51.88 0.0007540444    1.683    0.406
        53 -13.1447    202.0557    165.4719   7.4542465995e+01   7.8166749903e+00     1.018751     0.679452  89.40  0.003429812    4.548    0.780
        54 -10.6376    180.2261     54.5087   5.0749939062e+01   3.3017755316e+01    0.2385908    0.1914613 -19.19 0.0007451927    1.441    0.306
        55 -12.7380    192.6445     53.1707   4.8434183796e+01   3.0163378240e+01    0.3422646    0.2643924 -85.75  0.001111434    1.351    0.260
        56 -10.6332    188.3154     52.7026   4.8963153097e+01   3.1289908916e+01    0.1912721    0.1695181 -35.54 0.0004362034    1.184    0.155
        57 -10.3187    107.9935    158.7845   9.5060461295e+01   2.7570651668e+01    0.2299344    0.1891807  73.22 0.0006800207    1.323    0.244
        58 -13.7582    181.5728     43.7789   4.7537656501e+01   3.4215805894e+01    0.6500769    0.2945514 -27.98  0.002415871    2.474    0.596
        59 -11.6140    192.8152     46.7897   4.6704556626e+01   3.1033897474e+01    0.2510988    0.2140098  -9.50  0.001049654    1.446    0.308
        60  -9.2917    189.3797     41.9880   4.5904160038e+01   3.2532956544e+01    0.2609656    0.1931958  27.26 0.0009705799    1.835    0.455
        61 -11.0630    191.8164     35.8272   4.3923223007e+01   3.2746062675e+01    0.3070388    0.1803689  53.69  0.001476577    1.738    0.424
        62 -10.0855    202.1798    248.2193   8.9699403508e+01  -5.6643376974e+00    0.1490043    0.1263006  31.86 0.0003017602    1.285    0.222
        63  99.0000    196.4442     25.4731   4.0643359631e+01   3.2895443880e+01     0.404726    0.2695106 -29.22  0.002158093    1.642    0.391
        64 -11.6883    188.3467    154.6740   7.4985580834e+01   1.2579068972e+01    0.3706072    0.2712741 -75.94  0.001622826    2.181    0.541
        65 -10.7042     39.4768     19.0063   7.6979938554e+01   6.8061646548e+01     0.177163   0.08858062 -15.44 0.0008095929    2.519    0.603
        66 -15.7351     21.9549    161.9435   1.1790619040e+02   3.8414368207e+01     2.825233     2.109089  25.11    0.0174753    1.661    0.398
        67 -10.6222    201.3006     12.2492   3.6796543520e+01   3.3210615248e+01    0.1197184   0.09081317  51.60 0.0004567443    1.495    0.331
