#   1 NUMBER                 Running object number                                     
#   2 MAG_AUTO               Kron-like elliptical aperture magnitude                    [mag]
#   3 X_IMAGE                Object position along x                                    [pixel]
#   4 Y_IMAGE                Object position along y                                    [pixel]
#   5 X_WORLD                Barycenter position along world x axis                     [deg]
#   6 Y_WORLD                Barycenter position along world y axis                     [deg]
#   7 A_WORLD                Profile RMS along major axis (world units)                 [deg]
#   8 B_WORLD                Profile RMS along minor axis (world units)                 [deg]
#   9 THETA_WORLD            Position angle (CCW/world-x)                               [deg]
#  10 FWHM_WORLD             FWHM assuming a gaussian core                              [deg]
#  11 ELONGATION             A_IMAGE/B_IMAGE                                           
#  12 ELLIPTICITY            1 - B_IMAGE/A_IMAGE                                       
         1 -10.4288    181.6927     38.0354   5.3525860710e+01   3.4960118563e+01     1.145507    0.4383168 -46.51 0.0005937962    2.908    0.656
         2 -11.4003    222.6684     14.1038   4.1834348556e+01   2.7559864053e+01    0.8431022    0.5787556 -83.93  0.003597295    1.413    0.292
         3 -12.4172    233.6816      4.3859   3.8529576226e+01   2.6009038016e+01     2.122429    0.9996637  78.30  0.007868012    2.047    0.512
         4  -8.1978    168.5612     12.6842   4.7735518796e+01   4.1354058008e+01    0.2289074    0.1833111  44.65 0.0003298162    1.271    0.213
         5  -8.9828     19.1933     12.4168   9.2557264024e+01   7.0952580220e+01    0.2289678   0.06811817 -42.98  0.001031614    2.666    0.625
         6  -8.9143    135.6863     10.5014   5.2362010848e+01   4.9915294050e+01    0.2449709    0.2280112  31.66 0.0008951779    1.065    0.061
         7  -8.8992     25.4183      3.7830   8.5060619876e+01   7.1610425282e+01    0.1681284   0.08548182 -26.72 0.0005860979    1.686    0.407
         8  -9.6721    230.0267    200.7601   8.4792190779e+01  -2.6329813282e+00    0.3113448    0.2648892 -69.68  0.001412978    2.032    0.508
         9 -13.4280    243.0193    238.9903   8.9139674148e+01  -9.3511793154e+00     3.791832      1.26617 -29.34   0.01770363    3.357    0.702
        10  -7.0137    142.0000    195.9780   1.0123689686e+02   1.3868191725e+01    0.1961764   0.07831869 -51.17 0.0004987188    2.791    0.642
        11  -7.7874    193.3523    195.6691   9.0721202544e+01   4.5286192011e+00    0.1308016    0.1067787  74.87 0.0007046855    1.776    0.437
        12  -9.1427    219.2489    190.7388   8.4865213481e+01   6.5195002273e-01    0.2583528     0.196502  -4.74 0.0002260299    1.313    0.238
        13  -8.5482    219.4594    186.0900   8.3927867330e+01   1.3187512946e+00    0.2197515    0.1702904  30.41  0.001271352    1.186    0.157
        14  -8.1399    229.1292    185.8629   8.2114799018e+01  -3.5047569420e-01    0.1827381    0.1360528   8.79 0.0003709623    1.299    0.230
        15  -9.0702    218.2066    195.3839   8.5938353966e+01   1.4192422606e-01    0.2447931    0.2020718  24.80 0.0003117035    1.083    0.077
        16 -10.3006    187.3823    182.2075   8.9387684439e+01   7.8998203888e+00    0.2487835    0.2322132  31.11 0.0003171815    1.074    0.069
        17  -8.3339    139.9491    182.9904   9.9532199478e+01   1.6763150612e+01    0.2001253    0.1867959  62.02 0.0003196801    1.037    0.036
        18  -9.0720     72.8788    179.6825   1.1392748695e+02   2.8518016674e+01    0.2164137    0.1790602 -81.00 0.0003542591    1.129    0.114
        19  -8.8068    250.2932    170.1030   7.5252948017e+01  -1.6886406155e+00    0.2206863    0.1477668  -9.90   0.00119346    1.496    0.332
        20  -8.7525    207.9978    165.9801   8.2023673347e+01   6.7087525415e+00    0.2038427    0.1859054  10.06            0    1.011    0.011
        21  -8.7628     73.0184    164.0691   1.1185032641e+02   3.1998176573e+01    0.1966781    0.1681869  84.11  0.001199608    1.021    0.020
        22  -7.1630    117.5516    163.4271   1.0118513769e+02   2.4976299120e+01    0.1422147    0.1315939  71.96  9.45588e-05    1.009    0.009
        23  -7.3699    135.8872    159.8396   9.6213693666e+01   2.2330198221e+01     0.193995    0.1661437  86.64 0.0002666898    1.279    0.218
        24  -7.4979    193.4654    164.4564   8.4578966744e+01   9.8519055068e+00    0.1416183     0.135367  22.48 0.0001242356    1.069    0.064
        25 -10.8725    249.3870    193.3043   8.0011931404e+01  -4.7617072601e+00    0.5228329    0.3832804 -20.90 0.0002158375    1.267    0.211
        26  -8.6672     94.0266    142.5218   1.0315151733e+02   3.3814981814e+01    0.2341167    0.1844966 -65.59 0.0007438111    1.205    0.170
        27  -7.6613      2.2996    130.9831   1.2513443451e+02   4.6950263865e+01    0.1643255    0.1163948 -80.05 0.0004433083    1.066    0.062
        28  -8.6718    153.0179    115.1733   8.1949929193e+01   2.8373476391e+01     0.238769    0.2182124 -35.73 0.0002701709    1.094    0.086
        29  -9.1678    240.1877    112.6973   6.4153807848e+01   9.1856656184e+00    0.3489444    0.1767057 -25.88  0.001438373    2.094    0.522
        30  -9.5862    209.5295    111.6242   6.9110748063e+01   1.6036454321e+01    0.2690367    0.2552817 -17.30 0.0002673816    1.020    0.020
        31  -8.4744    116.0985    111.1609   9.0338466300e+01   3.7126783066e+01    0.2198897    0.2055689 -14.74 0.0002810907    1.159    0.137
        32  -7.9930    214.6369    108.0943   6.7300427061e+01   1.5506672212e+01    0.2097373    0.1815516 -22.28 0.0004804993    1.132    0.117
        33  -9.5983    143.5530     99.6728   8.0075020455e+01   3.3774075707e+01    0.6568649    0.3105144  36.01  0.002242706    2.672    0.626
        34  -7.6313    237.1776     95.8427   6.0555818587e+01   1.2571783092e+01    0.1893357    0.1584781 -10.56 0.0002891336    1.280    0.219
        35  -8.5239     98.0193     91.9173   9.0350654429e+01   4.4889648227e+01    0.2160971    0.2034705 -38.44  0.001197877    1.016    0.016
        36  -8.4510    155.0216     88.9891   7.4251636302e+01   3.3253644160e+01    0.2876837    0.2615449  15.15   0.00050476    1.183    0.155
        37  -9.0414    152.4902     87.5053   7.4411336214e+01   3.4148402453e+01    0.5272166    0.3664595  -5.44  0.002132425    2.120    0.528
        38  -9.0860    146.0135     75.6314   7.2368506355e+01   3.7969291272e+01    0.4068009    0.2923069 -60.08 0.0007378283    1.671    0.402
        39  -8.2350    130.4870     76.3915   7.6503422767e+01   4.1452919718e+01    0.3874484    0.2396991  24.24  0.001501882    2.307    0.567
        40 -10.0568    166.6658     72.7386   6.6836995865e+01   3.3420147278e+01    0.4631298     0.418175 -40.81  0.001557582    1.101    0.091
        41 -10.2707    113.4221     70.9813   7.9445722428e+01   4.6241744732e+01    0.2894687    0.2415099  40.54 0.0001900866    1.227    0.185
        42  -7.0504    224.3040     69.3097   5.5785518292e+01   1.9727949844e+01    0.1420616     0.113257  16.96 0.0004269911    1.609    0.378
        43  -8.2017    124.8976     68.8926   7.5579946501e+01   4.4143858444e+01     0.229115    0.2024907   1.32 0.0002837074    1.196    0.164
        44  -9.2485    209.3873     63.5695   5.6482126289e+01   2.4216518824e+01     0.409647    0.2695751 -31.76  0.001438367    1.498    0.332
        45  -9.7482    161.5840     61.8523   6.4564015856e+01   3.6558479471e+01    0.4493995    0.3643117 -42.48  0.001301459    1.242    0.195
        46 -10.5694    180.5149     56.8318   5.9356403950e+01   3.2542318720e+01    0.7858016    0.5740789  47.13  0.003350052    1.403    0.287
        47  -9.0023    187.5170     49.4981   5.5985232905e+01   3.1853387767e+01    0.3654248    0.2480237 -65.12  0.001264945    1.732    0.423
        48  -9.4993      7.1419     43.7601   1.0965807285e+02   6.6065623653e+01    0.2288387    0.1305337 -11.33  0.001356593    2.070    0.517
        49  -7.4795    157.8475     42.8626   5.9251523899e+01   4.0438979859e+01    0.1929334    0.1674912 -68.96  0.001003507    1.259    0.206
        50  -8.5465    188.4350     38.5834   5.2643212408e+01   3.3148387396e+01    0.2840025    0.1822723  29.94  0.001232633    2.099    0.524
        51 -10.1376    120.1842    243.4826   1.1179105647e+02   9.1808290636e+00     0.211688    0.1886878  58.89  0.000309359    1.153    0.132
        52 -10.2931    183.3300     33.9018   5.2035526127e+01   3.5080548148e+01    0.4022461    0.2982888 -77.87 0.0005674848    1.494    0.331
        53 -10.2124    200.7855     36.0674   5.0152962023e+01   3.0326065373e+01    0.3901649     0.308904 -78.23 0.0005091438    1.290    0.225
        54  -8.5914    195.5063     32.0028   4.9727723013e+01   3.2194107538e+01    0.3342398    0.1918073 -54.03   0.00106781    1.871    0.465
        55  -8.0084    120.4977     35.5232   6.4995543630e+01   5.0637183926e+01    0.1422781    0.1358052  22.76 0.0001553782    1.041    0.039
        56 -10.3128    208.9850     27.7186   4.6822255156e+01   2.9322683655e+01    0.4099905    0.3516311  80.41 0.0006939596    1.115    0.103
        57  -8.8541    202.9749     23.4750   4.6391483611e+01   3.1343306506e+01    0.2897744    0.1926825 -71.80  0.001018796    1.612    0.380
        58  -8.1279    138.2616     22.9128   5.6334815006e+01   4.7961448013e+01     0.192102    0.1774461   0.05 0.0003845631    1.125    0.111
        59  -8.8610     28.8163    232.3724   1.2700556189e+02   2.3348519007e+01    0.1326041   0.09196565  38.14 0.0009475065    1.689    0.408
        60  -8.0359    122.8577    229.1470   1.0967150354e+02   1.1130603860e+01    0.1837318    0.1370195  61.12 0.0002838128    1.228    0.186
        61  -7.7023    176.5042     13.0090   4.6738670639e+01   3.9274645922e+01    0.2212234    0.1684686  64.45 0.0007492848    1.208    0.172
        62 -11.7052     35.4834    214.0119   1.2469643799e+02   2.6061687287e+01    0.8076142     0.541031  70.31  0.002280504    1.153    0.132
        63  -9.6263    231.3679    218.4507   8.7718170578e+01  -5.1946834450e+00    0.2702602    0.1782301  20.85  0.001628051    1.334    0.251
        64 -11.3492     54.7640    194.1823   1.1936131364e+02   2.7794491075e+01    0.9223797    0.6582525  72.70    0.0058992    1.184    0.156
