#   1 NUMBER                 Running object number                                     
#   2 MAG_AUTO               Kron-like elliptical aperture magnitude                    [mag]
#   3 X_IMAGE                Object position along x                                    [pixel]
#   4 Y_IMAGE                Object position along y                                    [pixel]
#   5 X_WORLD                Barycenter position along world x axis                     [deg]
#   6 Y_WORLD                Barycenter position along world y axis                     [deg]
#   7 A_WORLD                Profile RMS along major axis (world units)                 [deg]
#   8 B_WORLD                Profile RMS along minor axis (world units)                 [deg]
#   9 THETA_WORLD            Position angle (CCW/world-x)                               [deg]
#  10 FWHM_WORLD             FWHM assuming a gaussian core                              [deg]
#  11 ELONGATION             A_IMAGE/B_IMAGE                                           
#  12 ELLIPTICITY            1 - B_IMAGE/A_IMAGE                                       
         1 -12.3548    143.7104     58.6455   9.0841600855e+01   4.1241212523e+01     1.388406     0.832462 -29.70  0.004901035    1.684    0.406
         2 -12.3914    149.2914     33.2037   8.1095832816e+01   4.3577085886e+01     1.117694    0.9948204  77.09  0.006180151    1.238    0.192
         3 -10.7083    120.5763      8.7062   7.8162384418e+01   5.3207373125e+01    0.5465946    0.3822322  45.74  0.002090801    1.276    0.216
         4  -9.4144    159.9623      1.6897   6.8641669175e+01   4.4211239705e+01    0.3139636    0.1693629  60.19 0.0007715172    1.619    0.382
         5  -8.1581    171.5501    240.3245   1.2449369760e+02   3.5309385589e+00    0.2494109    0.1563612 -23.83  0.001196147    2.333    0.571
         6  -9.8142    249.3441    248.3822   1.1255518541e+02  -9.1195009018e+00    0.3598407      0.21384   0.80  0.002353192    1.706    0.414
         7 -18.2939    104.4655    205.2318   1.3241934678e+02   1.9661344394e+01     5.254991     4.234757  50.10   0.01279219    1.114    0.102
         8  -9.7076     26.5120    221.9931   1.4797370329e+02   2.6460385857e+01    0.2186502    0.1942255  68.54  0.001248114    1.374    0.272
         9  -7.4517     22.2840    135.2969   1.4183122384e+02   4.4150210469e+01    0.1114544   0.07579992 -51.63 0.0002712713    1.545    0.353
        10  -8.4115    194.2208    130.3375   9.9913346566e+01   1.6829362123e+01    0.2292286    0.1947114 -14.89 0.0006473993    1.179    0.152
        11  -8.3003      2.5906    212.2633   1.5134623886e+02   3.0443654095e+01    0.1723568    0.1076627 -89.52 0.0006739258    1.263    0.208
        12  -9.6670     47.6605    124.9871   1.3416511249e+02   4.4024353023e+01    0.3952959    0.2596134  -9.52  0.002007199    2.670    0.625
        13  -8.8105      5.9486    209.0284   1.5064174422e+02   3.0728423825e+01    0.2435825      0.17725  41.74  0.001975237    1.575    0.365
        14 -10.2375    240.4825    122.0719   8.9554968805e+01   8.4075653570e+00    0.2582962    0.2376186  22.57 -5.646931e-05    1.125    0.111
        15  -9.6657     11.4187    206.6803   1.4960878107e+02   3.0663070556e+01    0.3181756    0.2186317  46.43  0.002064033    1.471    0.320
        16 -10.0216    115.0171    119.5954   1.1544896512e+02   3.5413591581e+01    0.4987296     0.243044 -50.02  0.001382259    2.006    0.501
        17 -10.0815    118.2061    115.4073   1.1364482328e+02   3.5719861460e+01    0.2867402    0.2496282  35.61 0.0009146809    1.194    0.162
        18  -9.4872     95.0702    118.1439   1.2032527370e+02   3.9187559148e+01    0.5174552    0.2459329  31.90  0.002094067    2.558    0.609
        19  -8.3666     12.2011    233.3904   1.5082939770e+02   2.5922105560e+01    0.2638159    0.1251288  83.48  0.001805933    1.781    0.438
        20  -9.8587    170.9711    232.1170   1.2348997002e+02   4.7278219914e+00    0.3627291    0.2347926  23.53  0.001440005    1.676    0.403
        21  -8.5385    164.1700    240.4699   1.2580593452e+02   4.6765797099e+00    0.1804537    0.1664382 -80.46 0.0007252372    1.411    0.291
        22  -8.7219    174.4817    233.6132   1.2307026197e+02   3.9576050931e+00     0.303643    0.1782975 -23.22  0.001630593    2.613    0.617
        23  -8.7922      8.1445    234.1978   1.5147976459e+02   2.6169776541e+01     0.178306     0.133356  62.94 0.0007000555    1.205    0.170
        24  -9.6692     64.6759    107.5784   1.2643058325e+02   4.5963430676e+01    0.4246341    0.2301772 -39.54  0.001712423    2.079    0.519
        25  -8.0637    186.7591    108.2129   9.5906284688e+01   2.2425977133e+01    0.2081566    0.1703322  21.15 0.0006999329    1.302    0.232
        26 -11.1967    189.5749    154.9331   1.0641738284e+02   1.3497740063e+01    0.6835824     0.559114  26.65  0.002597085    1.173    0.147
        27  -9.0596     77.8346    105.6160   1.2228165437e+02   4.4619639448e+01    0.3168879    0.2414224  17.54  0.001582965    1.621    0.383
        28  -8.0792    243.3158    103.0016   8.4569967899e+01   1.0697467869e+01    0.2024801    0.1689967 -27.17 0.0004748665    1.093    0.085
        29  -8.9731     34.0480    153.9975   1.4116096824e+02   3.9023288812e+01    0.1764326    0.1443955 -76.85  0.000512824    1.114    0.102
        30 -10.0127    121.7380    101.4815   1.0921374968e+02   3.7981121565e+01    0.2904838    0.2571028  59.35 0.0005390589    1.233    0.189
        31  -8.1856      6.9886    154.0360   1.4698809088e+02   4.1369251751e+01    0.1641221    0.1256584 -85.40 0.0003932554    1.054    0.051
        32  -8.4294     62.0121     98.0148   1.2517559581e+02   4.8441753008e+01    0.2091159     0.147244 -27.62  0.000549238    1.700    0.412
        33 -10.9230    173.0105    147.5022   1.0822840490e+02   1.8211288600e+01    0.4716761    0.3603939 -26.85  0.001176501    1.400    0.285
        34  -7.9224     97.1474     92.1475   1.1344698550e+02   4.4509314670e+01     0.186338    0.1685606  84.19  0.000492739    1.295    0.228
        35  -8.4180     10.0326    149.6289   1.4598542740e+02   4.2058420621e+01    0.2019732    0.1186672 -58.41  0.001133079    1.667    0.400
        36  -9.8552     42.4823    138.6257   1.3740017465e+02   4.1525295373e+01    0.3483744    0.2390124  41.93  0.001540961    1.584    0.369
        37  -7.9693     24.8728     79.7153   1.3282047796e+02   5.6237182466e+01    0.1802403    0.1305254 -29.09 0.0009258087    1.514    0.340
        38  -7.6208     91.7284     79.3952   1.1146714728e+02   4.8103019833e+01     0.176852    0.1359141  25.87  0.000795371    1.431    0.301
        39 -10.6765    135.7495     71.8100   9.6981159169e+01   4.0822057092e+01    0.4481766    0.4118327  -6.49  0.001154071    1.066    0.062
        40  -8.1947    177.8846    248.3842   1.2444894588e+02   1.5113126963e+00    0.1631823    0.1299458  16.73 0.0004713328    1.302    0.232
        41 -11.3575    146.6318     49.9855   8.7322955623e+01   4.1896947839e+01     0.667547     0.567163 -20.48 0.0007663022    1.179    0.152
        42  -9.9290     33.0255    136.1395   1.3936424804e+02   4.3009342768e+01    0.3201171     0.219762  63.02  0.001673489    1.504    0.335
        43  -8.1350    156.0155     64.3173   8.9877012761e+01   3.7378156644e+01     0.208793    0.1898304  47.50 0.0004204373    1.104    0.094
        44  -8.5165    193.9577     60.0699   8.1236661330e+01   2.8656977399e+01     0.214664    0.2099868 -19.88  0.000320962    1.011    0.011
        45  -8.6018     19.2237     52.6325   1.2862672665e+02   6.2383509402e+01    0.1900777    0.1388229 -14.40  0.001166916    1.508    0.337
        46  -8.6803    134.0289     49.8990   9.0210905871e+01   4.4889363446e+01    0.2141096    0.2037786   4.71 0.0003041267    1.028    0.027
        47  -9.7225    248.8117     46.2965   6.9970088595e+01   1.7463649915e+01    0.2592933    0.2250537  32.81 0.0004907304    1.334    0.250
        48  -8.8878     19.4958    187.7887   1.4701765025e+02   3.3483893915e+01    0.2016127    0.1459337 -83.06 0.0008011468    1.186    0.157
        49 -10.3559    143.4417     25.9477   7.9763870357e+01   4.5904887915e+01    0.2590019    0.2391187  22.10 0.0003097379    1.036    0.035
        50  -8.3060    221.9984     40.0007   7.1538751881e+01   2.4489870973e+01     0.215853    0.1968906 -53.30 0.0005491555    1.054    0.051
        51  -7.8546    189.6323     33.7201   7.4228546819e+01   3.3321443106e+01    0.1943901    0.1287253 -37.09 0.0004398224    1.512    0.339
        52 -10.2289    161.8686     26.5755   7.6509104304e+01   4.1237133876e+01     0.429556    0.2467293  24.65   0.00177156    2.304    0.566
        53  -9.2577    154.1484     20.8753   7.5978442832e+01   4.3825033814e+01    0.2113529    0.1895642 -61.18 0.0002761308    1.251    0.201
        54 -10.5389    245.8852    239.6064   1.1175438115e+02  -7.7795970554e+00    0.3293689    0.1532959 -31.29  0.001905032    2.423    0.587
