#   1 NUMBER                 Running object number                                     
#   2 MAG_AUTO               Kron-like elliptical aperture magnitude                    [mag]
#   3 X_IMAGE                Object position along x                                    [pixel]
#   4 Y_IMAGE                Object position along y                                    [pixel]
#   5 X_WORLD                Barycenter position along world x axis                     [deg]
#   6 Y_WORLD                Barycenter position along world y axis                     [deg]
#   7 A_WORLD                Profile RMS along major axis (world units)                 [deg]
#   8 B_WORLD                Profile RMS along minor axis (world units)                 [deg]
#   9 THETA_WORLD            Position angle (CCW/world-x)                               [deg]
#  10 FWHM_WORLD             FWHM assuming a gaussian core                              [deg]
#  11 ELONGATION             A_IMAGE/B_IMAGE                                           
#  12 ELLIPTICITY            1 - B_IMAGE/A_IMAGE                                       
         1  -9.5786     79.8770     12.4135   6.7418051559e+01   6.3314766138e+01    0.3341736    0.2778476  78.71  0.001860885    1.697    0.411
         2  -8.3699    142.0367     11.9864   5.2255596252e+01   4.8591594607e+01    0.2337987    0.1572323  32.97 0.0004535534    1.594    0.373
         3  -8.2129    104.0712     11.7041   6.0063607649e+01   5.8094701555e+01    0.1983923     0.169128  40.60 0.0004061683    1.112    0.100
         4  -7.1557    170.2837      8.3459   4.6772756233e+01   4.1462538562e+01    0.1485438    0.1027084  33.09  0.000309271    1.644    0.392
         5  -8.8097    136.9824      7.0021   5.1169291868e+01   5.0391449490e+01    0.2087379    0.2010716  43.15            0    1.021    0.021
         6  -8.2262     17.0798      2.6594   9.0858505077e+01   7.4371316206e+01    0.1600637    0.1235899 -16.58 0.0004018279    1.086    0.079
         7  -8.3763    107.1844      1.6068   5.4630749983e+01   5.8343852913e+01    0.2092731    0.1078103  50.16 0.0009501664    1.731    0.422
         8  -9.5674     89.6026    238.3282   1.1720965119e+02   1.5858481265e+01     0.188597    0.1800128  51.06   0.00154016    1.404    0.288
         9 -11.3158    142.9015    241.7246   1.0816598756e+02   7.7176749395e+00      1.27166    0.9222627 -70.41  0.008767191    1.907    0.475
        10 -11.4238    217.1331    238.6594   9.5060561073e+01  -2.9774050864e+00      1.17338    0.6018844  47.15  0.006716901    2.125    0.529
        11  -9.9889    157.6417    204.1002   1.0058300686e+02   1.0976609742e+01    0.2494695    0.1912565  34.22 0.0002516939    1.164    0.141
        12 -12.7302    154.5323    226.8898   1.0431533526e+02   8.0310658349e+00     2.111295     1.371221 -43.04    0.0132432    1.928    0.481
        13 -11.7590    213.4686    221.4561   9.3097813411e+01  -5.0482753146e-01     1.587112     1.033703  51.75  0.009496348    1.951    0.488
        14  -9.2016    133.7284    248.5137   1.1048213137e+02   8.1309948069e+00    0.3229862    0.2377921  60.97  0.002055819    1.346    0.257
        15  -7.5370    109.6498    240.8241   1.1391367320e+02   1.2696429394e+01    0.1339824   0.09663905 -89.22 0.0007029384    1.631    0.387
        16  -7.6442     97.3067    237.3046   1.1576717645e+02   1.4968559885e+01   0.09677622    0.0836305  20.61 0.0003709048    1.604    0.377
        17  -8.0095    108.3498    236.0864   1.1369589820e+02   1.3607931153e+01    0.1940992    0.1215244  39.48 0.0007051565    1.388    0.279
        18  -7.5576    127.0937    234.8813   1.1022050779e+02   1.1058331772e+01    0.1382944    0.1160359  33.03            0    1.258    0.205
        19  -8.6359     50.3817    235.4001   1.2378010137e+02   2.1286741355e+01    0.1777288   0.09533545  25.08 0.0008076668    3.204    0.688
        20  -8.1496    100.4070    232.8441   1.1481164369e+02   1.5245859811e+01    0.2064712    0.1215696  26.87  0.001149631    2.299    0.565
        21  -8.9476    114.9818    231.3298   1.1203229111e+02   1.3391917998e+01    0.3033441    0.1509584  40.25  0.001071182    1.657    0.396
        22 -11.5525    199.8307    249.1235   9.9352929645e+01  -1.6106570425e+00     1.882112    0.3586433  42.09   0.00704984    4.198    0.762
        23 -12.0430    186.7724    211.8632   9.6305881383e+01   4.9616308941e+00     1.528542     1.242289  12.03   0.01020917    1.210    0.174
        24  -9.1875    111.1774    227.1358   1.1229522419e+02   1.4617409546e+01    0.3453698    0.2490212  14.24   0.00175368    2.216    0.549
        25  -7.9227    171.9678    226.6798   1.0113890381e+02   5.3159197836e+00    0.1793732    0.1228075  37.88  0.001144404    1.168    0.144
        26  -7.8953     32.9022    225.3039   1.2619833396e+02   2.4985096286e+01    0.1499201    0.1056342  59.86  0.001146234    1.097    0.089
        27  -9.8265    105.4064    221.7871   1.1281300338e+02   1.6342943780e+01    0.2598511    0.1574158 -49.93  0.001549412    2.148    0.535
        28 -11.1814    191.1944    233.7036   9.8727619346e+01   1.4331573747e+00    0.9100235    0.3852008  34.06  0.004686827    2.020    0.505
        29  -8.1071    123.1109    220.8725   1.0939453670e+02   1.3843017647e+01    0.2601641    0.1752739  -0.30  0.001243382    3.484    0.713
        30  -8.3724     14.5959    219.8352   1.2906486220e+02   2.7827353821e+01    0.1453297   0.07067632  79.86  0.000940065    1.679    0.404
        31  -7.8399    237.1985    214.0413   8.7935369343e+01  -3.2341865298e+00    0.1596035     0.123913  11.95 0.0005282257    1.032    0.031
        32  -7.6177    122.6909    213.6776   1.0862718683e+02   1.5095647466e+01    0.1119624    0.0928465   9.47 0.0007036082    1.647    0.393
        33  -7.9631     12.2957    212.3292   1.2913793698e+02   2.9407460746e+01   0.08909579   0.07293854 -68.95            0    1.633    0.388
        34 -11.8029    168.0523    204.1965   9.8603128927e+01   9.2018714819e+00     1.041631    0.8317549  65.05  0.003000072    1.521    0.342
        35  -8.7818    111.3714    210.8261   1.1047877777e+02   1.7328992372e+01    0.2185512    0.1350399  50.70 0.0006622046    1.358    0.263
        36  -8.1090    103.9831    211.3766   1.1197503052e+02   1.8344877219e+01    0.3786667    0.1385382  36.22   0.00164279    2.727    0.633
        37 -10.6873    175.0987    201.2433   9.6802249067e+01   8.4537571425e+00    0.5816783    0.4237755  89.22            0    2.573    0.611
        38  -9.6799    128.3957    203.7706   1.0626162033e+02   1.5882063073e+01    0.3249523    0.2731071   3.26  0.001136115    1.611    0.379
        39  -8.4481    136.0249    203.5029   1.0471741958e+02   1.4682806388e+01     0.304124    0.1576757  47.10  0.001248855    1.671    0.402
        40  -8.8082    137.1783    199.8594   1.0398054430e+02   1.5116672891e+01    0.5703589     0.158119  42.53  0.002126337    3.051    0.672
        41  -8.1698    125.4023    210.6230   1.0772927510e+02   1.5185727506e+01      0.33231   0.09762761  41.67  0.001331695    2.807    0.644
        42  -7.3972     77.0406    205.7776   1.1665453829e+02   2.3204457273e+01    0.1590355   0.08228795  42.49 0.0008756833    1.676    0.403
        43  -7.9892    234.9814    196.3761   8.5245995239e+01  -8.4382633108e-01    0.1849867    0.1556922 -19.99 0.0009297387    1.318    0.241
        44  -7.8876    103.4553    195.0856   1.1018494605e+02   2.1410633031e+01    0.1768269     0.120008 -63.44 0.0008448965    1.600    0.375
        45  -9.8548    249.4447    191.3629   8.1965844213e+01  -2.4930489238e+00    0.2730569    0.1972553 -14.10  0.001779663    1.252    0.201
        46 -11.1715    173.4049    186.1130   9.4609517261e+01   1.1130441323e+01    0.6964841    0.5136088 -34.18  0.003997399    1.510    0.338
        47  -9.1957    178.7871    183.0799   9.3021289249e+01   1.0651276933e+01     0.327552    0.1993255  34.10 0.0006843965    1.543    0.352
        48  -7.2761    134.4683    190.5000   1.0317004953e+02   1.7228369323e+01    0.1294507    0.1149153  45.56 0.0008093355    1.050    0.047
        49 -12.9143    177.6217    240.4812   1.0197408494e+02   2.6588611728e+00     2.562773     1.361839  22.73   0.01375261    2.299    0.565
        50  -9.3011    139.7393    187.6133   1.0164605798e+02   1.6845361653e+01    0.2476369    0.1517613  49.34  0.001284478    1.495    0.331
        51  -7.5796    224.5356    185.7684   8.5078050615e+01   2.2041754269e+00    0.1582177    0.1162969 -37.20 0.0004457116    1.574    0.365
        52 -10.7792    184.9165    182.4182   9.1712678413e+01   9.6460068598e+00    0.5441128    0.4642285  27.13  0.003169927    1.039    0.038
        53  -9.5483    177.7674    189.9001   9.4413749056e+01   9.7444838580e+00    0.5319686    0.3727849  80.29   0.00251717    2.774    0.639
        54 -10.1021    250.1406    175.9439   7.8926039284e+01  -7.4304701881e-01    0.3673254    0.2231754   7.67  0.001708064    1.765    0.433
        55  -8.1666     16.1291    177.0953   1.2660661522e+02   3.5946844504e+01    0.1622112    0.1303258 -86.12 0.0007225325    1.226    0.184
        56 -10.2419    101.0139    175.9966   1.0819894356e+02   2.5567930781e+01    0.1854335    0.1624832  67.40            0    1.007    0.006
        57 -10.2473    175.1540    170.9463   9.1503884319e+01   1.3345916522e+01    0.4290716    0.3150141 -11.14  0.002235502    1.698    0.411
        58  -9.9779    155.7812    168.3838   9.5018994354e+01   1.7466443020e+01    0.3417861    0.2035552  27.90  0.001540828    2.011    0.503
        59 -10.2678     38.5884    129.4494   1.1707465363e+02   4.4436222681e+01    0.6965794    0.4045808 -39.99  0.002872774    2.399    0.583
        60 -10.1554     30.3577    130.5438   1.1938983488e+02   4.4988354605e+01    0.6082555    0.4617382 -77.77  0.002704183    1.096    0.087
        61 -10.6913     17.4737    159.3747   1.2514552250e+02   3.9604816554e+01    0.8895674    0.7415996  73.59  0.006566825    1.157    0.136
        62 -10.4244     42.4102    136.8487   1.1699656316e+02   4.2288357326e+01    0.6657405    0.5002205 -14.61  0.003789002    2.160    0.537
        63 -11.5721     35.5044    147.0953   1.1988385882e+02   4.0637830940e+01     0.719565    0.5737627  43.32 0.0005607512    1.393    0.282
        64 -10.8545     45.4623    147.4582   1.1749029609e+02   3.9487022544e+01    0.9114688    0.4285423 -86.38  0.004161041    2.287    0.563
        65 -10.4395     29.6710    138.9504   1.2048183710e+02   4.3090422129e+01     1.023949    0.3704623  39.45   0.00481199    2.655    0.623
        66  -8.2419     18.8607    150.8738   1.2418414122e+02   4.1362200364e+01    0.1679487    0.1263922 -75.51 0.0003090062    1.225    0.184
        67  -9.5888     18.6955    141.2666   1.2341998617e+02   4.3546781873e+01     2.426939    0.8009843  72.50  0.007226908    5.453    0.817
        68 -10.6580    248.8345    164.2814   7.6806211805e+01   9.5329962700e-01    0.5293412     0.222618 -38.15  0.002384475    2.499    0.600
        69  -8.6126    164.4077    164.1902   9.2410214834e+01   1.6592773000e+01    0.1924133    0.1332964 -56.95  0.000949701    1.735    0.424
        70  -9.5322      6.9268    166.4268   1.2787619428e+02   3.8986310846e+01    0.3405119    0.2218329 -86.74  0.001504274    1.212    0.175
        71  -7.9385    154.3136    163.0266   9.4324108004e+01   1.8747793447e+01    0.2223809     0.109216 -26.79 0.0007046984    4.284    0.767
        72  -7.5025     47.4965    163.4803   1.1873963228e+02   3.5641927845e+01    0.1232098    0.1021518  84.87 0.0001432159    1.055    0.052
        73  -7.6227    212.5258    161.4765   8.2428435871e+01   7.8045222881e+00    0.1358473    0.1207219   8.36  0.000177628    1.019    0.019
        74  -9.7652     49.3914    141.7093   1.1581697415e+02   4.0370875474e+01    0.4700827    0.3230657 -31.70  0.001129894    2.274    0.560
        75  -7.4422    107.8419    160.6211   1.0432200323e+02   2.7681278940e+01    0.1908893    0.1169308  51.29 0.0005353452    1.568    0.362
        76  -9.1154     31.6272    163.9976   1.2236325042e+02   3.7247569582e+01    0.1717908    0.1226219 -87.87 0.0004141221    1.148    0.129
        77  -9.7735    249.4360    151.2558   7.3995842436e+01   2.5779763663e+00    0.3168381    0.1687272 -19.87  0.001534727    1.858    0.462
        78  -9.1387     56.6158    155.5643   1.1574049402e+02   3.6323204593e+01    0.2186966    0.2064386 -64.47 0.0008852564    1.308    0.236
        79  -8.2818     78.7656    170.4665   1.1243100680e+02   3.0079963177e+01    0.2119289    0.1616309 -78.35 0.0003786002    1.245    0.197
        80 -10.5609     74.8069    149.0098   1.1044461688e+02   3.5406757340e+01    0.2440704    0.2082953  76.06 0.0002402897    1.057    0.054
        81  -9.9497     54.5273    149.4770   1.1550702491e+02   3.7965234281e+01    0.3990968    0.2274073  44.39  0.001490662    1.723    0.420
        82  -9.1671     64.4044    148.3114   1.1292126580e+02   3.6986302652e+01    0.2532808    0.1540488 -79.89  0.001306778    1.594    0.373
        83  -8.6858     87.5512    146.5771   1.0690235977e+02   3.4074409309e+01    0.2673355    0.2041005  77.63 0.0005026992    1.328    0.247
        84 -10.4507     69.0086    144.1824   1.1118483786e+02   3.7324330949e+01    0.5141836    0.2552236 -71.65  0.002348148    1.991    0.498
        85  -9.4538    248.3712    144.8726   7.2789893129e+01   3.6358753026e+00    0.2091114    0.1865965  43.26 0.0009604766    1.369    0.270
        86 -11.9146     58.3642    129.6755   1.1178328570e+02   4.2130276497e+01     1.942364     1.518848  14.49   0.01108707    1.766    0.434
        87 -10.9828     78.6478    126.8842   1.0579947792e+02   4.0015236639e+01    0.5536662    0.4591305 -49.66  0.003142238    1.277    0.217
        88 -10.2408     86.0925    124.9858   1.0341148275e+02   3.9321128349e+01     0.619124    0.3151798 -56.93  0.001973646    1.826    0.452
        89  -9.8495     69.5177    120.6202   1.0717376227e+02   4.2825157433e+01    0.3938555    0.3009796 -89.11 0.0001860322    1.311    0.237
        90  -9.9987     86.7236    135.4424   1.0520494769e+02   3.6769296813e+01    0.3857851    0.1978551  48.78  0.001706404    1.999    0.500
        91  -9.1092    100.2364    131.6200   1.0095805068e+02   3.5438806818e+01    0.4350652    0.1978978 -40.96  0.001584459    2.929    0.659
        92  -8.0947     91.5156    142.1038   1.0515230399e+02   3.4473292707e+01    0.2073206    0.1811934  57.19 0.0006658135    1.131    0.116
        93  -9.5951    249.1908    133.9414   7.0247796361e+01   5.0099220295e+00    0.3361578    0.1879304 -47.65  0.001536226    2.329    0.571
        94 -10.3941     83.3992    129.7585   1.0504786917e+02   3.8616178257e+01    0.3194969    0.2653567  69.29 0.0003311956    1.197    0.165
        95  -7.8189    157.0135    111.3284   8.2057668120e+01   2.8446907769e+01    0.2030593    0.1874937  46.01 0.0002204118    1.098    0.089
        96  -9.0575    213.4517    107.0254   6.9624516853e+01   1.6382867101e+01    0.2670642    0.2434879  -7.85 0.0001370859    1.048    0.046
        97  -8.3721    246.0061    103.4982   6.3607441135e+01   1.0007433936e+01    0.1797439    0.1247371 -84.50 0.0008104313    2.546    0.607
        98  -7.2505    184.6808     78.2937   6.6929696688e+01   2.8035111752e+01    0.1578938    0.1198683 -67.91  0.000325479    1.608    0.378
        99  -9.3370    116.2665     67.8428   7.9407397204e+01   4.6484966973e+01    0.2521157    0.2435447  18.04  0.000270977    1.067    0.063
       100  -8.5018    212.5995     58.4295   5.6565504580e+01   2.4226903655e+01    0.3039327    0.1760687 -27.38  0.001321814    1.664    0.399
       101  -8.2682     94.9093     52.4488   8.0271385699e+01   5.3955337157e+01     0.256815    0.1952782 -51.17 0.0005184687    1.397    0.284
       102  -7.4391     96.4834     45.4989   7.7051644797e+01   5.4907972349e+01    0.1469428    0.1355256 -16.19 6.932948e-05    1.001    0.001
       103  -8.3094     77.4875     29.9323   7.6774597546e+01   6.1286363317e+01    0.2168062    0.1258541 -35.47  0.001030283    1.598    0.374
       104  -9.2592     84.8034     21.0510   7.0081288601e+01   6.1182220427e+01    0.3580945    0.1931069 -37.04  0.001649213    1.842    0.457
       105  -8.0354     30.2139     22.2267   9.3697705020e+01   6.9637555399e+01    0.1527597     0.133682 -48.06 0.0002996665    1.305    0.234
       106  -7.0079     49.7192     21.3117   8.3822793992e+01   6.7331015269e+01    0.1163992   0.09962034 -56.88 0.0002359835    1.567    0.362
       107  -9.6412     75.2321     17.9117   7.1805101646e+01   6.3516335558e+01    0.3000724    0.2504123 -41.63 0.0005629893    1.375    0.273
       108  -9.4076    105.9594    247.2959   1.1513923708e+02   1.2245500764e+01    0.3693212    0.2493921  21.58  0.002335851    2.186    0.542
       109  -8.6030    109.7079    247.6536   1.1452793136e+02   1.1672330906e+01    0.1665801    0.1610909  23.36  0.001044981    1.428    0.300
       110  -8.3316     45.7486    247.4703   1.2522462653e+02   1.9847402520e+01    0.1846001    0.1051468 -64.02  0.001295736    2.211    0.548
       111  -8.2621    114.0140     10.4862   5.7140944692e+01   5.5849819204e+01    0.2188913   0.08915602  41.22 0.0005134416    2.538    0.606
       112  -9.8400     40.1459    244.6259   1.2598436340e+02   2.0932506125e+01    0.2402948    0.1657117 -57.89  0.001799276    2.163    0.538
       113  -7.7474    125.7772    239.6306   1.1095523381e+02   1.0549169346e+01    0.1674258   0.08037051  47.47 0.0006716098    1.639    0.390
       114  -7.3087     71.7049    240.6829   1.2048910918e+02   1.7821295481e+01   0.08753642   0.08290536  25.74  0.000701357    1.606    0.377
