#   1 NUMBER                 Running object number                                     
#   2 MAG_AUTO               Kron-like elliptical aperture magnitude                    [mag]
#   3 X_IMAGE                Object position along x                                    [pixel]
#   4 Y_IMAGE                Object position along y                                    [pixel]
#   5 X_WORLD                Barycenter position along world x axis                     [deg]
#   6 Y_WORLD                Barycenter position along world y axis                     [deg]
#   7 A_WORLD                Profile RMS along major axis (world units)                 [deg]
#   8 B_WORLD                Profile RMS along minor axis (world units)                 [deg]
#   9 THETA_WORLD            Position angle (CCW/world-x)                               [deg]
#  10 FWHM_WORLD             FWHM assuming a gaussian core                              [deg]
#  11 ELONGATION             A_IMAGE/B_IMAGE                                           
#  12 ELLIPTICITY            1 - B_IMAGE/A_IMAGE                                       
         1 -14.7189      8.6098    150.5821   1.5057497285e+02   4.1225476973e+01     6.868082     2.035054  86.60   0.02764315    3.697    0.730
         2 -13.6671      2.6850      7.5469   1.3190531654e+02   7.4942607823e+01     4.398777    0.5067416 -62.57    0.0123844    5.988    0.833
         3 -13.6037    191.0921     24.7088   7.3294607021e+01   3.4300066409e+01     1.721976     1.422958  24.52  0.007443201    1.284    0.221
         4 -13.3308    206.3895      6.2959   6.6036419592e+01   3.2331836248e+01     1.156157     0.916954  41.44  0.006623445    1.368    0.269
         5  -9.8004     99.1643    249.3147   1.3892851694e+02   1.4719491475e+01    0.1343322    0.1138625  38.23  0.001158284    1.159    0.137
         6 -11.1172    174.8400    249.2255   1.2590516519e+02   5.5630037989e+00      0.25095    0.1887795 -37.23  0.001423256    1.794    0.443
         7 -12.8782    133.8972    245.5442   1.3254682675e+02   1.1075947175e+01    0.7078136    0.2940647  32.92  0.004119383    1.865    0.464
         8  -9.7765      2.4011    249.1986   1.5501514264e+02   2.4138359707e+01    0.1880845    0.1327055  78.34   0.00126187    1.330    0.248
         9  -8.9286     82.0022    249.1715   1.4188026106e+02   1.6654441562e+01    0.1765928   0.07431976  50.56  0.001081113    2.019    0.505
        10  -9.8605     19.2374    247.5147   1.5230579472e+02   2.3007298907e+01    0.2570667    0.1589384  30.39  0.002086721    1.606    0.377
        11  -8.5257      8.8700    249.3730   1.5400675362e+02   2.3598149490e+01    0.1178685   0.07369828  25.20 0.0009477025    1.834    0.455
        12 -10.4943    190.2928    246.2018   1.2296753627e+02   3.9590087165e+00    0.2307381    0.1863037 -76.95  0.001568243    3.180    0.686
        13  -8.8847     66.5128    242.9604   1.4416819894e+02   1.9185933107e+01    0.1207073   0.09084725  88.03 0.0004817362    1.493    0.330
        14 -10.5780    186.8450    240.8214   1.2288241759e+02   4.9538766450e+00    0.1893967    0.1526914  -7.73  0.001041749    1.351    0.260
        15 -10.9201    184.5185    237.5065   1.2286300070e+02   5.6084723090e+00    0.1831607     0.147746  20.72 0.0007784491    1.165    0.141
        16  -9.8055     95.3557    240.8313   1.3894489973e+02   1.6314936925e+01    0.1474944     0.131801 -51.33 0.0006623767    1.488    0.328
        17 -14.1598    112.0464    229.9555   1.3498176450e+02   1.5860636678e+01     6.012246          nan  38.03    0.0137818   11.187    0.911
        18  -8.4597      1.2894    239.6328   1.5499230268e+02   2.5634979480e+01    0.1006145   0.04121549  57.68 0.0007024277    1.707    0.414
        19  -9.9157    172.1558    222.8331   1.2314204394e+02   8.9423498548e+00    0.1588552    0.1091006  14.52 0.0004773652    1.343    0.255
        20  -9.8164     28.1842    221.3451   1.4985044210e+02   2.6270024721e+01    0.2408389    0.1801233 -29.08  0.001787873    2.324    0.570
        21 -11.7168    141.1010    249.6989   1.3170251480e+02   9.6840207542e+00    0.4171692    0.1756195  34.41  0.002504956    1.752    0.429
        22 -10.2410     20.4173    212.0784   1.5088707683e+02   2.8495235743e+01    0.2641855    0.1703135  18.40   0.00178495    1.996    0.499
        23 -12.8880      9.3208    207.2636   1.5275757349e+02   3.0232302045e+01    0.8511683    0.6145639  34.11  0.005167549    1.417    0.294
        24 -11.2419     13.3313    197.7930   1.5166810973e+02   3.1584428404e+01    0.3560604    0.1923549  60.16  0.001770811    1.463    0.317
        25  -9.6627    194.8450    198.3590   1.1547175949e+02   8.8004961103e+00    0.2883725    0.1733226 -53.35  0.001460245    3.285    0.696
        26  -9.3530    191.9825    192.9663   1.1512011676e+02   9.9121861445e+00    0.2295888    0.1706418 -60.89   0.00130123    2.641    0.621
        27 -12.6353     39.9294    236.8855   1.4845782267e+02   2.2736286938e+01    0.2398403    0.2136968 -81.11 0.0007699933    1.425    0.298
        28  -9.3507     44.1007    192.7113   1.4525619105e+02   2.9767118963e+01     0.269663    0.1312117 -64.56 0.0008343547    2.171    0.539
        29 -11.6679     70.9126    193.0575   1.3968782959e+02   2.6834751037e+01    0.2192525    0.2035609 -59.18 0.0004379073    1.297    0.229
        30  -8.1347    221.5842    213.5329   1.1322928292e+02   3.3266148143e+00    0.1123214   0.08260691  13.09 0.0001824561    1.037    0.036
        31 -10.6933     80.4810    179.8797   1.3631900842e+02   2.8147762646e+01    0.2043823    0.1894973  63.70 0.0004368065    1.072    0.067
        32 -13.1599     67.6045    177.9424   1.3899382780e+02   3.0063233646e+01    0.4450607    0.2591918 -42.80  0.001845854    2.347    0.574
        33 -12.7012     53.4048    218.0255   1.4503480480e+02   2.4401735107e+01    0.9351389    0.7838911  27.06  0.006921166    1.370    0.270
        34 -11.3384     65.0180    201.6540   1.4162637313e+02   2.5959814663e+01    0.2082555    0.1973931 -40.57 0.0004780802    1.372    0.271
        35  -8.6066    209.4795    179.9969   1.0971753427e+02   8.9372219121e+00    0.1629422    0.1107493 -25.17 0.0003512797    1.475    0.322
        36 -11.6780     87.4974    170.2014   1.3360632584e+02   2.9125993272e+01    0.5568225    0.5139219  -3.16  0.003799326    1.281    0.219
        37  -8.9825    230.3587    166.6883   1.0362496498e+02   7.3883022498e+00    0.1037051    0.1019398 -44.51 0.0005776685    1.742    0.426
        38 -13.7278     45.6694    229.4989   1.4709572413e+02   2.3327583387e+01    0.7509205    0.4430018  48.65  0.003173269    1.266    0.210
        39 -10.0461      4.0562    227.9046   1.5426983432e+02   2.7229580804e+01    0.2373968    0.1277293  27.08  0.001735045    1.950    0.487
        40 -11.8597     88.2655    153.1402   1.3114495441e+02   3.2476144494e+01    0.2573262    0.2288869 -28.94 0.0006222674    1.306    0.234
        41  -9.8092     99.4393    153.7605   1.2848688663e+02   3.0772129342e+01    0.2417652    0.2289784  34.69 0.0007995149    1.055    0.052
        42  -9.7293    134.1259    145.4394   1.1867873213e+02   2.6923437060e+01    0.3097877    0.1624429 -51.44  0.001044483    2.116    0.527
        43  -8.8634    102.1172    149.4925   1.2715357950e+02   3.1252244036e+01    0.1890866    0.1240709  35.10 0.0004015656    1.465    0.318
        44 -12.2720     67.1742    143.8299   1.3522163198e+02   3.7196824106e+01    0.6526162    0.4164658  61.36  0.002790051    1.682    0.405
        45  -8.2698    192.2283    143.9790   1.0586532563e+02   1.6830936372e+01    0.1669223    0.1057786 -30.84 0.0005732932    1.551    0.355
        46  -9.6468    110.3643    138.1673   1.2311338636e+02   3.2321635978e+01    0.3620013    0.2361989 -20.44  0.001641226    2.297    0.565
        47  -8.4367    174.4726    137.9828   1.0814155058e+02   2.1023016296e+01    0.1816766    0.1217816 -59.86 0.0008087992    2.451    0.592
        48  -8.2252     87.6198    137.2268   1.2885816042e+02   3.5964788930e+01     0.136379   0.09293053  57.87 0.0002470115    1.612    0.380
        49 -10.4087     97.9944    135.5825   1.2583873018e+02   3.4799889336e+01    0.2368119    0.2094112 -32.98 0.0004225333    1.222    0.182
        50 -10.7420     57.6018    132.8205   1.3632311868e+02   4.0783370157e+01    0.5399179    0.2354692 -79.15  0.002193593    2.857    0.650
        51 -10.1746    177.8494    227.7062   1.2276621238e+02   7.5917724731e+00    0.1883702    0.1363566 -71.41  0.001089802    3.444    0.710
        52  -9.1216    107.5068    124.5299   1.2118973863e+02   3.5675206566e+01    0.1378342     0.134557  -4.71  0.000135928    1.031    0.030
        53 -10.0360    168.0164    113.0210   1.0366683268e+02   2.6556177882e+01    0.3163255    0.2759376 -58.87 0.0009896362    1.444    0.308
        54  -9.3662    203.4166    111.7387   9.6310932244e+01   1.9617921588e+01    0.1978944    0.1241537 -17.17 0.0005050286    1.582    0.368
        55  -8.4691    156.2763     75.3704   9.5748604120e+01   3.5718384276e+01    0.1610039    0.1155562   4.37 0.0005130833    1.684    0.406
        56 -11.3705      8.3805     63.5123   1.4286810285e+02   6.1595368775e+01    0.4638844    0.1995769  31.39  0.002257074    2.651    0.623
        57 -10.1714     29.0062     60.7928   1.3356383976e+02   6.0934380657e+01    0.2384429    0.2092016  56.17 0.0004646264    1.338    0.253
        58 -10.1079    161.6597    249.3529   1.2814698756e+02   7.1857246759e+00    0.1545898    0.1054482  48.78 0.0008098602    1.685    0.407
        59 -10.3096     29.5493    249.2710   1.5069295407e+02   2.1853779393e+01    0.3191892    0.1274446  43.22   0.00222008    1.670    0.401
