#   1 NUMBER                 Running object number                                     
#   2 MAG_AUTO               Kron-like elliptical aperture magnitude                    [mag]
#   3 X_IMAGE                Object position along x                                    [pixel]
#   4 Y_IMAGE                Object position along y                                    [pixel]
#   5 X_WORLD                Barycenter position along world x axis                     [deg]
#   6 Y_WORLD                Barycenter position along world y axis                     [deg]
#   7 A_WORLD                Profile RMS along major axis (world units)                 [deg]
#   8 B_WORLD                Profile RMS along minor axis (world units)                 [deg]
#   9 THETA_WORLD            Position angle (CCW/world-x)                               [deg]
#  10 FWHM_WORLD             FWHM assuming a gaussian core                              [deg]
#  11 ELONGATION             A_IMAGE/B_IMAGE                                           
#  12 ELLIPTICITY            1 - B_IMAGE/A_IMAGE                                       
         1 -12.2442    217.3753      5.3160   8.9844969954e+00   3.0170436074e+01    0.9899133    0.4318766  69.04   0.00464977    2.031    0.508
         2 -12.9661    246.9063     10.5367   7.6966240803e+00   2.2843993755e+01     1.495065      1.27429   3.24  0.009651979    1.774    0.436
         3 -12.2328    226.5449     13.4471   1.0047776995e+01   2.7122450815e+01    0.7783761    0.4554182 -37.69  0.004175861    1.669    0.401
         4 -12.3011    232.6532      7.6786   8.2114486138e+00   2.6355729992e+01      1.34255    0.4479444 -37.18  0.005864969    2.609    0.617
         5  -9.4761     47.1432     20.7971   5.1758173548e+01   6.6407558894e+01    0.2706364    0.1472962 -30.02  0.001215294    1.670    0.401
         6 -11.6925    192.7846     16.1011   1.4251593643e+01   3.5018811367e+01    0.5020978    0.3576724  41.70  0.002684209    1.654    0.396
         7 -11.0804    200.7771     12.5957   1.2418256768e+01   3.3415502274e+01    0.3975076     0.222336  83.03  0.001924085    1.737    0.424
         8 -10.7294    203.0204      9.4874   1.1389499361e+01   3.3196058808e+01    0.2892118    0.2233974  44.53  0.001671274    1.535    0.349
         9  -9.9230     31.3527      8.5383   5.3273007696e+01   7.0099741773e+01    0.3291819    0.1830398 -50.56  0.001623717    3.112    0.679
        10  -8.9200    111.6380      8.3076   2.5291533704e+01   5.5803740457e+01    0.1290946    0.1008966 -74.35 0.0006500884    1.740    0.425
        11  -8.6562     42.4981      8.5234   4.8080017128e+01   6.8691665450e+01    0.1208576   0.09210812  -0.05 -1.007092e-05    1.046    0.044
        12  -9.3370     23.9827      7.9796   5.6668617343e+01   7.0988307100e+01    0.1693275    0.1297715 -15.96  0.000451095    1.077    0.072
        13 -11.1720    191.6605      4.7374   1.1378229951e+01   3.6482888481e+01    0.3635845    0.2982504 -39.21  0.002218528    1.326    0.246
        14  -9.5383     12.1249      5.5617   6.1789579405e+01   7.2444613282e+01    0.2566408    0.1082919 -45.66  0.001403939    2.274    0.560
        15 -11.4525    200.7070      3.6882   1.0166748220e+01   3.4357282753e+01    0.6337884    0.2281684  58.79  0.002655219    2.496    0.599
        16 -11.2403    179.6138      3.0628   1.2288831794e+01   3.9645970854e+01     0.583288    0.2348232  57.54  0.002528334    2.163    0.538
        17  -9.3412    102.6582      4.9213   2.6085336795e+01   5.8116833557e+01    0.1758078    0.1622194  12.93  0.001149401    1.132    0.117
        18 -10.6160    149.3909      3.7212   1.6552830075e+01   4.7155126440e+01    0.3233683    0.2389437  77.12   0.00182022    1.267    0.211
        19  -9.6882    119.8066      3.4105   2.1681397404e+01   5.4350334880e+01    0.2012854    0.0980701  51.53 0.0005788924    1.697    0.411
        20  -8.9631    111.3555      3.7054   2.3584341696e+01   5.6276486069e+01    0.1259184    0.0991172 -75.79 0.0004314784    1.691    0.409
        21  -9.0266     44.5249      1.5044   4.3677035440e+01   6.9234427667e+01    0.1183676   0.09157982   5.28 7.259836e-05    1.003    0.003
        22  -8.6325     33.0712      1.5458   4.8924375613e+01   7.0782569705e+01    0.1573306   0.09807019  29.26 0.0004865993    1.537    0.349
        23  -9.2904    218.3023    231.0993   5.9749319776e+01  -5.6925688357e+00    0.2408583    0.1689022  18.43 0.0007933814    1.260    0.207
        24  -9.4985    238.9946    249.9997   5.9100666645e+01  -1.1087724303e+01    0.1743011    0.1543616 -54.72 0.0008254308    2.046    0.511
        25  -8.3955    172.3486    250.2797   7.1260620913e+01  -1.0358405041e+00    0.1224513   0.08287212  18.42 0.0007011255    1.642    0.391
        26  -9.1018     49.5690    249.8496   9.3832551265e+01   1.7342163756e+01    0.1920484    0.1024293  50.08  0.001213895    1.445    0.308
        27  -9.7704    216.6911    225.8899   5.9177920837e+01  -4.7243072010e+00    0.3213407    0.2122135 -41.12   0.00186693    1.811    0.448
        28  -9.0152    225.9944    230.1687   5.8187408033e+01  -6.7589698214e+00    0.2022025    0.1612006  -6.27  0.000849423    1.188    0.158
        29  -8.4638    161.4593    230.5673   7.0593212711e+01   3.7768357701e+00    0.1300605    0.1077101  41.60 9.449951e-05    1.040    0.038
        30  -9.4696     61.2299    228.5834   9.0149681067e+01   1.9805148884e+01    0.3595392    0.1411184  56.52  0.001711904    2.325    0.570
        31  -9.5894    235.7303    225.3394   5.5612419820e+01  -7.6041611498e+00    0.2289658     0.194369  14.86 0.0007036458    1.150    0.130
        32  -8.3468    190.4323    225.7406   6.4151591080e+01  -3.8321955988e-01    0.1702133    0.1180434 -22.06 0.0009506658    1.703    0.413
        33  -8.7707    125.5210    225.9995   7.7183993085e+01   1.0637361497e+01    0.1721577    0.1283155 -60.34 0.0008828582    1.550    0.355
        34  -9.9300    222.1042    220.8559   5.7314087043e+01  -4.8852254253e+00    0.4307148    0.1644939 -34.26  0.001893168    2.850    0.649
        35 -10.3972    228.6667    220.7518   5.6091639188e+01  -5.9071546402e+00    0.3192757    0.2224438  30.64 0.0006435663    1.260    0.207
        36  -8.6593    182.8639    222.4712   6.5108367072e+01   1.4151588198e+00    0.1937102    0.1120725  40.24 0.0006786461    1.488    0.328
        37  -8.0215    109.0056    222.0000   8.0043071465e+01   1.4081648388e+01    0.2077991   0.06406158  39.83  0.000784735    2.821    0.646
        38  -9.2322    239.8399    220.1707   5.3980548797e+01  -7.5444703359e+00     0.177371    0.1540813  14.34  0.001217884    1.199    0.166
        39 -10.3598    248.6901    218.2863   5.2093813385e+01  -8.6134335686e+00      0.28444    0.2097026 -12.72  0.001155176    1.219    0.179
        40  -8.9785    246.9584    213.4473   5.1528132695e+01  -7.7231037888e+00     0.277378    0.1624872 -46.72  0.001440411    2.481    0.597
        41  -9.0401    244.2538    218.9797   5.2991211601e+01  -8.0487800725e+00    0.1693701    0.1369156   0.91 0.0004441404    1.059    0.056
        42 -10.2241    180.4416    216.4665   6.4612290682e+01   2.8068020268e+00    0.3286579    0.2698491   4.47 0.0007433436    1.310    0.236
        43  -8.4579    236.8085    217.3754   5.4026810625e+01  -6.7100380920e+00    0.1722762    0.0989667  27.13 0.0008540424    1.588    0.370
        44  -9.8790    205.6252    216.8014   5.9719403704e+01  -1.5907898109e+00    0.2301737    0.1940076  -0.12  0.001285066    1.145    0.127
        45  -9.9315    212.3344    215.3975   5.8193845910e+01  -2.5051877706e+00    0.3550595    0.1992078  30.18  0.001553423    1.644    0.392
        46  -9.3709    209.1843    211.6359   5.8132508183e+01  -1.4089037374e+00    0.2935488    0.1964747 -35.56 0.0005471439    1.610    0.379
        47 -10.0676    232.2618    213.3484   5.4127519679e+01  -5.4482275216e+00    0.4114885    0.2548589 -18.09  0.001924153    1.695    0.410
        48  -8.8621    242.9298    214.6851   5.2458189546e+01  -7.2818076953e+00      0.17473    0.1338065  20.42 0.0005863353    1.132    0.117
        49  -8.4387    171.8965    212.1520   6.5631508449e+01   5.0481387446e+00    0.1797478    0.1491722   6.87 0.0004777871    1.323    0.244
        50 -10.3044    228.5239    206.5567   5.3576687011e+01  -3.8775682495e+00    0.3849897    0.2938871 -26.73  0.002350191    1.321    0.243
        51  -8.3135    157.9826    208.1931   6.7866761212e+01   8.2548749933e+00    0.1865822   0.09562641  41.24 0.0004622968    1.717    0.418
        52  -8.5469    239.5202    206.0240   5.1485173116e+01  -5.5657628403e+00    0.1800007    0.1152026 -31.78 0.0006242834    1.557    0.358
        53  -9.0987    244.5676    199.2141   4.9317167476e+01  -5.3974167705e+00    0.4301702    0.2131938 -48.58   0.00186895    3.160    0.684
        54  -9.8136    191.7064    203.5477   6.0124051801e+01   2.9489743766e+00    0.3664099    0.1877794  29.22  0.001598429    2.108    0.526
        55  -8.8857    210.4914    199.5886   5.5689820987e+01   2.4795325585e-01    0.3968761     0.228297  -7.69  0.001645303    2.858    0.650
        56  -8.9709     80.0619    200.9579   8.3602696737e+01   2.2823047089e+01    0.1904982    0.1678911  77.11 0.0003629607    1.083    0.077
        57  -8.9138    163.9864    199.4402   6.5132913016e+01   8.7668000461e+00    0.1896849    0.1847295 -30.37 0.0003341147    1.137    0.120
        58  -8.7082    134.4307    200.4802   7.1677624163e+01   1.3979891755e+01    0.1371444    0.1248454  47.38 0.0002391836    1.050    0.048
        59  -8.8459    182.7255    198.0732   6.0966208302e+01   5.5326554164e+00    0.1851562    0.1697868 -16.31 0.0006798296    1.149    0.130
        60  -9.4341    157.8421    197.5741   6.6123762567e+01   1.0260661375e+01    0.2444228    0.2167612  83.61 0.0006643932    1.307    0.235
        61  -8.3880    123.5038    197.4273   7.3606162919e+01   1.6536781822e+01    0.1388223    0.1231836  55.07 8.992245e-05    1.018    0.018
        62  -8.7693    164.8880    194.3224   6.4042978281e+01   9.5571073701e+00    0.2078416    0.1191472  33.35 0.0004556647    1.747    0.428
        63  -8.8592    128.0181    192.7225   7.1868054409e+01   1.6708664154e+01    0.2000732    0.1709583  46.10 0.0004319457    1.087    0.080
        64  -7.9866    124.6325    192.7207   7.2625945342e+01   1.7313812814e+01    0.1361517    0.1105902   6.58 0.0007011812    1.684    0.406
        65  -9.2798    233.9089    190.6809   4.9588006209e+01  -2.4011200504e+00    0.1837689    0.1567694  17.75 0.0007241829    1.095    0.087
        66  -8.5432    202.3658    187.7252   5.5028104782e+01   3.6850182548e+00    0.1329977     0.110175  70.28 0.0007005244    1.670    0.401
        67  -8.0695    142.5841    187.4980   6.7731507433e+01   1.5110815455e+01    0.1413732    0.1319134  49.88 0.0001282988    1.020    0.019
        68  -8.6709    131.3477    186.6999   7.0130720780e+01   1.7363519820e+01     0.149346    0.1050853  69.72 0.0007037512    1.685    0.407
        69  -7.9705     73.5629    186.4677   8.3297495691e+01   2.6932941541e+01    0.1306737    0.1149093  81.66 0.0001487276    1.059    0.056
        70 -10.2017    249.4432    183.3572   4.5400460123e+01  -3.8715029200e+00    0.2801697    0.2100789 -39.22 0.0006673686    1.458    0.314
        71  -9.7162    248.6852    178.6718   4.4598777230e+01  -3.0456668543e+00    0.3168918    0.1143353 -31.95   0.00125676    2.742    0.635
        72  -9.4088    240.3766    182.3389   4.6783557922e+01  -2.2156380630e+00    0.4280459    0.1957556 -26.80  0.001840933    2.385    0.581
        73  -8.3758    227.2759    181.3766   4.8969656053e+01   2.0549084051e-01    0.1418665   0.09679265  -2.21 0.0007004127    1.698    0.411
        74  -9.2891    225.0000    177.9637   4.8705282675e+01   1.1680818568e+00    0.3700123   0.07432508 -38.70  0.001049759    4.920    0.797
        75  -8.5299    211.5149    179.0068   5.1492585044e+01   3.4744951419e+00    0.1925616    0.1214344 -60.70 0.0008103856    2.659    0.624
        76  -9.2394    191.0000    175.4661   5.4907825909e+01   8.0497624352e+00     0.343111    0.1935051 -42.70   0.00153112    1.852    0.460
        77  -8.3705    155.7130    175.3229   6.2541993060e+01   1.5082769228e+01    0.1455232    0.1152985  81.02  0.000254868    1.602    0.376
        78  -8.9825    245.2980    174.6232   4.4367978558e+01  -1.8593386737e+00    0.1252295    0.1040324 -61.02 0.0007025391    1.753    0.430
        79  -8.2585    234.9965    162.9864   4.3774676804e+01   1.8183650149e+00    0.1667052     0.146058 -13.46 0.0004705563    1.028    0.027
        80  -8.2853    182.5005    162.4570   5.3999371591e+01   1.2247175052e+01    0.1480849    0.1411912  21.65 8.871652e-05    1.005    0.005
        81  -8.4561    177.3013    160.3301   5.4671552940e+01   1.3745577087e+01    0.1528879     0.117521   0.98 0.0007032919    1.647    0.393
        82  -7.9123     51.4603    159.4898   8.5117425112e+01   3.6071538761e+01    0.1336778    0.1104789  86.88 6.395988e-05    1.052    0.049
        83  -8.5393    249.9334    152.9530   3.9076644953e+01   7.5789800367e-01     0.164316    0.1428433 -15.04 0.0009318672    1.009    0.009
        84  -8.7980    176.4108    148.1993   5.2198795354e+01   1.6389445570e+01    0.2127716    0.1448167 -54.15 0.0009398524    1.637    0.389
        85  -9.9386    235.7984    145.0540   3.9766751407e+01   4.6795753594e+00    0.5616503    0.3368925 -66.74  0.002025837    3.842    0.740
        86  -8.3822    151.3378    142.6575   5.6717959720e+01   2.2958305922e+01    0.1626161    0.1237707  86.42 0.0007049731    1.769    0.435
        87  -8.4192    215.5299    141.5541   4.2656785474e+01   9.3482000241e+00    0.1473927    0.1349985  -5.07 0.0002427701    1.067    0.063
        88  -9.2143    215.7428    135.0398   4.1122496047e+01   1.0493400780e+01    0.3008501    0.2000039  33.13  0.000669892    1.679    0.404
        89  -8.7892     97.1440    135.0277   6.9030346095e+01   3.5342453154e+01     0.252407    0.1599234 -34.72  0.001080169    2.015    0.504
        90 -10.3675    248.1427    131.6146   3.4741543128e+01   4.5773338813e+00    0.5076968    0.2848168 -47.83  0.002351271    1.871    0.465
        91 -10.3682    236.3204    131.5305   3.6660929481e+01   6.8929290207e+00     0.607217    0.4160157 -84.08  0.002580469    2.797    0.643
        92  -8.1648    225.4690    133.4832   3.8987591649e+01   8.7486984990e+00     0.144018    0.1343108 -35.60 3.383697e-05    1.067    0.062
        93  -9.3920    209.0930    130.2423   4.1259478952e+01   1.2802126378e+01    0.4065616    0.2722396  83.61  0.001600345    2.715    0.632
        94  -9.4652    240.9901    125.1479   3.4445303600e+01   7.0540884498e+00    0.3232408     0.240355  56.29  0.001711784    1.546    0.353
        95  -8.8231    235.3330    123.6117   3.5024031914e+01   8.4567757480e+00    0.2781505    0.1776484  66.69 0.0009799718    2.146    0.534
        96  -8.8065      4.7960    125.7641   9.3071859065e+01   4.8277553792e+01    0.1651772    0.1140776  83.45 0.0006803832    1.331    0.248
        97  -9.1042    227.0131    124.5034   3.6643083404e+01   1.0020876279e+01    0.2668821    0.1891292 -51.27 0.0006575111    1.492    0.330
        98  -8.1433    204.6434    122.3488   4.0226516299e+01   1.5264106023e+01     0.159379     0.119303 -75.95 -0.0002439189    1.842    0.457
        99  -8.9712    246.0022    119.7467   3.2428825580e+01   6.9706141555e+00    0.2640416    0.1648932 -47.77  0.001282348    1.592    0.372
       100  -8.8062    239.7096    118.4590   3.3129397177e+01   8.4492278256e+00     0.234873    0.1430755  58.31 0.0008389862    1.935    0.483
       101  -8.5961    250.2512    116.4318   3.1033173511e+01   6.6858532933e+00    0.1750934    0.1364769  70.70 0.0009474705    1.611    0.379
       102  -8.4677    129.4930    115.4962   5.5687709944e+01   3.3681002584e+01    0.1543972    0.1528449 -56.56 0.0008106168    1.012    0.011
       103  -9.1232    236.0814    112.4593   3.2326222875e+01   1.0221979277e+01    0.3570618    0.1681176 -43.41  0.001477697    1.981    0.495
       104  -8.2275    146.6987    110.3329   4.9912453145e+01   3.1033358653e+01    0.1614812    0.1262754 -83.30 0.0007034474    1.654    0.395
       105  -9.2191    239.1473    103.2470   2.9702634885e+01   1.1143751471e+01    0.3596614    0.2255776 -21.65  0.001645083    1.879    0.468
       106 -10.6816    246.9736     97.9274   2.7318969323e+01   1.0394201926e+01    0.4160368    0.2981312 -49.26  0.001909076    1.309    0.236
       107 -10.3350    242.8443     98.1697   2.7971331379e+01   1.1213700847e+01    0.5023273    0.2084073 -33.11  0.001960424    2.348    0.574
       108  -8.3940    129.5264    104.4193   5.2761927842e+01   3.6123354812e+01    0.1527136    0.1523052  54.76 0.0001370473    1.012    0.012
       109  -8.6329    143.4984    103.4859   4.8873742959e+01   3.3217540674e+01    0.1562372    0.1544211   1.62 -0.0001408391    1.029    0.029
       110  -9.3071    247.4893    102.9541   2.8393608708e+01   9.4629655457e+00    0.2608581    0.1280732 -31.84 0.0006219058    1.979    0.495
       111  -8.4980    198.1974     93.6026   3.4219528915e+01   2.2111062433e+01    0.2187978    0.1400877  44.57 0.0009514736    1.666    0.400
       112  -8.3450    143.6911     88.3301   4.4551951477e+01   3.6285275898e+01    0.1600004     0.124768 -79.61 0.0007040632    1.665    0.399
       113 -10.1381    232.4031     82.6892   2.5842862287e+01   1.6027309900e+01    0.3183427    0.2173421  71.53  0.001572374    1.661    0.398
       114  -9.3847     44.3977     78.0664   7.2496182369e+01   5.6057139240e+01    0.4795831    0.2015373 -66.96   0.00180496    3.229    0.690
       115 -11.0733    246.8939     71.4335   2.1246347012e+01   1.4628348181e+01    0.5456129    0.2695498 -29.45  0.002363879    2.169    0.539
       116  -9.1851     65.3933     70.8605   6.2940976489e+01   5.5018559412e+01    0.2968507    0.2293776 -77.29  0.001563298    1.813    0.449
       117  -9.1422    228.7656     70.0000   2.3294422848e+01   1.8887970569e+01    0.2018826    0.1525092  39.44  0.001035129    1.619    0.382
       118  -9.6622    238.1899     65.2308   2.0901959612e+01   1.7487987132e+01    0.3350677    0.1548703  56.28   0.00144884    2.274    0.560
       119 -11.2316    245.8965     60.6827   1.8904134741e+01   1.6466707537e+01    0.6051251    0.2672234 -46.61  0.002638117    2.028    0.507
       120  -8.8437    128.8715     60.3531   3.9676073500e+01   4.4938834696e+01    0.2546504    0.2072199 -46.29  0.001205647    1.306    0.234
       121  -7.8218     29.4861     55.4928   7.2088578331e+01   6.2247217154e+01    0.1246736    0.1004033 -37.68 0.0008104896    1.001    0.001
       122  -9.8172    245.2283     48.9796   1.6312554812e+01   1.8304938253e+01    0.4866687    0.2290855 -76.64  0.001725823    3.821    0.738
       123 -10.1762    240.9648     43.3092   1.5481417571e+01   2.0043670826e+01    0.3553018    0.2895746  -3.10  0.002023377    1.736    0.424
       124 -10.0779    233.3046     40.6371   1.5697510049e+01   2.2152066060e+01    0.3812727     0.192848  49.42  0.001629054    2.396    0.583
       125  -8.5607     94.3654     41.1791   4.2755038862e+01   5.5493269669e+01    0.1960906    0.1225882 -42.86  0.000945772    1.762    0.432
       126  -9.1842      7.2510     38.3839   7.6678449540e+01   6.7189017442e+01    0.1356371    0.1014733  21.69 0.0009472261    1.632    0.387
       127  -9.1969     75.9705    248.3660   8.9075106285e+01   1.4143613178e+01    0.3778064    0.1311022  51.91  0.001794449    2.354    0.575
       128  -9.7331    229.4484    247.1895   6.0330699499e+01  -9.4106915669e+00    0.1954992    0.1466273   3.08  0.001034153    1.192    0.161
       129 -11.0983    242.6124     33.1431   1.3007422563e+01   2.1035033503e+01    0.6308656    0.2386369 -49.81  0.002646733    2.437    0.590
       130 -11.0625    244.4843     26.7484   1.1407255270e+01   2.1435703942e+01    0.4388265    0.3685446 -36.11  0.002154385    1.315    0.239
       131  -8.4404    196.2435    246.7394   6.6290158993e+01  -4.3395393683e+00    0.1693388   0.09340695 -25.00 0.0008815301    2.404    0.584
       132  -9.4893     37.1601     34.5587   6.1817050132e+01   6.5438514344e+01    0.2636727    0.1945032  39.43  0.001126242    1.763    0.433
       133  -9.5568    232.8177     28.7120   1.2970730766e+01   2.3830296124e+01      0.21899    0.1821699 -27.85  0.001318138    1.403    0.287
       134 -10.1645    249.0933    241.5527   5.6001262667e+01  -1.1511200080e+01    0.4871515    0.2216842 -27.73  0.002667768    2.267    0.559
       135  -8.6630     99.6065     24.8043   3.4844739556e+01   5.6678357661e+01    0.1832695    0.1209201 -37.66 0.0006831107    1.683    0.406
       136  -9.9674     13.7413     23.1822   6.8459096758e+01   6.9524062806e+01     0.270265    0.1618489  35.42  0.001664844    2.253    0.556
       137  -9.7587    210.4049     22.7239   1.3912200892e+01   2.9897762266e+01    0.2288486    0.1842493 -19.77  0.001308509    1.520    0.342
       138  -9.5076    206.0143     24.0000   1.4737403137e+01   3.0821027224e+01    0.3241863   0.05803382  56.56 0.0009491401    4.550    0.780
       139  -8.9757     28.8036     22.3915   6.0780097613e+01   6.8335628078e+01    0.2224841    0.0813205 -46.47  0.001028287    2.608    0.617
       140  -8.9555     44.0848     31.8739   5.7750510838e+01   6.5091049886e+01    0.1694234    0.1613576 -24.66   0.00052818    1.370    0.270
       141  -9.1062    190.0392    244.0000   6.7044007976e+01  -2.9820696846e+00    0.3154299     0.131807  37.97  0.001512181    1.954    0.488
       142  -8.3615    187.6632    241.3259   6.7096167008e+01  -2.2236127025e+00    0.1765115    0.1225901 -46.53 0.0008477661    1.829    0.453
       143  -8.7397     78.1338     30.8681   4.4065319190e+01   6.0082221600e+01    0.1844176    0.1743297 -16.89 0.0005279516    1.231    0.188
       144  -9.6585    174.9528     20.5470   1.7842471711e+01   3.9027582671e+01    0.3721342    0.1883222  52.55  0.001661617    1.873    0.466
       145  -9.7182    201.5858    240.6158   6.4371603839e+01  -4.3523207570e+00    0.2289754    0.1583754  28.04 0.0008756024    1.193    0.162
       146  -8.5647    127.4931    241.4416   7.8704420962e+01   7.6020130462e+00    0.1266174    0.1002536  51.01 0.0001310797    1.031    0.030
       147  -8.9997     53.5673    239.2066   9.2392514292e+01   1.8777414210e+01    0.2420512    0.1332404  63.51  0.001323214    1.506    0.336
       148  -9.0687    162.9879    239.5084   7.1565335444e+01   2.0955556232e+00    0.1950852    0.1042043  39.11 0.0004835117    1.535    0.349
       149  -9.7392    221.1124    237.7560   6.0322676618e+01  -7.0044734498e+00    0.3921692    0.1498792  29.56   0.00169778    2.682    0.627
       150  -9.5520    179.0943    237.2663   6.8129983706e+01  -2.3026914682e-01    0.3496168    0.1602809  31.87  0.001344951    2.098    0.523
       151  -9.7836    239.7962    235.6345   5.6635416537e+01  -9.5046229055e+00    0.3262762    0.1987978  19.52  0.001509596    1.453    0.312
       152 -10.4043    232.6123    236.0102   5.7968147951e+01  -8.5045504741e+00    0.4943954    0.2540896  10.40  0.002286076    2.798    0.643
       153  -9.1754    235.2185    230.0668   5.6510829183e+01  -8.1384395526e+00     0.245939    0.1760216  -8.09 0.0009078289    1.326    0.246
       154  -9.6928    216.0485    235.6821   6.0913135819e+01  -5.9552194498e+00    0.1760591    0.1293053  26.03 0.0005732411    1.110    0.099
       155  -8.7692    191.5152    236.4914   6.5634663175e+01  -2.1566158141e+00     0.127485    0.1023748  24.98 -0.0001034899    1.049    0.047
       156  -8.8895     61.0412    236.5493   9.0833553429e+01   1.8310918307e+01    0.1805873   0.09505022  43.48  0.001042458    1.634    0.388
       157  -7.9619    122.6781    234.6646   7.8833264710e+01   9.5481551127e+00    0.1181578   0.09726737   7.69 0.0007050317    1.708    0.415
       158  -9.9364    244.8346    231.8508   5.5119295435e+01  -9.7636932940e+00    0.3205447    0.1958013   8.58  0.001475248    1.633    0.388
       159  -8.5141    166.4396    232.7722   6.9931164908e+01   2.5780236525e+00    0.1619959     0.120312 -25.87 0.0009446894    1.693    0.409
