#   1 NUMBER                 Running object number                                     
#   2 MAG_AUTO               Kron-like elliptical aperture magnitude                    [mag]
#   3 X_IMAGE                Object position along x                                    [pixel]
#   4 Y_IMAGE                Object position along y                                    [pixel]
#   5 X_WORLD                Barycenter position along world x axis                     [deg]
#   6 Y_WORLD                Barycenter position along world y axis                     [deg]
#   7 A_WORLD                Profile RMS along major axis (world units)                 [deg]
#   8 B_WORLD                Profile RMS along minor axis (world units)                 [deg]
#   9 THETA_WORLD            Position angle (CCW/world-x)                               [deg]
#  10 FWHM_WORLD             FWHM assuming a gaussian core                              [deg]
#  11 ELONGATION             A_IMAGE/B_IMAGE                                           
#  12 ELLIPTICITY            1 - B_IMAGE/A_IMAGE                                       
         1 -11.6957      2.9630    127.1136   1.3479890425e+02   4.8797195959e+01      0.99178    0.2647117 -72.48   0.00350007    3.625    0.724
         2 -12.5156    162.3011     54.8435   7.1446596014e+01   3.7398586056e+01     1.467445     1.025941  33.55  0.005435297    1.846    0.458
         3 -12.7293    175.6416     39.8784   6.5498281578e+01   3.6345489221e+01    0.9439985    0.8238549  75.65  0.003683667    1.062    0.058
         4 -11.9543    179.6198     32.7580   6.3219253021e+01   3.6323718759e+01    0.5157701    0.4481801  44.92  0.001270551    1.380    0.275
         5 -13.2355    193.2238      8.3966   5.6111718842e+01   3.5978477855e+01      1.07204    0.8858581  79.31  0.005047899    1.133    0.117
         6 -10.8558    227.1174      1.9215   5.1871068925e+01   2.9446061132e+01    0.5161214    0.1187546  72.38  0.002099776    3.631    0.725
         7  -9.2196      4.5136      7.5114   1.0337210788e+02   7.1328914025e+01    0.1055285   0.07510088  -6.94 8.356808e-05    1.012    0.012
         8  -9.5414    130.7455    214.5802   1.1538963353e+02   1.0354253644e+01    0.2689944    0.2193254  87.76 0.0005367043    1.415    0.294
         9  -8.3710    229.6033    250.2623   1.0086973725e+02  -1.2144807482e+01    0.1715712   0.09956728 -26.33 0.0009228512    1.673    0.402
        10 -10.3932    188.0044    246.4747   1.0831749623e+02  -5.5280201655e+00     0.439725    0.1815295 -44.99  0.001219315    2.616    0.618
        11  -9.4725    126.1399    248.8808   1.2153626568e+02   4.0292995402e+00    0.2668037    0.1941141 -58.21 0.0008148955    1.542    0.351
        12  -8.8191    121.9969    250.2249   1.2258474481e+02   4.4399247133e+00    0.2552882    0.1559935  48.40 0.0008866427    1.479    0.324
        13 -10.7503    118.4241    245.7362   1.2273934714e+02   5.8989683681e+00    0.4950696    0.2759323  55.24   0.00122078    1.881    0.468
        14 -18.5358     46.7578    239.0902   1.3682454284e+02   1.7917606508e+01     4.949559     4.496285  68.08   0.01693892    1.231    0.188
        15  -9.7792    248.5549    181.0524   8.4798737648e+01  -3.4396603950e+00    0.2920663    0.2048036 -61.19  0.001184764    1.898    0.473
        16  -9.1103    141.0255    198.8029   1.1027292192e+02   1.2016834396e+01    0.3039279     0.218945 -68.40 0.0007477587    1.613    0.380
        17 -10.4077     52.6814    171.0226   1.2757449386e+02   3.3274121659e+01    0.4126292      0.31073 -83.59  0.001345719    1.260    0.207
        18  -9.9432     42.5229    177.9107   1.3110469407e+02   3.2794670993e+01    0.3399541    0.3114411 -20.47  0.001209763    1.400    0.286
        19 -10.7091     48.0758    174.9413   1.2931340159e+02   3.2867193932e+01    0.5710523    0.3836155  79.20  0.001817434    1.614    0.380
        20 -11.3510     44.3703    169.0010   1.2942524244e+02   3.4798029467e+01    0.6686935    0.3959549 -60.60  0.002495186    1.482    0.325
        21  -9.0313    250.2986    198.9666   8.7928318769e+01  -6.8104474513e+00    0.1858724    0.1522689 -40.10 0.0006328132    1.230    0.187
        22  -9.3300    129.3475    175.7360   1.0868070953e+02   1.9604471306e+01    0.5151731    0.2098161 -41.02  0.001663754    3.022    0.669
        23  -9.4533      3.2851    176.9845   1.4036094127e+02   3.6897631941e+01    0.1749179    0.1535091 -74.24 0.0003207573    1.190    0.159
        24  -9.2408    236.3594    176.0630   8.5905105827e+01  -6.0285441434e-01    0.2121771    0.1959943  49.19 0.0001675521    1.297    0.229
        25 -10.1822    144.1390    173.8947   1.0469800158e+02   1.7169594029e+01    0.4477361    0.2846364 -85.44  0.001556604    2.903    0.656
        26 -10.0734    137.7698    172.9062   1.0603881567e+02   1.8651774115e+01    0.3205203    0.2526084 -61.00 0.0006792499    1.300    0.231
        27  -9.2015    163.5224    203.4970   1.0600997970e+02   6.8309910015e+00    0.3382567    0.2560938  88.35 0.0007819938    1.931    0.482
        28  -9.5766    237.2685    171.2820   8.4794232262e+01   1.3560673741e-01     0.234343    0.2061473 -43.87 0.0002651762    1.112    0.101
        29 -11.1800    204.2567    165.6594   8.9728150240e+01   7.1224061266e+00    0.6977577    0.4660768 -24.78  0.003204818    1.762    0.432
        30 -10.5699    194.1377    168.0649   9.2271335587e+01   8.5655736135e+00    0.4451438    0.3448827 -58.62 0.0007985044    1.387    0.279
        31  -9.5068    190.1555    161.1997   9.1624704269e+01   1.0798253674e+01    0.3440304     0.296407 -61.93  0.001018199    1.218    0.179
        32  -9.8522    189.8809    155.9836   9.0547755048e+01   1.1963645753e+01    0.4800808    0.3568005 -50.91  0.001527953    1.306    0.234
        33  -9.3815      2.5076    192.9024   1.4192004553e+02   3.3219934506e+01    0.1810915    0.1566328 -35.59  0.000615357    1.601    0.375
        34 -12.0979     21.3343    157.9375   1.3388752916e+02   3.9954267618e+01    0.9937402    0.7828331   5.66  0.003860394    1.696    0.410
        35  -8.5550    140.8392    249.2378   1.1849999568e+02   1.5641288336e+00    0.1984016    0.1672754  61.50  0.001077165    1.250    0.200
        36  -9.0817      1.8843    167.5282   1.3978373980e+02   3.9257652481e+01    0.1816973    0.1356612 -66.73 0.0005333959    1.172    0.147
        37  -8.4752    158.3559    167.0505   9.9895447689e+01   1.5916533743e+01    0.2167221    0.1866352 -46.58 0.0003620973    1.139    0.122
        38  -8.4495    237.4819    166.4416   8.3787404368e+01   1.0036304223e+00    0.1366477    0.1190554 -35.60 5.891588e-05    1.009    0.009
        39 -10.8986    192.9281    195.9319   9.8210597135e+01   3.0471797968e+00     1.079207    0.5382972 -63.62  0.003306765    4.647    0.785
        40  -7.7710    119.6531    164.2829   1.0880602276e+02   2.4228738781e+01    0.1602245     0.120083  74.52 0.0004164695    1.645    0.392
        41 -10.1162     99.7935    159.0517   1.1295196575e+02   2.9158176443e+01    0.2779179    0.2475023 -58.98 0.0003289977    1.077    0.071
        42  -9.0161    119.9919    157.7143   1.0734257532e+02   2.5769429151e+01    0.3569051    0.2625076 -71.08  0.001612678    1.528    0.346
        43 -11.4971    104.3910    152.1492   1.1029147471e+02   3.0053930927e+01    0.7591391    0.6306475 -11.94  0.003710915    1.506    0.336
        44 -12.0896     89.6329    153.0604   1.1450433947e+02   3.2394889046e+01    0.4177617    0.3263937 -28.81 0.0008107721    1.521    0.342
        45 -11.5696      6.8320    142.6892   1.3577605385e+02   4.4840861728e+01     1.371809    0.5579376 -88.64  0.005093852    3.617    0.724
        46 -10.1694    134.1506    147.4612   1.0144676055e+02   2.5432994409e+01     1.031882    0.3190701 -56.02  0.002649155    4.461    0.776
        47  -9.1379    132.4730    139.9703   1.0014501205e+02   2.7544492720e+01    0.3349839    0.2178891 -55.04  0.001201344    1.556    0.357
        48  -8.5821    225.1269    146.8133   8.1877994545e+01   6.9534642967e+00    0.2005442    0.1724804 -54.97 0.0004435612    1.116    0.104
        49  -9.4299    143.6588    146.3167   9.8814316326e+01   2.3740715259e+01    0.3769261     0.242178 -67.36  0.001507005    1.982    0.496
        50 -11.8760     32.0154    142.9667   1.2887794487e+02   4.2621301161e+01    0.8071844    0.4836926 -13.89  0.003690535    2.687    0.628
        51 -11.0079    112.8101    138.6187   1.0501379408e+02   3.1786845000e+01     0.614466    0.3475642 -40.59  0.002461056    1.883    0.469
        52 -10.8941    102.4594    138.0600   1.0773162657e+02   3.3861392797e+01    0.2896462    0.2703155 -65.77 0.0003345126    1.048    0.046
        53  -7.6500    153.3092    144.2803   9.6015332641e+01   2.2182015574e+01    0.1534768    0.1261323  -2.64 0.0002179332    1.562    0.360
        54  -9.8101     10.4893    132.6157   1.3342314100e+02   4.6982869569e+01    0.2982085    0.1248029  20.65  0.001267437    2.958    0.662
        55 -10.2972    134.7258    122.8418   9.5424566461e+01   3.1005851297e+01    0.4638996    0.2636663 -53.56  0.001859661    1.837    0.456
        56  -9.1339    160.1425    128.2123   9.0623463083e+01   2.4302438348e+01    0.3313536    0.2139787 -57.49  0.001406412    1.664    0.399
        57  -9.8638    106.5713    125.3541   1.0358678863e+02   3.6124878041e+01    0.3082846    0.2478883 -30.74 0.0007854023    1.339    0.253
        58  -8.9042     16.4855    130.4899   1.3139028602e+02   4.7034426982e+01    0.1307209     0.106074 -61.77 0.0008103477    1.020    0.020
        59  -8.5003     27.1566    192.5657   1.3647033314e+02   3.0929944952e+01    0.1653218    0.1260099  36.52 0.0004347249    1.506    0.336
        60 -10.3128     34.9291    119.8071   1.2398946065e+02   4.7938794198e+01    0.2797786    0.1732957  35.59  0.001188028    1.840    0.456
        61  -9.9522     24.1359    166.7471   1.3427474690e+02   3.7526932621e+01    0.8593587    0.3732589  10.94  0.003112899    4.804    0.792
        62  -9.2099    168.1479    113.8765   8.5357592050e+01   2.5567021307e+01    0.4028996    0.2808752 -74.86  0.001476913    1.882    0.469
        63  -9.9308    118.1993    129.6639   1.0143659205e+02   3.2855388590e+01    0.2975998    0.2440526 -31.96 0.0006129312    1.306    0.234
        64 -11.3925     54.5218    110.3299   1.1574625744e+02   4.7943645716e+01    0.4681949    0.3565065  51.60  0.002529014    1.592    0.372
        65 -11.1914     61.0304    109.4755   1.1345112142e+02   4.7286451055e+01    0.3998126    0.3324778 -10.17  0.002240983    1.304    0.233
        66  -8.2160    129.6125    111.1094   9.3742326182e+01   3.4669780503e+01    0.2202044    0.1428738 -34.13 0.0004724168    1.705    0.413
        67  -8.3725     10.7526    191.9319   1.4006095678e+02   3.2711293711e+01     0.153476   0.08665784 -74.24 0.0003801356    1.439    0.305
        68  -9.8283     86.9352    108.6088   1.0511661036e+02   4.3504611820e+01    0.3807441    0.2790635  74.27  0.001363997    2.022    0.506
        69  -8.8326     24.4652    109.4763   1.2531828371e+02   5.1316551978e+01     0.131525    0.1075656 -49.49 0.0003157733    1.027    0.027
        70  -9.2888     42.5813    107.7526   1.1904725520e+02   4.9944881220e+01     0.189381    0.1216007 -66.41 0.0009509632    1.619    0.382
        71 -10.5959     66.4977    105.1143   1.1062565702e+02   4.7507429902e+01    0.4352553    0.2673497  18.56   0.00200771    1.993    0.498
        72 -14.0141     12.1490    245.6560   1.4386105271e+02   2.0608160553e+01    0.5327466    0.4794949 -45.57  0.003953028    1.729    0.422
        73  -8.3826     85.3151    102.3197   1.0396287387e+02   4.5164226231e+01    0.1498852    0.1106322 -13.89 0.0004738544    1.655    0.396
        74  -8.6077    167.1998     98.6478   8.1768243294e+01   2.8821619780e+01    0.1999422    0.1819267  53.46 0.0004090086    1.129    0.114
        75  -7.7009    130.2890     97.2740   8.9891051334e+01   3.7397725732e+01    0.1450282    0.1189505   7.60   0.00020336    1.513    0.339
        76  -8.2505    113.3182     95.2800   9.3831989929e+01   4.1377791300e+01    0.1477621    0.1164751   5.08 0.0002845698    1.579    0.367
        77  -9.4023    223.5670     91.7294   7.0354095829e+01   1.7593035049e+01    0.2080198    0.1900889 -88.02   0.00031778    1.120    0.107
        78  -8.6195    112.7695    118.8677   1.0024696480e+02   3.6418659788e+01    0.2217363    0.2043534 -15.40 0.0007072147    1.155    0.134
        79  -8.8794    152.8630    185.5045   1.0497743248e+02   1.2792090475e+01    0.2363081    0.1484866  40.94 0.0008376591    1.589    0.371
        80  -8.3477    110.7520     78.9939   8.9887123810e+01   4.5024910185e+01    0.1870687     0.179578 -30.50            0    1.071    0.066
        81  -7.7415    167.6978     71.7264   7.4820229087e+01   3.3527773439e+01     0.135373     0.110457  29.26 0.0002331797    1.536    0.349
        82  -9.5220    247.8282    241.9536   9.6139439267e+01  -1.3285269811e+01    0.2121605    0.1719623 -19.45 0.0005249898    1.151    0.131
        83  -8.8593    157.4297    200.2336   1.0676731940e+02   8.6556138164e+00    0.2062204    0.1430067 -61.99 0.0009505345    1.666    0.400
        84  -8.3039    227.7813    232.9500   9.8222677269e+01  -9.2316887234e+00    0.1653044   0.09347266 -36.67 0.0006595991    1.675    0.403
        85 -10.3773    124.1974     57.2763   7.9992020292e+01   4.5741936086e+01    0.2339415    0.2243302  12.36 0.0002955562    1.089    0.082
        86  -8.8428    219.9866     43.1913   6.0566650365e+01   2.5961973455e+01    0.2600332    0.1707014 -38.65 0.0008587719    1.653    0.395
        87 -10.2833    190.0351     32.1116   6.1704258055e+01   3.4030480544e+01     0.403436    0.1865841 -54.96   0.00186309    2.331    0.571
        88  -9.7595    168.0062    232.2933   1.1011751068e+02   2.4677302675e-01    0.2470673    0.1950441 -46.46 0.0004178245    1.368    0.269
        89  -9.1980    169.4442    183.1225   1.0071612751e+02   1.0120381502e+01    0.3974629    0.2245838  66.24   0.00131891    3.523    0.716
