#   1 NUMBER                 Running object number                                     
#   2 MAG_AUTO               Kron-like elliptical aperture magnitude                    [mag]
#   3 X_IMAGE                Object position along x                                    [pixel]
#   4 Y_IMAGE                Object position along y                                    [pixel]
#   5 X_WORLD                Barycenter position along world x axis                     [deg]
#   6 Y_WORLD                Barycenter position along world y axis                     [deg]
#   7 A_WORLD                Profile RMS along major axis (world units)                 [deg]
#   8 B_WORLD                Profile RMS along minor axis (world units)                 [deg]
#   9 THETA_WORLD            Position angle (CCW/world-x)                               [deg]
#  10 FWHM_WORLD             FWHM assuming a gaussian core                              [deg]
#  11 ELONGATION             A_IMAGE/B_IMAGE                                           
#  12 ELLIPTICITY            1 - B_IMAGE/A_IMAGE                                       
         1 -13.4963    223.6594      7.8813   3.5172904583e+01   2.7638767393e+01     1.362361     0.992689  54.12  0.006124408    1.643    0.392
         2 -14.2529    196.8179     38.2689   4.5597604315e+01   3.0510440792e+01     2.299818      1.47561  14.75   0.01020875    2.469    0.595
         3 -10.5221     74.7282     12.9320   5.9999650229e+01   6.4770261384e+01    0.4397909    0.1961418  70.07  0.001453081    3.918    0.745
         4  -9.2649     79.4787    192.0026   1.0622186779e+02   2.5481457211e+01    0.2526474    0.1569341  54.71 0.0006163217    1.481    0.325
         5 -19.4653     13.5230    159.2705   1.2002332544e+02   4.0052367951e+01      18.0845     4.537947 -84.35    0.0642694    4.087    0.755
         6 -10.0245    133.0013    194.2988   9.4332237476e+01   1.7086995756e+01    0.1909178     0.148939  35.32 0.0005190531    1.087    0.080
         7 -11.6565    112.0241    196.9732   9.9324488356e+01   1.9838975745e+01    0.7340296    0.4354338  -6.56  0.002671555    4.773    0.791
         8 -10.6788    120.1217    186.3108   9.6047886296e+01   2.0556357210e+01    0.2157237     0.193364 -76.33 0.0002080207    1.307    0.235
         9 -10.9171    149.2646    188.0903   8.9905077429e+01   1.5550698844e+01    0.4258736    0.3199831  84.95  0.002265812    2.245    0.555
        10  -9.4853     92.3928    184.6051   1.0230261501e+02   2.5133253438e+01    0.2381914     0.199636  31.63 0.0007590508    1.182    0.154
        11 -10.8052     98.9758    180.9006   1.0024655815e+02   2.4893954157e+01    0.4683522    0.2780095  18.64  0.001880979    2.260    0.558
        12 -13.0925    104.6656    211.0981   1.0262854782e+02   1.8390012847e+01     1.008902    0.5691864 -62.03  0.005601571    2.181    0.542
        13 -10.1414    187.7680    175.9700   8.0082483865e+01   1.1168206059e+01    0.3104107    0.2889719 -44.35  0.001856085    1.382    0.276
        14  -8.8024    148.7933    176.0100   8.8028091895e+01   1.7707679675e+01     0.197279    0.1602808  65.55  0.000487187    1.547    0.354
        15  -9.8884    146.6953    172.2946   8.7850132608e+01   1.8726615481e+01    0.3035182    0.2330933 -87.53  0.001584655    2.019    0.505
        16 -11.2003    193.1118    195.3470   8.2422581826e+01   7.5394967746e+00    0.8579502    0.6086352 -69.82  0.004205205    3.555    0.719
        17 -10.0799     84.1770    173.7725   1.0294947918e+02   2.8571446424e+01    0.2147341    0.2061471 -56.91 0.0002780897    1.218    0.179
        18  -9.1168    193.8607    171.3313   7.8090992067e+01   1.0861357522e+01    0.1977937    0.1764144 -32.01  0.001083794    1.295    0.228
        19  -9.4691    185.1054    169.2311   7.9357412089e+01   1.2642271222e+01    0.2683709    0.1781011 -55.73  0.001362921    2.226    0.551
        20  -9.0860     96.1696    202.1490   1.0349873773e+02   2.1203038517e+01    0.1951425    0.1707253 -51.09 0.0007094769    1.393    0.282
        21  -9.6794    137.6357    168.3804   8.9203425479e+01   2.1011220520e+01    0.3189744    0.2053852  50.12  0.001597083    1.582    0.368
        22  -9.1358     93.2582    205.5830   1.0452400595e+02   2.0978910213e+01    0.2333666    0.1739958  13.06 0.0006879215    1.662    0.398
        23 -11.7219     93.6918    151.3585   9.7219561161e+01   3.1999086931e+01    0.7091464    0.5901868  13.15  0.003887297    1.434    0.303
        24 -10.8424    133.8183    145.3933   8.5821410529e+01   2.6188132380e+01     1.103237    0.3038474 -54.34  0.002922519    5.626    0.822
        25  -9.4059    112.6133    151.0603   9.2195633802e+01   2.8869981157e+01      0.24464     0.183144  50.82 0.0005804577    1.287    0.223
        26  -9.0373    174.8705    149.1475   7.7457761377e+01   1.7735931293e+01    0.1995174    0.1900341  73.08 0.0006173565    1.288    0.223
        27 -10.5577    105.6657    137.7779   9.1548030492e+01   3.2998205032e+01    0.5007012    0.3295232 -28.41   0.00193077    2.174    0.540
        28 -10.3837    106.0119    130.9096   9.0081169619e+01   3.4475308341e+01    0.3745367    0.3218971 -74.49  0.001190561    1.239    0.193
        29 -11.6374     93.4255    137.4028   9.4869428262e+01   3.5207363255e+01    0.2722681    0.2668319  -2.21 0.0005678803    1.143    0.125
        30 -10.7538    135.8891    130.3599   8.2145420618e+01   2.8847400804e+01    0.6996624    0.1675214 -45.35  0.001976607    4.340    0.770
        31 -11.0979    120.2542    122.5509   8.4388369385e+01   3.3610891157e+01    0.5847424    0.3816623  17.27  0.002394566    2.291    0.563
        32  -8.5048     96.8559    128.8582   9.2246842453e+01   3.6586600195e+01    0.1936242    0.1626267  70.21  0.000276949    1.241    0.194
        33  -9.3110    161.1244    127.7097   7.5698633569e+01   2.4249766004e+01    0.2576256    0.2013352 -51.38  0.001321781    1.401    0.286
        34 -10.3406    100.9757    124.8672   9.0239655667e+01   3.6767556204e+01    0.2843052    0.2455508 -17.37 0.0006785823    1.404    0.288
        35 -10.9198    113.8873    128.7906   8.7480343202e+01   3.3480137604e+01    0.4412747     0.346396  21.78  0.001451139    1.459    0.315
        36  -9.4957    109.0864    118.1057   8.6435214579e+01   3.6781963615e+01    0.2209192     0.210353  61.81 0.0003595996    1.020    0.019
        37  -9.9116    231.3091    113.7213   5.9955953417e+01   1.2755357960e+01    0.2412513    0.2168985 -18.42 0.0007812576    1.063    0.059
        38  -8.9388    167.9030    112.7903   7.0702682232e+01   2.5572592985e+01    0.2899642     0.192215 -65.07  0.001233199    2.225    0.551
        39  -9.8385    134.4952    105.1431   7.6410963379e+01   3.4328897721e+01    0.5716681    0.1457966 -46.46  0.001570898    4.122    0.757
        40 -11.6708    118.2551    109.5993   8.1833880254e+01   3.6836259632e+01     0.677031    0.5134508  80.95  0.002673958    1.722    0.419
        41 -10.4271     66.0520    104.5339   9.6904549328e+01   4.7507640936e+01    0.4414206    0.2108224  29.03  0.001745728    2.357    0.576
        42  -9.1692     63.2568     99.5976   9.6818103291e+01   4.9145808904e+01     0.197248     0.142877  18.88 0.0009501374    1.658    0.397
        43  -9.5151    205.5231    110.2603   6.3113533140e+01   1.8157909386e+01    0.2748606    0.2152559  36.34  0.000925349    1.339    0.253
        44 -12.6470    195.9003    204.3604   8.3368810021e+01   5.9192213881e+00     1.097316    0.4960713  16.29  0.004211021    4.063    0.754
        45 -11.5446    111.9260    204.9338   1.0033716474e+02   1.8426193835e+01    0.3605252    0.2704526  78.49 0.0004447887    1.697    0.411
        46 -10.5203    107.8861    203.9444   1.0110375776e+02   1.9191826396e+01    0.2659075    0.2190109  60.88 0.0005741159    1.240    0.194
        47  -9.4284     64.1852     70.0990   8.8745245564e+01   5.6133276456e+01    0.2135969    0.1897736 -27.69 0.0004987352    1.186    0.157
        48 -10.5266     83.7946    245.3486   1.1007612205e+02   1.5495062795e+01    0.3255965    0.1892507  45.44   0.00128997    1.294    0.227
        49 -12.8861    180.9940     52.2127   5.1694875064e+01   3.2516824455e+01    0.7635486    0.6894129   5.21 0.0009920439    1.264    0.209
        50  -9.4693    167.8991    232.5558   9.2546091612e+01   6.1828278686e+00    0.2072725    0.1498218  37.66 0.0007722162    1.269    0.212
        51  -9.5820     82.4696    194.5055   1.0578953813e+02   2.4576703960e+01    0.3125761    0.2575878   6.84  0.001809584    1.555    0.357
        52  -9.5718    189.4856     14.9725   3.9706393645e+01   3.4981739704e+01    0.2043867    0.1780196 -79.94 0.0006328027    1.073    0.068
        53 -11.6947    120.4451    194.8614   9.7168689391e+01   1.8940625194e+01    0.4469015    0.2822044 -83.33  0.001059064    2.710    0.631
