#   1 NUMBER                 Running object number                                     
#   2 MAG_AUTO               Kron-like elliptical aperture magnitude                    [mag]
#   3 X_IMAGE                Object position along x                                    [pixel]
#   4 Y_IMAGE                Object position along y                                    [pixel]
#   5 X_WORLD                Barycenter position along world x axis                     [deg]
#   6 Y_WORLD                Barycenter position along world y axis                     [deg]
#   7 A_WORLD                Profile RMS along major axis (world units)                 [deg]
#   8 B_WORLD                Profile RMS along minor axis (world units)                 [deg]
#   9 THETA_WORLD            Position angle (CCW/world-x)                               [deg]
#  10 FWHM_WORLD             FWHM assuming a gaussian core                              [deg]
#  11 ELONGATION             A_IMAGE/B_IMAGE                                           
#  12 ELLIPTICITY            1 - B_IMAGE/A_IMAGE                                       
         1 -13.2244    176.3021     36.1751   7.0062023256e+01   3.6764674233e+01     1.199712    0.9676322  16.97  0.004890091    1.665    0.399
         2 -12.3757    195.0909      4.8408   5.9815484418e+01   3.5811497839e+01    0.8551795    0.5270045  74.35  0.004402414    1.358    0.263
         3  -9.6995    158.8332    235.4449   1.1926457890e+02   2.0019153247e+00    0.2468246    0.1729598  -2.43  0.001199523    2.287    0.563
         4 -19.5147     45.2480    147.5100   1.3182904466e+02   3.9924378274e+01     21.06397     3.370723 -65.43   0.05245239    6.322    0.842
         5  -8.4905    163.4520    203.4991   1.1298343469e+02   7.2238515146e+00    0.1430056    0.1340145  46.62 0.0001091582    1.023    0.022
         6 -10.7072     94.5227    200.1673   1.2776074141e+02   2.0451628548e+01     0.626283    0.3330496  83.11  0.002296859    3.292    0.696
         7 -10.5100    121.8859    199.3047   1.2147345654e+02   1.5918502090e+01     0.267618    0.2091597 -53.10 0.0007779382    1.363    0.266
         8 -12.1438    113.3263    197.1735   1.2306717969e+02   1.7925814521e+01    0.5565256    0.5066158  34.20  0.003196296    1.234    0.190
         9 -10.3373    192.7561    192.4394   1.0465725595e+02   3.7695523131e+00    0.7699234    0.3694832 -51.99  0.003041785    2.490    0.598
        10 -10.9622    103.6532    194.7240   1.2488562615e+02   2.0163148715e+01    0.3393648    0.3046325 -22.03  0.001271202    1.469    0.319
        11 -10.6738    164.0763    217.9883   1.1537673750e+02   4.2751217670e+00    0.3694258    0.2475129  34.87  0.001873925    1.421    0.296
        12  -9.4254     30.7117    213.4498   1.4262833308e+02   2.6315319821e+01    0.1476035    0.1224648 -86.58 0.0004415682    1.189    0.159
        13  -9.2372    166.9773    187.9663   1.0930132125e+02   9.7206858893e+00    0.2312109    0.1832996  84.86   0.00112127    1.635    0.389
        14 -10.2581     99.1432    180.7602   1.2370334552e+02   2.4176054267e+01    0.2890013    0.2580933  22.50 0.0008657394    1.364    0.267
        15 -12.1473     92.8575    170.7208   1.2353700870e+02   2.7622835590e+01    0.8169931    0.5057024 -45.42  0.003207319    1.798    0.444
        16 -10.0711    118.6012    173.7250   1.1778265818e+02   2.2365323325e+01    0.2684603    0.1747312  61.24  0.001183697    1.727    0.421
        17 -10.2214    195.8004    169.9283   9.9408400005e+01   7.6099648072e+00    0.4394932    0.3352948 -38.81  0.001533028    1.300    0.231
        18  -9.4147    193.7849    164.9398   9.8757313163e+01   9.0342048548e+00    0.3054557    0.2755582 -48.61  0.001636388    1.123    0.109
        19  -8.9177    137.5350    171.4690   1.1279852770e+02   1.9234821189e+01    0.1508006    0.1464645  73.87 2.875385e-05    1.025    0.025
        20  -8.4387    164.3027    170.6220   1.0639912712e+02   1.3966654716e+01    0.1592129    0.1212889 -89.50 0.0007026402    1.769    0.435
        21 -10.6113    101.7764    169.2442   1.2107751347e+02   2.6464867722e+01    0.3359246    0.2329037 -48.69  0.001616579    1.498    0.333
        22  -8.7703    120.7861    164.1675   1.1541194103e+02   2.4206684091e+01    0.2277328    0.1940614  86.55 0.0003331528    1.231    0.188
        23 -10.1210     99.6051    159.9278   1.1990554582e+02   2.9084988160e+01    0.2928956    0.2523403 -54.67 0.0003861587    1.161    0.139
        24 -11.1933    103.8520    152.8916   1.1744723934e+02   3.0038990608e+01    0.6892332    0.4360935 -45.77  0.002312286    1.631    0.387
        25  -8.6385    168.8765    234.8221   1.1713041175e+02   3.4863475747e-01    0.1930788    0.1635639  16.80 0.0003817446    1.232    0.188
        26 -11.7803     89.0121    154.5860   1.2162265359e+02   3.2160959339e+01    0.4058884    0.3103635 -33.18  0.001012421    1.605    0.377
        27 -10.4220     90.2922    147.8884   1.2000421036e+02   3.3579668680e+01      0.41106     0.247623  54.02  0.001282789    1.859    0.462
        28 -10.4255    136.0071    209.9873   1.2007379601e+02   1.1046575456e+01     0.223639    0.2047317  58.16 0.0009051715    1.009    0.009
        29  -9.7373    134.2095    147.0058   1.0844802968e+02   2.5585321293e+01    0.5217788     0.127182 -52.72  0.001291029    4.741    0.789
        30 -11.1716    127.5709    208.0828   1.2161751607e+02   1.2984957893e+01     0.389427    0.2434951  21.77  0.001669621    2.387    0.581
        31 -10.2365    112.7546    138.7191   1.1211097506e+02   3.1798973635e+01    0.4965946    0.2416396 -38.44  0.001776265    2.554    0.608
        32 -10.5046    102.1610    138.7688   1.1494771982e+02   3.3743064056e+01    0.2963544    0.2665634 -37.07 0.0005505221    1.182    0.154
        33  -9.6255    106.0159    130.8539   1.1213605816e+02   3.4926566775e+01    0.3395822    0.3173391 -67.29  0.001061003    1.035    0.034
        34  -8.8325    117.9178    129.8379   1.0869489426e+02   3.2890332496e+01    0.2345753    0.2088593 -18.52 0.0005574329    1.275    0.216
        35  -9.3619    106.5947    125.5472   1.1073831617e+02   3.6065909535e+01     0.261683    0.2196227 -37.83 0.0005411425    1.223    0.182
        36 -10.2025     92.7974    206.8973   1.2908127436e+02   1.9222068544e+01    0.3145625     0.240886 -73.12 0.0007515864    1.278    0.218
        37  -9.3506    168.4128    113.1617   9.2066355223e+01   2.5536766578e+01    0.3650311    0.2576832 -82.77  0.001377988    2.024    0.506
        38 -11.3667     86.9209    204.3732   1.3002520920e+02   2.0721548271e+01    0.7205219    0.3396944  40.19  0.003217642    2.063    0.515
        39 -11.8122     75.7520    199.8528   1.3188183072e+02   2.3453495576e+01    0.8118505    0.4354272 -60.86   0.00209083    1.802    0.445
        40  -9.0496    205.0438    110.4893   8.3966657617e+01   1.7554179635e+01    0.2316313    0.1487642  52.58  0.001038489    1.614    0.380
        41 -11.0264     82.0391    194.5080   1.2976648342e+02   2.3728756276e+01    0.6632334    0.3766624 -71.50  0.003154705    1.769    0.435
        42 -12.2378    162.5760     52.1537   7.6799307332e+01   3.7917714307e+01    0.7096408    0.5498697 -29.67  0.002542466    1.438    0.304
        43 -12.6611     84.5612    185.7136   1.2792397796e+02   2.5387522210e+01    0.9439104    0.8847958 -85.97  0.005717997    1.125    0.111
        44  99.0000     14.4137    248.5753   1.4796696942e+02   2.0991362375e+01    0.3595887     0.111688  47.80  0.001892778    2.456    0.593
        45 -11.5464    180.5902     29.3979   6.7645633871e+01   3.6568665573e+01     0.429448    0.3960433 -11.53  0.001062442    1.350    0.259
        46  -9.9762     11.7548    204.5495   1.4553775226e+02   3.0239807735e+01    0.2969053    0.1844886 -68.32  0.001895267    1.485    0.327
