#   1 NUMBER                 Running object number                                     
#   2 MAG_AUTO               Kron-like elliptical aperture magnitude                    [mag]
#   3 X_IMAGE                Object position along x                                    [pixel]
#   4 Y_IMAGE                Object position along y                                    [pixel]
#   5 X_WORLD                Barycenter position along world x axis                     [deg]
#   6 Y_WORLD                Barycenter position along world y axis                     [deg]
#   7 A_WORLD                Profile RMS along major axis (world units)                 [deg]
#   8 B_WORLD                Profile RMS along minor axis (world units)                 [deg]
#   9 THETA_WORLD            Position angle (CCW/world-x)                               [deg]
#  10 FWHM_WORLD             FWHM assuming a gaussian core                              [deg]
#  11 ELONGATION             A_IMAGE/B_IMAGE                                           
#  12 ELLIPTICITY            1 - B_IMAGE/A_IMAGE                                       
         1 -11.8328      7.9621     28.6259   1.2080140388e+02   6.9445451895e+01    0.9359082   0.09538261 -47.51  0.003296127    3.934    0.746
         2 -11.5230     19.8781     17.0073   1.0990687739e+02   7.1035544283e+01    0.6373376    0.4707488  57.08  0.003736302    2.362    0.577
         3 -12.3967    129.5587     23.8741   6.9479201515e+01   5.0157309276e+01    0.5477191    0.4077013 -53.63  0.001017633    1.662    0.398
         4 -11.3217     61.8548     11.8683   8.5520874244e+01   6.6512248751e+01    0.5887919     0.433213 -34.01  0.003081045    1.431    0.301
         5 -11.1185     60.2182     22.7785   9.1717910891e+01   6.5117327311e+01    0.6476547    0.3195136 -49.91  0.002656768    2.842    0.648
         6 -10.9062      9.6609     16.0107   1.1558655890e+02   7.1940186840e+01    0.2607618    0.1657389 -23.95 0.0009496494    1.430    0.301
         7 -11.6748      3.8763     18.7990   1.2004343968e+02   7.1678183972e+01     0.452824    0.2737606 -46.85  0.002718805    1.227    0.185
         8 -10.5944     30.6314     13.3363   1.0200217262e+02   7.0701944767e+01    0.3979567    0.1446676 -41.48  0.001783432    2.290    0.563
         9 -10.3000     26.5100     13.7542   1.0456913330e+02   7.1051232029e+01     0.201573     0.139045 -24.43 0.0002561922    1.217    0.178
        10 -11.7287     34.5612     16.4067   1.0131291933e+02   6.9724771034e+01    0.3688898    0.2345797 -28.23  0.001306822    1.353    0.261
        11 -11.1474    108.1939     17.1034   7.2008578883e+01   5.6203402111e+01    0.2446609    0.2230448 -20.34 0.0003567756    1.181    0.153
        12 -11.3508     70.4233     14.4044   8.3262398008e+01   6.4616144827e+01    0.4968196    0.2630873 -12.86  0.002151895    2.306    0.566
        13 -11.2389     75.7063     16.3205   8.2161215380e+01   6.3348147635e+01    0.5126691    0.2788792 -11.25  0.001634044    2.254    0.556
        14 -12.2226     80.7914      6.9649   7.5577056239e+01   6.3499564280e+01    0.4983981    0.3081763   6.69 0.0009622385    1.779    0.438
        15 -11.5092     74.0359      5.4695   7.7207395073e+01   6.5052597390e+01    0.6449252    0.2709997 -28.55  0.001437885    2.312    0.568
        16 -10.7059     55.1820     13.1868   8.9214984261e+01   6.7432009542e+01     0.244942     0.223293 -57.78  0.001055837    1.647    0.393
        17 -11.4123    131.8642     13.9137   6.5023413504e+01   5.0677414779e+01     0.521012    0.2486484   1.67  0.001820292    3.243    0.692
        18  -9.9239     50.5774     14.8060   9.2242790036e+01   6.7892083667e+01    0.2413137    0.1702991  27.85  0.001392993    1.419    0.295
        19 -10.7204    240.1577     12.0701   5.0395364524e+01   2.3351806114e+01    0.1916717    0.1711706 -82.70 0.0002965326    1.107    0.097
        20 -10.0036    175.8402     11.8493   5.6944360344e+01   3.9291652153e+01    0.2145836     0.183054  40.32 0.0004574956    1.182    0.154
        21 -10.3779    114.9718     12.1155   6.8081156029e+01   5.5119508418e+01    0.4619389    0.1896146  61.76  0.001522257    2.447    0.591
        22  -9.6500    185.8751     10.8783   5.5368833015e+01   3.6751490141e+01    0.1898345    0.1548188 -57.53 0.0003805584    1.270    0.213
        23 -10.4478     99.6977     12.8169   7.2460021454e+01   5.8681739161e+01    0.2665537    0.2389268 -19.10 0.0009910454    1.197    0.165
        24 -10.3301      2.9224      8.0111   1.1668802166e+02   7.3871564845e+01    0.2086557    0.1481234  -4.69 0.0002877199    1.453    0.312
        25 -13.4662     29.8219      2.8816   9.6892918562e+01   7.2540123651e+01    0.7418606    0.3771502   8.90  0.002394631    2.664    0.625
        26 -12.4148     11.7362      2.6345   1.0831238358e+02   7.4327543631e+01    0.6210791    0.2719668 -30.29  0.001818979    2.087    0.521
        27 -11.7905     18.3694      4.1178   1.0470290370e+02   7.3521310813e+01    0.3936513    0.2831048 -15.71  0.001569614    1.177    0.151
        28  -9.4395    122.4805      8.5090   6.4812975791e+01   5.3607474307e+01    0.1458484    0.1289332  36.68 3.704827e-05    1.008    0.008
        29 -11.1498    115.7420      5.2373   6.4912893310e+01   5.5604580310e+01    0.5133534    0.2554207 -26.64  0.001710664    2.076    0.518
        30 -10.5973    108.4334     10.7300   6.9115238747e+01   5.6854236052e+01    0.2406466    0.2007259  51.17 0.0002629192    1.168    0.144
        31 -10.3792     88.9240      6.8157   7.2826866182e+01   6.1770063882e+01    0.4938633    0.2567811  72.30  0.001309143    3.655    0.726
        32  -9.7834    155.9306      6.2877   5.7883528233e+01   4.5078964077e+01    0.2004222    0.1652598  58.81 0.0002727857    1.107    0.097
        33  -9.7433    145.3674      6.6950   5.9711042297e+01   4.7841002940e+01    0.1496242     0.105909 -66.03 0.0007035434    1.747    0.428
        34 -10.6137     64.0000     26.0500   9.1600930607e+01   6.3961973440e+01    0.3117954    0.1425936 -39.55  0.001363681    2.086    0.521
        35 -10.6707    247.1268    249.7925   1.0024954647e+02  -6.3006736558e+00    0.3141252    0.1445783  17.09  0.001514228    2.017    0.504
        36 -10.8951    250.5320    245.1693   9.9027376720e+01  -6.3255360213e+00    0.3855218    0.0947702 -29.42  0.001755741    4.475    0.777
        37 -10.0933     72.5691    250.1704   1.3081863194e+02   1.7154331689e+01    0.1575741    0.1287064  21.23  0.001244766    1.611    0.379
        38 -12.0361     27.9542    247.3277   1.3819812214e+02   2.2376388520e+01     0.444447    0.2108888  68.50  0.003082908    1.811    0.448
        39 -12.2467     15.1259    238.4414   1.3996741222e+02   2.4969167585e+01     0.850803    0.1666262  34.76  0.004209843    3.558    0.719
        40 -12.5376     20.7170    248.6823   1.3942034546e+02   2.2856512333e+01    0.6230912    0.2191183  39.06  0.003974268    2.068    0.516
        41 -11.4658     14.2211    244.5304   1.4032005024e+02   2.4092604665e+01    0.4010915    0.1628625 -81.21  0.002675268    2.456    0.593
        42 -10.7336      1.4413    245.0178   1.4235514016e+02   2.5129308655e+01    0.1731354   0.07465505 -83.72 0.0005813121    2.225    0.551
        43 -10.4520     66.1961    226.3296   1.3033077852e+02   2.1664298485e+01    0.2321618    0.1341393  47.89 0.0006748576    1.333    0.250
        44 -10.5534     10.8137    226.7888   1.4028166524e+02   2.7249733891e+01    0.1428159   0.07846518  61.46 0.0004689406    1.340    0.254
        45 -10.5530      5.4538    226.4864   1.4117646187e+02   2.7758421519e+01    0.2825733    0.0166713  51.50  0.001190086    4.404    0.773
        46 -10.7447    115.9788    225.7634   1.2073797224e+02   1.5268332648e+01    0.1637509    0.1150616  67.52 0.0008199296    1.649    0.394
        47 -10.1431    180.7020    224.4972   1.0813334150e+02   5.7649871885e+00     0.174076    0.1084049 -37.23 0.0006841653    1.979    0.495
        48  -9.7069     25.6392    225.6925   1.3767578448e+02   2.6085157450e+01   0.08432014   0.07764596 -31.87 0.0004483265    1.736    0.424
        49  -9.6404     80.9879    223.9912   1.2734178187e+02   2.0251911691e+01    0.1931372    0.1013514  75.97  0.001022592    2.606    0.616
        50 -10.7963    123.1424    221.5710   1.1887483136e+02   1.4894416786e+01     0.307374    0.1830228  44.64  0.001549033    1.363    0.266
        51 -10.7656    141.5730    221.0067   1.1518208141e+02   1.2241182875e+01    0.2758713    0.1477033  26.72  0.001439223    1.931    0.482
        52  -9.5334     21.5519    220.4964   1.3816907102e+02   2.7351416925e+01    0.1031735    0.0736922  62.82 3.651966e-05    1.027    0.026
        53  -9.6747    250.4810    219.1104   9.4962179249e+01  -3.8719680379e+00    0.1515431   0.09512506 -15.05 0.0005013144    1.498    0.333
        54  -9.9045    191.5025    217.0350   1.0500947489e+02   5.0580875504e+00    0.1857356    0.1584579 -25.23 0.0009889137    1.431    0.301
        55  -9.6562    194.5418    215.4770   1.0420186132e+02   4.7840081805e+00    0.1247679   0.09501336  22.39 -3.090283e-05    1.018    0.018
        56 -10.9748      9.8719    217.0248   1.4009475710e+02   2.8986801591e+01    0.2481731    0.1289634  57.80 0.0007648297    1.431    0.301
        57 -11.1677    235.0184    216.8156   9.7171549270e+01  -1.4676764997e+00    0.1794611    0.1663765  -9.24   0.00133848    1.637    0.389
        58  -9.7591     37.9847    217.5038   1.3503204167e+02   2.6275716229e+01    0.1546216   0.08612628  38.61 0.0004897296    1.557    0.358
        59 -10.0201    201.2883    215.8766   1.0301297554e+02   3.6867995220e+00    0.1932665    0.1174613   3.94  0.001059173    1.933    0.483
        60 -10.2688     31.2510    215.7536   1.3618447232e+02   2.7253693028e+01    0.1805715    0.1257154  49.04  0.001362659    1.184    0.156
        61  -9.4011    136.9667    215.7744   1.1543294287e+02   1.3737692441e+01    0.1682202   0.08288724  37.56 0.0008687308    1.634    0.388
        62 -10.0771     13.1366    221.6974   1.3969797261e+02   2.7903545980e+01    0.1334849    0.1001629  60.75 0.0005656263    1.075    0.069
        63  -9.8519    170.4666    213.4650   1.0849253631e+02   8.8485740925e+00     0.125491   0.09913479  29.61 0.0003925682    1.016    0.016
        64  -9.9883    174.0179    219.7337   1.0871702403e+02   7.4251262997e+00    0.1836099    0.1270975  32.17 0.0006277034    1.128    0.113
        65 -10.7215    241.3588    211.5295   9.5214988425e+01  -1.8114967437e+00    0.2200296    0.1874138  48.15  0.001501947    1.962    0.490
        66  -9.7011      2.2875    212.3287   1.4126421302e+02   3.0430774442e+01    0.1196718   0.07284149  39.73 0.0004441274    1.503    0.335
        67 -11.9323      4.4804    207.1224   1.4069583981e+02   3.1172630808e+01    0.4468345    0.1980744  72.72  0.002828625    1.895    0.472
        68 -10.2224    208.9573    212.0787   1.0100100810e+02   2.9690238098e+00    0.1889543    0.1412767  19.39 0.0004722597    1.025    0.025
        69  -9.4229    184.3775    208.7857   1.0508623854e+02   7.2768586978e+00    0.1571948    0.1101975 -17.28 0.0007270343    1.628    0.386
        70 -11.0616     20.7005    211.7554   1.3793207034e+02   2.8955165469e+01    0.2816389    0.1206516  63.82 0.0009588618    1.996    0.499
        71  -9.9925    175.1344    202.6508   1.0592519021e+02   9.6442132387e+00    0.1828806    0.1759911  24.39 0.0006199517    1.286    0.222
        72 -10.9826     18.7644    202.3727   1.3785500840e+02   3.0822866917e+01    0.2610943    0.1896158 -78.13 0.0008393424    1.408    0.290
        73 -10.0100    223.1332    201.3001   9.6627960578e+01   2.0785859593e+00    0.2508491    0.2006022 -75.02  0.001304179    3.431    0.709
        74  -9.5381     34.6656    201.0136   1.3470365289e+02   2.9583216842e+01    0.1448326    0.1150254  71.65 0.0003957545    1.059    0.055
        75  -9.7094    227.1384    196.8566   9.5134203779e+01   1.9907309544e+00    0.1793868    0.1179151  11.82  0.000717223    1.347    0.257
        76 -10.5646    215.5308    194.6556   9.6837544913e+01   4.1104165780e+00    0.2089674    0.1149453 -24.77 0.0006631451    1.933    0.483
        77  -9.8847    203.8751    195.7771   9.9205506701e+01   5.8647477033e+00    0.3318317    0.1265389  35.46  0.001449249    2.259    0.557
        78  -9.3075    246.3192    190.3223   9.0638864467e+01  -1.9018059044e-01    0.1300196   0.07565407   9.27  0.000704424    1.670    0.401
        79  -9.1991    205.5278    190.4953   9.7960026434e+01   6.3022770006e+00    0.1312524    0.1046919  17.52  0.000155148    1.004    0.004
        80  -9.2968      1.6164    188.2003   1.4052678536e+02   3.4876549314e+01    0.1341089   0.07933279 -76.68 0.0004859087    1.581    0.368
        81  -9.4059     61.6261    184.8177   1.2784059344e+02   2.9783834058e+01    0.1648632    0.1017115 -89.09 0.0009500331    1.714    0.417
        82 -11.4875     15.9581    182.6295   1.3741523890e+02   3.4813404128e+01    0.3695682    0.1716119  77.14  0.002114652    2.007    0.502
        83 -10.0383      2.0062    180.2982   1.4013207381e+02   3.6364383922e+01    0.1457807    0.1101507  63.30 0.0005895645    1.095    0.086
        84 -10.2431    244.4106    178.2869   8.8696660676e+01   1.5186216693e+00    0.2285667     0.106876 -22.19  0.001115497    2.126    0.530
        85 -10.8738    224.3900    178.3506   9.2207291797e+01   4.7662991988e+00    0.2617637    0.2001801  31.83 0.0004825888    1.256    0.204
        86  -9.3125     36.0420    178.4983   1.3290800215e+02   3.3816052876e+01    0.1549459     0.100862  38.35 0.0005271094    1.475    0.322
        87 -10.3294    200.1633    176.8092   9.6464771138e+01   9.1473868730e+00    0.1902086     0.137493  11.19 0.0005930048    1.324    0.245
        88  -9.6179     70.0561    177.5435   1.2521987327e+02   3.0216981697e+01    0.1711885    0.1113205  35.17 0.0004913568    1.488    0.328
        89  -9.7033     74.8724    171.1105   1.2337684252e+02   3.0919671913e+01    0.1798209    0.1488514 -24.21 0.0009391977    1.646    0.392
        90 -10.5660     12.7638    170.7438   1.3743968823e+02   3.7443473002e+01    0.2761058   0.08590867  73.75  0.001060117    4.303    0.768
        91 -10.0039    166.8097    183.5733   1.0446502348e+02   1.3985915881e+01    0.1923637    0.1126575  46.18 0.0009484407    1.656    0.396
        92  -9.6555    209.8553    166.2006   9.2516574912e+01   8.9623895655e+00    0.1936211    0.1382804  12.51 0.0005040496    1.328    0.247
        93 -11.5784     36.5860    159.9092   1.3128922494e+02   3.7628181193e+01     0.625789    0.2346338 -67.35            0    2.383    0.580
        94  -9.7862     67.1570    165.1545   1.2451179492e+02   3.3145382469e+01    0.1800541    0.1299962  64.50 0.0007924291    1.333    0.250
        95 -10.8350     51.5567    164.2847   1.2814582527e+02   3.5153082917e+01    0.3196336      0.16801 -44.32  0.001568294    2.626    0.619
        96  -9.4240    200.2424    162.6268   9.3657197119e+01   1.1245716999e+01    0.1871901    0.1145832  31.75 0.0004671886    1.488    0.328
        97 -11.5191     44.0271    162.5170   1.2976097568e+02   3.6330588606e+01    0.3327489    0.1929086  57.41  0.001401703    1.632    0.387
        98  -9.2741    115.6694    159.2950   1.1185156854e+02   2.7303591805e+01    0.1398533    0.1013323  65.77 0.0007025354    1.635    0.388
        99  -9.5761    246.3474    162.6690   8.5285700024e+01   3.1282341803e+00     0.112251    0.1038392 -53.48 0.0007049348    1.763    0.433
       100 -10.3334    247.4905    158.5029   8.4245887299e+01   3.4635299604e+00    0.1298078    0.1051991   2.00 3.706117e-05    1.046    0.044
       101 -11.1790     22.7288    155.9228   1.3424174217e+02   3.9723957686e+01    0.3494602    0.2865344 -84.30  0.002519966    1.118    0.105
       102  -9.3042    147.5145    156.5057   1.0375847185e+02   2.2214671522e+01    0.1422653    0.1292309  32.14 6.532731e-05    1.027    0.026
       103  -9.1192    216.9462    155.0000   8.8869740650e+01   9.2932975591e+00    0.2228766   0.07181232  43.88 0.0008065181    2.971    0.663
       104  -9.2785    151.6680    153.3252   1.0217032512e+02   2.2031886251e+01    0.1414588    0.1132081  73.76 0.0004895201    1.708    0.415
       105 -10.2599     11.6978    153.4110   1.3664890819e+02   4.1124008642e+01    0.2442899    0.1104186  21.63  0.001311864    2.681    0.627
       106 -10.0197    205.5773    152.1901   9.0433614531e+01   1.1836524421e+01    0.1965948    0.1239266 -17.31 0.0008849913    1.702    0.413
       107 -10.3146    178.1133    151.4841   9.5894836600e+01   1.7257655057e+01    0.2435205    0.2294281  12.44  0.001097362    1.116    0.104
       108 -10.4836     18.1638    146.3001   1.3461360672e+02   4.2166932841e+01    0.2353385    0.1706329 -32.18 0.0009471813    1.913    0.477
       109 -10.3253    207.0065    146.0282   8.8822012765e+01   1.2506059713e+01    0.2225121    0.1874146  10.76 0.0007322698    1.036    0.035
       110 -10.8600     11.0891    146.6810   1.3635429199e+02   4.2608509799e+01    0.2477686    0.1115412  42.01  0.001386246    2.072    0.517
       111 -10.1072    236.7034    138.9078   8.1874042831e+01   7.9312455253e+00    0.1865648    0.1540137  -7.58 0.0006675723    1.062    0.058
       112 -10.2944     56.7322    138.0662   1.2378565109e+02   4.0344620772e+01    0.3881686    0.2090343  70.79  0.001745719    2.474    0.596
       113 -11.1852     21.6008    136.3343   1.3293309887e+02   4.4099819735e+01    0.3370247    0.2644154 -78.25  0.001871556    1.116    0.104
       114 -11.3387      2.9551    137.1842   1.3771783894e+02   4.5205427882e+01    0.3379075    0.1643132 -67.46  0.001682015    1.772    0.436
       115 -11.6809      9.2764    136.6930   1.3611078277e+02   4.4908816160e+01    0.2158474    0.1944159 -42.93 0.0001802856    1.384    0.277
       116  -9.5610    138.0502    135.4651   1.0170619529e+02   2.8119880561e+01    0.2146917    0.1250946  19.29 0.0008093767    2.572    0.611
       117  -9.2895    250.6376    134.2891   7.8588148069e+01   6.0434178213e+00    0.1183449    0.1043952 -57.28 0.0007025209    1.695    0.410
       118 -10.4483    106.8640    133.2297   1.0932136919e+02   3.4290812269e+01     0.237684    0.2340778  75.50 0.0009120441    1.024    0.023
       119  -9.5086    112.0557    132.5320   1.0779086801e+02   3.3547019020e+01     0.213459     0.136487  39.81 0.0006139519    1.512    0.339
       120 -11.2969     36.7083    130.4624   1.2829803195e+02   4.4148789864e+01     0.386898    0.2765796 -57.09  0.002360351    1.373    0.272
       121 -10.8496     74.4653    129.6449   1.1760633740e+02   4.0056524846e+01    0.2953623    0.2316899  34.49  0.001673918    1.321    0.243
       122  -9.4052    243.2077    128.4205   7.8462376630e+01   8.1671577044e+00    0.1600095    0.1303417  51.16 0.0004848609    1.523    0.343
       123 -10.9760      2.1845    124.9649   1.3710790354e+02   4.7938522300e+01     0.356292    0.1398343 -67.43  0.001598408    2.052    0.513
       124 -10.1392     82.0594    125.0552   1.1463279899e+02   4.0041798610e+01    0.1992002    0.1915607 -68.41 0.0004006833    1.031    0.031
       125 -10.0038    226.4748    124.4702   8.0345952240e+01   1.1921194235e+01    0.1410462    0.1228549  -0.58 0.0001935239    1.018    0.018
       126  -9.4296    219.5381    124.5067   8.1575704260e+01   1.3299252548e+01    0.1441226    0.1245243   2.35 0.0008093544    1.017    0.016
       127 -11.6019     10.5943    122.5541   1.3467071540e+02   4.7975317315e+01    0.4178268    0.2881033 -21.00  0.002607401    2.018    0.504
       128 -11.8674     23.1991    107.0455   1.2942916374e+02   5.0686877337e+01    0.5449253     0.273185  63.70  0.002614579    2.458    0.593
       129 -11.9648     18.4196    114.5087   1.3170719372e+02   4.9294150222e+01    0.4769168    0.2528289 -64.83   0.00168722    1.580    0.367
       130 -11.9429     16.2588    109.3557   1.3179657528e+02   5.0629153772e+01    0.4860991    0.2980132  23.11  0.002243486    1.920    0.479
       131 -10.2482     20.4702    121.6326   1.3185393819e+02   4.7511881169e+01    0.2134685    0.1521017  10.70  0.001328109    1.809    0.447
       132  -9.7322     33.0664    118.9635   1.2795230332e+02   4.7125947870e+01    0.1914651    0.1310294 -43.10 0.0007010086    1.622    0.383
       133 -10.1050    249.7765    118.5789   7.5204667241e+01   8.2753609800e+00    0.1639472     0.131741  57.96 0.0009432368    1.628    0.386
       134 -10.4578     51.0583    116.9464   1.2234648558e+02   4.5855088287e+01    0.1892141    0.1678467 -80.95  0.001190958    1.034    0.033
       135  -9.6096     86.4126    116.5143   1.1169237166e+02   4.1347952607e+01    0.1382076      0.13236 -72.93 0.0008038213    1.025    0.025
       136  -9.2421    166.3094    115.6938   9.0227172073e+01   2.6106567919e+01    0.1459147    0.1244301 -85.84  0.000228116    1.613    0.380
       137 -12.2459     35.5638    110.0980   1.2603280144e+02   4.8979165612e+01    0.5172413    0.3200756 -75.73  0.001263749    1.470    0.320
       138  -8.9194    212.6973    112.6559   7.9952005614e+01   1.6513033363e+01    0.1534212    0.1053334   9.28  0.000703949    1.683    0.406
       139  -9.8243     94.4489    111.9506   1.0833289033e+02   4.1111302486e+01    0.2067411    0.1280094 -80.22 0.0008084014    2.648    0.622
       140 -10.7662     43.4870    110.1728   1.2360018238e+02   4.8224917154e+01    0.2806949    0.1804064 -29.65  0.001450613    2.016    0.504
       141 -10.4942     55.9108    109.4490   1.1961649850e+02   4.7077773306e+01     0.275814     0.180402 -34.80 0.0009280483    1.815    0.449
       142 -11.1931      6.5101    107.7626   1.3452804898e+02   5.1580417410e+01    0.2193443    0.2115999   5.04 0.0005930219    1.307    0.235
       143 -10.7107      2.8075    105.1981   1.3539049585e+02   5.2360109374e+01    0.2019368    0.1334882 -69.41 0.0004510053    1.239    0.193
       144  -9.3534    133.4545    107.5260   9.6236608987e+01   3.4754250355e+01    0.1532258    0.1442734   7.10 0.0001141044    1.037    0.036
       145 -11.2792    243.5536    104.6271   7.2896445490e+01   1.1345986745e+01    0.2463637    0.1759814  -3.46 0.0006678149    1.417    0.294
       146 -10.2356    223.3731    104.0421   7.5955282000e+01   1.5548135900e+01    0.2370515    0.2121041  50.40 0.0004799945    1.270    0.213
       147 -10.6769     27.3188    101.6505   1.2743336556e+02   5.1642375029e+01    0.3226582    0.1363459 -52.77 0.0008509048    2.101    0.524
       148 -10.9572    247.8435    102.1396   7.1674362397e+01   1.0842489132e+01    0.2035931    0.1780215 -35.54 0.0007980359    1.230    0.187
       149 -10.2528    119.8389    101.4256   9.8362641661e+01   3.8799886603e+01    0.2854532    0.1948897  -6.97  0.001172779    2.195    0.545
       150 -10.7707     69.7205    102.4466   1.1388040816e+02   4.7006740462e+01    0.2495191    0.1295314  37.10 0.0008012114    2.001    0.500
       151 -10.7046    248.8729    112.1249   7.3857934750e+01   9.3064850349e+00    0.2008261    0.1707118 -29.19 0.0005553438    1.206    0.171
       152  -9.7822      9.5018    102.5009   1.3311814756e+02   5.2623463752e+01    0.1848397    0.1097328 -11.06  0.001026262    2.392    0.582
       153 -11.3852      3.3688    100.3847   1.3478582828e+02   5.3432645058e+01    0.2793662    0.2247758  65.20 0.0008825102    1.284    0.221
       154 -10.4192     84.9795     99.0518   1.0823973100e+02   4.5568759704e+01    0.3020402    0.1888454 -46.27 0.0009153018    1.542    0.351
       155 -11.5849     20.5706     97.7492   1.2907487471e+02   5.3044281349e+01    0.3251138    0.2122222  88.89 0.0004326372    1.507    0.337
       156  -9.5217     80.8702     99.3684   1.0962212686e+02   4.6129170530e+01    0.1915997    0.1350639  17.59 0.0004910223    1.700    0.412
       157 -10.7771     63.6526     98.7839   1.1507396651e+02   4.8654462257e+01    0.4468234    0.2053399  23.14  0.001815833    2.755    0.637
       158  -9.9517     94.9117     96.8500   1.0457125282e+02   4.4434220774e+01    0.2135765     0.193267  -3.25 0.0004076132    1.167    0.143
       159 -10.2692      1.4756     94.1924   1.3478360237e+02   5.4941406928e+01    0.2654495   0.07616677 -69.02    0.0011728    2.476    0.596
       160 -10.9888     94.8792     91.2288   1.0310547138e+02   4.5689850690e+01     0.471925    0.3176134  -5.10  0.001423493    2.279    0.561
       161  -9.7094     67.2739     93.3991   1.1268870855e+02   4.9442053910e+01     0.238503    0.1380794  24.34  0.001060977    2.004    0.501
       162  -9.8276     31.5584     92.3385   1.2462902169e+02   5.3500241674e+01     0.252396    0.1135249 -72.86  0.001143098    2.099    0.524
       163 -11.1354     25.8623     91.3887   1.2641460966e+02   5.4163888161e+01    0.2610255    0.2210646 -20.48  0.001264758    1.372    0.271
       164 -10.9474      3.9580     86.1646   1.3313383049e+02   5.6676407794e+01    0.3806454    0.2954476  60.43  0.002594994    1.416    0.294
       165 -10.5357    103.7832     88.5980   9.9593843355e+01   4.4653105252e+01    0.5737661    0.2536837  56.63  0.001666232    4.463    0.776
       166 -12.2679     11.4776     90.9924   1.3119318451e+02   5.5180061576e+01    0.4102136    0.2155774  21.54  0.002277428    2.253    0.556
       167 -10.1644    171.3170     90.6785   8.2383158429e+01   2.9476466097e+01    0.1533152    0.1248041 -73.23 0.0007042298    1.663    0.399
       168  -9.6870    157.9897     89.9890   8.5215132227e+01   3.2728404194e+01    0.1935043    0.1823889  -1.45 0.0009151534    1.026    0.026
       169 -11.8471     48.8441     85.9770   1.1740653495e+02   5.3383500994e+01    0.6185222    0.3619368  55.16  0.002927418    2.263    0.558
       170 -10.0347     39.6416     80.7321   1.1962166786e+02   5.5528638541e+01     0.230759    0.1632255 -48.08  0.001041931    1.264    0.209
       171 -10.7129    113.2272     86.6685   9.6174649692e+01   4.3229048853e+01    0.2833839    0.2342813  72.87  0.001165478    1.553    0.356
       172 -10.4317     22.9869     86.9155   1.2671195058e+02   5.5419299615e+01    0.2317948    0.1480421 -55.52 0.0005144125    1.336    0.252
       173 -10.6099     67.1264     85.0905   1.1075365494e+02   5.1383305390e+01    0.2273661    0.1779815 -30.67  0.001029494    1.323    0.244
       174  -9.8670    117.8839     83.5481   9.3876390280e+01   4.2922151348e+01    0.2281427    0.1487256  42.16 0.0007645929    1.536    0.349
       175  -9.3514     88.2628     83.6527   1.0316486715e+02   4.8497408977e+01    0.1415689    0.1155248 -85.30 0.0006976824    1.606    0.377
       176  -9.5133     30.0030     81.9627   1.2338054664e+02   5.6064951741e+01    0.1530174     0.132634 -60.62 0.0004686861    1.023    0.022
       177 -11.9126     21.6122     80.3184   1.2614072883e+02   5.7057669420e+01    0.4496932    0.3679887 -41.57  0.001746885    1.220    0.180
       178 -11.0945     21.3111     76.7059   1.2563921870e+02   5.7921052906e+01    0.2710954    0.1984088 -74.46  0.001349848    1.226    0.184
       179 -10.0449     74.6888     81.0583   1.0706363640e+02   5.1228551054e+01     0.205507    0.1685801 -46.43 0.0005989119    1.133    0.117
       180 -10.1836      2.2349     72.3730   1.3206306654e+02   5.9925626122e+01    0.2588178    0.1502798 -57.79 0.0008921581    1.375    0.272
       181  -9.8951     12.2557     77.9916   1.2917590565e+02   5.8160992387e+01    0.2409507   0.09146109 -69.74 0.0004654415    2.088    0.521
       182 -11.5838      3.8203     78.6060   1.3228547737e+02   5.8425840634e+01    0.4044904    0.2886829  37.49   0.00159486    1.668    0.400
       183 -11.3489      7.4708     74.0283   1.3035538972e+02   5.9318589321e+01    0.4229811    0.2505085   5.77  0.002475857    2.136    0.532
       184  -9.5910     81.2990     78.9964   1.0419705521e+02   5.0668806198e+01    0.1975503    0.1697195 -39.41 0.0003081303    1.091    0.083
       185 -10.3273     71.0555     79.0979   1.0780901099e+02   5.2200915031e+01    0.2129146    0.1967985 -30.41 0.0005656908    1.033    0.032
       186 -11.7152     58.7105     75.1120   1.1122862023e+02   5.4760853426e+01    0.5459858    0.4067897  83.64  0.001807201    1.891    0.471
       187  -9.9535     65.4324     73.5602   1.0831748805e+02   5.4233970657e+01     0.212691    0.1663482 -37.49  0.000116131    1.196    0.164
       188 -11.0671     62.0845     71.9242   1.0910582525e+02   5.5049769310e+01    0.4271851    0.2532734 -39.17  0.001938404    1.639    0.390
       189 -10.7186    150.1074     77.5448   8.3395342431e+01   3.6836227168e+01     0.285279    0.2234686 -32.65 0.0005806007    1.281    0.220
       190 -10.6195     88.1138     77.1139   1.0132115312e+02   4.9950948036e+01    0.2261695    0.1905367 -17.29  0.000394744    1.226    0.185
       191  -9.8620    121.5441     76.4711   9.0634115185e+01   4.3561093304e+01    0.1532719     0.146319   0.01 0.0008082601    1.016    0.016
       192 -11.6625     44.7603     75.2084   1.1649367413e+02   5.6316943490e+01    0.2197521    0.2146484 -51.58 0.0002507913    1.119    0.106
       193 -11.2462     38.2445     69.3382   1.1762994157e+02   5.8302642662e+01     0.625711    0.4255009  85.28  0.003236145    2.028    0.507
       194  -9.8224     41.3889     64.2357   1.1510736155e+02   5.9168190189e+01     0.181248    0.1663804 -16.35 0.0003542305    1.145    0.126
       195 -11.1299    102.5768     72.9666   9.5276956359e+01   4.8171501673e+01     0.268736    0.2304394  30.26 0.0003931849    1.172    0.147
       196 -10.4928     16.9363     72.6329   1.2658484166e+02   5.9141805788e+01    0.2548658    0.1587216 -79.41 0.0006799712    1.525    0.344
       197 -10.5848     19.0108     61.0176   1.2356916917e+02   6.1693349625e+01    0.4421586    0.2430896  57.77  0.002151363    2.714    0.631
       198 -11.0606     16.6742     67.9458   1.2586046366e+02   6.0242083398e+01    0.2433724    0.2046908  73.36  0.001007503    1.363    0.266
       199 -11.0528     20.8967     65.7239   1.2375701256e+02   6.0494158380e+01    0.3712518    0.2338119  23.29  0.002154669    1.860    0.462
       200 -10.3512    152.1637     72.1570   8.1224090022e+01   3.7290200760e+01    0.2423085     0.210218  12.06 0.0007917445    1.177    0.150
       201  -9.1679    137.3247     72.2836   8.4962722156e+01   4.0800283054e+01     0.160259    0.1182039  15.48  0.000216785    1.599    0.375
       202  -9.8253     92.3039     72.3014   9.8433066113e+01   5.0239360439e+01     0.149491    0.1120472  -8.68 0.0003096507    1.592    0.372
       203 -11.3204     77.0284     71.4137   1.0346885114e+02   5.3007985588e+01    0.5389993     0.302141  50.29   0.00160936    2.298    0.565
       204 -11.2947     27.3190     70.3170   1.2213960239e+02   5.8985964461e+01    0.2794069    0.1977794 -63.94  0.000282203    1.208    0.172
       205 -11.2639     31.0906     66.1751   1.1974746274e+02   5.9648462964e+01    0.3287194    0.2083555 -67.12 0.0007036207    1.452    0.312
       206 -12.0394     49.8949     69.0812   1.1299546273e+02   5.7174681344e+01    0.4260085    0.3006987 -26.46  0.001730138    1.518    0.341
       207  -9.9849    144.4893     70.4278   8.2539786728e+01   3.9439459348e+01    0.1561824    0.1472131  17.94 4.768015e-05    1.010    0.010
       208 -11.3241     95.2420     67.5411   9.5913920442e+01   5.0683150886e+01    0.3917954    0.3320004 -48.93  0.001022965    1.241    0.194
       209 -10.3490     99.2714     65.3652   9.3853560118e+01   5.0349867515e+01    0.2392144    0.2008405  -9.92 0.0008694734    1.218    0.179
       210 -10.8212     68.7973     67.5557   1.0531739021e+02   5.5090693483e+01    0.3588304    0.2228144 -39.08  0.001108635    1.527    0.345
       211  -9.8744      6.3283     67.9414   1.2989355465e+02   6.0772610650e+01    0.1855687    0.1449692 -38.44 0.0005450191    1.296    0.228
       212 -11.6927      3.2087     63.9442   1.3050639900e+02   6.1818287572e+01    0.3252488    0.2324021 -88.93   0.00120751    1.379    0.275
       213 -10.3842    129.0715     67.1415   8.5490379295e+01   4.3646861022e+01    0.2388566    0.2023005  14.73 0.0003717603    1.213    0.176
       214 -10.0703    146.5737     66.0684   8.0617545904e+01   3.9691649236e+01    0.2382817    0.2142586  62.77  0.001214733    1.216    0.178
       215 -10.8490    138.9459     65.9004   8.2464322192e+01   4.1556831036e+01    0.2314342    0.2186133  12.58 0.0003758678    1.001    0.001
       216 -10.8453     77.1016     63.4543   1.0093730473e+02   5.4699903555e+01    0.3875096    0.2735012 -43.41 0.0009179257    1.324    0.245
       217 -11.2667     83.2341     61.3958   9.8019470834e+01   5.4103297001e+01    0.3829972    0.3149458  54.15  0.001358109    1.473    0.321
       218 -10.5047     86.9943     58.3094   9.5609659751e+01   5.4061160154e+01    0.3663072    0.2089545 -33.30  0.001289587    1.776    0.437
       219 -10.8120    108.5683     72.8048   9.3340536453e+01   4.7011348483e+01    0.2773879     0.242546 -68.90  0.001425416    1.399    0.285
       220  -9.3332    174.0075     63.9864   7.3912413704e+01   3.3217508707e+01    0.1830135    0.1735995  29.92 0.0003885807    1.027    0.026
       221 -12.1978     10.2127     62.0880   1.2739466525e+02   6.1935076108e+01    0.4892497    0.2650839  60.44 0.0009495406    2.623    0.619
       222 -11.4903      5.6325     51.9588   1.2746880658e+02   6.4440829866e+01    0.3997102    0.2025378 -38.43  0.002212469    1.829    0.453
       223  -9.6298    130.4083     61.9141   8.3365899121e+01   4.4271150443e+01    0.3715424     0.151197 -26.23  0.001148231    3.294    0.696
       224 -11.0275     57.5098     62.9254   1.0826609496e+02   5.7642146232e+01    0.2727391    0.1150738 -48.95  0.001087124    2.063    0.515
       225 -10.7202     51.6933     62.3748   1.1042579758e+02   5.8474781912e+01    0.2809516    0.1985817 -31.80 0.0006005292    1.383    0.277
       226 -11.4346     29.7143     60.7747   1.1904988507e+02   6.0992548456e+01    0.5973962    0.2507335  10.11  0.002506609    3.381    0.704
       227 -11.1755     64.7199     59.9393   1.0449544385e+02   5.7320627930e+01    0.4261702    0.1993239  33.19  0.001830866    2.293    0.564
       228 -10.4813     70.1343     58.5200   1.0192465831e+02   5.6826137966e+01    0.3756843    0.1791952 -39.07  0.001572861    2.030    0.507
       229 -11.5979    123.4833     56.7293   8.3463928899e+01   4.6783388359e+01    0.3461658    0.2988709 -83.38 0.0009566665    1.528    0.345
       230 -10.6851     44.6817     57.2524   1.1181663017e+02   6.0393074985e+01    0.2927355    0.2557689  -6.90  0.000898703    1.191    0.161
       231 -11.0268    115.2402     56.6785   8.5821560601e+01   4.8656793517e+01    0.4667018    0.2749008  23.25 0.0006574771    2.294    0.564
       232 -12.4265    128.2594     50.6000   7.9963647264e+01   4.6690079647e+01    0.5926215    0.3456516 -17.47  0.001503897    2.076    0.518
       233  -9.8099     75.3029     56.0579   9.9105370167e+01   5.6521511720e+01    0.1991797    0.1716877 -37.86 0.0004521543    1.114    0.102
       234 -12.3442     38.0543     51.3330   1.1291768303e+02   6.2367196861e+01    0.6815199    0.4445328 -40.54  0.002447913    1.328    0.247
       235 -11.0252     87.3984     53.1307   9.3602597423e+01   5.4998619601e+01    0.3014481    0.2411716 -47.14 0.0009798396    1.337    0.252
       236  -9.7914    150.3192     43.7343   7.2201123587e+01   4.2251946891e+01    0.2398384    0.2127232 -71.19 0.0005341078    1.325    0.245
       237  -9.8285    157.6231     52.1710   7.3504181981e+01   3.9158336520e+01    0.2165435    0.1977461  -9.66 0.0002929115    1.096    0.088
       238 -11.4422    154.0170     48.8732   7.3168884895e+01   4.0565378074e+01    0.3646641    0.2855412 -61.11  0.000369031    1.569    0.363
       239 -10.8257     12.7456     51.1100   1.2415405013e+02   6.4297232511e+01    0.2896582    0.1738649 -61.29 0.0009915326    1.324    0.245
       240 -10.1347     77.0429     50.5095   9.6445107721e+01   5.7339589784e+01    0.2469724    0.2303662 -21.64 0.0008046306    1.095    0.087
       241 -10.4254     70.9812     50.9988   9.8966709200e+01   5.8234850537e+01    0.4216418    0.2372407  44.97  0.001230634    2.085    0.520
       242 -10.9895     45.1137     51.0663   1.0974065495e+02   6.1694461645e+01    0.4943926    0.1760504 -46.69   0.00201712    2.342    0.573
       243 -10.6019    114.0443     48.8474   8.3305332360e+01   5.0280823656e+01    0.3741414    0.2078894 -44.28  0.001542246    1.991    0.498
       244  -9.7168     94.9083     48.8940   8.9397666016e+01   5.4345186367e+01    0.3325461    0.1936446  -8.30  0.001220099    2.875    0.652
       245  -9.5753    196.9596     48.2892   6.5131519430e+01   2.9659141030e+01    0.1961234    0.1851195  59.07 0.0001602101    1.074    0.069
       246 -11.4625     86.0557     45.6445   9.1243386529e+01   5.6649501487e+01     0.389981    0.2383301 -49.80  0.001094087    1.915    0.478
       247 -10.6320     62.3844     47.5442   1.0117082246e+02   6.0229795448e+01    0.2529867    0.2036182 -20.93 0.0005810365    1.157    0.135
       248  -9.8146     19.0328     47.0022   1.2032409860e+02   6.4847557573e+01     0.187734    0.1431425  78.14  0.001133463    1.747    0.428
       249 -10.2440      4.3392     47.1489   1.2710791038e+02   6.5570913582e+01     0.257268   0.09853287 -55.78  0.001293215    1.843    0.458
       250 -11.8199     12.6632     43.4696   1.2241958196e+02   6.6001391750e+01    0.3771096    0.2289497 -29.45 0.0008426553    1.622    0.383
       251 -10.6930      7.0817     41.5225   1.2461667165e+02   6.6703054588e+01    0.3575668    0.1400863 -65.58 0.0008768049    2.036    0.509
       252 -10.5419    142.7969     45.7761   7.4608349636e+01   4.3866502266e+01    0.2980938    0.2400038 -55.43 0.0007677424    1.473    0.321
       253 -10.4168    104.3039     46.4110   8.5358398173e+01   5.2836065905e+01    0.2833263    0.1358922  42.57  0.001120567    2.057    0.514
       254  -8.9587    233.2963     45.3063   5.9455100813e+01   2.1300519364e+01    0.1346749    0.1011466  21.87 0.0004037011    1.586    0.370
       255 -10.1587    122.1940     43.8575   7.9105055696e+01   4.9204999259e+01    0.3674052    0.2292186 -44.53 0.0007750062    1.810    0.447
       256  -9.7341     91.6140     45.2523   8.9119837478e+01   5.5650827590e+01    0.1991405    0.1313411 -25.45 0.0003437125    1.534    0.348
       257 -10.6794     50.6986     44.3630   1.0501439527e+02   6.2449077384e+01    0.2115445    0.2004368   5.03 0.0007482354    1.193    0.162
       258 -11.3403     52.9003     41.2352   1.0288420573e+02   6.2800895055e+01    0.3966073    0.2387342  20.69  0.001409666    1.856    0.461
       259 -10.6366    101.3398     55.7604   8.9813788180e+01   5.1787246385e+01    0.5632046     0.182908  47.92  0.001798416    3.334    0.700
       260 -10.4600     58.0566     43.8682   1.0162962882e+02   6.1580137295e+01    0.1859045    0.1791302 -63.67            0    1.307    0.235
       261  -9.6136     64.3155     42.1507   9.8325025656e+01   6.1006763897e+01    0.2926916    0.1074753 -39.01  0.001098154    2.599    0.615
       262  -9.3978    163.3228     42.3010   6.9052213938e+01   3.9093941441e+01    0.1604532    0.1102962  28.12 0.0003324596    1.631    0.387
       263 -10.1056    110.8416     42.0787   8.1662045058e+01   5.2113079043e+01     0.211226    0.2049689 -45.60  0.000411198    1.199    0.166
       264 -11.0258     97.1031     41.0119   8.5565345799e+01   5.5270347142e+01    0.3851059    0.3088097  66.40  0.001536511    1.658    0.397
       265 -11.4623     99.4778     29.8640   8.0149559564e+01   5.6512529770e+01      0.75591    0.3939441  22.51  0.002447417    2.842    0.648
       266 -10.4818    105.1548     34.1696   8.0196707414e+01   5.4617482628e+01    0.2950279    0.2487101 -72.13 0.0008634738    1.662    0.398
       267 -11.7536    101.4913     36.9554   8.2487363066e+01   5.4995969454e+01     0.383742     0.242626  43.26 -1.009793e-05    1.535    0.348
       268 -11.1890     97.0750     36.9776   8.3927252158e+01   5.5937271950e+01    0.2816168    0.2530607  17.00 0.0003933447    1.045    0.043
       269 -10.8279     29.0208     40.9858   1.1388267601e+02   6.5418961684e+01    0.3127666     0.230637 -68.52 0.0003346107    1.516    0.340
       270 -10.2822     23.6501     41.3179   1.1656995653e+02   6.5772534723e+01    0.2014548    0.1793888 -71.02 0.0009399857    1.288    0.224
       271 -11.5632     20.6454     37.8242   1.1699154246e+02   6.6738696246e+01    0.2907067    0.2127173 -35.90 0.0006875262    1.165    0.142
       272 -11.2483     24.1974     35.3748   1.1444061525e+02   6.6996916817e+01    0.3224028    0.2239897  42.04 0.0008765709    1.909    0.476
       273  -9.9336    226.1486     40.4651   5.9018945090e+01   2.3525172693e+01    0.2067659    0.1747636 -27.76  0.000767722    1.130    0.115
       274 -10.6769     89.6096     39.9693   8.7704177434e+01   5.6966817237e+01    0.2852214     0.207124 -50.70 0.0009327814    1.684    0.406
       275 -10.0713     68.1612     39.5179   9.5686287270e+01   6.0903720073e+01    0.2796312    0.1496336 -23.89  0.001167816    2.279    0.561
       276 -10.1327     43.4422     38.5708   1.0619356834e+02   6.4494192103e+01    0.3468975    0.1955162 -62.57  0.001203113    2.319    0.569
       277 -11.4859     70.4777     26.7344   8.9207321209e+01   6.2747865835e+01    0.4588526    0.3688951  -0.21  0.001570281    1.148    0.129
       278 -11.3236     80.1235     36.9114   8.9894336729e+01   5.9304050616e+01     0.283844    0.2183041  51.00  0.001088736    1.564    0.360
       279 -10.9630     77.5985     33.1911   8.9269302368e+01   6.0402349613e+01    0.4179063    0.2448544  -9.07  0.001739507    2.406    0.584
       280 -10.5393     73.8019     31.6304   9.0071105080e+01   6.1349602041e+01    0.3162943    0.2211523  49.92  0.001508761    1.739    0.425
       281 -10.6984      9.4433     34.2644   1.2162095896e+02   6.8171312140e+01    0.3699921    0.2314575  -4.63  0.002086527    1.812    0.448
       282 -12.3560    226.3846    246.3785   1.0315865551e+02  -3.2841696674e+00    0.5858198    0.3229577  13.81  0.003694166    1.671    0.402
       283  -9.5342    155.1578     35.7686   6.8421123765e+01   4.2081327428e+01     0.212091    0.1651342  30.06 0.0005295095    1.316    0.240
       284  -9.9653    110.9609     34.9787   7.8795880667e+01   5.3179479725e+01    0.2152865    0.2080666   1.78 0.0004984426    1.117    0.105
       285 -10.1451     70.8484     35.2095   9.2802064265e+01   6.1242659607e+01    0.1959066    0.1480457 -10.08  0.001039374    1.311    0.237
       286  -9.7014     66.0006     34.0627   9.4310695898e+01   6.2248523464e+01    0.1888029    0.1702681 -74.23 0.0004291415    1.604    0.377
       287  -9.9551     32.0037     33.8975   1.1000662509e+02   6.6634167519e+01    0.2190978    0.1591038   6.81  0.001318858    1.476    0.323
       288  -8.9114     24.9553     26.7557   1.1099432409e+02   6.8706485926e+01    0.2653749    0.2256942 -62.89 0.0005621308    1.402    0.287
       289 -10.8044     18.5796     32.1346   1.1626000916e+02   6.8086204006e+01    0.3403952    0.2271965 -51.47  0.002084679    1.219    0.179
       290 -10.1487     21.4684     28.2577   1.1341497754e+02   6.8681287828e+01    0.2869254    0.1556948 -68.95 0.0009210377    2.406    0.584
       291  -9.2548    128.2613    249.3553   1.2085166116e+02   1.0126727433e+01   0.09980746   0.07699372  10.81 0.0003867338    1.620    0.383
       292 -10.4830     26.9211     19.5084   1.0696117651e+02   6.9945746240e+01     0.187451    0.1309008  -9.76 0.0006860178    1.401    0.286
       293  -9.9115    207.1048     33.1806   5.9335670627e+01   2.8978100155e+01    0.2108376    0.1828988  35.19 0.0004571796    1.223    0.182
       294  -9.9245    178.8389     31.8385   6.2921567511e+01   3.6367318538e+01    0.2032423    0.1687311 -69.33 0.0004399082    1.342    0.255
       295  -9.7216    110.3634     29.8034   7.6841695820e+01   5.4061913160e+01    0.1972831    0.1348347 -12.45 0.0002824811    1.559    0.358
       296 -10.4546     82.5162     29.5024   8.5795346325e+01   6.0077372127e+01    0.2675374    0.1942947 -59.23  0.001278652    2.124    0.529
       297  -9.3732    191.5240     28.9798   6.0163673320e+01   3.3405552427e+01    0.1997927    0.1410574 -23.60 0.0001544976    1.447    0.309
       298  -9.5370    162.8766     28.8501   6.4592541848e+01   4.0913000467e+01    0.1970493    0.1699038 -59.14 0.0002717282    1.285    0.222
       299  -9.7259    140.2188     28.7291   6.8968518806e+01   4.6845091516e+01    0.2324754    0.1231782 -10.53 0.0008849354    2.393    0.582
       300 -10.4392    118.0448     32.1570   7.5667811897e+01   5.1921579065e+01    0.2294516    0.2025689 -21.97 0.0002830411    1.160    0.138
       301 -10.0004    154.2364     27.8076   6.5804598946e+01   4.3308899039e+01    0.2393576    0.1256084  -7.41 0.0008936779    2.545    0.607
       302  -9.8475    124.8770     27.8857   7.2189637535e+01   5.0829859841e+01    0.2202815    0.1791662  25.93  0.001134421    1.187    0.158
       303  -9.8734     50.2021     28.0666   9.8743766477e+01   6.5679821895e+01    0.2087741    0.1495568 -18.51 0.0005243121    1.306    0.234
       304 -10.3297    203.0965     27.1551   5.8111828662e+01   3.0661277781e+01    0.2113881    0.1823473  38.39   0.00036827    1.221    0.181
       305 -10.1480    136.9996    247.6963   1.1910238248e+02   9.1392063766e+00    0.1614179    0.1116278  37.82 0.0003948156    1.069    0.064
       306  -9.9343    115.0420    245.7308   1.2290027097e+02   1.2427034827e+01    0.2685448    0.1291812 -41.58  0.001450085    3.394    0.705
       307  -9.6727    156.6710    245.7133   1.1531264941e+02   6.6123614552e+00     0.111885   0.07321092  18.37 0.0002776668    1.614    0.381
       308 -10.1319     16.7615     26.2081   1.1523529722e+02   6.9437901485e+01    0.3226721   0.07595407 -50.76  0.001066125    2.773    0.639
       309  -9.8175    218.2917     26.3832   5.6131477671e+01   2.6992516241e+01    0.1422756    0.1001472  25.41 0.0007016279    1.754    0.430
       310  -9.4552     90.2531     26.4423   8.1682631819e+01   5.8985351147e+01    0.1918823    0.1382093  56.99 0.0009514273    1.652    0.395
       311 -10.0284      1.5935     25.1531   1.2328438159e+02   7.0454231313e+01    0.2966723   0.09206041 -57.50  0.001364055    2.146    0.534
       312 -10.6942    147.9910    245.0035   1.1681132960e+02   7.9430228198e+00    0.1747786    0.1127396 -15.14  0.001025017    2.574    0.611
       313 -10.0343      7.9863     21.0059   1.1837933099e+02   7.1027510834e+01    0.2109731    0.1355788 -53.54 0.0004236406    1.249    0.199
       314 -11.9154     74.1964    238.3464   1.2972143050e+02   1.8767225327e+01    0.3846616    0.2812597  66.96  0.002925992    1.248    0.199
       315  -9.5538    119.3632     24.7180   7.2296383564e+01   5.2588846733e+01    0.2597028    0.1381491 -30.77 0.0006064801    1.911    0.477
       316 -10.2426    120.4856     21.1420   7.0541227927e+01   5.2750762952e+01    0.2542897    0.2228702   1.88 0.0004859228    1.125    0.111
       317 -10.4084    112.0424     24.5075   7.4149084568e+01   5.4378613038e+01    0.2266008     0.189001 -15.03 0.0003417658    1.199    0.166
       318  -9.7001    174.0564     24.4953   6.1300479952e+01   3.8463010868e+01    0.2211716    0.1396278  65.82 0.0003729323    1.533    0.348
       319  -9.5745     93.7879     24.0595   7.9431395618e+01   5.8577068382e+01    0.1928941    0.1105145 -28.61 0.0008730902    1.727    0.421
       320 -10.1693    134.8210     22.8957   6.7918283296e+01   4.8933439586e+01    0.2284408      0.18856  27.06 0.0004856692    1.179    0.152
       321  -9.8062     54.2077     23.4058   9.4745387814e+01   6.5937139556e+01    0.1672589    0.1231668  40.93 0.0002598465    1.615    0.381
       322  -9.9122     99.8358     21.8318   7.6520340867e+01   5.7547723471e+01    0.1829029    0.1723608 -50.13 0.0004206627    1.309    0.236
       323 -11.2403     84.7653     20.7598   8.0980548980e+01   6.0930227644e+01    0.4637522    0.2804434  43.63  0.001490341    1.595    0.373
       324 -11.2826     73.9971    232.9963   1.2936800584e+02   1.9641130643e+01    0.2237785    0.1425797  49.73 0.0008928496    1.198    0.166
       325 -11.6775     35.5279    241.5242   1.3668996141e+02   2.2533964333e+01    0.3476709    0.2091838  40.38  0.002614754    1.400    0.285
       326  -9.8424     35.2120     22.5828   1.0381044883e+02   6.8526778133e+01    0.2283577    0.1314855 -32.88 0.0006556913    1.514    0.339
       327 -10.3621     88.7247    241.2651   1.2730552264e+02   1.6525872140e+01    0.1807606    0.1177522 -39.56  0.001155009    2.520    0.603
       328  -9.4363    227.5310     20.7179   5.3680926571e+01   2.5388633553e+01    0.2019534    0.1062405 -38.74 0.0005536868    1.734    0.423
       329  -9.7670     45.4796     20.3692   9.7513792244e+01   6.7684922933e+01    0.2078454    0.1179445  30.11  0.000859985    1.845    0.458
       330 -10.7826    156.4965    241.0477   1.1479722294e+02   7.2344273335e+00     0.139898     0.115796 -40.00  0.001035034    1.596    0.373
       331  -9.3717     47.2521    241.3560   1.3467821466e+02   2.1346808810e+01   0.08113719   0.07669779 -51.26 0.0004180478    1.605    0.377
       332  -9.3448     50.3252    240.3105   1.3408853457e+02   2.1182159567e+01   0.08497105   0.07854925   5.20 0.0005503612    1.657    0.396
       333 -10.3488    195.8855    238.4094   1.0731077512e+02   1.8172262605e+00    0.2277462    0.1436017  14.09  0.001443128    1.533    0.348
       334 -11.1302     31.5157    237.4468   1.3718544866e+02   2.3582570273e+01     0.244654     0.154915  73.40  0.001149415    1.341    0.254
       335  -9.9498     57.0046     16.6935   9.0180167652e+01   6.6604720242e+01    0.1821646    0.1532684   7.70            0    1.092    0.085
       336 -10.6015     29.1772    232.8874   1.3738181457e+02   2.4550597674e+01    0.2380944    0.1754296  39.67  0.001853908    1.360    0.265
       337 -10.0649    217.2904     16.5299   5.3568775043e+01   2.8264327733e+01    0.3073781     0.119293  66.28  0.001250277    2.445    0.591
       338  -9.7433    165.6618     15.3311   5.9540445609e+01   4.1646778543e+01    0.1538104    0.1053431 -62.33 0.0007051932    1.739    0.425
       339  -9.6871    243.4746    237.5056   9.9021573671e+01  -4.7154422869e+00     0.113262   0.07758692  16.14 6.484018e-05    1.003    0.003
       340 -10.4924    181.0178    248.4818   1.1127842078e+02   2.8010460267e+00    0.2310762    0.1102373 -25.05  0.001201786    3.325    0.699
       341 -10.2910    159.8981    235.8693   1.1353891555e+02   7.4123795386e+00    0.1824481    0.1299253  23.55 0.0006291105    1.258    0.205
       342 -10.0185    109.5768    242.9468   1.2364139417e+02   1.3561001248e+01    0.2193871    0.1130187  48.20 0.0008384755    1.563    0.360
       343 -12.5662    232.5776    246.9818   1.0221422490e+02  -4.1666739121e+00    0.5770031    0.3111833  24.55  0.003788921    1.359    0.264
       344 -10.5326    177.6140    234.8135   1.1012752894e+02   4.9244718115e+00    0.2265459    0.1461179  19.66  0.001007087    1.454    0.312
       345 -10.7619    153.4131    233.9394   1.1451292405e+02   8.6273963968e+00    0.2169402    0.1613768  -6.75  0.001385616    1.746    0.427
       346 -10.2766    166.9358    233.6891   1.1195342365e+02   6.6539875758e+00    0.1791635    0.1467046   5.11 0.0008204575    1.306    0.234
       347  -9.7206     24.0697    232.3195   1.3823438661e+02   2.5133016777e+01    0.1392965   0.09720346  57.34 0.0005738121    1.044    0.042
       348  -9.9478     79.7546    231.4034   1.2817755351e+02   1.9192588730e+01    0.1837354     0.113342  36.43 0.0006456966    1.410    0.291
       349 -12.4190      6.7385    244.0549   1.4149743906e+02   2.4826824275e+01    0.5437185    0.3161475  68.16  0.003386224    1.282    0.220
       350  -9.6111     58.4842    230.4499   1.3203998090e+02   2.1871133885e+01    0.1070374   0.08055614  55.32 0.0001523659    1.008    0.008
       351 -10.3006    190.5323    227.3067   1.0671297404e+02   3.9189673863e+00    0.3057833    0.1160589 -38.61  0.001485233    3.242    0.692
       352  -9.9121     85.7405    232.9747   1.2718640600e+02   1.8191175916e+01    0.1200891   0.09237327 -77.23 0.0006025959    1.524    0.344
       353  -9.6691    249.4564    227.4226   9.6475704399e+01  -4.5490574949e+00    0.1149909   0.07859163  14.30 0.0002081562    1.021    0.021
       354 -10.1975    129.8139    226.9376   1.1818455528e+02   1.3099440023e+01    0.2975701    0.1196988  49.37  0.001390844    2.463    0.594
       355 -10.1518     88.1377    227.1510   1.2624240571e+02   1.8820433047e+01    0.1629868    0.1390952  37.59  0.001226727    1.222    0.182
