#   1 NUMBER                 Running object number                                     
#   2 MAG_AUTO               Kron-like elliptical aperture magnitude                    [mag]
#   3 X_IMAGE                Object position along x                                    [pixel]
#   4 Y_IMAGE                Object position along y                                    [pixel]
#   5 X_WORLD                Barycenter position along world x axis                     [deg]
#   6 Y_WORLD                Barycenter position along world y axis                     [deg]
#   7 A_WORLD                Profile RMS along major axis (world units)                 [deg]
#   8 B_WORLD                Profile RMS along minor axis (world units)                 [deg]
#   9 THETA_WORLD            Position angle (CCW/world-x)                               [deg]
#  10 FWHM_WORLD             FWHM assuming a gaussian core                              [deg]
#  11 ELONGATION             A_IMAGE/B_IMAGE                                           
#  12 ELLIPTICITY            1 - B_IMAGE/A_IMAGE                                       
         1 -12.1728      5.5203     52.1288   7.2411028033e+01   6.5573867821e+01    0.5880225    0.5515583 -23.99  0.004386123    1.275    0.215
         2 -12.3380     56.1027     37.6853   4.4112470199e+01   6.2734134732e+01     1.372749    0.4852518 -28.26  0.004928538    3.788    0.736
         3 -11.7975     99.4744     27.9904   2.5666407234e+01   5.5712641891e+01    0.6787402    0.4247536 -27.90 0.0005229662    1.759    0.431
         4 -11.6626     10.6957     11.4529   5.4513602350e+01   7.2196254933e+01    0.5278701    0.3939095  42.87  0.003466644    2.341    0.573
         5 -12.4285      3.1629     13.8533   6.0044154970e+01   7.2479553777e+01     0.547756    0.2853233 -46.03  0.002162087    1.902    0.474
         6 -11.1436      8.1294     15.0737   5.7687654432e+01   7.1901156954e+01    0.2558156    0.2159727  39.27  0.001289903    1.971    0.493
         7 -11.4914     14.6553     18.3070   5.5473048302e+01   7.0838459872e+01    0.3244407    0.2462909   4.62  0.000859284    1.181    0.153
         8 -12.3246    231.5967     26.4295   4.6880372252e+00   2.5185170247e+01    0.3324373    0.2207414 -85.29 0.0008993282    1.358    0.264
         9 -12.1298    215.4272     25.7903   6.0243337076e+00   2.8736421342e+01    0.5104147    0.2198338  71.72  0.002441237    2.161    0.537
        10 -11.9028      5.7488     26.4214   6.3810220234e+01   7.0289865718e+01    0.6719359    0.5028893 -74.22  0.003608554    2.531    0.605
        11 -11.8800    248.7913     20.2141   2.1128664936e+00   2.2433668095e+01    0.4233189      0.16867 -53.94 0.0004847242    2.109    0.526
        12 -11.5345     69.0714     20.2274   3.1863969059e+01   6.2766596426e+01    0.4326752     0.252533 -22.89  0.002354273    1.808    0.447
        13 -11.0479     64.2359     18.4060   3.2791946522e+01   6.3857495671e+01     0.408401    0.2319968 -29.90 0.0009571139    1.891    0.471
        14 -11.0639     59.4109     13.9505   3.2583568227e+01   6.5199403810e+01    0.5077584     0.295977  -4.02    0.0027342    1.947    0.486
        15 -10.4563     54.0494     14.3274   3.4813660731e+01   6.6086248292e+01    0.3254395    0.2203205 -16.74  0.002005538    1.466    0.318
        16 -11.8892     75.4795     10.5241   2.5628726271e+01   6.2506290068e+01    0.6231697    0.4127341  21.71  0.002705003    1.456    0.313
        17 -10.5720     32.9364     15.2904   4.4553015116e+01   6.9168858389e+01    0.3247824    0.2537119  32.19  0.001660511    1.477    0.323
        18 -11.8953     28.8509     19.7153   4.8646792559e+01   6.9102854740e+01    0.2841211    0.1824581  -0.22 0.0003783386    1.428    0.300
        19 -10.7215    130.8396     15.1218   1.4302735288e+01   4.9805212440e+01    0.2753206     0.195676 -73.79 0.0005464011    1.725    0.420
        20 -10.5643    100.5531     17.8124   2.1612293373e+01   5.6543551004e+01    0.3144101     0.283052 -15.26  0.002043821    1.257    0.205
        21 -10.8477    137.7247     15.5531   1.3246160183e+01   4.8121252471e+01    0.3287316     0.225407 -83.44 0.0009030016    1.699    0.411
        22 -12.4245     65.2917     11.8694   2.9536477685e+01   6.4342195170e+01    0.2496461    0.1985845  21.24 0.0004114282    1.045    0.043
        23 -12.4048    240.5863     13.7503   1.4709968025e+00   2.4809320894e+01    0.3679918    0.2717334 -32.41  0.002265539    1.639    0.390
        24 -12.2572    240.7015      4.0452   3.5962207202e+02   2.5840870646e+01    0.5151519    0.2213088  65.42  0.001373777    2.290    0.563
        25 -12.0726    235.2932      9.7373   1.0728704970e+00   2.6328431109e+01     0.353552    0.2025211  80.05   0.00085205    1.563    0.360
        26  -9.7141    159.9256     14.7576   9.6650651664e+00   4.2857058153e+01    0.2429572    0.1588507  46.89  0.001021821    1.597    0.374
        27 -11.0798    165.0221     12.1369   8.2912308312e+00   4.1887654867e+01    0.3531659    0.2220417 -77.33  0.001872382    1.716    0.417
        28 -11.3682    159.5866      9.2249   8.2024184772e+00   4.3458957721e+01    0.5104344    0.2375849  48.30   0.00135682    2.219    0.549
        29  -9.9855    154.1425      8.1710   8.6267221325e+00   4.4856006349e+01    0.2303633     0.187676  81.61 0.0003675295    1.075    0.070
        30 -10.4502    124.3713     14.0022   1.5127219255e+01   5.1438620475e+01    0.3135333    0.1930684  71.59 0.0008671812    1.560    0.359
        31 -11.8969    249.0236     10.1527   2.2064444296e-01   2.3533929954e+01    0.4649172    0.2469524 -46.47  0.002870419    1.588    0.370
        32 -10.8567    145.7868      8.0160   9.7426880587e+00   4.6869360087e+01    0.3476236    0.1685205  66.27   0.00121825    1.699    0.412
        33 -10.4046    177.5093     11.9552   6.7508794460e+00   3.8937405954e+01    0.2898076    0.1599896  80.02  0.001495976    1.648    0.393
        34 -10.6383    139.6366     10.8285   1.1500771616e+01   4.8094901834e+01    0.2365575    0.1741319  78.71 0.0001238367    1.261    0.207
        35  -9.9502    119.8947     10.4372   1.4795276493e+01   5.2801596348e+01    0.2483296    0.1601806   8.46  0.001314597    2.033    0.508
        36 -10.3682     27.9210     10.7895   4.4843459472e+01   7.0381343333e+01    0.2726863    0.1849627  34.08  0.001779287    1.585    0.369
        37 -10.3424    101.5194      9.5568   1.8324260586e+01   5.7074530648e+01      0.44461    0.3006601 -20.38  0.002006669    1.701    0.412
        38 -10.5793     97.6806      3.5719   1.6967478158e+01   5.8402125130e+01    0.2397353    0.1889654  34.46 0.0007694006    1.163    0.140
        39  -9.7118    114.2760      8.6893   1.5294898088e+01   5.4251775818e+01    0.6885288    0.1683213 -35.97  0.002476435    4.414    0.773
        40  -9.7692    111.0292      6.0292   1.5020015029e+01   5.5212136607e+01    0.3360172    0.2161817 -26.82  0.001919842    1.812    0.448
        41 -10.1236     19.9403      8.2322   4.7739775160e+01   7.1664151658e+01    0.1658878    0.1292522 -14.06 0.0005162623    1.220    0.180
        42  -9.9759     16.4552      7.2236   4.9144553834e+01   7.2180443839e+01    0.2417492    0.1323889 -27.11   0.00149967    1.609    0.379
        43 -11.4983     21.8546      2.6976   4.3835029688e+01   7.2096050893e+01    0.5304411    0.2767189  20.88  0.003159633    1.711    0.415
        44 -10.3518     27.2682      2.5398   4.0945516683e+01   7.1416080719e+01    0.2343256    0.1692208  31.26 0.0008785507    1.414    0.293
        45 -10.1757     90.7830      7.6159   2.0170108937e+01   5.9585917820e+01    0.2377914    0.1552407  31.42 0.0005944886    1.436    0.304
        46 -10.3288     36.2908      6.5028   3.8634213740e+01   6.9727518640e+01     0.288489    0.1542645   9.52  0.001531217    2.113    0.527
        47 -11.3809     82.2161      6.9391   2.2166647682e+01   6.1449248125e+01    0.2103554    0.1453445  44.55 0.0002702705    1.174    0.148
        48 -10.3345    223.1535      5.4823   1.1090439316e+00   2.9311068457e+01    0.1856774    0.1433817 -50.56 0.0003146943    1.284    0.221
        49 -11.3514    179.4751      3.7090   4.5044715731e+00   3.9255305877e+01    0.3346562    0.2013931  64.80 0.0001813116    1.453    0.312
        50 -10.6318     67.7331      5.0623   2.5692810086e+01   6.4500303674e+01      0.38156    0.2036395  59.01  0.001575829    2.041    0.510
        51 -11.1043    164.4640      4.7768   6.4162684876e+00   4.2693896012e+01    0.2315388    0.1811491 -89.03 0.0002828891    1.141    0.123
        52 -10.1346     58.2751      5.5113   2.9124256158e+01   6.6222978364e+01     0.317584   0.09346399  47.89  0.001218122    2.758    0.637
        53 -10.4188    126.6602      2.6420   1.1052359011e+01   5.1845113130e+01    0.3238236    0.1816509  54.31  0.001748375    1.467    0.318
        54  -9.4819     91.0471      2.2526   1.8007488545e+01   5.9947535623e+01    0.1726665     0.130029  46.92 0.0003745275    1.067    0.063
        55  -9.7733     33.8969      1.8609   3.7365997626e+01   7.0558541166e+01    0.1835856    0.1237815  17.10  0.001221122    1.177    0.150
        56  -9.8459     14.1566      2.1134   4.7776080550e+01   7.3061590084e+01    0.1644403    0.1103326  -4.81  0.001144861    1.157    0.136
        57 -10.4917    230.2001      1.4200   3.5980952276e+02   2.8251133905e+01    0.1891471   0.09252503  74.95 0.0006019392    1.807    0.447
        58  -9.0530    174.2672      1.3272   4.4544828580e+00   4.0683591009e+01    0.1169135   0.08503688  46.40 0.0002957349    1.573    0.364
        59  -9.1672    120.5100      1.5478   1.1734927771e+01   5.3364452800e+01    0.1284081    0.1031279  57.16 3.997211e-05    1.033    0.032
        60 -10.7019     74.0085      1.4671   2.2194034937e+01   6.3556515571e+01    0.3017163    0.1049821  57.18 0.0008034167    2.561    0.610
        61 -10.1086    145.7038    189.9886   5.7752035452e+01   1.3585647136e+01    0.2512151    0.1999022   6.69 0.0003890986    1.435    0.303
        62 -12.0803    248.1134    248.9523   4.7186618130e+01  -1.2421068802e+01     0.640964    0.3652024   0.97  0.003774087    1.721    0.419
        63 -11.9675    224.7625    248.2468   5.1309468541e+01  -9.4245939470e+00    0.5083102    0.2440574 -28.05  0.002662691    2.098    0.523
        64  -9.5102    110.0179    250.0481   7.5028618607e+01   7.2988652052e+00    0.1595864    0.1307351  43.01 0.0009649489    1.024    0.023
        65 -10.0226     91.4464    249.6821   7.8885131517e+01   1.0106586089e+01     0.208295    0.1239653 -73.00  0.001072273    2.006    0.501
        66 -11.8333     22.3104    248.7021   9.2528288727e+01   1.9085082627e+01    0.4328086    0.1831612  46.46  0.002405288    1.852    0.460
        67 -10.3099      6.9725    249.4595   9.5353556205e+01   2.0519698914e+01    0.2113291    0.1594667 -87.13 0.0007647891    1.274    0.215
        68  -9.6926     13.2955    249.6620   9.4230898721e+01   1.9844252323e+01    0.1602264    0.1175797  78.04 0.0005983279    1.106    0.096
        69  -9.8861     10.5726    248.1999   9.4647294227e+01   2.0405902180e+01    0.2054033    0.1287706  56.72 0.0006240282    1.243    0.196
        70 -10.5417    244.8466    188.1475   3.6790714870e+01  -3.1175876351e+00    0.1861426     0.165531 -21.82 0.0005454453    1.192    0.161
        71 -10.3301    225.8522    188.1906   4.0202680219e+01  -2.2340835929e-01    0.1928956    0.1421079  -7.94 0.0005580049    1.349    0.259
        72 -10.0602    212.0805    187.1621   4.2631431184e+01   2.2096157771e+00    0.2154648    0.1688939  -4.31 0.0004697533    1.257    0.204
        73  -9.7404      2.0226    187.2424   9.2764394426e+01   3.4287169595e+01    0.1376256   0.09975304  33.04 0.0006197532    1.580    0.367
        74  -9.6986     61.9740    184.7160   7.8036964046e+01   2.8592612332e+01    0.1926301    0.1773059  73.55  0.001145812    1.043    0.041
        75 -10.9061     22.7706    179.8944   8.7317856808e+01   3.4228109780e+01    0.4037831    0.1714774  60.69  0.001630203    2.758    0.637
        76 -11.0274    249.4928    179.5838   3.4333784452e+01  -2.4067782885e+00    0.2827883    0.1094782 -38.65   0.00122643    2.221    0.550
        77 -10.1451      1.4852    180.4883   9.2409069469e+01   3.5902218464e+01    0.2012558   0.09857764 -77.14 0.0003280157    1.667    0.400
        78 -10.5632      4.5116    179.4714   9.1634502967e+01   3.5907070422e+01       0.1887    0.1453248 -36.31 0.0007900845    1.710    0.415
        79  -9.4934     54.0306    174.9284   7.8800032873e+01   3.2033999007e+01    0.2143336    0.1567053 -39.31 0.0007377766    1.633    0.388
        80 -11.7570      8.1869    172.7095   9.0221096352e+01   3.7225403832e+01     0.338479    0.1941565 -58.88  0.001334824    1.644    0.392
        81 -10.5930      5.6749    168.4936   9.0478638276e+01   3.8431399045e+01    0.2501649    0.1044802 -81.75 0.0009934163    2.115    0.527
        82 -11.1068     17.6222    172.3725   8.7872591183e+01   3.6519886087e+01    0.3565424    0.1832238  79.94  0.001541203    2.096    0.523
        83  -9.6103     24.7751    169.9735   8.5826610428e+01   3.6457162385e+01    0.1746813    0.0936846 -72.71 0.0003564343    1.608    0.378
        84 -10.8761      1.4550    165.7671   9.1288082209e+01   3.9393689679e+01    0.3792982    0.1048785 -78.01  0.001435441    3.129    0.680
        85  -9.8624    186.3078    165.6798   4.3460284290e+01   1.0997582085e+01    0.1442745    0.1215274 -85.20 0.0005927313    1.640    0.390
        86  -8.9596     15.6788    163.7096   8.7523005770e+01   3.8800331991e+01     0.126382   0.08663615 -46.61 0.0003057147    1.605    0.377
        87 -10.2135      8.4843    163.0321   8.9298275769e+01   3.9537877309e+01    0.2532242    0.1535262 -20.76  0.001288554    2.567    0.610
        88  -9.9797     51.3941    160.8021   7.7545906213e+01   3.5908835584e+01    0.1993609    0.1157299 -56.29 0.0002474411    1.597    0.374
        89 -10.9638    247.6888    157.9783   3.0318893313e+01   1.4732833891e+00    0.1951649    0.1518549 -33.59 0.0005347225    1.090    0.083
        90  -9.3635     67.4826    157.5705   7.2498717269e+01   3.4642513666e+01     0.143998    0.1353565 -79.50 9.100247e-05    1.010    0.010
        91 -10.3044     67.6200    165.5989   7.3769366227e+01   3.2588833893e+01    0.2777814    0.1712576 -67.57 0.0006624849    1.574    0.365
        92 -10.4803    216.2215    154.3750   3.5005046368e+01   7.5354457669e+00    0.2865165    0.2354061 -32.23   0.00121602    1.100    0.091
        93 -10.0336    158.7121    153.6945   4.7070252681e+01   1.9071839475e+01    0.2903911    0.1926052  29.35  0.001243387    1.668    0.400
        94 -10.3118     10.5118    152.4064   8.7738578720e+01   4.1982179252e+01    0.3663083    0.1579828  45.85  0.001697402    2.495    0.599
        95  -9.9974     40.8024    151.7585   7.9231330990e+01   3.9409055407e+01    0.2338653    0.1635422 -58.73 0.0005636748    1.294    0.227
        96  -9.5812    143.7460    148.6197   4.9599843748e+01   2.3298395135e+01    0.1595783    0.1571615 -34.25 0.0008267827    1.024    0.023
        97  -9.7658     81.7928    150.2138   6.7041918376e+01   3.4398727388e+01    0.2300174     0.125906  20.01 0.0008697831    2.484    0.597
        98 -10.9480     25.8400    148.1770   8.3016094873e+01   4.1782361250e+01    0.3038952    0.2085983  63.25  0.001388528    1.582    0.368
        99 -11.9945     13.8598    147.8788   8.6341177383e+01   4.2846810089e+01    0.2686849    0.2080353 -89.61 0.0002643757    1.167    0.143
       100 -10.7385      6.7594    145.3117   8.8023574077e+01   4.3990772691e+01    0.2903796    0.1778375  22.16  0.001198391    1.967    0.492
       101 -11.2694     39.4655    145.6752   7.8730594508e+01   4.1093090869e+01    0.4075499    0.2048035  39.53  0.001183748    2.105    0.525
       102 -10.7651    217.1985    145.1598   3.2820716410e+01   9.0790916635e+00    0.3480466    0.1816781  35.69  0.001281268    2.285    0.562
       103  -9.6765    155.6978    144.6685   4.5717433428e+01   2.1701025780e+01    0.1616848    0.1244228  -6.29 0.0003836659    1.653    0.395
       104 -10.5842     10.1889    140.1752   8.6502975905e+01   4.5017572324e+01     0.202099    0.1332663  67.64 0.0005593431    1.648    0.393
       105 -10.5963     17.4947    143.4777   8.4807932860e+01   4.3657219918e+01    0.3031321    0.1576091  65.78  0.001367578    2.424    0.587
       106 -10.5672     13.8651    140.1536   8.5448014307e+01   4.4759065672e+01    0.2822329    0.1865273 -31.12  0.001398235    1.828    0.453
       107 -10.3385     32.9724    136.9653   7.9361926065e+01   4.3945905538e+01    0.2072493    0.1762284 -64.03 0.0003789334    1.034    0.033
       108 -13.2279     37.5228    135.1680   7.7691309680e+01   4.3952937058e+01    0.5395513    0.3192827 -75.14  0.002575826    1.662    0.398
       109 -10.1133    239.9106    140.0774   2.7862077117e+01   5.8662248243e+00    0.2068679    0.1991007  13.30 0.0005839941    1.175    0.149
       110 -10.2686    235.9116    138.0370   2.8071182230e+01   6.9328282671e+00     0.210027    0.1811046 -37.48 0.0004700505    1.031    0.030
       111 -10.3462    189.0109    139.7136   3.7061448729e+01   1.5743137522e+01    0.2755012    0.2117224 -47.92 0.0004489543    1.289    0.224
       112  -9.4241    144.1890    136.6013   4.6652402599e+01   2.5948282167e+01    0.2188404    0.1503864  29.76 9.581989e-05    1.621    0.383
       113 -10.1584     20.5052    135.4648   8.2904699573e+01   4.5414600885e+01    0.2671244    0.1372927 -65.75 0.0007621772    1.600    0.375
       114 -11.3711     16.7009    130.8695   8.3432127109e+01   4.6850570851e+01    0.4004448    0.2566841  37.95  0.002056472    1.765    0.433
       115 -10.3611    241.2073    133.8950   2.6355208059e+01   6.7183966159e+00    0.2024859    0.1693968 -51.33  0.000520914    1.191    0.160
       116 -11.3050     57.0869    132.8641   7.1189615973e+01   4.2312067592e+01    0.4444293    0.2951418  -3.18  0.001450787    2.130    0.531
       117 -11.8207     74.0726    128.8518   6.5014262726e+01   4.0969245378e+01    0.4165986    0.3552622 -19.20  0.001124695    1.289    0.224
       118 -12.4786     81.5969    124.3792   6.1634710021e+01   4.0905827502e+01    0.8617759    0.5403099 -52.33  0.002548353    1.511    0.338
       119 -10.9666     53.0538    132.9597   7.2474540417e+01   4.2788064353e+01    0.3141472    0.2511463  14.38 0.0004391462    1.441    0.306
       120 -11.1697      4.7118    130.4770   8.6973960372e+01   4.7755957485e+01    0.2396414    0.1872238 -68.65 0.0005437746    1.042    0.040
       121 -10.0277    217.0199    129.2820   2.9327983365e+01   1.2077139749e+01    0.1914186    0.1849595 -18.61 0.0004281844    1.081    0.075
       122 -11.0658     24.7681    127.6273   8.0478294303e+01   4.7020607229e+01     0.342332    0.1971702 -66.77  0.001730502    1.476    0.323
       123  -9.6187     55.3371    127.3143   7.0669717247e+01   4.3931468207e+01    0.1516964     0.102676 -30.72 0.0007046959    1.694    0.410
       124 -10.8721      4.9129    126.0079   8.6382354790e+01   4.8834492195e+01    0.2045932    0.1622292 -66.00 0.0009452827    1.037    0.036
       125 -10.4647    229.5712    124.7942   2.6232879714e+01   1.0460846327e+01    0.2298985    0.1701722 -53.61  0.001227643    1.347    0.258
       126 -11.9209     47.1333    124.2896   7.2737533197e+01   4.5665100873e+01     0.273694    0.2458858  29.20 0.0002868832    1.233    0.189
       127  -9.3356     14.5121    124.5312   8.3238400550e+01   4.8574666537e+01    0.1311137    0.1093032 -66.99 -3.949144e-05    1.008    0.007
       128 -11.8049      1.7393    118.4045   8.6418254931e+01   5.0858770654e+01    0.3544419    0.1839999 -54.45 0.0008797334    1.573    0.364
       129 -10.7529     20.0720    108.8263   7.8975934914e+01   5.2013997261e+01    0.2951691    0.2130008 -20.08  0.001383747    1.555    0.357
       130 -10.9645     10.2122    122.1766   8.4259707264e+01   4.9441874551e+01    0.2667038    0.1960969  64.41 0.0008862438    1.556    0.357
       131 -10.8523      7.8092    119.1609   8.4608303965e+01   5.0328009739e+01    0.2411238    0.2087635 -40.83 0.0009279529    1.205    0.170
       132 -11.4749     15.9766    115.3962   8.1427536663e+01   5.0712094636e+01    0.2663693    0.2574928 -83.33 0.0004539686    1.166    0.142
       133 -12.2053     14.0710    109.9288   8.1202372892e+01   5.2169750671e+01    0.4456953    0.3298906 -27.17 0.0004719072    1.449    0.310
       134 -10.7313     61.0899    121.6075   6.7626501347e+01   4.4616598136e+01    0.2947528    0.2359275 -37.43 0.0006179131    1.234    0.189
       135 -10.9477     56.9806    121.1221   6.8874404198e+01   4.5272459959e+01    0.2540427    0.2184838 -79.36 0.0003158505    1.236    0.191
       136 -11.3477     68.4479    121.5441   6.5207792195e+01   4.3613291314e+01    0.4590738    0.2668836  19.26  0.001686464    2.130    0.530
       137 -10.5021     65.0230    119.9350   6.5969893252e+01   4.4495359515e+01    0.2776713    0.2218186  23.70 0.0002928689    1.354    0.262
       138  -9.8005     35.0715    121.6440   7.6191386344e+01   4.7587444372e+01    0.1754144    0.1674205 -22.89 0.0003633163    1.146    0.128
       139 -10.7018     23.6836    119.6377   7.9574533233e+01   4.9090949648e+01      0.42389     0.214062 -55.22  0.001573784    1.629    0.386
       140 -10.7426    249.5227    117.0763   2.1604760047e+01   8.1230508995e+00    0.2106248    0.1119082 -39.73  0.001030621    1.586    0.369
       141 -10.8474    181.8868    114.8198   3.2549503292e+01   2.2280399311e+01    0.3567759    0.2472496  45.68  0.001120917    1.502    0.334
       142 -10.4373     70.5116    115.0010   6.3023707595e+01   4.4916354591e+01    0.3752651    0.2026996  31.01  0.001592757    1.972    0.493
       143 -10.0232     75.3226    112.4381   6.0808905212e+01   4.4804647747e+01    0.2598385    0.1491862  27.65  0.001102566    1.915    0.478
       144  -9.6986    107.2670    114.0122   5.1116254763e+01   3.8779158043e+01    0.2155565     0.203608 -37.78 0.0003876922    1.040    0.039
       145  -9.8956     86.0161    116.2451   5.8274628890e+01   4.2151494903e+01    0.2041668    0.1936178  16.62  0.001099777    1.083    0.076
       146  -9.8689     38.9774    111.5011   7.2964364027e+01   4.9705278044e+01    0.2194281    0.1597741 -59.11 0.0005972181    1.215    0.177
       147  -9.8388    225.1826    110.8720   2.3847776125e+01   1.3790878814e+01    0.2059927    0.1686889 -57.48 0.0003242655    1.189    0.159
       148  -9.1990    101.5543    111.1565   5.2088568576e+01   4.0543891357e+01    0.1974033    0.1440718 -34.76 0.0008963631    1.414    0.293
       149 -11.3755     55.1275    109.7532   6.7009563995e+01   4.8297662014e+01    0.2893582    0.2301345 -45.81 0.0006028669    1.138    0.121
       150 -11.6431     31.3901    107.5340   7.4812215521e+01   5.1397081512e+01     0.512271    0.3729431  67.85  0.002337066    1.788    0.441
       151 -10.7060      3.4368    106.3206   8.4235390628e+01   5.3667385817e+01    0.3989868    0.2043678 -68.52  0.001416888    1.582    0.368
       152 -11.0203     62.8146    106.8221   6.3661336932e+01   4.7987451532e+01     0.263459    0.1771964 -44.34 0.0008061366    1.374    0.272
       153 -11.2074     62.1301     98.4939   6.1803008882e+01   5.0039869477e+01    0.4176605    0.2427689 -44.07  0.001014098    1.588    0.370
       154 -10.0748     81.1235    104.7838   5.6921001803e+01   4.5677325591e+01    0.3913983    0.2651154 -80.85  0.001599854    2.422    0.587
       155 -10.8590     70.8247    101.9121   5.9651130799e+01   4.7982422397e+01    0.3184772    0.2134562 -17.62  0.001424349    1.889    0.471
       156 -10.3801     74.9603    104.0398   5.8794805357e+01   4.6848001961e+01    0.2202977    0.2049076 -33.61 0.0003179257    1.015    0.015
       157 -10.2521     75.5252    100.5347   5.7671407407e+01   4.7569091990e+01     0.257342     0.243324 -82.15 0.0006978228    1.219    0.180
       158 -10.2863     76.6937     97.6839   5.6494728836e+01   4.8030823457e+01    0.2764712    0.1994285 -24.16 0.0003606915    1.519    0.342
       159 -10.9687     50.8954    103.6278   6.7072930268e+01   5.0289351685e+01    0.2614831    0.2363208 -26.39  0.000386762    1.073    0.068
       160  -9.4184     35.5602    107.5427   7.3353080663e+01   5.1006064207e+01    0.1391955     0.116585 -46.24 9.078471e-05    1.053    0.051
       161  -8.8232     42.6588    103.7374   7.0032061778e+01   5.1200056702e+01    0.1415459   0.09551458 -27.36 0.0002556862    1.593    0.372
       162 -11.3083     21.8774    100.4720   7.6820589884e+01   5.3883102005e+01    0.4289542    0.3231948   7.85  0.002541333    1.522    0.343
       163 -11.0071     16.8904     96.1966   7.7814818842e+01   5.5255126726e+01    0.4143012    0.2327623 -16.71  0.002063527    2.173    0.540
       164 -10.6606     88.8926    100.9997   5.3332179268e+01   4.5202472573e+01    0.2203667    0.2135238  -1.80 0.0005847847    1.042    0.041
       165  -9.5360    108.8474    100.6148   4.6974183301e+01   4.1466480474e+01    0.2079689    0.1445525  52.40 0.0001343499    1.583    0.368
       166 -10.3128     56.9928     96.0540   6.3013614370e+01   5.1298397464e+01    0.2341094     0.221026 -60.48 0.0003259109    1.162    0.140
       167 -11.9751     52.2040     93.9110   6.4209457676e+01   5.2403515677e+01    0.3950464    0.2265366 -53.66  0.001064753    1.606    0.377
       168  -9.8032    101.1801     95.1509   4.7745426030e+01   4.4180423224e+01    0.2006911     0.184639  82.04  0.000460343    1.290    0.225
       169  -9.9262    226.3584     93.2770   1.9736019213e+01   1.6584279401e+01    0.2191787    0.1591247 -85.04 0.0004442631    1.661    0.398
       170  -9.3757     80.2580     93.3526   5.4057261807e+01   4.8407838710e+01    0.1527882    0.1085638 -20.71 0.0004786528    1.608    0.378
       171  -9.6268     31.7396     92.7768   7.1577102964e+01   5.4869036789e+01    0.1658441    0.1505184 -88.60 0.0004354546    1.309    0.236
       172  -9.3732    105.3699     91.2253   4.5300054296e+01   4.4170762103e+01    0.2078911    0.1430801 -51.61 0.0006660311    1.570    0.363
       173 -10.7406     97.4067     89.5717   4.7285688111e+01   4.6099322630e+01    0.4097261    0.2913411   1.53  0.001730067    1.872    0.466
       174 -10.2835     36.1118     90.2150   6.9322444840e+01   5.5045164891e+01    0.3077933    0.2110528 -37.46  0.001419276    1.316    0.240
       175 -10.1941     13.7943     91.1356   7.7990714312e+01   5.6641674053e+01     0.290398    0.1607778  -7.46  0.001463825    2.233    0.552
       176 -10.9339     73.9174     89.0494   5.5013368075e+01   5.0395561061e+01    0.2262402    0.1955615 -36.08 0.0003013105    1.095    0.087
       177 -10.1451     23.3852     90.0064   7.4129665306e+01   5.6219330821e+01    0.2579993    0.2240553  75.83  0.001387116    1.445    0.308
       178  -8.9300     21.2683     86.6302   7.4207012952e+01   5.7156876479e+01    0.1230235   0.09695131  82.88  0.000699377    1.665    0.400
       179  -9.5370     87.3803     89.2194   5.0444790350e+01   4.8056090710e+01    0.2024379    0.1398628 -53.45 0.0004742006    1.570    0.363
       180 -11.7437     57.2469     90.6882   6.1497950556e+01   5.2486745948e+01     0.409555    0.2954653 -22.61 0.0006182797    1.453    0.312
       181 -10.3757    110.0002     86.2128   4.2402330098e+01   4.4234586730e+01     0.276609    0.2123841  61.43 0.0009456432    1.540    0.351
       182 -10.3377     29.7879     85.5680   7.0645703604e+01   5.6697716071e+01     0.543877    0.1492708  36.35  0.001902008    4.239    0.764
       183 -10.4149     30.0307     81.9191   6.9658132482e+01   5.7495602343e+01    0.3126794    0.2375328 -24.05 0.0007163821    1.250    0.200
       184 -10.0269      8.8365     85.2486   7.8729883688e+01   5.8293395168e+01    0.2168774    0.1510926 -74.89 0.0008191874    1.470    0.320
       185  -9.5349    184.7389     85.1071   2.4482362845e+01   2.7174023710e+01    0.1942474    0.1765365 -48.87 0.0003142846    1.080    0.074
       186 -10.4462     65.2775     84.1361   5.6682901190e+01   5.2795958116e+01    0.3628619    0.2461035 -69.77  0.001651128    2.154    0.536
       187  -9.0873     34.3218     84.6720   6.8653255069e+01   5.6478578079e+01    0.1265932    0.1037572  72.81 0.0005733031    1.690    0.408
       188  -9.8008    116.8333     83.4154   3.9569451729e+01   4.3319953123e+01    0.2160981    0.1391761  34.79 0.0009375499    1.626    0.385
       189 -10.5626     76.5272     82.1840   5.2040656297e+01   5.1428148118e+01    0.4022133    0.2216911  46.34  0.001710099    2.098    0.523
       190  -9.4215     42.1627     83.3769   6.5251915085e+01   5.5956874981e+01      0.17974    0.1216416  35.26 0.0009413814    1.672    0.402
       191  -9.5092     50.9753     81.7208   6.1372504685e+01   5.5281373949e+01    0.2383039    0.1376203 -49.71 0.0006325663    1.591    0.371
       192 -11.1394     48.9379     77.2258   6.0868781376e+01   5.6500895514e+01    0.4179342     0.271506   7.27  0.002099296    1.756    0.431
       193 -10.5966     54.2988     75.0955   5.8128410439e+01   5.6258458304e+01    0.2651039    0.1813071   5.54 0.0006161031    1.633    0.388
       194 -10.6271     21.0743     81.8900   7.3215676840e+01   5.8244122532e+01    0.1951612    0.1563529 -41.20 0.0004254813    1.033    0.032
       195  -9.8311      7.9878     80.3102   7.8074846682e+01   5.9456215549e+01     0.167615    0.1374549 -30.86 0.0005004075    1.152    0.132
       196 -12.7754     88.4225     77.2127   4.6391466758e+01   5.0320249432e+01    0.3848429    0.3156988  23.75 0.0005193392    1.198    0.165
       197  -9.7829     40.9107     79.5265   6.4700609512e+01   5.6939985815e+01    0.1939108    0.1293076  24.25  0.001029678    1.601    0.375
       198  -8.7288      3.0000     78.9388   7.9777905889e+01   6.0022517259e+01    0.2044568   0.05806523 -65.68  0.000796903    2.904    0.656
       199 -10.0090    203.2280     78.0468   1.9633161952e+01   2.4116044656e+01    0.1933569    0.1858279 -32.01 0.0003901008    1.174    0.148
       200 -11.4348    167.8826     73.7169   2.4627611398e+01   3.3119716478e+01    0.4340788    0.2586766 -50.71 0.0006638522    1.786    0.440
       201  -9.8062    167.5771     69.5255   2.3541147531e+01   3.3883209843e+01    0.2305045    0.1732498  52.39 0.0001354354    1.309    0.236
       202  -9.0272    113.3139     77.3283   3.8695254591e+01   4.5242616974e+01    0.1555146    0.1163356   7.67 0.0003112953    1.672    0.402
       203 -14.2388     16.9840     67.7607   7.1451286059e+01   6.1628492310e+01    0.7344214    0.5937695  78.58  0.001433359    1.821    0.451
       204 -10.9981      6.3311     68.2142   7.6128248595e+01   6.2199918366e+01    0.2295476    0.1840408 -57.29 0.0006288238    1.182    0.154
       205 -11.6088      3.0654     62.7303   7.6258488289e+01   6.3533464892e+01    0.6288491    0.2965189 -36.37  0.003355918    1.783    0.439
       206  -9.0489     72.6103    249.6940   8.2773420171e+01   1.2745065664e+01    0.1153334   0.09599081  -5.71 0.0007013619    1.811    0.448
       207 -11.5252     13.0892     53.1492   6.9147202896e+01   6.4895194199e+01    0.4457155     0.183542 -37.15  0.002163328    2.056    0.514
       208 -13.4843     12.5183     47.9503   6.7832629939e+01   6.5946589022e+01    0.4240025    0.3133685 -34.12 0.0006884336    1.064    0.060
       209 -11.8904     19.8232     46.0578   6.3693632082e+01   6.5735542507e+01     0.287479    0.2503098 -19.35 0.0002952939    1.166    0.142
       210 -10.1954     99.8286     76.1646   4.2369330539e+01   4.8295958209e+01    0.2147701    0.2076679 -73.97 0.0007774384    1.206    0.171
       211  -9.8771     74.4228     75.3872   5.0661413827e+01   5.3165783323e+01    0.3395538    0.2036105  -0.12  0.001324679    2.746    0.636
       212  -9.4555     36.7585     76.5754   6.5553115627e+01   5.8019799757e+01     0.160703       0.1232  31.17 0.0003469794    1.482    0.325
       213  -9.6852     61.6774     73.4778   5.4776382366e+01   5.5554003510e+01    0.2400686    0.1212562 -46.69  0.001000595    1.897    0.473
       214  -9.8397     57.1365     59.1441   5.1785941711e+01   5.8992289092e+01     0.254454    0.1691919 -17.50 0.0008001317    1.585    0.369
       215 -12.1771     50.7702     67.1298   5.7032078971e+01   5.8345180332e+01    0.6797486    0.3032429 -34.87  0.001461024    2.328    0.571
       216  -9.9592     44.4723     74.4147   6.1820976149e+01   5.7633180034e+01     0.202039    0.1645815  36.11 9.391038e-05    1.433    0.302
       217 -11.1819     44.9696     70.7159   6.0511586112e+01   5.8345202160e+01    0.3322887    0.2085164 -60.22 0.0002651586    1.893    0.472
       218 -10.1951      6.9142     73.4415   7.7057585103e+01   6.1036101153e+01    0.2578168    0.1484028 -14.20  0.001071594    1.893    0.472
       219  -9.6140    206.9828     73.3052   1.7934110230e+01   2.4036487173e+01    0.1851109    0.1679034 -83.33 0.0002990009    1.051    0.048
       220 -10.9924    107.3685     72.0649   3.8757888756e+01   4.7488797449e+01    0.2775567    0.2647418  57.93 0.0003875228    1.150    0.131
       221 -11.2030    102.9200     69.6309   3.9301305126e+01   4.8865748213e+01    0.3950206    0.2622232 -43.81 0.0006085493    1.602    0.376
       222  -8.9981      1.4685     73.5450   7.9317582014e+01   6.1287715757e+01     0.124277   0.09528224 -46.72 7.424984e-05    1.019    0.018
       223  -8.8791    175.6947     70.3043   2.2251734259e+01   3.1805782193e+01    0.1487708    0.1082621 -73.91 0.0003826702    1.601    0.375
       224 -11.0207     92.7272     67.7919   4.1891648453e+01   5.1267400200e+01    0.3435599    0.2594506 -26.92 0.0008060822    1.349    0.259
       225  -9.5912    199.5507     68.8890   1.7970872540e+01   2.6421717748e+01    0.2019032    0.1305774 -40.33 0.0004011464    1.501    0.334
       226 -10.9334    147.0312     65.8355   2.6671310615e+01   3.9442966350e+01    0.3588732      0.20463 -38.30  0.001070654    1.819    0.450
       227 -11.4165      6.9509     40.8202   6.8300817184e+01   6.7665143015e+01    0.6506173     0.219628 -34.84  0.002718464    2.611    0.617
       228  -9.4872    244.6275     68.7413   1.2133448775e+01   1.6785578429e+01     0.113749   0.09845722  29.61 0.0006974472    1.652    0.395
       229  -9.8694    123.1359     67.4885   3.2894661201e+01   4.4801212871e+01    0.2698281    0.2034027 -35.49 0.0009946743    1.387    0.279
       230 -12.9186     30.2820     63.5127   6.4500675947e+01   6.1399228848e+01    0.4504185    0.3770837 -32.72  0.001040854    1.066    0.062
       231  -9.4048    138.5389     66.1859   2.8686508381e+01   4.1418797737e+01    0.1982998    0.1453272 -16.91 0.0009360531    1.658    0.397
       232 -11.7272    109.9240     64.5162   3.5554160616e+01   4.8259280898e+01    0.5275122    0.4448221  11.33  0.002824065    1.247    0.198
       233 -10.1333     85.9632     65.9202   4.3499742387e+01   5.2910565624e+01    0.2215958    0.2011037 -43.18 0.0003032778    1.240    0.193
       234 -11.0780     81.5335     64.8508   4.4652850030e+01   5.3926746210e+01    0.3618923    0.2188131  36.46  0.001307453    1.610    0.379
       235  -9.3130    190.6906     65.7025   1.8540337667e+01   2.8975552988e+01    0.1349407    0.1101597  27.53 0.0002468685    1.595    0.373
       236 -10.9429    159.6273     64.1515   2.3581450374e+01   3.6665029913e+01    0.3467627    0.2942293 -14.45  0.001851328    1.389    0.280
       237 -10.8571    155.1785     63.4503   2.4267690805e+01   3.7853811056e+01    0.2463933    0.2445919  -5.97   0.00121828    1.090    0.083
       238  -9.3090    186.6902     64.3282   1.8826037298e+01   3.0130339674e+01    0.1490847    0.1021762 -70.58 0.0004343674    1.662    0.398
       239 -10.1448    210.0245     63.0641   1.5091662357e+01   2.4938867726e+01     0.201474    0.1802293 -70.33 0.0004096791    1.022    0.022
       240  -9.8969    123.1423     62.2998   3.1243618257e+01   4.5658437873e+01    0.2586573    0.1999658 -14.38  0.001002539    1.492    0.330
       241  -9.3555     62.8252     63.1517   5.0935164432e+01   5.7394948213e+01    0.1934897    0.1450206 -12.39 0.0004083548    1.333    0.250
       242  -9.3489    193.5403     62.5064   1.7302116865e+01   2.8798045345e+01    0.1398414    0.1262939 -77.81 4.336079e-05    1.011    0.011
       243 -11.5138     45.9723     60.6349   5.6872692685e+01   6.0229832773e+01    0.4168103    0.2851387   1.21 0.0003795392    1.539    0.350
       244 -10.4972    119.2639     61.0289   3.1845219640e+01   4.6750855640e+01    0.1946123    0.1862322 -26.54  0.000314554    1.107    0.097
       245 -11.2173     88.8704     53.7170   3.8276834702e+01   5.4424576528e+01    0.5141634    0.2763747 -27.86  0.001855974    2.060    0.515
       246 -10.2716     90.1494     61.1427   4.0470358323e+01   5.2943914802e+01    0.2447752     0.197955  35.25 0.0003718305    1.176    0.149
       247 -10.8296     92.5220     57.9616   3.8597372504e+01   5.3007063840e+01    0.2911251    0.2786393 -50.13 0.0009965248    1.245    0.197
       248  -9.1997    183.3053     60.2788   1.8327789824e+01   3.1550141345e+01    0.1345514    0.1080672  32.53 0.0002280756    1.551    0.355
       249 -10.8126    136.6464     58.6291   2.6814183452e+01   4.3067841300e+01    0.3638031    0.2721268  78.33  0.001787217    1.575    0.365
       250 -10.0586     80.2492     56.3584   4.2128695377e+01   5.5643624438e+01    0.4477674    0.2602322  -3.79  0.001713153    2.954    0.661
       251 -10.9534     82.5765     48.7840   3.8574023226e+01   5.6425003344e+01    0.3975547    0.3493725 -20.72  0.001354671    1.170    0.145
       252 -10.1051     78.4184     47.7526   3.9618918939e+01   5.7370101886e+01    0.2750797    0.1530419 -14.27  0.001152464    2.536    0.606
       253  -9.3727     68.6190     56.7695   4.6486496592e+01   5.7619796312e+01    0.1786637    0.1260719 -46.24 0.0004583469    1.594    0.373
       254 -10.5721     50.5677     43.3371   4.8660165328e+01   6.2684867836e+01    0.3969489    0.2694382  48.91  0.002119116    2.061    0.515
       255 -12.1014     55.3940     49.0550   4.8838471045e+01   6.1030961388e+01    0.3711953    0.2514287  27.22 0.0003724793    1.414    0.293
       256  -9.8655     83.9237    248.4731   8.0326217522e+01   1.1413568799e+01    0.1927182      0.10523  39.69 0.0005918699    1.544    0.353
       257 -10.3700     44.9728     38.4403   4.9137011584e+01   6.4254985810e+01    0.2869665    0.1896886 -41.59 0.0009983804    1.629    0.386
       258 -11.9683     46.5782     47.7348   5.2042931560e+01   6.2502619815e+01    0.6793933     0.225718 -42.51  0.002730273    2.835    0.647
       259 -11.0614     44.0312     43.7002   5.1619983104e+01   6.3525815595e+01    0.2864778       0.2111 -29.19  0.000350234    1.238    0.192
       260  -9.7095    176.6131     56.1940   1.8344965862e+01   3.3759180991e+01    0.2243261    0.1526638  57.89 0.0005078796    1.408    0.290
       261 -11.6483    115.7425     55.3381   3.0910131162e+01   4.8443205081e+01    0.3623874    0.2480011  60.92  0.001752318    1.564    0.361
       262 -10.0008     98.0764     56.0712   3.6201038469e+01   5.2176853819e+01    0.2765894    0.1698949  22.71 0.0009933487    2.015    0.504
       263 -11.7495    148.6490     52.4588   2.2378334018e+01   4.1091221826e+01    0.5619506    0.3662405  42.65  0.002075711    1.589    0.370
       264 -11.5830    105.2456     52.4696   3.2831913279e+01   5.1210136830e+01    0.3768088    0.2380433  47.55  0.000378254    1.472    0.321
       265 -12.1725     39.7257     49.3738   5.5642839212e+01   6.3086200173e+01    0.4622064    0.2626375 -28.33 0.0008086968    1.682    0.405
       266 -10.7163     62.0121     40.6917   4.2958039439e+01   6.1331560873e+01    0.2838916    0.1892945 -37.59  0.001270239    1.590    0.371
       267 -10.3710     62.5549     50.9659   4.6690345241e+01   5.9603531578e+01    0.3282295    0.1244425 -40.21  0.001151433    2.610    0.617
       268 -10.6328     62.4628     46.1455   4.4906799799e+01   6.0409376037e+01    0.2815068    0.1700089 -30.05 0.0008760241    1.630    0.387
       269 -10.8992    132.1069     49.5963   2.5025914772e+01   4.5481138014e+01    0.4279881    0.2874327  88.34  0.001908254    2.169    0.539
       270 -10.0611    126.9110     50.7987   2.6614589005e+01   4.6538407827e+01    0.2597285    0.2008227  75.08   0.00133421    1.472    0.321
       271  -9.9140    180.5725     47.4605   1.5429998189e+01   3.4042581406e+01    0.3330733    0.1744989 -56.61  0.001086697    2.197    0.545
       272  -9.6475    141.8079     48.8556   2.2692550810e+01   4.3257998305e+01    0.1896437    0.1600585 -76.23 0.0003820049    1.327    0.247
       273  -9.8767     73.0966     48.8851   4.1937094006e+01   5.8161994393e+01    0.2024479     0.154255 -60.96 0.0008011609    2.023    0.506
       274  -9.9884    105.5251     47.1514   3.0905750197e+01   5.1932290700e+01    0.3332717    0.1783427  67.32  0.001267177    2.945    0.660
       275  -9.6060    222.2470     45.9635   9.7332457059e+00   2.4682983482e+01     0.171324    0.1450859 -63.95            0    1.059    0.056
       276 -11.6278    121.9586     43.2263   2.5319695410e+01   4.8747125023e+01    0.3739241    0.2852343 -28.48 0.0005791725    1.434    0.303
       277 -11.8395    247.5708     37.3532   5.5065590755e+00   2.0567169793e+01    0.5210986     0.294388 -32.46  0.002896823    1.961    0.490
       278 -10.0014    236.9815     44.5610   7.9202548742e+00   2.1758314776e+01    0.2026054    0.1408162 -66.80 0.0007553297    1.267    0.211
       279  -9.9643    112.1590     45.2097   2.8437687230e+01   5.0728417872e+01    0.2089307    0.1760728  25.79 0.0004952236    1.168    0.144
       280 -10.0513    163.3248     44.0850   1.7267204046e+01   3.8670192613e+01    0.1862208    0.1705556 -65.43  0.000385306    1.116    0.104
       281  -9.0379    154.6826     44.7018   1.8955008654e+01   4.0694934265e+01    0.1414613    0.1024722  34.40 0.0003753222    1.613    0.380
       282 -10.0510    131.1163     42.2724   2.2918418151e+01   4.6713269059e+01    0.2375584    0.1944093  -8.77  0.001309107    1.421    0.296
       283 -11.1746     96.4827     41.7034   3.1558516820e+01   5.4643330770e+01    0.3382966    0.2645422  16.59  0.001503864    1.301    0.231
       284 -10.2114     89.9650     41.4005   3.3425643638e+01   5.6041129976e+01    0.2624039    0.2243887  54.82  0.001057048    1.299    0.230
       285 -10.0534    187.0347     41.0239   1.2860623228e+01   3.3359232061e+01    0.1988913    0.1744084 -87.43            0    1.010    0.010
       286 -10.1430    149.4448     40.9525   1.8820647589e+01   4.2461065495e+01    0.2436965    0.1854522 -52.88 0.0006137221    1.431    0.301
       287  -9.5305    148.6070     36.8393   1.7758008523e+01   4.3181333767e+01    0.2795036    0.1789528  -4.77 0.0004374756    2.352    0.575
       288 -10.2145    108.4248     40.7917   2.7890258879e+01   5.2164020256e+01     0.354048    0.2194914  73.68  0.001549269    2.365    0.577
       289  -9.9587    102.1618     40.9136   2.9639364239e+01   5.3530319942e+01    0.2235942    0.1496152  23.99 0.0007846929    1.656    0.396
       290 -12.4129     27.6863     37.6620   5.6833647230e+01   6.6477461112e+01    0.4647265    0.2638229  11.10 0.0002743349    1.804    0.446
       291 -10.8312     24.4570     34.5576   5.7203322562e+01   6.7329930628e+01    0.3096676    0.1857861  -0.95 0.0009685673    1.687    0.407
       292 -10.7616     72.8711     43.0559   3.9802931597e+01   5.9100263841e+01    0.2355813    0.1809634  23.30 0.0003856798    1.178    0.151
       293 -11.8722     84.0242     36.5896   3.3488459741e+01   5.7891522390e+01     0.757846    0.4301926  26.05  0.003042462    1.974    0.493
       294 -11.9742     75.1236     35.5840   3.6079589632e+01   5.9746866843e+01    0.4197855    0.3169765 -33.78    0.0017438    1.461    0.315
       295 -11.7238     65.6263     36.9695   4.0081538116e+01   6.1267311566e+01    0.3406534    0.3192938  53.82 0.0004153836    1.448    0.309
       296 -10.3071    233.4044     39.4083   7.1974399240e+00   2.3180297630e+01    0.2711392    0.1437887  82.62  0.001054453    1.984    0.496
       297 -10.6054    225.5983     38.7501   7.8217585222e+00   2.4916494009e+01    0.2328982    0.1178738 -32.54  0.001147121    2.142    0.533
       298 -11.5037    139.6784     36.2010   1.9243256455e+01   4.5424267584e+01    0.4366644    0.3009241  51.75  0.001287871    1.314    0.239
       299 -10.4200    222.0181     37.5055   7.9154322904e+00   2.5848766866e+01    0.1874949     0.113578  73.13  0.001005835    1.581    0.367
       300  -9.5586    164.9980     36.9955   1.5030982325e+01   3.9171667712e+01    0.2183563    0.1516793 -75.70 0.0008458698    1.625    0.385
       301 -10.3135     92.6128     34.6770   3.0100943321e+01   5.6382838002e+01    0.3574449    0.1991549 -23.37  0.001703194    2.008    0.502
       302  -9.7434    241.5473     35.2281   5.6040960106e+00   2.2044800349e+01    0.2400029   0.09285511 -42.05  0.001153397    2.173    0.540
       303  -9.3710    129.2068     35.8293   2.1262855053e+01   4.7980617771e+01    0.1899291    0.1465352  35.04 0.0003376513    1.326    0.246
       304  -9.5490    194.2863     35.6484   1.0595487074e+01   3.2338548839e+01    0.1399358   0.08749904 -66.19 0.0004787212    1.663    0.399
       305 -10.2148    110.3549     34.8824   2.5320482348e+01   5.2480483452e+01     0.330518    0.1704533  52.18  0.001523413    1.699    0.412
       306 -10.0849    182.7779    246.6297   5.9274286523e+01  -3.2788084401e+00    0.1877494    0.1029762  39.57 0.0009580139    1.709    0.415
       307  -9.9093     34.1128     33.7239   5.2178887513e+01   6.6396196059e+01    0.1686299    0.1334587   0.08 0.0008153443    1.064    0.060
       308 -10.8618     17.6767     31.4335   5.9405253152e+01   6.8497238849e+01    0.4152515    0.1961595   9.52  0.001381455    2.366    0.577
       309 -10.5217     10.9804     24.5273   6.0178643592e+01   7.0202423959e+01    0.2900238    0.1886803 -37.76 0.0006666115    1.350    0.259
       310 -11.2015     12.1049     29.2016   6.1451057610e+01   6.9345097670e+01     0.211999    0.1562164 -15.80 0.0003414259    1.059    0.056
       311  -9.4610    168.8385    250.4189   6.2712621105e+01  -1.7821196395e+00    0.1883876    0.1051342  24.65 0.0005926707    1.692    0.409
       312 -10.7246     73.2086    244.5929   8.2171058931e+01   1.3667000476e+01    0.2775083    0.2215719  36.09  0.001066506    1.268    0.211
       313 -12.1987     75.0067    239.6317   8.1308545831e+01   1.4416355002e+01    0.5603637    0.4338616 -68.93  0.003043407    1.404    0.288
       314  -9.8708     45.5632    244.2617   8.7765448938e+01   1.7307692657e+01    0.2213724    0.1118063  47.90 0.0005579057    1.620    0.383
       315  -9.5651     64.9781     31.5188   3.8102074319e+01   6.2131044096e+01    0.1919353    0.1148326  39.82 0.0004213004    1.539    0.350
       316  -9.8381      4.6667    244.0024   9.5504114914e+01   2.1812594298e+01      0.15566    0.1101062  78.26 0.0004538036    1.106    0.096
       317 -10.9959    198.2133     28.3350   8.3888129656e+00   3.2317656198e+01    0.2860492    0.1886772  87.72  0.001190903    1.428    0.300
       318 -10.8420    119.5630     27.4465   2.0586898206e+01   5.1222797823e+01    0.2998647     0.228738  49.13 6.195613e-05    1.145    0.126
       319 -10.2375    122.6168     26.4556   1.9594381431e+01   5.0615533439e+01    0.2172717     0.193486  28.60 0.0001191193    1.156    0.135
       320  -9.2144     49.2608     28.6710   4.3201444496e+01   6.5083845704e+01    0.1053973    0.1003086 -42.40 0.0006956269    1.566    0.361
       321  -9.4311    102.4725    243.5040   7.5867018870e+01   9.6714914846e+00    0.1311617    0.1103946  49.22 0.0001845026    1.018    0.018
       322 -10.4954    112.6195     26.2050   2.1734250914e+01   5.2964270652e+01    0.3288216    0.2315334  10.23  0.001560686    1.722    0.419
       323 -10.5622     61.4858     26.4111   3.7279632985e+01   6.3399657457e+01    0.2329859    0.1779859  13.27  0.000611585    1.142    0.124
       324  -9.9907    163.0202     28.9373   1.3117051135e+01   4.0611250086e+01    0.3338093    0.1734975 -12.25  0.001363223    3.251    0.692
       325 -10.2347     88.9375    241.0718   7.8492181027e+01   1.2148730331e+01    0.1877121    0.1568883 -16.49  0.001125544    1.685    0.406
       326 -10.1128     90.8321     25.0007   2.6931522102e+01   5.7902805076e+01    0.3463116     0.162256  47.84  0.001615865    1.809    0.447
       327  -9.5184    161.5393     20.4762   1.1007899089e+01   4.1892794998e+01    0.1613844    0.1313255  -7.63 0.0001606955    1.586    0.369
       328  -9.9729    159.5132     23.5178   1.2140345274e+01   4.2061051496e+01    0.2637126    0.2109022 -78.69 0.0007519865    1.261    0.207
       329 -10.2184    156.2841     21.7018   1.2112450669e+01   4.3034966372e+01    0.2144615     0.195363  54.19 0.0007218191    1.153    0.132
       330 -10.6610    129.0258     24.0276   1.7490937757e+01   4.9358160036e+01    0.1993136    0.1708215  52.94  0.001207149    1.039    0.038
       331  -9.6380     22.0942     24.3015   5.4152540825e+01   6.9201434505e+01    0.1685536    0.1241772   3.91  0.000707395    1.155    0.134
       332  -9.4549     54.0289     22.7765   3.8637669501e+01   6.5106391173e+01    0.1735033    0.1366005  20.20 0.0004128644    1.073    0.068
       333 -12.0099     34.1927     22.6732   4.7377997347e+01   6.8025577561e+01    0.2313483    0.1637247   5.81 0.0002197114    1.200    0.167
       334 -10.3043    195.9752    238.4155   5.5275373943e+01  -3.9557880873e+00    0.2406473    0.1852621 -25.96  0.001009092    1.320    0.243
       335 -10.8297    176.6672     26.4162   1.0528832096e+01   3.7608706469e+01    0.2905063     0.187042 -56.60  0.001549953    1.606    0.378
       336  -9.8777     82.4335     21.4835   2.8029083106e+01   6.0023341562e+01     0.251002    0.1974219 -36.15  0.000923222    1.529    0.346
       337 -10.6359     57.2569     20.5351   3.6358027706e+01   6.4840176848e+01    0.3806118    0.2780261  70.21  0.001983654    2.751    0.636
       338  -9.3562    149.7078    239.6870   6.5154821519e+01   3.0119936493e+00    0.1307082   0.09721517   0.60 0.0002736036    1.592    0.372
       339 -10.0754      3.6120    238.4024   9.5423384874e+01   2.3029437041e+01    0.2080247    0.1091626 -80.88  0.001003931    1.682    0.405
       340 -10.9536     34.9681    237.9487   8.9404516224e+01   1.9842923013e+01    0.2241568    0.1473075  74.48 0.0009938376    1.329    0.248
       341 -10.9394     30.5380    234.4300   9.0037651065e+01   2.1071768254e+01    0.4284076     0.257562  82.12  0.002280338    1.524    0.344
       342  -9.8972     76.6870     15.9342   2.7531350979e+01   6.1750449138e+01    0.1883464    0.1407461  41.34 0.0001959164    1.147    0.128
       343  -9.9951     40.8844    237.5340   8.8190337399e+01   1.9239813028e+01    0.1705912    0.1058996  38.71 0.0008416196    1.515    0.340
       344 -10.5859    193.3091     20.7706   7.1446082638e+00   3.4317211315e+01    0.2156942    0.1841428  75.69 0.0002083615    1.137    0.120
       345  -9.0384    120.6930     21.3176   1.8281617047e+01   5.1603319057e+01    0.1291143   0.09937548 -75.29  0.000702991    1.632    0.387
       346  -9.0366     18.3279    237.3182   9.2608736858e+01   2.1788682657e+01    0.1025189   0.08578326 -50.05 0.0003526089    1.681    0.405
       347 -10.0680     67.3339    236.0950   8.2587925478e+01   1.6190117784e+01    0.2194592    0.1653906  31.33  0.001319446    1.417    0.294
       348  -9.9692     24.4898     20.0661   5.1024527059e+01   6.9563780347e+01    0.1828535    0.1418693 -16.21 0.0004070496    1.139    0.122
       349 -11.0741    133.7852     18.6043   1.4874189634e+01   4.8771543410e+01    0.3391395    0.1992195  48.94  0.001702717    1.537    0.349
       350 -11.2340    182.8373    234.1795   5.7263045737e+01  -1.2722400615e+00    0.2900751    0.2574406  18.05 0.0009941788    1.115    0.103
       351 -10.0396     81.0792     28.3422   3.1203582732e+01   5.9517416245e+01    0.4229074    0.2874144 -63.08   0.00199277    2.863    0.651
       352 -10.4129    169.8166     18.1406   9.2654569587e+00   4.0144247781e+01    0.2046056    0.1811577 -28.22  0.001050308    1.351    0.260
       353  -9.7737    126.9703     19.0221   1.6270324255e+01   5.0352447413e+01    0.2027498    0.1494218 -73.77  0.000687743    1.684    0.406
       354 -11.3074    160.7251    235.0169   6.2074960279e+01   2.0820448272e+00    0.3348559    0.2053331  21.44  0.001485579    1.680    0.405
       355  -8.8085     41.2564     19.6611   4.2706997435e+01   6.7462286682e+01    0.1015917    0.0947991 -30.32 0.0002046308    1.578    0.366
       356  -9.0097    165.2907     17.2774   9.6276350924e+00   4.1317841808e+01     0.125552   0.08937153  45.84 0.0001965641    1.522    0.343
       357 -10.2470     59.6523    240.8572   8.4634568098e+01   1.6228057789e+01     0.173864    0.1453318  47.79  0.001148226    1.158    0.136
       358 -10.3232    109.3549     16.5740   1.9090234370e+01   5.4684537969e+01    0.2912937    0.1313796  55.59 0.0008098113    1.815    0.449
       359 -10.6011     55.0627    231.6390   8.4773498915e+01   1.8731721078e+01    0.2385312    0.1756211 -68.84  0.001163985    1.424    0.298
       360 -10.3441    217.0280     16.1470   3.8057553410e+00   2.9488908105e+01    0.4011331    0.1066539  61.10  0.001613004    3.368    0.703
       361 -10.7060     39.7565    229.3806   8.7788640759e+01   2.1082625819e+01    0.2509435     0.154045  65.76   0.00101007    1.461    0.316
       362 -10.3365    248.5044    229.0063   4.3710162755e+01  -9.8006111453e+00    0.1785668    0.1014787 -32.11 0.0009635554    1.590    0.371
       363  -9.1009     23.6684    232.6868   9.1281809169e+01   2.2183798946e+01    0.1054064   0.08825495 -46.84 0.0007044706    1.678    0.404
       364 -10.1493    192.0043    225.9764   5.3977660211e+01  -1.3288715180e+00     0.214347    0.1547438 -68.79  0.001041084    2.617    0.618
       365 -10.4485      4.5040    225.7797   9.4604972082e+01   2.5540611798e+01    0.2561656    0.1630393  22.83  0.001591426    2.078    0.519
       366 -10.2984     79.7347    222.8453   7.8470858217e+01   1.7272503201e+01     0.243362     0.179483   7.35  0.001270511    1.971    0.493
       367  -9.7295     16.2738    222.0354   9.2064483085e+01   2.5205255762e+01    0.1665529    0.1257636  81.98 0.0004226539    1.080    0.074
       368 -10.0318    125.2492    220.8991   6.7796112221e+01   1.0596315997e+01    0.3667459    0.1878454  21.84  0.001426186    2.696    0.629
       369 -11.6418     48.8296    218.6765   8.4933312525e+01   2.2321458668e+01    0.5259915    0.2624941  30.43  0.002082059    2.134    0.531
       370  -9.5799    211.8018    218.8398   4.8721664718e+01  -3.1938666021e+00     0.162692    0.1549795  -3.10 0.0006046738    1.316    0.240
       371 -10.4587     69.7957    217.6177   8.0132328050e+01   1.9821152576e+01    0.1952055    0.1051446  45.53 0.0009473225    1.659    0.397
       372 -10.0514     38.3166    216.9740   8.7075535187e+01   2.3949770661e+01     0.173603    0.1387548  80.89 0.0003928189    1.072    0.067
       373 -11.4185      3.8333    205.1957   9.3547861105e+01   3.0056488529e+01     0.301688    0.2737666 -32.49  0.002192604    1.567    0.362
       374 -12.2524      6.0005    212.9864   9.3578330592e+01   2.8145521166e+01    0.6900949    0.2914517  87.67   0.00339654    2.242    0.554
       375  -9.6435     82.0059     17.0336   2.6356456241e+01   6.0570964866e+01    0.2335223    0.1647734   9.90 0.0009808227    1.485    0.327
       376 -11.9390     11.5358    209.5844   9.2222484553e+01   2.8386920209e+01    0.3808795    0.2328297  75.06  0.001149427    1.410    0.291
       377 -11.0068     29.6828    214.9370   8.8768673322e+01   2.5366012619e+01    0.2614757    0.1896963  30.03  0.001334168    1.580    0.367
       378  -9.5976    110.4745    211.5445   6.9849082744e+01   1.5007588227e+01    0.2460788    0.1229008 -45.41  0.001028842    2.323    0.569
       379  -9.6954     63.2510    212.6128   8.1077941231e+01   2.1832857867e+01    0.1396106   0.08863049  72.54 0.0006954382    1.669    0.401
       380 -10.5448     20.3642    212.0056   9.0532377584e+01   2.6991622084e+01    0.2431102    0.1298036  59.45  0.001323205    1.690    0.408
       381  -9.9172    216.9918    209.4690   4.5985070261e+01  -2.4426623575e+00    0.2121895    0.1586484 -28.28 0.0008340802    1.251    0.200
       382 -10.6517     72.7991    208.3490   7.8361541028e+01   2.1494137368e+01    0.3050089    0.2098652  19.83  0.001550211    1.822    0.451
       383  -9.7353    147.8766    205.9000   6.0129196213e+01   9.8240713644e+00    0.2295123    0.1913877  -1.45  0.001225887    1.312    0.238
       384 -12.1817     20.1763    201.8096   8.9805837333e+01   2.9314834580e+01    0.7472458    0.2306136 -58.05  0.003061111    3.191    0.687
       385 -10.6322     28.0444    205.3282   8.8348136417e+01   2.7709171968e+01    0.1753851    0.1405396  64.21 0.0006490916    1.107    0.097
       386 -10.4126    175.1503    202.0352   5.3253821365e+01   5.7956473738e+00    0.2386789    0.1920579  27.90 0.0004163359    1.165    0.141
       387  -9.3425     67.9149    203.0000   7.8876614364e+01   2.3411465408e+01    0.2222704   0.07389733  32.92 0.0008052188    2.962    0.662
       388 -10.2610    193.7813    201.6201   4.9177045728e+01   2.6654467446e+00    0.1980604    0.1249813  43.99 0.0009541042    1.719    0.418
       389  -9.0248    238.3214    200.7260   4.0352851401e+01  -4.1943782318e+00    0.1083217    0.1046712 -66.60 0.0002865188    1.574    0.365
       390  -9.1830    120.4825    200.4568   6.5712170268e+01   1.5776302430e+01    0.1446146    0.1363437  33.12 0.0004756242    1.041    0.039
       391 -10.1794     41.1392    197.8852   8.4676288763e+01   2.7998436285e+01    0.3672817    0.2122353  70.27  0.001832693    1.808    0.447
       392 -10.1353    134.8600    196.4588   6.1544308576e+01   1.4138931554e+01    0.2436005    0.2018469 -49.68 0.0004954202    1.276    0.216
       393  -9.6095     56.7467    197.2322   8.0882976113e+01   2.6255452696e+01     0.208061    0.1460393 -32.42  0.001046295    2.037    0.509
       394 -12.0629     15.6723    191.9682   9.0039704986e+01   3.2020729949e+01    0.4149254    0.3380062 -63.39  0.001722669    1.312    0.238
       395 -11.8716     16.0434    182.4543   8.9166896302e+01   3.4232626469e+01    0.5034458    0.2617611  78.42  0.001939504    1.970    0.492
       396  -9.5848    186.5384    193.4992   4.9141135139e+01   5.4394967867e+00    0.1447545    0.1294023  -0.25 0.0001020652    1.020    0.019
       397  -9.7768     60.5173    191.9910   7.9332952713e+01   2.7018598577e+01     0.252281    0.1773385  27.50  0.001322102    1.590    0.371
       398  -9.2187      1.6329    193.7199   9.3285323060e+01   3.2829240688e+01    0.1124392   0.08270431 -48.68  0.000701299    1.685    0.407
