#   1 NUMBER                 Running object number                                     
#   2 MAG_AUTO               Kron-like elliptical aperture magnitude                    [mag]
#   3 X_IMAGE                Object position along x                                    [pixel]
#   4 Y_IMAGE                Object position along y                                    [pixel]
#   5 X_WORLD                Barycenter position along world x axis                     [deg]
#   6 Y_WORLD                Barycenter position along world y axis                     [deg]
#   7 A_WORLD                Profile RMS along major axis (world units)                 [deg]
#   8 B_WORLD                Profile RMS along minor axis (world units)                 [deg]
#   9 THETA_WORLD            Position angle (CCW/world-x)                               [deg]
#  10 FWHM_WORLD             FWHM assuming a gaussian core                              [deg]
#  11 ELONGATION             A_IMAGE/B_IMAGE                                           
#  12 ELLIPTICITY            1 - B_IMAGE/A_IMAGE                                       
         1 -13.1721    209.9815      2.5169   5.9803885521e+01   3.2075826677e+01     1.255463     0.690849  66.53  0.002609687    1.673    0.402
         2 -14.1266    187.2506     26.2054   6.8861148981e+01   3.5326798318e+01     1.705199     1.342042 -18.47  0.005496218    1.457    0.314
         3 -13.7720    194.1938     19.4436   6.6025933671e+01   3.4307460748e+01     1.309348    0.8205714 -51.68  0.004304481    1.601    0.375
         4 -13.1513    200.8461     11.5515   6.3083861245e+01   3.3458841717e+01     0.731793    0.6476332 -19.38  0.001258059    1.323    0.244
         5 -15.6725      9.5677    240.6007   1.5005124877e+02   2.4849305244e+01      4.04799    0.8145645 -68.10  0.008879674    4.583    0.782
         6 -12.7161    247.3513    248.3904   1.0928487251e+02  -1.0400419468e+01    0.6609214    0.4059598  16.59  0.004427837    1.382    0.276
         7 -13.2647     51.7641    232.8174   1.4254160409e+02   2.1513501538e+01     0.678736    0.6257547 -73.68  0.005372314    1.560    0.359
         8 -14.7404     33.2690    246.2096   1.4650206103e+02   2.1342387770e+01     2.212967     1.073621  44.38   0.01445426    1.707    0.414
         9 -13.4583     49.1959    225.4212   1.4248059358e+02   2.3195258450e+01     0.762212    0.6075434  -7.43  0.002892147    2.770    0.639
        10 -16.4356     48.4289    201.4021   1.4076590355e+02   2.7991596373e+01     10.95256     3.214982  56.39   0.03434716    3.586    0.721
        11 -10.5487    227.5666    203.4472   1.0517457545e+02  -2.0847363519e+00    0.2429976    0.2112122 -49.92 0.0006523925    1.601    0.375
        12 -10.9207    192.7445    194.1856   1.0997246748e+02   5.4520293022e+00    0.7577749    0.3925894 -63.67  0.002196082    6.848    0.854
        13 -15.9488      2.6173    145.5956   1.4606324196e+02   4.4562643528e+01     17.71855          nan -74.70   0.03348183   14.937    0.933
        14 -12.0515     73.4075    191.7443   1.3467318574e+02   2.6715454695e+01    0.3825072    0.2781687 -49.64   0.00172399    1.772    0.436
        15 -11.8285     77.6885    185.1862   1.3298436076e+02   2.7497511603e+01    0.2927768    0.2345488 -56.40 0.0008661218    1.459    0.315
        16  -8.9856    181.5185    192.4333   1.1187012540e+02   7.8387504469e+00    0.1373395    0.1201222  30.72 1.573905e-05    1.033    0.032
        17 -12.4843    229.5429    248.2207   1.1220413564e+02  -7.8653593948e+00    0.3758942    0.3020313  50.65  0.002335787    1.726    0.421
        18 -13.6901     57.6219    129.8349   1.3012127457e+02   4.2925246430e+01     1.795307    0.6311722 -75.17  0.005383798    4.708    0.788
        19 -13.8331     67.5416    144.0810   1.2975610308e+02   3.8250217533e+01     1.342544    0.7043365  86.01  0.003819247    2.903    0.656
        20 -11.6478     85.8156    173.5193   1.2963643352e+02   2.8828444468e+01     0.278951    0.2352888  85.35 0.0003244347    1.064    0.060
        21 -13.3711     73.7157    170.6761   1.3205154898e+02   3.1257115317e+01    0.4550138      0.27932 -46.68  0.001629479    2.064    0.515
        22 -10.8526    137.9960    171.4776   1.1732350317e+02   2.0157627881e+01    0.2287501    0.1327811  44.06 0.0007155385    1.602    0.376
        23 -11.3787     47.8278    150.8536   1.3570472399e+02   3.9156583811e+01    0.2556432    0.1585985 -73.72 0.0006883952    1.405    0.288
        24 -12.1924     46.5339    145.8561   1.3539166144e+02   4.0468100580e+01    0.3674244    0.2381919  79.19  0.002016855    1.546    0.353
        25 -12.2779     92.3807    148.3401   1.2409004982e+02   3.3508402716e+01     0.271318    0.2606575 -44.58  0.001255198    1.227    0.185
        26 -10.3467    133.9339    145.1015   1.1310701190e+02   2.6584795849e+01    0.8882355    0.1955473 -54.88  0.001792867    8.272    0.879
        27 -10.3581    103.5028    148.9360   1.2139058787e+02   3.1484532198e+01    0.2813318    0.2402423  62.91 0.0008800983    1.123    0.110
        28  -9.8211    105.8429    145.0133   1.2005952233e+02   3.1971154853e+01     0.370336    0.2334369 -31.01   0.00154412    2.460    0.594
        29 -12.4796     55.9544    145.0402   1.3288377536e+02   3.9537789591e+01    0.4307171    0.3827733  54.37  0.002755648    1.217    0.178
        30  -9.1970     82.6661    141.2699   1.2534728342e+02   3.6708321090e+01    0.1434699   0.09987624  71.54 0.0002019221    1.592    0.372
        31 -10.0757    113.0655    135.0483   1.1618959337e+02   3.2933510801e+01    0.3152906    0.2407614 -15.38 0.0009300709    1.944    0.486
        32 -13.8096     42.3662    128.5055   1.3410396460e+02   4.5007163147e+01    0.9742835    0.4029335 -71.55  0.004262931    2.215    0.549
        33  -9.4046    118.4828    127.9759   1.1322719814e+02   3.3504479553e+01    0.2101186    0.1283916 -29.27 0.0008076526    2.445    0.591
        34 -11.0422     70.0026    134.5013   1.2753304500e+02   4.0174748919e+01    0.3389515    0.1333337  35.90  0.001357202    2.709    0.631
        35  -9.7368    109.0633    122.6339   1.1450228464e+02   3.6542887923e+01    0.2009428     0.181006  46.91 0.0003723411    1.144    0.126
        36 -10.8699    168.3346    113.0583   9.7396068539e+01   2.5789277050e+01    0.3690456    0.3045347 -76.59  0.000889189    1.429    0.300
        37 -10.8979    100.6533    132.1256   1.1883208944e+02   3.5877976013e+01    0.3067541    0.2476727 -27.98 0.0007841862    1.565    0.361
        38 -13.6185     90.9104    165.6654   1.2729500364e+02   2.9783511954e+01     3.507881    0.6882604  48.21  0.001439601    6.026    0.834
        39  -9.4935    205.5159    110.4712   8.9190908188e+01   1.7520921528e+01    0.2760092    0.1328932  42.18 0.0009704598    2.303    0.566
        40  -9.8178    160.9995    128.0074   1.0281009693e+02   2.4435076881e+01    0.2869459    0.1686861 -65.44  0.001036201    2.621    0.618
        41 -13.3431     84.2465    238.2601   1.3714159441e+02   1.6204317864e+01    0.7483684    0.3226667  70.75   0.00300958    3.559    0.719
        42 -14.0953     10.9945    206.5449   1.4822602348e+02   3.1017676827e+01    0.8621672    0.5935788  31.95   0.00322281    1.880    0.468
        43 -12.3154     32.7572    205.2158   1.4410740447e+02   2.9039805848e+01    0.3221688    0.2081595  58.96  0.001305366    1.255    0.203
        44 -12.8001    198.8417    246.8566   1.1728508988e+02  -3.0718538701e+00    0.7094875    0.1875542  36.61  0.002744774    3.391    0.705
        45 -13.7249     73.5678    227.0056   1.3812157978e+02   1.9718097255e+01    0.7021615    0.2719263  64.20  0.002757225    3.285    0.696
