#   1 NUMBER                 Running object number                                     
#   2 MAG_AUTO               Kron-like elliptical aperture magnitude                    [mag]
#   3 X_IMAGE                Object position along x                                    [pixel]
#   4 Y_IMAGE                Object position along y                                    [pixel]
#   5 X_WORLD                Barycenter position along world x axis                     [deg]
#   6 Y_WORLD                Barycenter position along world y axis                     [deg]
#   7 A_WORLD                Profile RMS along major axis (world units)                 [deg]
#   8 B_WORLD                Profile RMS along minor axis (world units)                 [deg]
#   9 THETA_WORLD            Position angle (CCW/world-x)                               [deg]
#  10 FWHM_WORLD             FWHM assuming a gaussian core                              [deg]
#  11 ELONGATION             A_IMAGE/B_IMAGE                                           
#  12 ELLIPTICITY            1 - B_IMAGE/A_IMAGE                                       
         1 -15.0140     10.6114    155.6954   1.4260106694e+02   4.1720002090e+01     9.268574     3.045449  67.14   0.04561039    3.100    0.677
         2 -13.4665      5.4856     11.2415   1.2286749615e+02   7.2037842330e+01     1.799659    0.5584051 -54.76  0.008903326    2.190    0.543
         3 -13.6080    206.1322      7.7074   6.5355052854e+01   3.1829739977e+01      1.42455     1.078072  33.77  0.007327564    1.437    0.304
         4 -13.5223    191.6668     26.7667   7.3182585921e+01   3.3627595773e+01      1.70747     1.421316  -5.57  0.007008445    1.242    0.195
         5  -8.8737     13.4708    240.4524   1.4580448303e+02   2.7533748587e+01   0.08890639   0.05608532  64.05 0.0001008829    1.009    0.009
         6 -10.8031    139.8001    250.0971   1.2791661860e+02   1.1380190440e+01    0.2955081   0.09414469  42.26  0.001624033    2.315    0.568
         7 -10.2551    139.4987    245.9480   1.2758734106e+02   1.1889641887e+01    0.1472984   0.09889087 -48.34  0.001158641    2.121    0.529
         8 -10.3495    126.8419    249.8390   1.2981169537e+02   1.3168283278e+01    0.1602433   0.09133869  62.35   0.00114852    1.715    0.417
         9  -8.5502     67.3185    250.6778   1.3858936086e+02   2.0523672711e+01   0.09853736   0.04682169  62.37 0.0007043771    1.668    0.401
        10 -10.0488     28.4369    249.1627   1.4402061593e+02   2.4893279316e+01     0.288415   0.08373151  58.01  0.001852507    2.339    0.573
        11 -10.0861      2.1546    248.7954   1.4759385489e+02   2.7410579428e+01    0.2431757     0.116398 -88.50  0.002076132    1.869    0.465
        12 -10.3825    185.0818    237.4932   1.1987189748e+02   6.2736523376e+00    0.1563143    0.1215519  53.41  0.000774282    1.324    0.245
        13 -10.3504    140.0694    231.1712   1.2608791864e+02   1.3554058165e+01    0.1604244     0.118756  38.20  0.001244299    1.273    0.215
        14  -9.3312     32.6212    228.2874   1.4256049828e+02   2.7413341956e+01    0.1579187   0.09041204  65.30 0.0005433437    1.223    0.183
        15  -9.8424    249.3494    249.3532   1.1214031103e+02  -3.7736775183e+00    0.1585003   0.08190196  23.26  0.001125753    1.655    0.396
        16  -8.5382     60.3058    247.3168   1.3941857060e+02   2.1764053569e+01   0.07512846   0.06648014  46.87 0.0003864809    1.628    0.386
        17 -12.8883     40.0563    235.6888   1.4179459092e+02   2.5573405935e+01    0.2953226     0.204312 -67.07 0.0007689132    1.939    0.484
        18 -10.6167    172.9419    221.9294   1.1990115594e+02   9.7562766442e+00     0.235803    0.1857818  41.87  0.001285097    1.046    0.044
        19  -8.9853    152.6566    213.0289   1.2209408301e+02   1.3950084569e+01    0.1381234    0.1194629  50.64 0.0003091979    1.123    0.109
        20  -9.2918     82.9754    244.0132   1.3589709081e+02   1.9540536698e+01     0.160097   0.08084737  63.98  0.001000961    1.731    0.422
        21 -11.9009     22.1744    200.9524   1.4292778002e+02   3.2693706358e+01    0.3371517    0.1215966  54.31  0.001247852    1.998    0.500
        22 -10.8428     14.5169    197.5560   1.4402828080e+02   3.3973128219e+01    0.3020845    0.1294456  48.94  0.001717767    1.751    0.429
        23 -11.5794     65.2202    200.6905   1.3567246353e+02   2.8056399825e+01    0.2219298     0.191613 -65.85 0.0005417406    1.576    0.365
        24 -10.0295    193.5154    196.1263   1.1313004592e+02   9.4676994241e+00    0.5887607    0.2824916 -58.96  0.001890902    8.678    0.885
        25  -8.6553     75.4226    244.1915   1.3702849119e+02   2.0428020241e+01    0.1200368   0.07125539  79.75 0.0009332275    1.672    0.402
        26 -11.9016     70.9725    192.3419   1.3399404300e+02   2.8719714170e+01    0.2095156     0.184021 -89.53 0.0004908947    1.305    0.234
        27  -9.1151     44.4870    191.9919   1.3863815973e+02   3.1889632100e+01     0.147365    0.1157192  58.44  0.001203363    1.222    0.182
        28 -13.3571     67.6532    177.4472   1.3327573658e+02   3.1696723009e+01    0.3835565    0.2478053 -47.89  0.001831786    2.302    0.566
        29 -10.9666     80.5303    179.2825   1.3103185780e+02   2.9708166734e+01    0.1990053    0.1673092  73.71  0.000423074    1.098    0.090
        30 -11.8684     87.6782    169.4990   1.2860642477e+02   3.0457538675e+01    0.5205719    0.4648475  69.97  0.003887542    1.164    0.141
        31  -8.9072    193.4882    156.9814   1.0661976022e+02   1.4475518611e+01    0.1651237    0.1093282 -62.42 0.0006277238    2.513    0.602
        32 -14.2369     46.3723    228.6920   1.4050255595e+02   2.5906490110e+01    0.8302891    0.6262169  65.33  0.004608535    1.158    0.137
        33 -10.1500     99.5465    153.2833   1.2415171522e+02   3.1685424607e+01    0.2844435    0.2257076 -58.22 0.0008307588    1.385    0.278
        34  -9.1698    102.3213    149.0562   1.2296388662e+02   3.2047922870e+01    0.1665147    0.1447176 -82.64 0.0004122836    1.127    0.112
        35 -12.1076     88.3165    152.8308   1.2642361443e+02   3.3438133137e+01    0.2249905    0.2182401 -69.99 0.0005413406    1.323    0.244
        36 -12.6277     67.0913    143.8290   1.2979583138e+02   3.8081027313e+01    0.6771246    0.3908302  67.80  0.003092573    1.777    0.437
        37  -8.3606    192.2429    143.9971   1.0434173695e+02   1.6542314884e+01    0.1541052    0.1110076 -32.73 0.0004279683    1.502    0.334
        38  -9.8508    110.6107    137.8935   1.1943216756e+02   3.2829530186e+01    0.2988076    0.2177826 -25.75  0.001385537    2.191    0.544
        39 -10.2323      1.9301    239.7961   1.4738942947e+02   2.8672096636e+01    0.2859576   0.07789908 -88.06   0.00172695    3.511    0.715
        40  -9.4675     87.0834    136.8033   1.2443288328e+02   3.6728176571e+01    0.1923163    0.1400934  70.25 0.0007908894    1.325    0.245
        41 -10.6601     98.0366    135.3956   1.2177753430e+02   3.5344087241e+01     0.213257    0.2096478 -76.07 0.0005333539    1.238    0.193
        42 -11.4459     56.3882    128.1926   1.3023334604e+02   4.2574325098e+01    0.5820535    0.2187608 -80.94  0.002106959    4.311    0.768
        43  -8.5842    116.3407    130.3281   1.1684951032e+02   3.3306754252e+01    0.1260764     0.105715  -3.05 0.0006860822    1.738    0.424
        44  -9.4405    107.6876    124.6630   1.1774487782e+02   3.5892882374e+01    0.1687655    0.1593924  73.96 0.0008411887    1.086    0.079
        45 -10.3252    237.8134    247.3327   1.1346338122e+02  -2.0791541089e+00    0.1314518    0.0989022  29.64 0.0005084858    1.149    0.130
        46 -10.4008     33.3080    132.4675   1.3602800002e+02   4.4210048958e+01    0.2024915    0.1085267  82.56 0.0007059744    1.790    0.441
        47 -10.3731    168.0872    113.1300   1.0224784283e+02   2.6341642696e+01    0.3095825    0.2584988 -84.13 0.0007989253    1.484    0.326
        48  -9.2937    203.5530    111.2743   9.5185311645e+01   1.8966924480e+01    0.1872602    0.1320098 -14.24 0.0009342572    1.557    0.358
        49  -9.3195    156.2255     75.6142   9.4910374255e+01   3.5436814159e+01     0.209471    0.1350961  43.21 0.0005790283    1.601    0.375
        50 -11.3579      9.8069     64.0022   1.3388582529e+02   6.0749249775e+01    0.4794454    0.1619935  39.27  0.002251601    3.304    0.697
        51 -10.1073     29.5474     61.0167   1.2663927664e+02   5.9874416315e+01    0.1904975    0.1716629  57.59 0.0003456706    1.306    0.234
        52 -11.5947      2.9880     37.9985   1.3156891620e+02   6.6726916534e+01      0.36839    0.2010903 -84.13  0.002142668    1.887    0.470
        53  -9.5053     81.8033    248.8790   1.3638206335e+02   1.9050481352e+01    0.1703761   0.09764213  70.91 0.0009851505    1.615    0.381
        54 -13.3015      9.0020    207.0601   1.4530289265e+02   3.2936082345e+01     1.069373    0.6012311  77.16  0.004971526    1.314    0.239
