#   1 NUMBER                 Running object number                                     
#   2 MAG_AUTO               Kron-like elliptical aperture magnitude                    [mag]
#   3 X_IMAGE                Object position along x                                    [pixel]
#   4 Y_IMAGE                Object position along y                                    [pixel]
#   5 X_WORLD                Barycenter position along world x axis                     [deg]
#   6 Y_WORLD                Barycenter position along world y axis                     [deg]
#   7 A_WORLD                Profile RMS along major axis (world units)                 [deg]
#   8 B_WORLD                Profile RMS along minor axis (world units)                 [deg]
#   9 THETA_WORLD            Position angle (CCW/world-x)                               [deg]
#  10 FWHM_WORLD             FWHM assuming a gaussian core                              [deg]
#  11 ELONGATION             A_IMAGE/B_IMAGE                                           
#  12 ELLIPTICITY            1 - B_IMAGE/A_IMAGE                                       
         1 -14.7058     68.4248    144.2098   9.9729848884e+01   3.7583410081e+01     4.774083      2.58849  72.17  0.007140957    3.264    0.694
         2 -14.3657    216.5509     28.5466   3.6840400886e+01   2.8166328231e+01     1.123892    0.9691783  14.41  0.007045714    1.736    0.424
         3 -14.5705    204.1303     40.3964   4.0948843258e+01   2.9455906621e+01     1.953151     1.502915  35.31  0.007699013    1.799    0.444
         4 -13.3176    242.2351      4.5640   2.9762893068e+01   2.5477566094e+01    0.7621537    0.4581892  85.66  0.004817247    1.492    0.330
         5  -9.2186     47.6754      2.3029   6.1305889571e+01   6.8748261993e+01   0.09913404   0.09558751 -77.64 0.0003905886    1.639    0.390
         6  -9.5500     56.5192      1.4768   5.7550575482e+01   6.7277961453e+01     0.120851   0.09632559  24.51 3.286021e-05    1.001    0.001
         7  -9.2251     82.5038    182.4358   1.0217761211e+02   2.5930009508e+01    0.2188981    0.1358789 -64.34 0.0004449794    1.585    0.369
         8 -16.8348     28.8491    180.3708   1.1527320167e+02   3.3312458048e+01     11.23358     4.438639  65.48   0.04190789    3.441    0.709
         9  -9.8791     99.2749    180.9233   9.7705763579e+01   2.3623421997e+01    0.2426436     0.205521  40.08 0.0006563962    1.182    0.154
        10 -10.5276    189.2356    177.5250   7.6000490441e+01   7.9201825514e+00    0.4714904    0.3521089 -76.50  0.002201725    2.169    0.539
        11 -13.6790     66.3019    155.7781   1.0232584296e+02   3.4936671809e+01    0.6150039    0.4473965 -51.83  0.001438093    1.370    0.270
        12  -9.6164     89.8817    212.2799   1.0449625496e+02   1.7914110680e+01    0.2204966    0.1715295  89.87 0.0005279218    1.334    0.250
        13  -9.6028    148.4771    175.0469   8.4530873656e+01   1.6105919982e+01    0.2223673    0.1481395 -51.90 0.0009075067    1.556    0.357
        14  -9.6415    122.3041    172.6458   9.0433687181e+01   2.1558693756e+01    0.1569616    0.1171451  78.95  0.000704036    1.711    0.416
        15 -12.8843     86.0163    153.5994   9.6444862307e+01   3.2524142588e+01     1.865785    0.9077061 -57.36  0.004609338    1.950    0.487
        16 -12.4807     78.7847    160.1837   9.9614732206e+01   3.1999336734e+01    0.6059962    0.4237233  50.20 0.0004082817    1.457    0.314
        17 -12.1933     69.4446    169.2047   1.0357568575e+02   3.1110185471e+01     0.371275    0.2924321 -38.85  0.001193033    1.508    0.337
        18 -15.3860      9.6932    207.7740   1.2169016694e+02   2.8855893255e+01     1.182637     1.002479 -83.89  0.007049125    1.234    0.190
        19  -8.7875    120.4712    165.5565   8.9530896852e+01   2.3568127730e+01     0.151434    0.1454919  73.90 0.0001577153    1.030    0.029
        20 -17.1053     18.9059    242.5679   1.2193377757e+02   2.0633659368e+01      6.84782     2.067648  29.19   0.02209311    4.174    0.760
        21 -11.9373     32.0918    155.6982   1.1175733699e+02   3.9069795451e+01    0.4412535    0.3461456 -41.70  0.001970148    1.480    0.324
        22 -11.2033    133.6231    144.5252   8.1693209946e+01   2.5992052254e+01     1.154546    0.2941214 -54.13  0.002690663    5.453    0.817
        23  -9.0676    112.2067    150.4073   8.8619562024e+01   2.8756338419e+01    0.2121271    0.1428287  50.36 0.0005038899    1.554    0.356
        24 -10.4291    174.4031    148.8674   7.3003079444e+01   1.6622731144e+01    0.3134689    0.2720208  87.95 0.0009835263    1.410    0.291
        25 -13.9704     18.7029    218.7267   1.2055187667e+02   2.5578886854e+01    0.5606431    0.4862718 -47.85  0.003946328    1.623    0.384
        26 -11.0143    100.7451    139.1922   8.9381096862e+01   3.3616810956e+01    0.5987103    0.3918514 -20.31  0.002339227    2.443    0.591
        27 -12.4851     87.7700    138.8696   9.3041176140e+01   3.5946980550e+01    0.3077565    0.2668417 -47.88 0.0004557325    1.144    0.126
        28  -9.0571    197.1575    138.1846   6.5854735901e+01   1.4143380438e+01    0.1918853     0.168259 -68.26 0.0002453745    1.287    0.223
        29  -8.6942    200.2745    143.6015   6.6481211817e+01   1.2454401435e+01    0.1506639    0.1122338 -67.37 0.0006986554    1.748    0.428
        30 -10.6219    105.9001    130.8624   8.6030678982e+01   3.4714047963e+01    0.4963379    0.3492117 -61.92  0.002236164    1.482    0.325
        31 -10.2804    110.0535    129.9885   8.4647150567e+01   3.4135284323e+01    0.3526368    0.2644605  10.86 0.0008644539    1.779    0.438
        32 -11.6377     44.1892    129.6727   1.0444172131e+02   4.4385636623e+01    0.4294346    0.2582728 -64.02   0.00170426    1.457    0.314
        33 -11.2178     46.3307    124.6449   1.0287637917e+02   4.5416540363e+01    0.2770783    0.2242681 -48.57 0.0007302857    1.181    0.154
        34 -10.1482    149.1165    187.2304   8.6729368603e+01   1.3351006849e+01    0.2754317    0.2009389 -85.13  0.001245023    2.061    0.515
        35 -10.8444    134.9580    127.9474   7.7414487503e+01   2.9564495063e+01    0.4609489    0.3368881 -52.86  0.002094906    1.372    0.271
        36 -10.0095    160.4992    127.5026   7.1069957315e+01   2.4145173936e+01    0.2876695    0.1437571 -53.68 0.0008806268    2.265    0.559
        37 -11.2776     97.4376    125.8978   8.7317089766e+01   3.7489901631e+01    0.3261959    0.2736922  -5.87 0.0007259364    1.446    0.308
        38  -9.9013    116.7652    124.0567   8.1324935272e+01   3.4232449345e+01    0.2607457    0.1790307 -23.58  0.001068305    1.950    0.487
        39  -9.6442    163.4015    121.2029   6.8839997626e+01   2.4852534621e+01    0.2211217     0.143584 -52.90 0.0005342301    1.598    0.374
        40  -9.5205    135.0000    119.9627   7.5390527965e+01   3.1373109535e+01    0.2643435    0.0889805 -45.96 0.0007767231    2.912    0.657
        41  -9.8749    106.9990    118.9077   8.2808117605e+01   3.7382419640e+01     0.221428    0.2146756 -52.31 0.0002912221    1.000    0.000
        42 -12.4448     64.6810    174.0949   1.0553324965e+02   3.0557890841e+01    0.5664824    0.3751479 -36.09  0.001664442    2.039    0.510
        43 -11.2739     22.4973    118.8429   1.0950616731e+02   4.9219785565e+01    0.3289624    0.2122729  41.39  0.001778445    1.760    0.432
        44  -9.2976     82.6997    117.0363   8.9686188192e+01   4.2219699873e+01     0.209901    0.1807003 -55.41 0.0003921914    1.101    0.092
        45 -10.0567     22.0327    114.0478   1.0889677429e+02   5.0447077221e+01    0.2009993    0.1440752  69.61 0.0003836893    1.627    0.386
        46  -9.5640    134.7078    112.4303   7.3498210622e+01   3.3119010369e+01    0.2985873    0.1399336 -44.34  0.001079651    2.097    0.523
        47 -10.2725    205.3319    110.2399   5.7789940791e+01   1.7807696413e+01    0.3159065    0.2519895  41.55  0.001086745    1.411    0.291
        48 -10.3676     33.1098    109.0700   1.0431365786e+02   5.0699171859e+01    0.2402555    0.1838321 -76.57 0.0006813218    1.282    0.220
        49 -10.2528     29.0186    106.9486   1.0531304066e+02   5.1599968231e+01    0.2224535    0.1381437 -37.22  0.001129995    1.672    0.402
        50 -10.7986     39.4755    113.1025   1.0293775766e+02   4.9063036538e+01    0.2341598    0.1975559  41.85 0.0004431722    1.337    0.252
        51  -9.6201     45.1530    104.9492   9.9328518828e+01   5.0451155762e+01    0.2054648    0.1795421  87.15 0.0005155978    1.279    0.218
        52 -10.3784    119.6887    103.9375   7.5220060469e+01   3.8239706918e+01    0.2247492    0.2040524 -51.06 0.0005858546    1.092    0.084
        53 -10.6191     38.6687    101.7015   1.0089754629e+02   5.1945491282e+01     0.338281    0.1936031  50.04  0.001427342    2.247    0.555
        54 -10.3879    120.9721     98.4812   7.3333109338e+01   3.9154206857e+01    0.2500255    0.2082213 -43.88  0.000608043    1.184    0.155
        55 -13.0478    246.4337     91.6139   4.7467578022e+01   1.2691259986e+01    0.9951311    0.2375032 -45.25  0.003317481    3.563    0.719
        56 -10.0496     11.9575     92.9384   1.0877536708e+02   5.6294243370e+01    0.1904148    0.1617853 -57.72 0.0004811808    1.042    0.041
        57 -10.6511     53.1510     91.4251   9.3257101318e+01   5.2709082343e+01    0.2776504    0.1851174 -52.43 0.0008073542    1.352    0.260
        58 -10.4988     72.5372     83.2984   8.4016980896e+01   5.1725148291e+01    0.4500546    0.2624121  58.96  0.001769398    2.843    0.648
        59  -9.8999    159.8686     82.8274   5.9385407907e+01   3.3331235342e+01    0.2257241    0.2103961  12.92 0.0005303177    1.215    0.177
        60  -9.6372     32.7317     96.6968   1.0195028175e+02   5.3741436626e+01    0.2537668    0.1768243  69.80  0.001106584    1.965    0.491
        61  -9.1106     93.5930     67.8272   7.1977233078e+01   5.1052331289e+01    0.1993035    0.1348804 -51.56 0.0009303896    1.665    0.399
        62 -10.6012     13.5063     59.9406   1.0083688825e+02   6.3604716478e+01    0.2407853    0.1818693 -49.13 0.0004098435    1.119    0.106
        63 -10.4846    111.6403    204.4604   9.8392989287e+01   1.6180865042e+01    0.3582446    0.2339028 -88.37 0.0009908521    2.141    0.533
        64 -13.0278    194.7254     46.9176   4.3743227035e+01   3.0755886483e+01    0.6855125    0.5876722  52.37  0.001134088    1.320    0.243
        65  -9.4997    107.4914    203.5073   9.9220986276e+01   1.7071581062e+01    0.1960368    0.1337926  28.18 0.0004306184    1.582    0.368
        66  -9.7057     79.6186    182.1107   1.0285821852e+02   2.6444860464e+01    0.3622642    0.2290685  85.82  0.001634023    1.945    0.486
        67  -9.1844     73.7342     55.6197   7.4423399134e+01   5.6997669434e+01    0.1822884    0.1275579  47.59 0.0004282767    1.589    0.371
        68 -10.5839    198.0102     23.9848   3.7657539357e+01   3.2937927991e+01     0.271425      0.19228 -21.98 0.0009586832    1.780    0.438
        69  -9.6713    189.5066     14.9462   3.6337609601e+01   3.5942252767e+01    0.1785196    0.1224651 -35.37 0.0006908352    1.554    0.356
        70 -11.7395    203.2977    200.4292   7.7639084046e+01   1.2753672882e+00    0.4387631    0.2179404  19.06  0.001677103    3.127    0.680
        71 -11.7487    193.2414    195.3739   7.8692727896e+01   3.8524209885e+00     1.081921    0.5836638 -64.36  0.003371062    5.374    0.814
