#   1 NUMBER                 Running object number                                     
#   2 MAG_AUTO               Kron-like elliptical aperture magnitude                    [mag]
#   3 X_IMAGE                Object position along x                                    [pixel]
#   4 Y_IMAGE                Object position along y                                    [pixel]
#   5 X_WORLD                Barycenter position along world x axis                     [deg]
#   6 Y_WORLD                Barycenter position along world y axis                     [deg]
#   7 A_WORLD                Profile RMS along major axis (world units)                 [deg]
#   8 B_WORLD                Profile RMS along minor axis (world units)                 [deg]
#   9 THETA_WORLD            Position angle (CCW/world-x)                               [deg]
#  10 FWHM_WORLD             FWHM assuming a gaussian core                              [deg]
#  11 ELONGATION             A_IMAGE/B_IMAGE                                           
#  12 ELLIPTICITY            1 - B_IMAGE/A_IMAGE                                       
         1 -12.0496    201.6009     45.4188   2.9972104508e+01   2.8597600756e+01     1.205105     1.123234  11.09  0.005333044    1.180    0.152
         2 -12.0364    212.0137     36.0532   2.5776606254e+01   2.7120173822e+01    0.9611551    0.7439449  40.52  0.001557865    1.424    0.298
         3 -10.6999    234.5517     11.6422   1.6674711469e+01   2.4272317346e+01    0.8561382    0.4978887 -51.93  0.004205565    1.660    0.397
         4 -10.2148    242.3229     11.5064   1.5911117947e+01   2.2374357135e+01    0.7242023    0.3404948 -25.08  0.003203627    2.302    0.566
         5 -10.0745    237.1773      6.1695   1.5074036047e+01   2.4215690029e+01    0.5235339    0.3582689 -76.24  0.002783945    1.415    0.293
         6 -10.1500    119.5415      9.6775   3.3523810164e+01   5.4065851714e+01    0.5881544    0.3696641  34.22  0.002943002    1.532    0.347
         7  -7.9802    143.3620      3.1694   2.6159850053e+01   4.8895930464e+01    0.1877442    0.1230248 -33.80 0.0003727609    1.673    0.402
         8  -8.1471    192.5851      1.3311   1.8369998053e+01   3.6178776821e+01    0.2271972     0.117783  69.83 0.0001792025    1.718    0.418
         9  -7.6199     87.1961    207.7267   9.0008289068e+01   2.1934983174e+01     0.140812     0.130626  76.12 0.0005718072    1.320    0.242
        10 -10.3137    190.4758    248.9182   7.6496284996e+01  -1.2828634837e+00    0.2083457    0.1712492  41.97 0.0003952687    1.135    0.119
        11  -9.4743    105.7831    250.1619   9.0830387756e+01   1.2111275199e+01    0.3771639    0.1057637  45.22  0.001751312    2.635    0.620
        12 -10.4398     94.5993    246.9934   9.2379934995e+01   1.4228375051e+01     0.383816    0.2623714 -85.07  0.002356816    1.553    0.356
        13  -9.9777     93.7042    238.2636   9.1775700174e+01   1.5729395722e+01    0.4587149    0.2141588 -81.14  0.002380011    2.982    0.665
        14  -8.9317     80.0464    247.4794   9.4764219445e+01   1.6199844550e+01    0.2773707    0.1361704 -74.24  0.001430989    2.267    0.559
        15  -8.2889     75.4347    248.8070   9.5593918025e+01   1.6618628528e+01    0.1468718    0.1133823  71.13 0.0007633601    1.149    0.130
        16  -8.7007     71.9749    249.5564   9.6190797428e+01   1.6963812893e+01    0.1781271    0.1251651  86.15 0.0009303854    1.321    0.243
        17  -8.2949     72.0489    245.7458   9.5907319415e+01   1.7552863473e+01    0.1688375    0.1110546  74.66 0.0004249268    1.248    0.199
        18 -13.0662    123.1755    231.2423   8.6007099605e+01   1.2322837303e+01     3.015052     1.393775  51.36  0.003754815    1.724    0.420
        19  -8.9085     73.0936    205.7116   9.2414068416e+01   2.4313429914e+01    0.2499915    0.1471603 -81.61   0.00104415    1.671    0.401
        20  -9.9505    123.9923    205.6384   8.2801433571e+01   1.6465854318e+01    0.2564335    0.1758375 -63.57            0    1.651    0.394
        21  -7.3212     79.7799    205.9740   9.1205856683e+01   2.3330412676e+01    0.1383552   0.08740916 -72.98 0.0005047242    1.587    0.370
        22 -14.1550      9.5304    166.8841   1.0115050496e+02   3.9062551334e+01      4.48816     1.387743 -77.89   0.02225082    2.604    0.616
        23  -7.7970     77.5246    198.9995   9.0924369795e+01   2.4962304847e+01    0.1612742    0.1058957 -71.04 0.0005406082    1.519    0.342
        24 -13.8425     42.5158    197.0469   9.7244690449e+01   2.9816674306e+01     6.457677     1.832778  60.21   0.02414731    4.474    0.776
        25  -7.6169     83.1347    195.8820   8.9520156022e+01   2.4755941067e+01    0.1462743    0.1365582  75.91 0.0004049799    1.305    0.234
        26  -9.2317     57.3555    193.9709   9.4247755626e+01   2.8624413894e+01    0.3292433    0.1458957 -63.31  0.001779083    2.224    0.550
        27  -8.3146     40.5034    173.0504   9.5594117349e+01   3.4800429326e+01    0.2900064     0.154663  66.91  0.001143109    1.766    0.434
        28 -11.7877     52.5043    183.5381   9.4208246653e+01   3.1283958850e+01     1.110868    0.5341409  63.77  0.005934418    2.032    0.508
        29  -9.3936     45.7611    172.6324   9.4501274280e+01   3.4295434236e+01     0.426412    0.1973561  72.19  0.002079106    2.486    0.598
        30 -11.5848     29.0395    249.6221   1.0266437438e+02   2.2162116750e+01    0.2707877    0.1595709  48.52  0.000514057    1.511    0.338
        31  -8.1878     70.1298    189.3364   9.1347811262e+01   2.7862302761e+01    0.1851243    0.1445069 -70.56 0.0006364803    1.345    0.257
        32  -8.1438    190.4687    189.5122   6.7360063084e+01   6.8486783427e+00    0.1373381    0.1167746  33.39 -4.84068e-05    1.045    0.043
        33  -8.3809    145.9932    185.9340   7.5579104854e+01   1.6063261501e+01    0.3601841    0.1683026 -63.66  0.001391185    3.368    0.703
        34  -8.2747    125.5015    187.4777   7.9995766715e+01   1.9524121062e+01    0.1334458    0.1136058  62.23  0.000810269    1.002    0.002
        35 -13.8431     10.8923    209.8296   1.0345738471e+02   3.0759821150e+01     1.409227     0.753284  67.79   0.01013936    1.390    0.280
        36  -7.6719    111.3361    184.1828   8.2425180961e+01   2.2605532319e+01    0.1673002    0.1146082 -75.29 0.0003054361    1.573    0.364
        37  -7.5350     74.0306    184.4666   9.0052817186e+01   2.8295346738e+01    0.1505411    0.1109881  11.64 0.0008097301    2.628    0.620
        38  -8.2089     70.8387    178.8802   9.0070666319e+01   2.9864828423e+01     0.177387    0.1599873 -67.00  0.001227856    1.363    0.267
        39  -8.8706     62.9024    176.3166   9.1404016975e+01   3.1445277880e+01    0.3277753    0.2028713  88.12   0.00191351    1.540    0.351
        40 -10.0870     67.2324    170.9697   8.9905710168e+01   3.1982773207e+01    0.3357917    0.2503942 -50.83  0.001804227    1.676    0.403
        41 -10.5176     71.9068    166.2846   8.8345106210e+01   3.2333459561e+01    0.4887171    0.2993761 -73.96 0.0007711375    1.528    0.346
        42  -9.6751    103.2215    174.7015   8.2777086383e+01   2.5847582358e+01    0.5011004    0.2809775 -66.40  0.001350511    1.879    0.468
        43  -8.2164    221.0000    175.9385   5.9022268982e+01   2.9211676015e+00     0.207921   0.07682756 -35.48 0.0005218841    2.921    0.658
        44  -7.4551    180.5434    176.4860   6.6921481490e+01   1.0949516731e+01    0.1404951    0.1250627  42.85 9.002183e-05    1.020    0.019
        45  -8.6958    124.3130    174.0854   7.8191002259e+01   2.2329835100e+01    0.5268559    0.1753774  54.50  0.001679772    3.931    0.746
        46  -8.2409     88.9939    173.9886   8.5696231257e+01   2.8247372299e+01       0.2113    0.1335347  72.75 0.0005543297    1.660    0.398
        47  -9.1213    116.2454    172.4390   7.9656178021e+01   2.4094468863e+01    0.2806489    0.1987811 -87.99  0.001487894    1.608    0.378
        48  -8.3563    191.6699    168.6606   6.3186155017e+01   9.9960337660e+00    0.2244946    0.1612237  14.85  0.001095012    1.719    0.418
        49 -11.2149     80.4507    158.8231   8.5477843307e+01   3.2714243373e+01     1.297588       0.6135  68.10  0.001158026    3.282    0.695
        50 -11.0926     56.7014    151.5147   8.9831915574e+01   3.7473417156e+01    0.8277555    0.4422339  78.48   0.00371535    2.275    0.560
        51 -10.0908     48.4924    144.4937   9.0818881786e+01   3.9966656970e+01    0.5560595    0.2452956  57.25  0.002156411    2.575    0.612
        52 -10.2321     54.9592    122.9972   8.6215405357e+01   4.3994219560e+01    0.5204946    0.2581024 -76.35 0.0003543398    2.151    0.535
        53 -12.0223     56.9181    131.9953   8.7106954812e+01   4.1748857778e+01    0.9223386    0.5540876  54.17  0.003620369    1.753    0.429
        54  -8.5960     50.7286    163.2991   9.2516926937e+01   3.5664562068e+01    0.3754688    0.1543087  58.80  0.001721211    2.684    0.627
        55  -9.6483    160.0579    165.4467   6.9049756633e+01   1.7099234718e+01    0.2328132    0.2161324 -54.94  0.000235833    1.180    0.153
        56  -8.0023    165.6620    162.9310   6.7379535341e+01   1.6417499771e+01    0.1894677     0.184381 -50.47 0.0003494256    1.127    0.112
        57  -8.8001    103.4222    158.7833   8.0310837394e+01   2.9123398755e+01    0.2260409    0.1989152  43.59 0.0002625576    1.244    0.196
        58  -7.5022    164.0826    156.0000   6.6332507566e+01   1.8051779361e+01    0.2515993   0.07809962  46.02 0.0008071956    2.976    0.664
        59 -10.5100     87.9055    151.0955   8.2631380714e+01   3.3270995828e+01    0.5347148    0.4190233 -42.17  0.003066818    1.590    0.371
        60  -8.2215    111.1813    168.4181   8.0122718392e+01   2.5792486890e+01    0.1916104    0.1122428  54.91 0.0004972307    1.627    0.386
        61  -9.0487    133.9802    147.7373   7.1352920800e+01   2.5869786748e+01    0.6865926    0.1780931 -53.61  0.001935148    4.690    0.787
        62  -9.4131    101.3316    138.3679   7.7265177457e+01   3.3896139594e+01    0.3716212    0.3193254  -0.34  0.002066151    1.625    0.384
        63 -10.1198     25.9865    138.6552   9.5289965660e+01   4.3516027048e+01    0.3246608    0.1995017  77.30  0.001542615    1.547    0.353
        64 -10.2869     89.2481    137.4711   8.0047627984e+01   3.6061273482e+01    0.2704607    0.2373551 -75.81 0.0003754263    1.057    0.054
        65  -9.3124    244.2118    135.1936   4.6141945745e+01   4.3360483059e+00    0.2480721    0.2016297  51.80 0.0005740519    1.351    0.260
        66  -8.0230     96.2069    133.4784   7.7607872139e+01   3.5832756122e+01    0.2630521    0.1666813  83.48  0.001169724    2.204    0.546
        67 -11.4469     68.6768    153.1625   8.7342525105e+01   3.5583786052e+01    0.3449003    0.3142145 -55.65  0.000901512    1.335    0.251
        68  -8.2384    111.2667    129.4947   7.3079812067e+01   3.4104766508e+01    0.2340024    0.2077004  12.65 0.0004973551    1.405    0.288
        69 -15.7848      9.6160    241.4089   1.0508869289e+02   2.5504470211e+01     1.941334     1.149378  45.25   0.01552988    1.691    0.409
        70  -8.3300     94.5276    127.5583   7.6893146819e+01   3.7426314949e+01    0.2598639     0.188346  68.17 0.0008143445    1.526    0.345
        71  -8.9832     98.2763    125.3339   7.5497391328e+01   3.7301006195e+01    0.2529841    0.2343504 -40.75 0.0007178852    1.209    0.173
        72 -12.6517     68.4109    144.7512   8.6220142774e+01   3.7460649162e+01     1.454225    0.9400473 -84.58    0.0047375    1.549    0.355
        73  -7.7085    144.2969    167.6776   7.2823471620e+01   1.9825189684e+01    0.1420587     0.105446  79.05 0.0003923437    1.621    0.383
        74  -8.5001    234.0315    123.5152   4.5168453172e+01   8.3118442638e+00    0.2825812     0.193523 -47.98  0.001028652    1.654    0.395
        75  -8.7565    169.2583    119.7903   5.7038786941e+01   2.3945216083e+01    0.3562353     0.256002 -20.04  0.001020534    1.739    0.425
        76  -8.1599     53.8995    167.1594   9.2269021145e+01   3.4474150890e+01    0.2680446    0.1420449  39.60  0.001074969    1.968    0.492
        77  -7.9065    107.6490    118.8917   7.1727800127e+01   3.7097239617e+01    0.1987558    0.1646006 -63.11 0.0003696572    1.172    0.147
        78  -7.5451     89.6650    115.3117   7.5671287067e+01   4.0951393645e+01    0.2067504    0.1272473  22.97 0.0006866648    2.361    0.577
        79  -7.9917     43.3260    114.3157   8.7875923354e+01   4.7213621071e+01    0.1231601   0.08392242 -42.39 0.0005202758    1.671    0.401
        80  -8.9894     52.3325    111.7761   8.5049297262e+01   4.6814460876e+01    0.2263889    0.1452291  50.08  0.001268919    1.728    0.421
        81 -10.2452     17.5029    110.3583   9.4078822292e+01   5.0362546196e+01    0.3205773    0.1998699  53.24   0.00119554    1.793    0.442
        82  -7.1688     72.6529    241.7225   9.5515950204e+01   1.8115238293e+01   0.09048969   0.07963329  42.58 0.0007006893    1.634    0.388
        83 -10.1093     74.3747    106.3979   7.7959165768e+01   4.5241960482e+01    0.2370365    0.2133789 -63.95 0.0003372562    1.025    0.024
        84  -7.9953     63.8096    106.3880   8.0901369262e+01   4.6653623124e+01    0.1593831    0.1283523  14.41 0.0003288495    1.613    0.380
        85  -8.0487     42.3272    104.1848   8.6488805751e+01   4.9575242895e+01    0.2042641    0.1300128 -52.80  0.001183403    1.413    0.292
        86  -9.8088      2.3583    103.1722   9.7141886714e+01   5.2915608159e+01    0.2761387    0.1539477  87.19   0.00169032    1.700    0.412
        87  -9.4316     37.0288    102.0613   8.7608547105e+01   5.0559037180e+01     0.363891    0.2035077  83.26  0.001772933    2.464    0.594
        88  -8.6186     36.2485     97.0815   8.6980776068e+01   5.1733860935e+01     0.287637    0.1518358  33.16  0.001573863    2.219    0.549
        89  -7.3262     78.5645     91.5184   7.3385648120e+01   4.7942315254e+01    0.1367658    0.1220204 -70.40  0.000135132    1.116    0.104
        90  -7.1213    124.4809     89.4559   5.9879717305e+01   4.0135498171e+01    0.1485795    0.1453589 -66.77 8.183449e-05    1.038    0.036
        91  -8.3540    187.6763    236.9470   7.5362511450e+01   6.4423887312e-01    0.2168964    0.1748282 -78.66  0.000646335    1.921    0.479
        92  -7.4041    234.2788     86.6265   3.6014932448e+01   1.4107416791e+01      0.15519    0.1085081 -59.12 0.0007009337    1.697    0.411
        93  -8.5781     78.9370    235.8270   9.4031769022e+01   1.8220879064e+01    0.2181263    0.1932929 -25.92  0.001572257    2.180    0.541
        94  -7.1424    110.3266     65.2822   5.6489932756e+01   4.7828447233e+01    0.1466694    0.1121715   5.64 0.0003802682    1.600    0.375
        95  -7.2129    149.2471     64.6925   4.6130869286e+01   3.9194179120e+01    0.1490073    0.1194345 -65.86 0.0001424195    1.504    0.335
        96  -8.3543    142.0425     62.7579   4.7238970624e+01   4.1274071046e+01    0.2174776     0.203493 -87.42 0.0004606909    1.191    0.160
        97 -11.1324    190.5459     53.3650   3.4142299473e+01   3.0374114547e+01    0.6565002    0.5058297  -7.91  0.001859306    1.535    0.349
        98  -7.6381    237.4992    249.5705   6.8782849635e+01  -8.8589724802e+00    0.1153202   0.08029956  27.25 0.0001798138    1.053    0.050
        99  -8.8103    149.9922    217.9694   7.9530216634e+01   9.8965026407e+00    0.1832607    0.1495446  51.95 0.0003025234    1.019    0.019
       100  -8.0294    215.7159     57.8000   3.1266837809e+01   2.3126112678e+01    0.2094591    0.1935468  26.50   0.00112472    1.175    0.149
       101  -8.3061    228.0181     53.7629   2.8374601685e+01   2.0579783293e+01     0.195103    0.1860481  82.14 -0.000430966    1.049    0.047
       102  -8.3880    111.2687     52.8827   5.2060845664e+01   4.9883821348e+01    0.2030136    0.1843951 -36.93 0.0003496797    1.131    0.115
       103  -7.1808    179.3200     40.2767   3.2148324754e+01   3.5237887532e+01    0.1560608    0.1109402  33.47 0.0002778174    1.576    0.366
       104  -8.4198    158.0161     25.1898   3.1150511938e+01   4.2812551066e+01     0.227844     0.207815 -14.78 0.0003431391    1.163    0.140
       105 -12.3700     54.4649    233.3013   9.7844047490e+01   2.1852588654e+01     0.615242    0.4253703  69.61  0.003528387    1.033    0.032
       106  -8.6816    159.2078    238.9394   8.0585090921e+01   5.2143228314e+00    0.2923792    0.2047478 -85.70  0.001453845    2.192    0.544
       107  -9.1983    156.9394    247.9007   8.2052365462e+01   4.3767717120e+00    0.2779224    0.1505072  48.89  0.001111962    1.404    0.288
       108  -9.0786    158.4884    243.4790   8.1263863243e+01   4.7139123812e+00    0.2259646    0.1774146  44.09 -5.689123e-06    1.084    0.077
       109  -8.6080    248.0000    245.9930   6.6548890244e+01  -1.0108309504e+01    0.1493275   0.06050229 -29.09 0.0007984571    2.915    0.657
