#   1 NUMBER                 Running object number                                     
#   2 MAG_AUTO               Kron-like elliptical aperture magnitude                    [mag]
#   3 X_IMAGE                Object position along x                                    [pixel]
#   4 Y_IMAGE                Object position along y                                    [pixel]
#   5 X_WORLD                Barycenter position along world x axis                     [deg]
#   6 Y_WORLD                Barycenter position along world y axis                     [deg]
#   7 A_WORLD                Profile RMS along major axis (world units)                 [deg]
#   8 B_WORLD                Profile RMS along minor axis (world units)                 [deg]
#   9 THETA_WORLD            Position angle (CCW/world-x)                               [deg]
#  10 FWHM_WORLD             FWHM assuming a gaussian core                              [deg]
#  11 ELONGATION             A_IMAGE/B_IMAGE                                           
#  12 ELLIPTICITY            1 - B_IMAGE/A_IMAGE                                       
         1 -12.9113    165.1659     85.5467   6.5628493932e+01   3.1612501573e+01     1.440609     1.068292  -9.31  0.006714879    1.669    0.401
         2 -12.9361     36.8637     49.7466   9.6777711001e+01   6.4671648882e+01    0.9331225    0.7141392 -55.64  0.004672554    1.178    0.151
         3 -11.5290     76.8328     34.0427   7.1827237478e+01   6.1504127193e+01    0.9774134    0.5598075   2.19  0.002919427    4.927    0.797
         4 -11.5537     92.9753     22.7146   6.0822184425e+01   5.9714128719e+01    0.8503662    0.5151506  65.84   0.00378788    1.876    0.467
         5 -11.5012    106.2446     19.4240   5.5573941378e+01   5.6904099277e+01    0.7577767    0.3648183  35.48  0.001163299    2.680    0.627
         6 -11.3978    129.4370     18.9226   5.0251340830e+01   5.0965232163e+01     0.437884     0.268768 -27.79  0.001640785    1.658    0.397
         7 -11.2676    185.3466     20.1218   4.2602923886e+01   3.6198242922e+01    0.5049974    0.1971319 -30.97 0.0003255876    2.279    0.561
         8 -11.2489     12.6427      2.0938   9.1375217355e+01   7.7301527251e+01     0.462427    0.3552189  52.71  0.002708668    1.932    0.482
         9 -10.1552      7.7823      2.1220   9.5762467118e+01   7.7716524927e+01    0.1946639    0.1770207  19.02 0.0009495082    1.311    0.237
        10 -10.0717     14.9813     14.3258   9.6344721365e+01   7.4672637257e+01    0.2551389    0.1937569 -82.25  0.000655034    1.795    0.443
        11 -12.1220      4.4052     16.6061   1.0554369944e+02   7.4910391602e+01    0.5892141    0.3548064 -60.65   0.00260426    1.403    0.287
        12 -11.2766     10.0717     15.7195   1.0077284022e+02   7.4759088312e+01    0.3291567    0.1884829 -26.70 0.0009481891    1.778    0.438
        13 -12.7322     20.6337     17.7993   9.3876572201e+01   7.3437088051e+01    0.5859244    0.4012015 -32.96  0.003412756    1.327    0.247
        14 -12.9006     23.5324      7.3516   8.5916480569e+01   7.5157503999e+01    0.5262629    0.4511627  79.24 0.0008815796    1.851    0.460
        15 -12.2647     27.5718      3.7295   8.0546760321e+01   7.5271751517e+01    0.3388135    0.2413894  43.22 0.0005980411    1.692    0.409
        16 -11.8266     31.9937      1.8642   7.6139816943e+01   7.4933260717e+01    0.2382622    0.1996756  24.37 0.0005438521    1.208    0.172
        17 -10.7796    157.6793     12.8791   4.3514029424e+01   4.4132565544e+01    0.4311802    0.3042106 -49.14  0.002180622    1.397    0.284
        18 -11.0644     48.0763     16.4916   7.5897039060e+01   6.9973212808e+01    0.7061213    0.5035682  -8.10  0.001903664    1.589    0.370
        19 -11.5112     27.1545     14.6883   8.7668363484e+01   7.3347661233e+01    0.4647984    0.3409237  67.22  0.002035869    2.399    0.583
        20 -10.2875     41.5326     19.2240   8.1095765991e+01   7.0540458752e+01    0.3756393    0.2736698 -58.25  0.001258882    1.702    0.413
        21 -11.6961     35.5619     15.0613   8.2346264017e+01   7.2176646219e+01    0.4422505    0.2317014  28.28  0.001251964    2.094    0.523
        22 -12.2467     39.9248     11.2090   7.7353280742e+01   7.2197624912e+01    0.4082293    0.2766746 -48.00 0.0004550725    1.632    0.387
        23 -10.8400     43.7232      8.9720   7.3723981001e+01   7.1938775261e+01    0.2619538    0.2290428 -46.92  0.001016851    1.357    0.263
        24 -11.2884     63.0200     14.8778   6.7696557176e+01   6.7452094799e+01    0.6181855    0.3587545  17.34  0.002573143    2.601    0.615
        25 -11.3247     78.6235     10.7650   5.9335082941e+01   6.4649328334e+01    0.5022486    0.2717842  41.75  0.001022967    1.828    0.453
        26 -12.4070     74.2076      6.2957   5.8331231859e+01   6.6192323741e+01    0.9547681    0.4049847 -14.99  0.001457814    3.193    0.687
        27 -10.8584     74.4908     16.0159   6.3683085272e+01   6.4878493599e+01    0.2782414    0.2336123 -63.84 0.0007831327    1.497    0.332
        28 -10.7233    132.2677     11.0903   4.6584636357e+01   5.1077231938e+01    0.3618148    0.3068846   8.04 0.0009568441    1.319    0.242
        29 -10.2552    118.8031     12.7876   4.9770893325e+01   5.4454701063e+01    0.2306654    0.2065423 -21.78 0.0003174915    1.166    0.142
        30 -10.1533    117.4148      9.2324   4.8494243106e+01   5.5194117683e+01     0.288987    0.1838317 -35.98 0.0008719994    1.606    0.378
        31 -10.2583    100.3214     12.4810   5.3825173278e+01   5.9231528422e+01    0.3001829    0.2033353  15.78  0.001407524    1.788    0.441
        32  -9.8708     55.0000     12.9974   7.0295858843e+01   6.9297019302e+01    0.2513742    0.1745916 -31.48 0.0006268981    1.389    0.280
        33  -8.6282     55.3064      9.7096   6.8149631837e+01   6.9726881209e+01    0.1733175    0.1609973  24.94 0.0005130351    1.115    0.103
        34 -10.1313    176.0495     11.3256   4.0850607928e+01   3.9494285362e+01    0.1959088    0.1727824 -88.49  0.000419054    1.085    0.078
        35 -12.0420    240.6064      9.7724   3.5331382893e+01   2.4489270908e+01    0.3850907    0.2194746  88.81  0.001136484    1.903    0.475
        36  -9.7954     33.0318      8.8323   8.0183940698e+01   7.3640312633e+01    0.2020852    0.1250487 -24.38   0.00104966    1.665    0.399
        37  -9.2556     10.3110      9.3234   9.7552315180e+01   7.6080425663e+01    0.1853895    0.1210241   6.50  0.001082662    1.655    0.396
        38 -10.4565      6.4610      8.4047   1.0034515651e+02   7.6544535664e+01    0.2196611    0.1699198  68.64 0.0005951897    1.889    0.471
        39 -11.5536    245.3554      6.9077   3.4382798519e+01   2.3788123591e+01     0.523275   0.09287018 -39.15  0.002008646    3.131    0.681
        40 -11.6924    238.2181      2.1989   3.3645215921e+01   2.5720647961e+01    0.4692771    0.2776741 -89.77  0.002672412    1.763    0.433
        41 -10.0182    212.3836      8.2757   3.6787986624e+01   3.0868755385e+01    0.1863721    0.1027572 -37.09 0.0006705646    1.553    0.356
        42 -11.1629    145.7907      6.1557   4.2642997557e+01   4.7955228799e+01    0.4449021    0.2881581 -36.44  0.002182824    1.531    0.347
        43  -9.5815    126.8482      8.1309   4.6291622948e+01   5.2815680453e+01    0.2014546    0.1601674  36.14  0.000475111    1.325    0.245
        44 -10.2378     67.0255      7.8727   6.1925971346e+01   6.7584701559e+01     0.198591    0.1707041  18.83 0.0002919394    1.099    0.090
        45 -10.8364     92.8310      5.4968   5.2267667958e+01   6.1857773481e+01    0.4263275    0.2559988  25.72  0.001891209    1.967    0.491
        46  -9.9575     97.5298      4.5038   5.0583808144e+01   6.0785902805e+01     0.374462     0.186641  22.00  0.001392276    2.987    0.665
        47  -9.7566    164.9799      5.6593   4.0168929679e+01   4.2920457669e+01    0.2007872    0.1671156  86.91 0.0005388804    1.141    0.124
        48 -10.0319    130.8749      5.4567   4.4527861339e+01   5.2001449246e+01    0.3008196    0.1845967 -51.08 0.0009362004    1.752    0.429
        49  -9.1995    122.6566      6.6932   4.6415090815e+01   5.4066506733e+01    0.1546275   0.09854367  37.99 0.0007042827    1.691    0.409
        50  -9.9469     81.1864      6.1306   5.5934316811e+01   6.4600882616e+01    0.2058211    0.1714058  17.59 0.0002825539    1.196    0.164
        51  -9.4943    175.1750      5.6027   3.9110047515e+01   4.0276893553e+01    0.1860778    0.1186389  62.56 0.0001643079    1.553    0.356
        52  -9.5692    223.6747      4.0070   3.4918238751e+01   2.8706894828e+01    0.1783268    0.1413557 -39.63 0.0003945421    1.121    0.108
        53 -10.0634    113.0775      2.7243   4.6412308802e+01   5.6958351263e+01    0.4270499    0.2173993 -72.92  0.001440766    3.114    0.679
        54  -9.6199    126.6440      2.2876   4.3882547765e+01   5.3415525141e+01     0.150229    0.1004802 -64.62 0.0007024151    1.676    0.403
        55  -9.2100     87.2671      2.3451   5.2079109682e+01   6.3541007118e+01    0.1448141   0.09672389  26.49 0.0006985265    1.609    0.379
        56  -9.2093    159.0409      1.1962   3.9276354859e+01   4.4885421544e+01    0.1836007    0.1029167  74.75 0.0002997844    1.686    0.407
        57  -9.9197    179.2986      4.4098   3.8344973700e+01   3.9331284161e+01    0.2451191    0.1348807 -46.64 0.0006143575    1.694    0.410
        58  -9.5566      1.8045    188.1853   1.2508897863e+02   3.4431967494e+01    0.1354174    0.1210917  89.48 0.0005731253    1.306    0.234
        59 -10.5859    250.1031    246.6700   8.2194057983e+01  -4.9096523791e+00    0.1698072    0.1134538  -5.04  0.001388931    1.231    0.188
        60 -10.1510     72.7074    249.8911   1.1363066382e+02   1.6193411383e+01    0.1700271    0.1485627  -1.63  0.001353664    1.626    0.385
        61 -11.0147      4.8746    235.8493   1.2568324727e+02   2.5314650213e+01    0.2824043    0.2065368  35.97  0.001986255    1.355    0.262
        62 -12.1670     28.9198    248.0879   1.2164827547e+02   2.1106603619e+01    0.6709616    0.2288591  56.28  0.003835986    2.237    0.553
        63 -12.3416     17.0613    238.1268   1.2349790031e+02   2.3854421341e+01     0.912982    0.1980176  31.39  0.004272334    3.295    0.696
        64 -13.0923      5.9426    244.7144   1.2568450108e+02   2.3754470961e+01    0.8880984    0.3820145  35.80  0.004714246    1.734    0.423
        65 -12.1863     21.9896    248.8204   1.2292463934e+02   2.1648973883e+01    0.3852559    0.1986383  39.46  0.001536358    1.405    0.288
        66 -11.2913     17.2744    247.4104   1.2372892602e+02   2.2311242479e+01     0.211391    0.1486377  44.89 0.0006487292    1.146    0.127
        67  -9.4200     61.6481    184.8345   1.1104228826e+02   2.9193607819e+01    0.1716881     0.107137  88.24 0.0009439249    1.724    0.420
        68 -11.4266     16.0402    182.7351   1.2167546624e+02   3.4390452381e+01    0.4253207    0.1948469  70.49  0.002268666    1.956    0.489
        69  -9.8374    167.3140    183.6789   8.6964997936e+01   1.3704197127e+01    0.1203491   0.09994515  65.05 0.0006015331    1.655    0.396
        70  -9.6842     58.7705    182.3951   1.1151129864e+02   3.0050657422e+01    0.1644317     0.113802  23.61 0.0007168922    1.612    0.380
        71  -9.3702      1.5651    180.4646   1.2491120929e+02   3.6040104225e+01    0.1154262   0.08605918  64.92 0.0001757419    1.015    0.015
        72  -9.9001    244.4116    178.2831   7.2309044737e+01   2.7984524669e+00    0.2124744     0.094771 -24.72  0.001109914    2.098    0.523
        73  -9.2889    223.9841    178.4984   7.5600786474e+01   5.6587176673e+00    0.1364029    0.1060401  59.95 0.0003795817    2.247    0.555
        74  -9.3419     69.9780    177.9731   1.0835304711e+02   2.9591541617e+01     0.181895    0.1513021 -21.78 0.0006078209    1.663    0.399
        75 -10.4726     46.5174    177.6970   1.1408734184e+02   3.2462766459e+01    0.2506018    0.2013822  56.40  0.001192271    1.045    0.043
        76  -9.7619    200.7402    176.4173   7.9265767607e+01   9.4702899256e+00    0.1740172    0.1044483  26.74 0.0006306259    1.575    0.365
        77 -11.0899     18.1164    173.2584   1.2072785489e+02   3.6232367988e+01    0.3407764    0.1715105  54.92  0.001665915    1.636    0.389
        78 -11.8322     50.6268    162.3874   1.1168627046e+02   3.5384832987e+01    0.6041971    0.4113618  70.98   0.00300386    1.394    0.283
        79 -12.0663     35.7328    164.1618   1.1572884573e+02   3.6593135201e+01     0.633814     0.368743  73.65  0.002749643    1.640    0.390
        80 -11.1149     40.8545    164.4692   1.1442737244e+02   3.5993142763e+01    0.4152576    0.1995817 -79.61  0.001736621    2.060    0.515
        81 -11.0388     36.8792    157.8442   1.1491746815e+02   3.7916638258e+01     0.251182    0.1774622  71.03 0.0003566664    1.262    0.208
        82  -9.5133      4.6924    168.6824   1.2377449400e+02   3.8315504176e+01    0.1067313   0.08284748 -54.15 0.0003119443    1.634    0.388
        83 -11.0582     44.6178    162.9901   1.1331900372e+02   3.5922382366e+01    0.3280533    0.2271117 -81.63   0.00164652    1.391    0.281
        84  -9.6013     67.1951    165.1713   1.0765164128e+02   3.2731999392e+01     0.193915    0.1340329  60.10 0.0009437698    1.361    0.265
        85  -9.0891     99.2777    164.7139   9.9376123400e+01   2.8265238203e+01     0.134677   0.09664924  64.78 0.0002099332    1.514    0.340
        86 -10.0739     10.5458    162.8726   1.2208478849e+02   3.9145495298e+01    0.2034032    0.1227341  54.30 0.0006605705    1.373    0.271
        87  -8.9468    200.3404    162.6863   7.6778646477e+01   1.1541631373e+01    0.1165879    0.1058587  86.86 0.0007047065    1.700    0.412
        88 -12.2198     21.4591    157.2993   1.1896734516e+02   3.9500813490e+01    0.5066023    0.4355035  -4.37  0.003365574    1.579    0.367
        89  -9.1282    115.6769    158.3352   9.4271030367e+01   2.6970977619e+01    0.1442082    0.1036325  68.78 0.0007050711    1.711    0.415
        90 -10.2235     11.3937    153.4377   1.2139574823e+02   4.1213182084e+01     0.307056    0.1738601  11.40  0.001639461    2.359    0.576
        91 -10.1919    177.8947    151.3176   7.8847456302e+01   1.7245957103e+01    0.2591768    0.2401306  68.66  0.001035946    1.368    0.269
        92  -9.0179     39.6805    150.3038   1.1348388204e+02   3.9383304913e+01    0.1396347   0.08126689  61.10 0.0006153738    1.629    0.386
        93 -10.3192     18.5485    146.7086   1.1905987894e+02   4.2205882045e+01    0.2769738    0.1954322 -35.64   0.00105362    1.949    0.487
        94 -10.9235     22.6684    144.2423   1.1773431974e+02   4.2441375391e+01    0.2415877    0.1744685  67.19 0.0003003267    1.201    0.167
        95 -10.3595     13.1286    146.7046   1.2055306748e+02   4.2639018658e+01    0.1963141     0.124251  50.38 0.0007040377    1.395    0.283
        96 -10.2198    207.1637    146.1946   7.2255077102e+01   1.2858445456e+01    0.2011353     0.162638   5.78 0.0007949349    1.159    0.137
        97  -9.7860     41.6093    146.4029   1.1256273565e+02   4.0103349011e+01    0.2259872     0.111009  35.02 0.0005817348    1.904    0.475
        98  -9.7342    220.4571    143.9868   6.9528098958e+01   1.0907747045e+01     0.190285    0.1139897 -31.48 0.0007442457    1.539    0.350
        99 -10.3599      2.8333    143.8820   1.2322334889e+02   4.4035680826e+01    0.1785264    0.1488174 -74.63 0.0008988704    1.257    0.204
       100  -9.8716     49.3949    141.8893   1.0983818887e+02   4.0322022663e+01    0.1941631    0.1823638 -22.08 -0.0001541599    1.325    0.245
       101 -10.1353     15.7074    139.8307   1.1939731643e+02   4.4062981919e+01    0.2490024    0.1004052  11.80  0.001006541    3.690    0.729
       102 -10.4069      9.1817    137.5032   1.2111770886e+02   4.5102476174e+01    0.3150609    0.1222206 -72.97 0.0008200603    2.232    0.552
       103 -10.9650      3.5371    136.0615   1.2265208400e+02   4.5826046514e+01     0.296758    0.2289643 -29.71  0.001881998    1.747    0.428
       104 -10.5628     21.5715    135.6843   1.1738893689e+02   4.4586508656e+01     0.310501    0.1722779  57.68  0.001316157    1.670    0.401
       105  -9.8254     13.8720    136.0681   1.1967364979e+02   4.5103915178e+01     0.191713    0.1355453  65.86            0    1.230    0.187
       106  -9.4666    122.5291    135.4772   8.8268443184e+01   3.0610559010e+01    0.1441818    0.1386688  44.97 5.489936e-05    1.002    0.002
       107  -9.9962    249.5336    134.0556   6.3052019792e+01   7.5278572973e+00    0.1783187    0.1512133  11.57 0.0006440543    1.177    0.150
       108 -10.3429     55.6268    133.2051   1.0688836391e+02   4.1688744280e+01    0.2860334    0.1901273  59.58  0.001043921    1.499    0.333
       109 -10.3713    107.3534    133.1658   9.1833492976e+01   3.3864185280e+01    0.2502426    0.2002387  26.96  0.001256008    1.340    0.253
       110 -10.9761     37.5373    130.4953   1.1207574979e+02   4.4384785530e+01    0.2936494    0.2563276  51.00 0.0005586329    1.148    0.129
       111 -10.2594     38.2735    127.0116   1.1144731180e+02   4.5172205311e+01    0.2000723      0.18901  49.93 0.0003914286    1.163    0.140
       112 -11.3837     73.1695    129.0685   1.0094028046e+02   4.0351041092e+01    0.5413489    0.2467254  50.09   0.00215318    2.345    0.574
       113 -11.2677     13.7671    126.1295   1.1900110005e+02   4.7522253437e+01    0.4105989    0.1982141  18.22  0.000549747    2.440    0.590
       114 -11.1407     10.7900    122.9947   1.1969427070e+02   4.8499809735e+01    0.3055132    0.2126127  63.61 0.0008863273    1.296    0.229
       115 -10.6559      1.9902    124.7426   1.2251336996e+02   4.8631905699e+01    0.3764646    0.1377838 -73.36  0.001709517    2.285    0.562
       116  -9.6946    219.8469    124.2220   6.5394078519e+01   1.3881327203e+01    0.1858474    0.1418625  -1.51 0.0006097851    1.325    0.245
       117  -9.8405     32.7063    121.7550   1.1260794151e+02   4.7030179436e+01    0.1977209    0.1746916   7.46 0.0008433131    1.389    0.280
       118 -11.2509     21.7310    121.1295   1.1607490080e+02   4.8148147658e+01    0.2143403    0.1966173 -29.01  0.001389434    1.345    0.256
       119  -9.3125      1.3195    118.3040   1.2236048517e+02   5.0234492762e+01    0.1225306   0.08222606 -52.37 0.0002969923    1.630    0.386
       120 -11.5314     17.8108    114.8562   1.1676374227e+02   5.0018055981e+01    0.3425474    0.2620688 -24.44  0.002011917    1.691    0.409
       121  -9.8862    219.7973    116.5694   6.3683143997e+01   1.5016789742e+01    0.2365955    0.1239029  43.42  0.001122123    2.037    0.509
       122  -9.2768    179.4999    116.5113   7.0812049614e+01   2.2966051509e+01    0.1435609    0.1348667  -6.97 -5.656766e-05    1.002    0.002
       123  -9.8685    214.0045    115.5306   6.4371150078e+01   1.6260745931e+01    0.1883046    0.1312002  43.38 0.0006703393    1.528    0.346
       124 -10.0218     42.5186    111.9524   1.0806782196e+02   4.8509920300e+01    0.2998283    0.1412601 -51.97  0.001291521    2.140    0.533
       125 -10.1976     35.2063    114.2247   1.1086517962e+02   4.8684439440e+01     0.268015    0.1688885 -86.55  0.000988255    1.520    0.342
       126 -11.3624     36.4717    109.4587   1.0978962321e+02   4.9768191375e+01    0.4500055    0.2598572  66.56  0.001492065    1.920    0.479
       127 -11.0348    249.1134    112.3578   5.8530793746e+01   1.0413736767e+01    0.2420061    0.1547206 -32.95 0.0006853564    1.340    0.254
       128 -12.5155     14.7366    109.2658   1.1727637344e+02   5.1640694335e+01    0.5969753    0.4029342 -33.78   0.00329748    1.856    0.461
       129  -9.5371     94.7593    112.0609   9.0994982242e+01   4.0976456103e+01    0.1985486    0.1243377 -57.18 0.0008785945    1.601    0.375
       130 -12.3844     55.2021    110.4246   1.0349457081e+02   4.7414683641e+01    0.3093918    0.2896293 -61.82 0.0004297573    1.112    0.101
       131  -9.7838     70.5953    108.0143   9.7839873560e+01   4.5904922737e+01    0.2975497    0.2039457 -86.13 0.0009002051    1.701    0.412
       132 -11.7100     24.5082    107.2118   1.1367398443e+02   5.1421969314e+01    0.5331343    0.2342259  68.20  0.002114085    2.850    0.649
       133 -11.7201      2.8064    106.1895   1.2110437096e+02   5.3137752053e+01    0.3435548    0.3081031  82.36  0.001185235    1.100    0.091
       134  -9.5145    103.5614    107.9906   8.7390903093e+01   4.0319732394e+01    0.2220732      0.14581 -51.24 0.0003509447    1.517    0.341
       135 -10.7860    243.7824    104.4456   5.7489223612e+01   1.2376359522e+01    0.2141536    0.1610495 -16.95 0.0008002923    1.185    0.156
       136 -10.7077    247.1498    102.1668   5.6546350413e+01   1.2089747400e+01    0.1753289    0.1572576  -9.45 0.0008321031    1.105    0.095
       137  -9.4063    223.3690    103.7841   6.0183493480e+01   1.6214319875e+01    0.1837646    0.1149313 -22.50 0.0004008706    1.527    0.345
       138 -10.7526     36.2537    102.5443   1.0885846632e+02   5.1550908446e+01    0.3473099    0.2672788  14.92  0.001123999    1.548    0.354
       139 -11.4512    156.8671     82.7696   6.6581867261e+01   3.4047617112e+01    0.6484792    0.4498904  15.50  0.002748797    2.085    0.520
       140 -11.7993    162.4777     92.2988   6.8075671608e+01   3.1012635958e+01    0.5613618    0.3108372 -31.38 0.0005057975    1.898    0.473
       141 -12.3618    233.8970    246.2673   8.4592104941e+01  -3.1117309031e+00     0.471322    0.3639756 -12.53  0.003986821    1.428    0.300
       142 -10.2063     66.3867     97.8598   9.7119743523e+01   4.9050907962e+01     0.441279    0.1155816 -54.25  0.001382995    3.331    0.700
       143 -10.2134      1.5032     90.5087   1.2038035052e+02   5.7117669330e+01    0.3508049    0.1552101 -88.57   0.00113614    2.000    0.500
       144 -11.4989      3.1560     99.8892   1.2052039759e+02   5.4689300252e+01    0.2817532    0.2053211  65.46 0.0002607447    1.291    0.225
       145 -11.1992      1.4824     96.0299   1.2082763357e+02   5.5736684870e+01    0.2558247    0.1666676  87.43 1.534979e-05    1.311    0.237
       146 -11.1936    144.0913     98.3938   7.3921841023e+01   3.3984675818e+01    0.4876635    0.3923929  67.47  0.002388692    1.420    0.296
       147  -9.8333     50.9238     99.2874   1.0297059279e+02   5.0764466239e+01    0.1837507    0.1749851  67.35 0.0003569346    1.086    0.079
       148 -10.3011     15.3017     97.9183   1.1592691559e+02   5.4468065109e+01    0.2239608    0.1722756  47.64   0.00133993    1.347    0.257
       149  -9.9676     41.0154     97.0741   1.0621885406e+02   5.2459302087e+01    0.2096669    0.1879391 -73.33 0.0004119206    1.033    0.032
       150  -9.7552    249.8664     95.8131   5.4790695449e+01   1.2447797461e+01    0.1712784    0.1326472 -44.29 0.0006121437    1.318    0.241
       151  -9.2847     27.9023     96.0745   1.1098456590e+02   5.3975181613e+01    0.1726529    0.1388354 -52.69            0    1.253    0.202
       152 -11.2966     20.7283     94.2709   1.1345680232e+02   5.5011204450e+01    0.5728739    0.1004433 -65.46  0.001860985    3.681    0.728
       153 -10.4638     25.6370     90.9880   1.1110848828e+02   5.5465250973e+01    0.2458168    0.2365859 -17.99  0.001144708    1.210    0.174
       154 -11.3096     22.7173     87.1197   1.1168813768e+02   5.6685305566e+01    0.3090695    0.2260637 -54.33 0.0002725885    1.301    0.232
       155 -10.9721    109.1042     91.7740   8.1496822475e+01   4.2913927265e+01    0.4310182    0.2130756 -50.17  0.001658249    2.036    0.509
       156  -8.9514     77.3198     94.6960   9.2550570173e+01   4.8134706599e+01    0.1519664    0.1131179  74.51 0.0003211081    1.631    0.387
       157  -9.9480     31.2928     92.9439   1.0921681651e+02   5.4475748432e+01    0.2033148    0.1621192  85.08 0.0005002646    1.204    0.170
       158  -9.3682     46.9857     92.5065   1.0312056043e+02   5.2956836348e+01    0.2004792   0.09962647  52.77  0.000728821    2.401    0.583
       159 -11.2852     10.9466     90.7048   1.1678274158e+02   5.6572764597e+01    0.3807009    0.2644714  30.79  0.001154267    1.591    0.372
       160  -9.8161     91.5897    100.2450   8.9179932813e+01   4.4342090209e+01    0.2142855    0.1364671 -43.82 0.0006626254    1.633    0.388
       161  -9.6424     83.1437     88.8279   8.9027452300e+01   4.8559832940e+01    0.2028625    0.1722834 -28.95 0.0005380933    1.311    0.237
       162  -9.5121     58.0864     89.6644   9.8304991381e+01   5.2271127297e+01    0.2883641      0.11454  39.45  0.001093438    2.541    0.606
       163  -9.3433    139.0058     87.9239   7.2224239247e+01   3.7207372798e+01    0.1828641    0.1787275 -40.61   0.00097747    1.013    0.012
       164  -9.6876     78.6608     88.6941   9.0551534144e+01   4.9364608743e+01     0.151234    0.1167592 -18.22 0.0003275403    1.679    0.404
       165 -10.1261     46.6389     88.2854   1.0239821454e+02   5.4068710631e+01    0.1467833    0.1003815  64.43 0.0003623648    1.683    0.406
       166 -10.7299     66.6817     85.3811   9.4035081443e+01   5.2095676347e+01    0.5252457    0.2974496 -23.51  0.001841944    3.414    0.707
       167 -10.3462    119.7232    101.9489   8.1205535894e+01   3.8480577746e+01    0.3150536     0.210753 -24.83  0.001320597    1.998    0.499
       168 -10.8524     96.6691     89.7005   8.4766771480e+01   4.5860218981e+01    0.4130533    0.2763279 -22.92  0.001708026    2.160    0.537
       169 -10.8113      2.2300     71.7970   1.1827785465e+02   6.1780463029e+01    0.4939374    0.2547853 -88.99  0.002471664    1.772    0.436
       170 -11.4691      5.1247     82.4934   1.1821210771e+02   5.8962289874e+01    0.7412861    0.4005184 -81.47  0.003325982    1.572    0.364
       171 -11.9263      3.7434     64.9641   1.1675860533e+02   6.3425883136e+01    0.4988086    0.3390007  67.37  0.001625739    1.558    0.358
       172 -12.0433      5.1599     58.8719   1.1521018234e+02   6.4880728351e+01    0.2730658    0.2380837  89.32 0.0002915839    1.133    0.118
       173 -11.6454     10.6050     62.9605   1.1320631517e+02   6.3595451641e+01    0.7560509    0.2961841 -32.43  0.002987753    3.323    0.699
       174 -12.1449     13.0708     77.3860   1.1427763591e+02   5.9823268141e+01    0.6121671    0.2380471 -69.71  0.001728291    2.075    0.518
       175 -11.3166      8.4567     73.7682   1.1578502834e+02   6.0995641725e+01    0.3410726    0.2767044  -4.24  0.001124112    1.484    0.326
       176 -12.0688     23.1691     68.0289   1.0820968393e+02   6.1494221353e+01    0.8387569    0.3829698  68.91 0.0006542875    3.882    0.742
       177 -12.7115     16.4353     67.8324   1.1128658896e+02   6.2025600858e+01    0.4203164     0.263789 -65.30 0.0003082065    1.340    0.254
       178 -10.8583    132.9509     83.1926   7.2354069223e+01   3.9530629873e+01    0.2742426    0.2438075  72.15 0.0005645468    1.212    0.175
       179 -11.3999     42.9682     82.6721   1.0267460819e+02   5.5910833693e+01    0.4796761    0.2261067  42.78  0.001040142    2.273    0.560
       180  -9.8540     78.1638    101.3399   9.3848278351e+01   4.6375675679e+01     0.213548    0.1271615  46.95 0.0003598141    1.738    0.425
       181  -9.6667    117.5928     83.2291   7.6523779499e+01   4.2967159924e+01     0.224855    0.1458983 -33.14 0.0009517555    1.701    0.412
       182  -9.9457     88.2834     83.6140   8.5812106036e+01   4.8856593412e+01    0.3341235    0.2359752  78.30 0.0008657376    2.026    0.506
       183  -9.6524     86.6762     80.3406   8.5406736129e+01   4.9913310590e+01    0.2313699    0.1870268  58.60 0.0006262898    1.344    0.256
       184 -10.7644     75.0298     82.7518   9.0246327301e+01   5.1401978941e+01    0.2874194    0.1960582 -71.06  0.001308351    1.672    0.402
       185  -8.8401     56.3078     83.7000   9.7585602228e+01   5.4002451341e+01    0.1449698    0.1073767  72.23 0.0002705716    1.597    0.374
       186  -9.0634    196.2653     82.3113   5.9036044751e+01   2.5061382197e+01    0.1400111    0.1088701   5.96 0.0002883751    1.539    0.350
       187 -11.1950     46.3401     57.1272   9.4501956708e+01   6.1791332102e+01    0.4282071    0.2446213  38.27 0.0009715466    1.887    0.470
       188 -11.0635     51.1435     63.0828   9.4155644416e+01   5.9743606247e+01    0.3340569    0.2822493 -45.39  0.001036405    1.111    0.100
       189 -11.5626     50.4923     68.4663   9.6011231981e+01   5.8532351397e+01    0.3652039    0.2890608 -26.77 0.0005105205    1.408    0.290
       190 -12.0172     62.3464     71.6077   9.1947451649e+01   5.6096785133e+01     1.117596    0.3067859 -53.23   0.00355922    3.231    0.690
       191 -10.8809     57.8492     74.1673   9.4505296790e+01   5.6139079835e+01    0.4768512    0.3068287 -82.46  0.001188646    2.065    0.516
       192 -10.9534     54.1473     73.6833   9.5896972191e+01   5.6771289641e+01    0.3177196    0.2708567 -79.40 0.0007768222    1.206    0.171
       193 -10.8516     31.2078     81.2990   1.0724310082e+02   5.7455983745e+01    0.4442084    0.2340466 -38.87  0.001853907    2.206    0.547
       194 -10.0395     21.3179     81.3402   1.1137797484e+02   5.8264621152e+01    0.4081286    0.2052779 -30.36  0.001762024    2.696    0.629
       195 -10.6896     18.7073     79.0699   1.1212335298e+02   5.9030174935e+01     0.254228    0.2047731 -75.13 0.0004907109    1.072    0.068
       196 -10.3537     21.9948     77.0000   1.1038250357e+02   5.9317503985e+01    0.3013996     0.161061  36.93 0.0008080015    2.001    0.500
       197  -9.1764    146.3039     81.6386   6.8620909965e+01   3.6735535658e+01    0.1608654    0.1200046 -71.66 0.0007038031    1.729    0.421
       198  -9.6039     71.0911     79.3129   9.0747277698e+01   5.2875257763e+01    0.1948657    0.1849223  60.46  0.000384839    1.096    0.088
       199 -10.2821     90.4653     76.1153   8.2816507044e+01   5.0156861885e+01    0.4871265    0.2113287 -52.09 0.0009317685    2.347    0.574
       200 -12.3456     44.7792     75.2545   1.0023168893e+02   5.7567473312e+01     0.267448    0.2428885  78.56 0.0004003213    1.152    0.132
       201 -10.1152     74.6828     75.8873   8.8405483704e+01   5.3091513921e+01     0.242839    0.1781359 -37.78  0.001171068    1.432    0.301
       202 -11.1642     57.4137     96.4945   1.0004869718e+02   5.0645157763e+01    0.2723656    0.2352269 -61.75 0.0002588056    1.096    0.087
       203  -8.9893    121.9819     76.0000   7.3053622509e+01   4.3480852960e+01    0.2560423    0.0882986  48.86 0.0008004896    2.929    0.659
       204 -10.1993    145.7305     73.4909   6.6274069905e+01   3.8385774109e+01    0.2926718    0.2092461 -36.99 0.0008480116    1.378    0.275
       205  -9.9215    137.7738     73.8859   6.8281341937e+01   4.0213408241e+01    0.2385098    0.2125572   2.72 0.0006276034    1.258    0.205
       206 -10.7469     94.3465     73.3213   8.0616625088e+01   5.0011030279e+01    0.3083056     0.231776  -7.96  0.001251129    1.850    0.459
       207  -9.8295     83.6890     73.8089   8.4467203491e+01   5.1967484294e+01    0.2662411    0.1809842 -45.62  0.001231002    1.431    0.301
       208 -10.2586    102.2425     73.3763   7.8058048561e+01   4.8370101258e+01    0.2123841    0.1447971  54.70  0.000808685    1.582    0.368
       209 -11.2414    150.1578     71.3726   6.4620153803e+01   3.7700603188e+01    0.4679324    0.2513028 -44.78 0.0008200589    1.870    0.465
       210 -10.8855     80.4913     71.0305   8.4747784508e+01   5.3189879868e+01    0.3680804    0.2637209 -10.40  0.001158814    2.043    0.511
       211 -10.6257     77.6779     70.6774   8.5679145775e+01   5.3779155931e+01    0.3689044    0.2851554 -79.67  0.001781782    1.593    0.372
       212 -10.0587     39.6696     72.3702   1.0173789543e+02   5.8865370062e+01    0.4993758     0.231176  53.84  0.001899835    3.062    0.673
       213 -10.7312     31.4860     68.0479   1.0438974596e+02   6.0774864889e+01    0.4041172    0.2014587  19.25  0.001812091    2.361    0.576
       214 -10.9416     40.7841     68.2351   1.0022520301e+02   5.9769927163e+01    0.3078017     0.239772  -9.14 0.0004567643    1.545    0.353
       215 -10.5519     37.4984     67.4488   1.0150731749e+02   6.0322950257e+01    0.2992872    0.2013098 -41.27  0.001010892    1.498    0.332
       216 -12.0129    167.6910     69.9445   6.0586414829e+01   3.3697798974e+01    0.2555432     0.249888  52.39 0.0003285464    1.059    0.055
       217 -11.2260    200.3898     67.8083   5.4491950731e+01   2.6329965136e+01    0.2451363    0.2276727 -55.67 0.0003115197    1.083    0.076
       218 -11.0684     62.0431     99.1919   9.8949338003e+01   4.9337618203e+01    0.4431806    0.3823296 -23.94  0.002427819    1.363    0.266
       219  -9.6158    123.4173     68.5031   7.0227024731e+01   4.4633706331e+01    0.1528709     0.149088 -48.53 -0.0001197111    1.016    0.015
       220 -10.8420     94.6831     65.8946   7.8030785534e+01   5.1546940023e+01    0.3773193    0.2777969  -4.75 0.0009270019    1.945    0.486
       221  -9.2513    163.4595     66.5296   6.0368689007e+01   3.5291756651e+01    0.1498137    0.1447115 -46.34  0.000147981    1.004    0.004
       222  -9.1311     68.7006     66.6949   8.7877375824e+01   5.6244617938e+01    0.1471908    0.1122789 -20.39 0.0003183655    1.590    0.371
       223  -9.9930    109.4776     63.4541   7.2473187981e+01   4.8835556536e+01     0.352034    0.2126256 -56.99 0.0005817999    2.002    0.500
       224 -10.5679     77.3095     64.1083   8.3654347751e+01   5.5330643619e+01    0.3859087    0.2825948 -58.85  0.001871247    1.422    0.297
       225 -11.1470    155.2256     61.1091   6.0307435531e+01   3.8219008386e+01     0.497558    0.3442122  14.06  0.001830749    2.108    0.526
       226 -10.4691     82.8689     61.1785   8.0546240203e+01   5.4926157730e+01    0.4239154    0.2986463 -82.68  0.001239893    2.223    0.550
       227  -9.8263     86.5766     59.4284   7.8566655467e+01   5.4567289242e+01    0.3823847    0.2951657  46.53  0.001899283    1.338    0.253
       228 -10.3062    217.8914     61.2572   5.0389783729e+01   2.3359299752e+01    0.2464938    0.2054514  -6.45 0.0006917425    1.308    0.236
       229 -10.0073    201.9508     62.0264   5.2689270591e+01   2.6808686849e+01    0.2152445    0.1983154 -50.63 0.0007957383    1.053    0.050
       230 -10.2410    121.2410     61.7151   6.8508622024e+01   4.6441594291e+01    0.2540607    0.2209699  50.91 0.0007289184    1.157    0.136
       231  -9.4062    113.9717     61.9927   7.0639074616e+01   4.8093191314e+01    0.1758997    0.1755531  54.64 0.0009496058    1.011    0.011
       232 -10.8034     29.9613     60.8605   1.0339570702e+02   6.2700647071e+01    0.5865878    0.2645228  11.87  0.002368678    3.063    0.674
       233 -10.3716     35.5003    239.5166   1.2009673473e+02   2.1854687150e+01    0.2084894    0.1570014 -60.79  0.001508805    1.823    0.451
       234 -11.2282     26.8435     49.9307   1.0206073981e+02   6.5643020693e+01    0.5651733    0.3228163 -79.07   0.00263397    2.061    0.515
       235 -10.2677     37.4198     40.3855   9.3192963664e+01   6.6752263107e+01    0.3459885     0.272094  64.35  0.001191419    1.674    0.403
       236 -10.5698     41.5488     36.7363   8.9502197082e+01   6.7030723464e+01    0.4782057     0.313913  60.64  0.002240838    2.364    0.577
       237  -9.5259     69.3062     60.3656   8.5519106547e+01   5.7585329385e+01    0.1540029    0.1114361 -19.74 0.0007037027    1.745    0.427
       238 -10.4394     63.7579     59.6821   8.7581263954e+01   5.8664383228e+01    0.2459934    0.2033539 -52.49  0.000567593    1.153    0.132
       239 -10.7376     59.0580     58.8474   8.9311750153e+01   5.9595674880e+01    0.3486439    0.2612826  59.72   0.00139689    1.633    0.388
       240 -12.1192    147.1634     55.6927   6.0205454898e+01   4.1127295076e+01    0.4532967    0.2544551 -34.55  0.001887356    1.748    0.428
       241  -8.8492    142.2906     58.2795   6.2134034623e+01   4.1915587790e+01    0.1502343    0.1191931  20.22 0.0002407582    1.525    0.344
       242 -11.3868     75.2983     56.1144   8.1596816898e+01   5.7450221825e+01     0.245885    0.2341525 -55.93 0.0002794516    1.070    0.065
       243 -10.0909     98.6482     55.9341   7.3139080107e+01   5.2736699729e+01    0.2663534    0.2045713  34.03 0.0006825837    1.395    0.283
       244  -9.2222     70.2983     56.3118   8.3673744260e+01   5.8311243971e+01    0.1473592    0.1125939 -15.02 0.0003859714    1.602    0.376
       245 -12.3109    130.1289     49.2999   6.1811142173e+01   4.6464665846e+01     0.529137    0.3759916 -13.66 0.0007024315    1.719    0.418
       246 -10.2090    119.7592     52.9808   6.5786249581e+01   4.8391533889e+01     0.258632    0.2023408  27.46 0.0002307893    1.468    0.319
       247 -10.8429     87.2137     51.2990   7.5273699320e+01   5.6100306356e+01    0.3920438    0.3298559 -25.73  0.001437267    1.225    0.184
       248  -9.4035     62.1817     53.1520   8.5939971859e+01   6.0385417042e+01    0.1896153    0.1687945 -83.22 0.0004501554    1.299    0.230
       249 -10.6202      3.5656     47.2073   1.1409911563e+02   6.7814139512e+01    0.2799217    0.2196653 -20.80  0.001774425    1.403    0.287
       250 -10.9172     11.3145     44.4932   1.0918260631e+02   6.8095082198e+01    0.4904732    0.2145344 -60.14  0.001689108    1.799    0.444
       251 -11.6840      6.8331     51.8345   1.1317501544e+02   6.6541410242e+01    0.4341732    0.2763178 -15.52  0.002413688    1.842    0.457
       252 -10.8205     12.2690     51.0050   1.1011513827e+02   6.6459647070e+01    0.3080826    0.2105522 -74.38 0.0009439185    1.314    0.239
       253 -10.1895     73.5138     51.3176   8.0491384061e+01   5.8799016558e+01    0.3390115    0.2367424  18.33  0.001248848    1.828    0.453
       254  -9.7540     78.5254     50.5145   7.8200973498e+01   5.8010387603e+01    0.2753325     0.145422  40.02 0.0009269061    1.979    0.495
       255 -10.4453     78.4904     47.0932   7.6845659212e+01   5.8707435215e+01    0.2750052    0.1923191 -46.17 0.0003935646    1.412    0.292
       256 -10.2986     44.9665     50.9139   9.3109322826e+01   6.3418981046e+01     0.354505    0.1744936 -55.09  0.001554328    1.849    0.459
       257  -9.9016    104.0005     47.6487   6.8264762371e+01   5.3088091244e+01    0.3262813    0.2080095 -46.80  0.001440622    1.626    0.385
       258 -10.1035     53.5381     50.2251   8.8763372527e+01   6.2384262342e+01    0.2489252    0.1978144  32.44 0.0008759613    1.342    0.255
       259  -9.9000    166.8522     48.8487   5.4211096836e+01   3.7210498751e+01    0.2126348    0.1975329  24.83 0.0004470748    1.178    0.151
       260 -10.7763    155.9268     46.3764   5.5343905802e+01   4.0356441011e+01    0.4419961    0.2473498 -25.70  0.001401172    1.899    0.473
       261 -11.0636    151.6291     47.8386   5.6651509150e+01   4.1236417940e+01    0.3081589     0.250064  39.85 0.0003481082    1.325    0.245
       262 -11.2293    112.6623     47.2693   6.5580085433e+01   5.1107281162e+01    0.5062835    0.3906779  85.74  0.001602082    1.638    0.389
       263 -11.0037     92.1138     44.5384   7.0842322544e+01   5.6344481029e+01     0.642015     0.253117 -49.59  0.002105657    3.166    0.684
       264  -8.9511     65.4955     46.5116   8.1937532796e+01   6.1253080259e+01    0.1437782    0.1346307 -26.10 0.0002698589    1.014    0.014
       265  -9.2787    240.4211     44.8171   4.3844096266e+01   2.0697244827e+01     0.166924    0.1124707 -16.90 0.0004287875    1.544    0.352
       266 -10.1118     56.5996     40.8433   8.3621332351e+01   6.3936864857e+01    0.2870049    0.2451113 -83.92  0.001099441    1.503    0.335
       267 -10.7836     51.1212     44.9635   8.7922156080e+01   6.3905513889e+01    0.2360626    0.2048127  25.85 0.0003747798    1.223    0.182
       268 -11.6230     51.4035     40.3438   8.5920751852e+01   6.4857877918e+01    0.4037046    0.3499987 -24.07  0.000968809    1.118    0.105
       269  -9.1998    174.7287     44.0052   5.1405283534e+01   3.5912299088e+01    0.1890058     0.124282 -30.94 0.0008778558    1.471    0.320
       270  -9.6991     74.7765     44.2400   7.7131447854e+01   6.0000832861e+01    0.1983141    0.1656704   7.30 0.0006506944    1.340    0.254
       271  -9.4930    211.5633     43.5394   4.6433023618e+01   2.7089780397e+01    0.1367292    0.1221386 -43.12 0.0001301797    1.013    0.012
       272 -10.8517    120.6732     47.0076   6.3318214774e+01   4.9199262512e+01    0.4463413    0.3006904   9.03 0.0007187859    2.282    0.562
       273 -10.8143     65.0400     41.9932   8.0265985046e+01   6.2263046363e+01    0.4100091    0.2494339  51.82  0.001390971    1.950    0.487
       274 -11.6080     69.3780     37.6114   7.6483881126e+01   6.2325551341e+01    0.5221888    0.3638723 -31.17  0.002586824    1.450    0.311
       275 -10.9195     23.9379     42.2636   1.0136313245e+02   6.7717795281e+01    0.5072675     0.270089  57.67 0.0006783115    3.028    0.670
       276 -12.3948     27.6980     38.0619   9.7794936835e+01   6.8340246272e+01    0.5450686    0.3385428 -39.02  0.001207301    1.519    0.342
       277 -12.3942     24.3801     35.1196   9.8700767585e+01   6.9325481994e+01    0.5136918    0.2775658  -5.12  0.000368358    2.674    0.626
       278 -10.6980      7.0606     41.3180   1.1091074519e+02   6.9082304937e+01     0.284983    0.1345766 -59.46 0.0006250269    1.663    0.399
       279  -9.1640    163.1407     42.1984   5.2685149175e+01   3.9110714528e+01    0.1999213    0.1623878 -59.45 0.0003878683    1.256    0.204
       280  -9.8508    149.1224     41.6305   5.5001048637e+01   4.2805322212e+01    0.2552551    0.1751701 -25.13  0.001174125    1.524    0.344
       281 -11.4624     99.4686     38.7147   6.6013451944e+01   5.5700675482e+01    0.7374029    0.4480875  16.83  0.002744096    2.839    0.648
       282 -11.0773    105.2052     34.6385   6.2571152971e+01   5.4998683577e+01    0.3651433    0.2418488 -48.83 0.0007095026    1.651    0.394
       283 -10.6340    137.5869     41.0325   5.7109379451e+01   4.5872080558e+01     0.271441    0.2173355  61.89   0.00135459    1.243    0.195
       284 -10.2817    114.7977     39.6998   6.2016233478e+01   5.1848950625e+01    0.3669795    0.2457181 -13.49   0.00135757    1.866    0.464
       285 -10.7168    143.2477     45.9511   5.7683779353e+01   4.3671109789e+01    0.3388554    0.2722631 -67.55 0.0006116259    1.374    0.272
       286  -9.9525    120.1914     40.3634   6.0883653482e+01   5.0401676918e+01    0.2175132    0.1433339  72.49 0.0005688763    1.786    0.440
       287 -10.4057    147.6094    245.2276   9.9172754667e+01   7.5927868923e+00    0.1341186   0.09877855 -25.15 0.0009568274    1.717    0.418
       288  -9.0796    188.4218     39.4782   4.8081237365e+01   3.3106479707e+01    0.1424815    0.1305976 -50.18 7.162504e-05    1.012    0.012
       289  -9.0821    154.4955     38.5594   5.2951413946e+01   4.1850616104e+01    0.1489708    0.1409315 -70.92 3.721318e-05    1.035    0.034
       290 -10.0795      2.0517     37.1713   1.1300620753e+02   7.0287998157e+01    0.2324101    0.1640918 -40.27    0.0012859    1.316    0.240
       291 -10.4375    230.2892     35.1923   4.2370447467e+01   2.3948309805e+01    0.2912808    0.2102592   6.92  0.001578334    1.856    0.461
       292 -11.8093     57.8864     34.8293   8.0366219971e+01   6.4939699772e+01    0.3251601     0.311469   6.63 0.0003350093    1.076    0.071
       293 -10.1507     54.7158     30.3006   7.9768369091e+01   6.6355539987e+01    0.2183601    0.2051339 -65.27            0    1.251    0.200
       294  -9.2486    135.5191     35.4764   5.5486066262e+01   4.7218404114e+01    0.1488251    0.1445171  41.98 -5.756942e-05    1.053    0.051
       295 -10.0283     95.0915     34.8896   6.5744170838e+01   5.7354074320e+01    0.2228399    0.2024328 -67.81 0.0004631012    1.233    0.189
       296 -11.5256      9.0208     33.4905   1.0773743913e+02   7.0833905743e+01    0.6660839    0.3042463  32.37  0.002909519    2.488    0.598
       297 -11.1339     17.5553     30.9847   1.0147054434e+02   7.0844195608e+01     0.415595    0.2412013  17.06  0.002204392    1.930    0.482
       298 -10.2186     22.3800     25.9804   9.6397268973e+01   7.1538926640e+01    0.3273844    0.2757355   4.36  0.001825927    1.256    0.204
       299 -11.4480    192.7860     33.0376   4.5631119045e+01   3.2845620836e+01    0.2523108    0.2294852 -42.30 0.0002694899    1.050    0.048
       300 -10.0710    246.9762     33.2998   4.0523584377e+01   2.0701637802e+01    0.1654125    0.1475207 -55.79 0.0004086543    1.113    0.102
       301 -10.9591    166.5468     31.9451   4.8766438725e+01   3.9605448519e+01    0.3370024    0.2619633 -73.35 0.0007515344    1.358    0.264
       302  -8.8659    119.6431     33.3158   5.8212775996e+01   5.1611950901e+01    0.1586687    0.1142598 -69.73 6.905115e-06    1.748    0.428
       303 -12.4380     74.5002    238.8368   1.1255712027e+02   1.7713659268e+01    0.5717366    0.4552976 -82.99  0.004395135    1.498    0.332
       304 -12.0848    100.8198     28.7745   6.1278687855e+01   5.6955928407e+01    0.4720431    0.3680914  -5.35   0.00236458    1.457    0.314
       305 -10.0923    179.3098    243.6790   9.3286054230e+01   3.7109039059e+00   0.09957311   0.07506877  46.28 0.0007035774    1.646    0.392
       306 -12.0230     48.1032     31.4311   8.3664715877e+01   6.7197081257e+01    0.3805485    0.3043012  -6.95            0    1.344    0.256
       307 -10.9800    235.9090     30.1748   4.0638315655e+01   2.3325046031e+01    0.2650238    0.2393383  41.01   0.00121823    1.353    0.261
       308  -9.2034    157.5457     31.4715   4.9998859087e+01   4.2006652400e+01     0.148008    0.1377451 -66.58 9.200889e-05    1.043    0.042
       309  -9.5148    139.1449     30.7898   5.3000562784e+01   4.6919638401e+01    0.1937218    0.1684258  23.64 0.0003782528    1.274    0.215
       310 -10.3371     99.0823     20.6561   5.8053212944e+01   5.8523341526e+01    0.2428958    0.1969421 -27.73 0.0002986489    1.254    0.203
       311 -11.7664     81.6876     35.0451   7.0439380112e+01   6.0309563899e+01    0.4497347    0.2691943 -28.52  0.001150423    1.794    0.443
       312 -11.6602    111.7244     25.2402   5.6779499864e+01   5.4758102887e+01    0.4434368    0.3373657 -38.62  0.001017588    1.340    0.254
       313 -10.2230    209.0042     27.4889   4.2313832445e+01   2.9616068555e+01     0.184778    0.1312559  76.06 0.0003637088    1.482    0.325
       314 -10.4075    195.6765     25.9181   4.3221247938e+01   3.2983394557e+01    0.3841455    0.2092429  38.15  0.001370786    2.529    0.605
       315  -9.7935    124.1345     21.8985   5.2525759131e+01   5.1998078066e+01    0.2436059    0.1834681  44.07  0.001209506    1.344    0.256
       316 -10.2311    119.0532     25.5407   5.5152868471e+01   5.2847816640e+01    0.2780197    0.2054596 -28.66 0.0004363956    1.381    0.276
       317  -9.8000    120.4984     20.9869   5.2920084612e+01   5.3058097380e+01     0.339835    0.2638732  27.11 0.0009985674    1.433    0.302
       318 -10.8650    128.5023     23.5204   5.2286347629e+01   5.0653110886e+01    0.3229626    0.2802155  86.01   0.00172551    1.186    0.157
       319 -10.4397     88.8812    241.2249   1.0994003039e+02   1.5619287355e+01    0.1820029    0.1355143 -25.81  0.001228246    2.115    0.527
       320 -10.6918     70.3796     25.9829   7.0529084653e+01   6.4212244226e+01    0.3618889    0.2540238  27.05  0.001800703    1.567    0.362
       321  -9.2832     16.5692     26.5607   1.0049715631e+02   7.1914108906e+01     0.128477    0.1064902 -42.29 0.0001698314    1.026    0.025
       322  -9.0343    218.6695     25.7335   4.0950229405e+01   2.7589987360e+01    0.1242265   0.09875114  33.84 0.0003292779    1.578    0.366
       323  -9.6792     65.5192     25.4708   7.2333005022e+01   6.5264895570e+01    0.1977713    0.1302431 -46.42 0.0005534124    1.619    0.382
       324 -11.0039     67.0023     21.2361   6.9485955895e+01   6.5670082229e+01    0.3576625    0.2107469  44.12  0.001108898    1.692    0.409
       325 -10.5569     62.0000     25.0055   7.3663288939e+01   6.6019391396e+01    0.2122877    0.1490819 -52.18 0.0005472794    1.657    0.396
       326 -10.7541     10.2225     24.9214   1.0425066894e+02   7.2728417629e+01    0.3107638    0.1769376   4.12  0.001170386    2.032    0.508
       327  -9.5296      1.7299     25.6404   1.1042594900e+02   7.2998681532e+01    0.1432607    0.1129127  18.90 0.0006396323    1.489    0.328
       328 -10.2860    156.5033    241.5058   9.7122959169e+01   6.9180629269e+00    0.1127114   0.08453014  28.08 -3.232915e-05    1.008    0.008
       329 -10.7102     55.1068     22.9641   7.5860700602e+01   6.7636379576e+01    0.2668334    0.1869125 -14.81  0.001351314    1.626    0.385
       330  -9.4661     36.3296     22.9151   8.6130042432e+01   7.0579054505e+01     0.181143    0.1526568 -32.52 0.0004828777    1.059    0.056
       331  -9.7156    155.7134     21.9837   4.6983187609e+01   4.3651880432e+01    0.1975445    0.1821484 -50.83 0.0002201014    1.065    0.061
       332 -10.1293    195.4311    238.7308   8.9858006985e+01   2.2378935798e+00    0.2225834      0.13632  18.72  0.001503747    1.343    0.256
       333 -12.1075    226.0259    245.9535   8.5779761155e+01  -2.1932543680e+00    0.4450211    0.2289279  -1.11   0.00272877    2.244    0.554
       334  -9.8611    135.0380    237.9819   1.0074371954e+02   1.0211089525e+01    0.1810643    0.1116139 -20.65  0.001028402    2.622    0.619
       335 -10.0118     24.2288    232.3475   1.2195782801e+02   2.4167148103e+01    0.1614441    0.1552213  74.49 0.0007236264    1.430    0.301
       336 -10.9992     29.5799    232.9202   1.2095389792e+02   2.3553159057e+01    0.2652814    0.1887505  54.44  0.002025232    1.022    0.022
       337 -10.2251    159.9856    236.0192   9.5836350048e+01   7.1685563358e+00    0.1755338     0.116321   8.67  0.000533162    1.657    0.397
       338  -9.0256    115.6612    244.6968   1.0509792675e+02   1.1767964033e+01    0.1064925   0.07647916  10.90 0.0007038782    1.672    0.402
       339 -11.6123     37.7417    243.9688   1.1986434633e+02   2.0898547749e+01    0.4215588    0.2749079  80.26   0.00291602    1.535    0.349
       340 -11.1312    153.8033    233.5566   9.6692773355e+01   8.3200072577e+00    0.1780875     0.155321 -20.54 0.0007461465    1.367    0.268
       341 -10.2350    160.3395     18.6238   4.5156522812e+01   4.2815004667e+01    0.4083494    0.1939083 -52.57  0.001234808    2.328    0.570
       342 -10.4331     86.5916    233.2445   1.0975894474e+02   1.7161243431e+01    0.2275051   0.09901901  42.97  0.000950287    1.722    0.419
       343 -10.0712    139.2175     20.2582   4.8997151568e+01   4.8221262659e+01    0.2196686    0.1895207  32.93 0.0004407988    1.250    0.200
       344 -10.9962    131.9882     25.8349   5.2504854752e+01   4.9445511692e+01    0.4117471    0.2480541  49.09 0.0007731889    1.654    0.395
       345  -9.2082     38.4854    232.5669   1.1921704103e+02   2.2723343539e+01    0.1092802   0.07938787  51.33 0.0002458738    1.012    0.012
       346  -9.9603    177.3182    235.0886   9.2563695043e+01   4.9963268260e+00    0.1677081     0.120347  -3.20 0.0009811145    1.465    0.318
       347  -9.9019     79.9850    231.5241   1.1094120287e+02   1.8249126237e+01    0.1738649   0.08737897  36.48 0.0005287839    1.534    0.348
       348 -10.3322     31.1379     12.8725   8.3926044503e+01   7.3185052245e+01    0.1974528    0.1644052 -20.53 0.0003130733    1.061    0.057
       349  -9.4952    130.6763    227.3335   1.0042345837e+02   1.2337207628e+01    0.1170769   0.07730373  55.31 0.0007050676    1.708    0.414
       350 -10.9335    120.3819    226.2955   1.0235351924e+02   1.3890907035e+01    0.1704712    0.1481177  78.71 0.0007341041    1.420    0.296
       351 -10.0586    190.4617    226.9720   8.9142222958e+01   4.2528445945e+00    0.2534374    0.1355278 -40.94  0.001527634    2.306    0.566
       352 -11.1983    170.4803     18.5608   4.3825661173e+01   4.0171436618e+01    0.3328351    0.2388963 -73.52 0.0007809483    1.448    0.310
       353 -10.7154    165.0961     17.6475   4.4196755010e+01   4.1674434516e+01    0.2415975    0.2268908 -33.87 0.0002477054    1.102    0.093
       354 -10.6331      4.5683    226.1963   1.2551951977e+02   2.7003432592e+01    0.2840964   0.08821564  44.22  0.001530468    2.000    0.500
       355 -10.0410     66.0355    226.1794   1.1336300784e+02   2.0809734520e+01    0.1606154    0.1363181  33.16  0.000607656    1.258    0.205
       356 -10.1155     26.5516    224.5321   1.2120805248e+02   2.5311442624e+01    0.1100897   0.07925767  54.94 0.0001068083    1.011    0.011
       357 -10.9682     21.2832    222.1499   1.2215812542e+02   2.6237141428e+01    0.1957222    0.1135381  80.62   0.00131541    1.604    0.377
       358 -10.5098     77.8085     15.1807   6.2019939107e+01   6.4259597530e+01    0.2337644    0.2049357  24.06 0.0002674927    1.099    0.090
       359  -9.6451    242.2992     15.3368   3.6562758650e+01   2.3578184563e+01    0.1152025   0.09296325  19.34 0.0007033998    1.658    0.397
       360  -9.3688    233.6796     14.7050   3.6969792434e+01   2.5458862753e+01    0.1165737   0.09478424  29.38 0.0006409675    1.613    0.380
       361 -10.2690    123.5056    222.0686   1.0126511776e+02   1.4124313198e+01    0.1714666    0.1422827 -12.66  0.001179282    1.503    0.335
       362 -10.1074    142.1943    220.9059   9.7395941508e+01   1.1705800625e+01     0.229965    0.1344677  15.97  0.001227911    2.084    0.520
       363  -9.2807     41.6903    220.6873   1.1798803368e+02   2.4478544796e+01   0.09425506    0.0857217 -17.37 0.0007028134    1.627    0.386
       364  -9.1062    250.4733    219.4783   7.8203281914e+01  -2.4231895579e+00    0.1075934   0.07474248   5.60 0.0008095293    1.027    0.027
       365  -9.7431    167.3841    233.7695   9.4198590039e+01   6.4752351092e+00    0.1370306   0.09925963 -20.55 0.0009447741    1.602    0.376
       366 -11.4228      9.5398    217.1297   1.2431819997e+02   2.8204115103e+01    0.3020448    0.1421979  50.76  0.001396536    1.506    0.336
       367 -11.3917    241.1600    211.5661   7.8398458621e+01  -5.0818357492e-01    0.4217484    0.3170135  30.98  0.003151587    1.506    0.336
       368  -9.5741     37.9401    217.4957   1.1858954946e+02   2.5447996643e+01    0.1644517   0.09179866  34.01 0.0007038426    1.546    0.353
       369 -11.6445     30.1285    215.9184   1.2011849807e+02   2.6524363345e+01    0.4028187    0.2247178  15.50  0.002257526    2.548    0.608
       370  -9.5179    137.1724    215.6256   9.7745630566e+01   1.3217845643e+01    0.1783517   0.09613317  27.27 0.0009465896    1.732    0.422
       371  -9.9437    110.0460    243.2299   1.0603411843e+02   1.2690687007e+01    0.2010388    0.1218199  63.88  0.001090891    2.111    0.526
       372  -8.9459    149.0000    213.9890   9.5167521572e+01   1.1774708578e+01    0.1545248   0.06955196 -48.37 0.0007677444    2.707    0.631
       373 -10.8262     21.5300    212.5397   1.2174039789e+02   2.7976705415e+01    0.3070695    0.1173855  47.66  0.001710364    1.855    0.461
       374 -10.1898    208.9620    212.0558   8.3738555608e+01   3.5828502264e+00    0.1756821    0.1325516  10.80 0.0005040039    1.042    0.041
       375  -9.5103     76.3308    212.3093   1.1014450373e+02   2.2025867360e+01    0.1080399   0.09018604  -3.82 0.0007041264    1.667    0.400
       376 -10.0409     10.6986    208.6207   1.2382533212e+02   2.9687689218e+01    0.1834512    0.1612097 -17.99 0.0007366586    1.755    0.430
       377 -10.1468      2.3147    212.2984   1.2562433318e+02   2.9702345033e+01    0.1891733     0.119773  57.81  0.001166514    1.139    0.122
       378 -11.9954      4.6523    207.7630   1.2503660244e+02   3.0360694285e+01    0.5370143    0.2196778  72.65  0.003033255    2.103    0.524
       379  -8.8778    188.3140    209.6575   8.7036009131e+01   6.7408723986e+00    0.1059403   0.09052867  55.44 0.0003175176    1.706    0.414
       380 -10.8555     19.5155    200.9747   1.2169213413e+02   3.0378832254e+01    0.2861932    0.1324815 -63.56  0.001435464    2.493    0.599
       381 -10.3707    175.4231    202.7099   8.8397717181e+01   9.5670240966e+00    0.2105627    0.1591067  31.34 0.0005285273    1.148    0.129
       382  -9.3249    243.3118    202.3032   7.6582377503e+01   2.1791998760e-01    0.1145542   0.06712966   5.08 0.0002378648    1.612    0.380
       383 -11.6208    214.9580    201.6325   8.1071465292e+01   4.0326069864e+00    0.1874922    0.1504898 -15.60 0.0001842473    1.256    0.204
       384  -9.4306      9.5232    202.5054   1.2387228066e+02   3.0960291313e+01    0.1123379    0.0827914  59.97 0.0002925356    1.001    0.001
       385  -9.1819    223.4888    201.5057   7.9619659392e+01   2.8869763057e+00     0.112836   0.09122129   8.97 0.0008079134    1.118    0.105
       386  -9.3931     34.4643    201.4421   1.1847212077e+02   2.8848554207e+01     0.114179   0.09242924  57.43  0.000533687    1.061    0.058
       387  -9.6608    215.4952    194.5425   7.9814061086e+01   4.8379982676e+00    0.1204868   0.09242693   8.08 -7.680878e-06    1.051    0.048
       388 -10.7227     16.1025    193.0400   1.2210608978e+02   3.2264182297e+01    0.2209974    0.1538812  26.26 0.0009406396    1.571    0.364
       389  -9.4427    211.5846    188.2199   7.9416198758e+01   6.2110418100e+00    0.1636095    0.1004665 -18.01  0.000676016    1.647    0.393
