#   1 NUMBER                 Running object number                                     
#   2 MAG_AUTO               Kron-like elliptical aperture magnitude                    [mag]
#   3 X_IMAGE                Object position along x                                    [pixel]
#   4 Y_IMAGE                Object position along y                                    [pixel]
#   5 X_WORLD                Barycenter position along world x axis                     [deg]
#   6 Y_WORLD                Barycenter position along world y axis                     [deg]
#   7 A_WORLD                Profile RMS along major axis (world units)                 [deg]
#   8 B_WORLD                Profile RMS along minor axis (world units)                 [deg]
#   9 THETA_WORLD            Position angle (CCW/world-x)                               [deg]
#  10 FWHM_WORLD             FWHM assuming a gaussian core                              [deg]
#  11 ELONGATION             A_IMAGE/B_IMAGE                                           
#  12 ELLIPTICITY            1 - B_IMAGE/A_IMAGE                                       
         1 -11.7736     60.4936     47.3847   6.9473809252e+01   6.2140258449e+01    0.9717264    0.5284994 -49.90  0.004154953    1.865    0.464
         2 -12.3377    125.5869     28.0439   3.8566105782e+01   5.0296495276e+01    0.7632563    0.6371599  56.75  0.003975171    1.129    0.114
         3 -11.0830    109.5783     41.8820   4.8146738387e+01   5.2433558209e+01     1.119721    0.4401513 -34.47    0.0039053    2.654    0.623
         4 -12.6500    119.8719     38.1498   4.3880527547e+01   5.0382892227e+01     1.041098    0.5750239 -50.78  0.003674567    2.167    0.539
         5 -11.5421     79.4738     35.4484   5.5742848942e+01   6.0739695875e+01     0.902128    0.5637732 -35.24  0.004059637    1.677    0.404
         6 -12.3115    160.0602     29.6980   3.2928789903e+01   4.0932374518e+01    0.5281754    0.4566882  12.26 0.0004327548    1.337    0.252
         7 -11.7002    106.1277     20.7048   4.0108402361e+01   5.6428595351e+01    0.6369705    0.4511706 -58.64  0.002135192    1.689    0.408
         8 -11.8455     36.0954     18.1169   7.0210564230e+01   7.2165551016e+01    0.7140816    0.4230635 -44.82  0.003231328    1.649    0.393
         9 -12.2528     48.7756     13.0294   5.8860934442e+01   7.0974642713e+01     0.670664    0.3308587  45.07  0.002931459    2.002    0.501
        10 -12.0220     27.3246     27.5369   8.1137621921e+01   7.1255856468e+01    0.6706094    0.4837454 -24.23  0.002336389    1.395    0.283
        11 -12.5211     20.0512     21.7046   8.4226562593e+01   7.3273303367e+01    0.6011415    0.2613515 -53.15   0.00200498    2.000    0.500
        12 -10.7200     14.0336      8.5189   8.3343049635e+01   7.6681280334e+01    0.3156089    0.2482314 -27.66 0.0007496955    1.123    0.109
        13 -12.2938     15.3302     14.8313   8.5214856760e+01   7.5201936586e+01    0.9554261     0.410175 -32.69  0.004017131    2.535    0.606
        14 -12.0325     22.6539     11.3673   7.6970396984e+01   7.5253814318e+01    0.4991804    0.3626919  -7.44   0.00198107    1.394    0.283
        15 -11.3123    145.1162     24.3361   3.3443567230e+01   4.5517471161e+01    0.8879014    0.2949978  47.11  0.002851934    3.345    0.701
        16 -11.6865    122.0993      5.9101   3.0179794314e+01   5.3738537491e+01     1.712168    0.8852477   3.16  0.006539272    2.908    0.656
        17 -10.8516    147.8815     16.3540   3.0151384627e+01   4.5667002515e+01    0.6284739    0.3121195  34.91  0.002373374    2.791    0.642
        18 -11.8682    136.0268     22.4016   3.4307398512e+01   4.8189091033e+01    0.8878664    0.4362029  55.10  0.003656918    1.877    0.467
        19 -11.2366    121.5913     12.0581   3.2865762079e+01   5.3266909067e+01    0.7791097    0.3755744  63.45  0.003209004    1.845    0.458
        20 -11.4205    127.8133     15.9358   3.3290235477e+01   5.1153274522e+01    0.5745767    0.4511585  14.14  0.002235705    1.508    0.337
        21 -13.3759    163.6565     19.0545   2.8931550165e+01   4.1200333944e+01    0.5767466    0.3276723  52.73 0.0009246276    1.780    0.438
        22 -10.2768     88.8390      7.4891   3.8424187873e+01   6.2532511397e+01    0.3548377    0.2513923  20.32  0.001040298    1.612    0.380
        23 -10.0540     78.0206      7.4964   4.1882446337e+01   6.5276910550e+01    0.5029978    0.2134462  66.07  0.001823496    2.704    0.630
        24 -10.9219     74.4447      3.3836   4.0732189131e+01   6.6631109692e+01    0.5489019    0.2880333  60.69  0.002409562    1.795    0.443
        25 -11.1586     90.9370     21.8371   4.5073993617e+01   6.0194703116e+01    0.4806859    0.3448099 -23.02  0.001884375    1.517    0.341
        26 -11.9802     86.1620     14.2734   4.2826321990e+01   6.2410451370e+01    0.9602895    0.4773479 -38.45  0.002945283    2.160    0.537
        27 -10.9403    178.7158     20.9843   2.7750653097e+01   3.7143901155e+01    0.5424258    0.2543345  38.70  0.001955852    3.044    0.671
        28 -11.4272    134.6379     14.9759   3.1709315814e+01   4.9398188940e+01    0.6027249     0.332868  58.36  0.002502904    1.652    0.395
        29 -11.9243     68.2502     18.1081   5.1791295985e+01   6.6139955444e+01     0.555981    0.4876102  46.83  0.001803522    1.122    0.108
        30 -12.1722    227.6895     15.1478   2.1964950846e+01   2.6465177792e+01    0.4879812    0.2931517 -72.17  0.001454232    1.749    0.428
        31 -11.2258    184.6098      6.3698   2.2809915480e+01   3.7114066426e+01    0.4649076    0.3974854 -32.97  0.001217168    1.180    0.153
        32 -11.6792    192.2257      8.8887   2.2909241000e+01   3.5024844945e+01    0.7493936     0.440095  -9.22  0.003619545    2.087    0.521
        33 -12.4537    104.6130     12.9611   3.6938129284e+01   5.7765329860e+01    0.6139825    0.4544472 -16.72   0.00306755    1.501    0.334
        34 -11.3423    106.5111      2.3833   3.1526326035e+01   5.8330686411e+01    0.6477234    0.3480506  80.51  0.002425113    2.000    0.500
        35 -11.5532    115.6397      2.4614   2.9819513175e+01   5.5827002051e+01       0.5181    0.3078878  63.55  0.002404916    1.485    0.327
        36 -11.3390    243.8948     13.4939   2.0595860171e+01   2.3371066505e+01     0.208672    0.1275661 -46.07 0.0007357142    1.339    0.253
        37 -10.5736    162.7138      9.5210   2.5907411631e+01   4.2407108082e+01    0.6345417    0.2804653  -8.33  0.002323799    3.290    0.696
        38  -9.7786      5.3765      9.6972   9.2456856071e+01   7.6968471424e+01    0.2517523    0.1571372 -51.49 0.0007755029    1.356    0.263
        39 -11.4034    211.8518      9.6803   2.1659001417e+01   3.0396284664e+01    0.5459418     0.310338   2.88  0.002369464    2.682    0.627
        40  -9.7992     98.3404     11.8872   3.8022484128e+01   5.9553713017e+01    0.2333378    0.1809316 -45.20  0.001183869    1.420    0.296
        41 -10.4000    169.0593      9.4688   2.5209323445e+01   4.0759650290e+01    0.4211247    0.1804761  54.06  0.001728088    2.352    0.575
        42 -10.8032    145.4924      9.4779   2.8005569375e+01   4.7005754475e+01    0.2687564    0.2225948  41.35 0.0005632547    1.298    0.229
        43 -10.2613     65.6329     10.3328   4.8450369796e+01   6.7863960399e+01    0.3288783    0.1912288  54.83  0.001504375    1.681    0.405
        44  -9.7807     62.9736      6.9903   4.7579146118e+01   6.8917243799e+01    0.2798512    0.2005745 -22.57  0.001446839    1.470    0.320
        45 -11.9176    247.5140      5.6137   1.8643327694e+01   2.3390208419e+01    0.3774579    0.2708562  22.85  0.001883435    2.001    0.500
        46  -9.5765      1.1048      7.8541   9.6136968560e+01   7.7545644223e+01    0.3020346   0.05579171 -69.24 0.0009958218    4.192    0.761
        47 -10.5144    232.8990      7.6174   1.9851512896e+01   2.6091373619e+01    0.2415671    0.1610874 -31.54  0.001007995    1.307    0.235
        48 -11.7374    237.3830      5.2762   1.9066708638e+01   2.5396351878e+01    0.2890496    0.1789406 -51.24  0.001205776    1.358    0.264
        49 -11.0231    233.1919      2.4285   1.8616827875e+01   2.6492435446e+01    0.2401294    0.1618841 -52.35  0.000313721    1.247    0.198
        50  -9.9563    157.8432      7.1101   2.5645492257e+01   4.3917553737e+01    0.2095226    0.1832711  38.12 0.0003897067    1.274    0.215
        51 -10.2729    157.1562      2.2031   2.4051656520e+01   4.4536462694e+01    0.3222719    0.2420162 -37.38  0.001366848    1.333    0.250
        52 -11.0963    176.9028      5.9403   2.3349383503e+01   3.9079954690e+01    0.3632438    0.2016501  82.64 0.0009228227    1.774    0.436
        53 -11.2633    223.7816      2.4594   1.9115049121e+01   2.8447777424e+01    0.2484014    0.2016102 -57.49 0.0007287234    1.060    0.057
        54 -10.7273    137.5578      4.4959   2.7226818249e+01   4.9626840445e+01    0.3047251     0.236137  57.69 6.365528e-05    1.234    0.190
        55 -12.0207    132.8052      2.7312   2.7202983352e+01   5.1084092988e+01    0.8880696    0.3145924  73.93  0.003154369    2.660    0.624
        56 -10.4961    218.6461      3.3892   1.9631902427e+01   2.9469236207e+01    0.2602576    0.2045576  -0.34  0.001491733    1.558    0.358
        57 -11.0007    206.2880      2.5938   2.0175542275e+01   3.2292912741e+01    0.4248758    0.2372397 -78.18  0.002191817    1.834    0.455
        58 -11.1853      2.3843      1.9130   9.2423676948e+01   7.8833807302e+01    0.3125144     0.181829 -16.10  0.001366972    1.667    0.400
        59  -9.7945    152.2589      1.3867   2.4289783790e+01   4.5912954329e+01    0.2544259    0.1216256  71.62 0.0006127375    1.894    0.472
        60 -10.4666     41.6084      3.6825   5.7109182758e+01   7.3812614814e+01    0.3915209    0.2336791 -11.96  0.001769855    2.237    0.553
        61 -10.4429     22.5667      4.6407   7.2892499312e+01   7.6603118191e+01    0.2212528    0.2122609 -87.39 0.0002647944    1.399    0.285
        62  -9.5823     13.4663      1.6935   7.9972116350e+01   7.8153757470e+01     0.221252    0.1094203  19.72  0.001076482    2.025    0.506
        63  -9.9951     59.8202     23.7179   5.8905861714e+01   6.6991192784e+01    0.2340411    0.1885782 -22.86 0.0005232269    1.274    0.215
        64  -9.2644    249.3520    250.3048   6.5291570306e+01  -3.0458354280e+00     0.104402   0.05082461   6.30 0.0007041181    1.707    0.414
        65  -9.4279     79.3651    137.8031   8.4737962133e+01   3.7496976989e+01    0.1986185    0.1289812 -50.64 0.0009460954    1.673    0.402
        66  -9.5270     40.6744    138.1483   9.7167775064e+01   4.2217563015e+01    0.2231891    0.1508828  68.85  0.001164869    1.495    0.331
        67 -11.3924     22.6059    135.8472   1.0283553567e+02   4.4389057627e+01    0.4913215    0.3887626  30.70  0.002965622    1.238    0.192
        68  -9.6830     32.1766    137.8328   9.9890986848e+01   4.3103537960e+01    0.2685444    0.1808584  60.16 0.0009020816    1.405    0.288
        69 -11.0993     30.0914    133.0162   1.0015632842e+02   4.4462850021e+01    0.3572487    0.2522558 -53.66 0.0008019615    1.540    0.351
        70  -9.2368     47.4685    135.0278   9.4609314499e+01   4.2263871295e+01    0.2010144    0.1327206 -75.78 0.0008493857    1.557    0.358
        71  -9.9617     73.5154    133.4877   8.5895890756e+01   3.9357319716e+01    0.2856592    0.1429826 -63.75  0.001202772    2.138    0.532
        72  -9.8187     39.0602    133.3577   9.7208574600e+01   4.3546959448e+01    0.1911095    0.1545009  36.15 0.0004275169    1.170    0.145
        73  -9.3784     61.2735    132.3652   8.9711126998e+01   4.1277767989e+01    0.4091671    0.1952424   5.48  0.001248425    4.579    0.782
        74  -9.4489    103.9623    130.7147   7.5965414606e+01   3.5162718998e+01    0.2103249    0.1723759  34.72  0.001093893    1.125    0.111
        75  -9.5821     93.4107    129.9633   7.9006065378e+01   3.7121385220e+01     0.294272    0.2007491 -86.72  0.001301313    2.089    0.521
        76 -10.5953      9.7494    128.2838   1.0658678559e+02   4.7120506421e+01    0.4373183    0.2304853 -63.78  0.002206577    1.893    0.472
        77 -11.4859     22.9063    127.1109   1.0208283897e+02   4.6507500414e+01     0.271115    0.1995338  30.57 0.0003304371    1.324    0.245
        78  -9.2207    223.7045    126.3791   4.8411988762e+01   1.3814018789e+01    0.1201564   0.09363069 -51.40 0.0007022149    1.753    0.429
        79 -12.9065    103.7495    122.5638   7.4354072839e+01   3.7017549310e+01    0.3414095    0.3221372  11.04 0.0006492935    1.080    0.074
        80 -10.6625    239.3898    125.1920   4.5862787194e+01   1.1452916480e+01    0.1764437   0.09485578 -35.83  0.000959866    1.740    0.425
        81  -9.2284     84.8210    123.3455   8.0460123671e+01   4.0058278794e+01    0.2100105    0.1348432  21.38 0.0003824574    1.720    0.419
        82  -9.9532     49.9496    123.0327   9.2251329280e+01   4.4948460159e+01    0.2542727    0.1919637  16.65 0.0009967558    1.419    0.295
        83 -10.8085     44.2821    117.7123   9.3548418637e+01   4.6912375256e+01    0.5085989      0.32316  85.25  0.002429978    1.753    0.429
        84  -9.8835     48.6386    112.1866   9.1156834606e+01   4.7830574469e+01    0.3117884    0.2296782 -69.60  0.001618062    1.355    0.262
        85  -9.0553     13.9534    118.9596   1.0459598938e+02   4.9162515690e+01    0.1484608     0.133639  72.65 0.0003512163    1.006    0.006
        86 -10.4088      7.5455    114.9380   1.0662890748e+02   5.0539289384e+01    0.2623529    0.2425755  80.93 0.0005787174    1.051    0.049
        87 -12.0889      2.5127    111.7615   1.0827624732e+02   5.1579237621e+01    0.4427509    0.2384125 -88.24 0.0006498204    1.692    0.409
        88 -11.1695      4.0829    104.9313   1.0735296015e+02   5.3219160762e+01    0.4400685     0.276609  24.04  0.002062093    1.641    0.390
        89  -9.6702     79.2062    114.7445   8.0643877798e+01   4.3006481136e+01    0.2576303    0.1923748 -63.46  0.001267503    1.419    0.295
        90  -9.5147     67.9439    114.9657   8.4606563115e+01   4.4646840722e+01    0.2498644    0.1650762  61.60  0.001132102    1.748    0.428
        91 -10.5267     30.8055     95.5082   9.5743409607e+01   5.3918005719e+01    0.3076565    0.2628388  50.67  0.001279791    1.164    0.141
        92 -11.8223     17.5600    100.7747   1.0178731372e+02   5.3547787139e+01    0.3439337    0.3231275  61.41 0.0009675921    1.059    0.055
        93 -11.7283      9.6243     97.5671   1.0470679489e+02   5.4826047930e+01    0.5242922    0.4576028  35.35 0.0005420948    1.189    0.159
        94 -11.5687     27.2329     85.5288   9.5848581267e+01   5.6807781652e+01    0.6825927    0.5116935   5.10  0.001691985    1.483    0.326
        95 -12.1101      7.1543     89.1377   1.0508661069e+02   5.7104953468e+01    0.6541348    0.3808542  26.88  0.001879176    1.766    0.434
        96 -10.8860     35.0554     92.0884   9.3436859121e+01   5.4422020349e+01    0.6582694    0.3451385 -89.01  0.002442426    2.280    0.561
        97 -11.9101     42.4702     85.1973   8.8989289265e+01   5.5449390380e+01    0.9850618    0.4331921  13.65  0.003591068    2.966    0.663
        98 -11.5576     21.4160    114.5389   1.0156366226e+02   4.9768937477e+01    0.3889338     0.245751   1.79  0.001283609    1.900    0.474
        99 -10.9582     28.0689    113.1006   9.8961813535e+01   4.9619213696e+01    0.4179642    0.2618056  11.56  0.001320142    1.788    0.441
       100 -11.4353     22.5285     94.4827   9.9083010100e+01   5.4836500515e+01    0.3537983    0.2987108  -9.14  0.001204827    1.331    0.248
       101 -12.2177     18.2305     90.7385   1.0048274554e+02   5.6097212737e+01    0.4553604     0.303439 -80.35  0.000493448    1.408    0.290
       102  -9.5240     93.9834    112.6973   7.5272603476e+01   4.1012422532e+01    0.2205406    0.1882726  42.07 0.0009814773    1.112    0.101
       103  -9.7662      2.1544    125.9472   1.0899525928e+02   4.8109821779e+01    0.2084046    0.1409421  60.13 0.0008521101    1.315    0.240
       104  -9.7047    170.5749    110.6184   5.4369022621e+01   2.6081416074e+01    0.2679227    0.1368372 -31.80 0.0009365331    2.037    0.509
       105  -9.9703     66.1563    110.6699   8.4446886427e+01   4.5965781234e+01    0.2614212    0.1730819  35.29 0.0007958682    1.435    0.303
       106  -9.0424    120.2862    109.3427   6.6422796846e+01   3.6748233321e+01    0.1545888    0.1190366  -4.71 0.0007019379    1.643    0.391
       107 -10.2808    102.4503    108.5226   7.1592904324e+01   4.0420389425e+01    0.4007404    0.2450737 -30.95  0.001449102    2.139    0.533
       108 -11.5485     79.7772    107.9918   7.9039802180e+01   4.4546998319e+01    0.5995435    0.3074452  27.43  0.001020958    2.081    0.519
       109  -9.5063    143.4739    106.0246   5.9392125482e+01   3.2593359310e+01    0.2246533     0.148081 -42.67  0.001021576    1.581    0.367
       110 -10.0180    118.8967    105.9911   6.5986216881e+01   3.7740462111e+01    0.2276866    0.2134299  53.72 0.0004337072    1.101    0.091
       111 -10.3659     15.4716    108.7354   1.0329221612e+02   5.1644011263e+01    0.3400866    0.2241914  32.63  0.001841289    1.490    0.329
       112 -10.5358     35.0582    103.6436   9.5136824872e+01   5.1431843436e+01     0.413969    0.2244673   3.83   0.00117546    2.412    0.585
       113 -10.9704     52.2057     99.0390   8.7559840060e+01   5.0757322897e+01    0.6938205    0.4359721 -40.82  0.003180105    1.787    0.440
       114 -10.0380    145.7419    100.0842   5.7294007867e+01   3.3231955720e+01    0.3369499     0.200167 -30.34  0.001029836    1.876    0.467
       115 -10.9504     79.7252     97.6049   7.6692958037e+01   4.7066208229e+01    0.4693173    0.2669002  52.58  0.001898047    2.019    0.505
       116 -10.3125     83.0814     93.1536   7.4364698646e+01   4.7551335607e+01    0.3102536    0.2184456  25.30 0.0007884032    1.513    0.339
       117 -10.8150     78.1758     92.7332   7.6070519493e+01   4.8504295421e+01    0.4767673    0.4214529 -27.07  0.002499613    1.225    0.184
       118 -11.6438     68.9629     95.8504   8.0316676149e+01   4.9234547005e+01    0.4900614    0.3349693  18.52 0.0008954058    1.648    0.393
       119 -10.7354     43.1066     94.3861   9.0424344942e+01   5.3010247907e+01    0.3611634    0.3178155  19.78    0.0013117    1.183    0.155
       120 -10.8770    125.0736     94.3782   6.1154469020e+01   3.8858535394e+01    0.5114862    0.2855591  50.96  0.002070429    1.844    0.458
       121 -11.3689     98.5919     91.0464   6.8369923673e+01   4.5117740107e+01    0.2914281    0.2614646  44.34  0.001507676    1.081    0.075
       122 -12.3176     89.1497     89.8156   7.1297422133e+01   4.7227114372e+01    0.3966658     0.312931 -37.69 0.0003560143    1.355    0.262
       123 -10.5769     49.2038     91.0529   8.7247528526e+01   5.3167222869e+01     0.334167    0.2740866  41.19  0.001454259    1.212    0.175
       124 -10.0422     65.7221     89.0393   7.9995662742e+01   5.1418267378e+01    0.4055096    0.2569968  -7.82  0.001588842    2.553    0.608
       125 -10.3916    104.1942     87.5055   6.5524192349e+01   4.4764216863e+01    0.2875185    0.2208841 -44.06  0.001367726    1.353    0.261
       126 -10.7550     80.4081     83.8581   7.2881449829e+01   5.0232549303e+01    0.4415791    0.3904408 -34.08  0.002099335    1.186    0.157
       127 -11.3605     74.9260     78.5156   7.3512351592e+01   5.2471031028e+01    0.6899458    0.5487496  53.19  0.002493344    1.329    0.248
       128 -10.4777    143.2268     84.3233   5.3556055402e+01   3.6725207674e+01    0.2549021    0.2358668 -32.24 0.0005603672    1.102    0.092
       129 -10.8930    112.9887     83.1137   6.1460570407e+01   4.3822322348e+01    0.5839522    0.4062305  68.87  0.002470432    1.934    0.483
       130  -9.3621    165.5762     83.7795   4.8439027643e+01   3.1680260946e+01    0.2108352    0.1333859 -44.78 0.0009496341    1.651    0.394
       131 -12.0084     25.1029    107.2753   9.9472823265e+01   5.1344815264e+01    0.8550307    0.7167606  73.18  0.005038188    1.137    0.120
       132 -10.0176     67.1435     81.6836   7.7557184087e+01   5.3009341529e+01    0.3783166    0.3091393   1.97  0.001896697    1.408    0.290
       133 -11.7972     53.2594     76.4423   8.2193898846e+01   5.6356922810e+01    0.7905203    0.5316072 -88.95  0.003533452    1.959    0.489
       134 -11.1632     58.4367     77.7306   8.0221964876e+01   5.5309217609e+01    0.3832988    0.3174818 -78.35  0.000757687    1.317    0.241
       135  -8.8030    120.7075     81.3900   5.8648607649e+01   4.2453969674e+01    0.1600356    0.1241263 -81.16 0.0005696828    1.774    0.436
       136  -9.7837      1.2886     80.3901   1.0702635225e+02   5.9569095649e+01    0.2647153    0.1055726 -84.96 0.0008994128    2.282    0.562
       137 -11.5634     13.8680     74.4066   1.0056086466e+02   6.0587583753e+01    0.6603757    0.2831016 -79.66  0.002787422    2.218    0.549
       138 -10.3429     13.9760     67.3794   9.9578383359e+01   6.2399585675e+01    0.4372475    0.1959944   5.07  0.001856148    2.585    0.613
       139 -10.5404    233.3531     77.8697   3.6367386401e+01   1.8375813282e+01    0.1964149    0.1774122 -89.87  0.001034685    1.365    0.268
       140 -10.7862     94.7949     76.6123   6.5450430336e+01   4.9099797575e+01    0.8177554    0.3024464  39.07  0.002674911    2.729    0.634
       141 -11.4123     92.8619     62.9128   6.1607048497e+01   5.2440916516e+01     2.035338    0.4691208  49.47  0.004783079    5.417    0.815
       142 -11.1084     88.0019     55.6471   6.0763975885e+01   5.4986698252e+01     1.104006    0.5313914 -53.00  0.004001699    2.551    0.608
       143 -10.3440     91.6844     57.1446   5.9954157713e+01   5.3880126387e+01    0.3560135    0.2649884  64.13 0.0006956519    1.581    0.367
       144 -11.4494     79.5910     68.1210   6.8443222620e+01   5.4022838232e+01    0.8557265    0.5760444  85.70  0.003278805    2.712    0.631
       145 -11.5856     86.1152     73.2224   6.7550873616e+01   5.1606276579e+01    0.7824882    0.4213926  35.01  0.003117166    1.903    0.475
       146 -12.5364     75.4433     53.9834   6.5175125677e+01   5.7934369504e+01    0.8058596    0.6607881 -33.71  0.001828596    1.261    0.207
       147 -11.3915     72.9510     47.8508   6.3855554401e+01   5.9716443993e+01      0.59777    0.3975713  41.85  0.001110937    1.467    0.318
       148  -9.7615    104.0022     74.9157   6.1782322035e+01   4.7506097785e+01     0.246457    0.2316786  37.32  0.001100711    1.025    0.024
       149 -10.2788     24.6754     74.1758   9.5251512635e+01   5.9955657102e+01    0.2918332    0.2396529 -72.64 0.0008512521    1.150    0.131
       150 -10.1758     29.0465     72.0000   9.2709679082e+01   6.0168466877e+01    0.2822994    0.1787523  24.77 0.0009799432    1.622    0.384
       151 -11.5516     40.8979     71.8019   8.6849065438e+01   5.9056413700e+01    0.5347396    0.3576585 -81.46  0.001736623    1.693    0.409
       152 -11.3840     35.2930     71.7173   8.9567161792e+01   5.9666934041e+01     0.584518      0.28895  25.77  0.002407553    2.032    0.508
       153 -11.3908      2.0557     71.6740   1.0602660590e+02   6.1778037331e+01    0.7518243    0.1994741 -78.77  0.002680954    3.222    0.690
       154 -12.3764      4.4464     62.0046   1.0391040979e+02   6.4182802524e+01    0.5242004    0.4006866 -27.99  0.001782343    1.367    0.269
       155 -11.0721     10.1880     62.5999   1.0091331379e+02   6.3813520330e+01    0.5459688    0.2460355 -50.70  0.001249858    2.005    0.501
       156 -11.4066    187.0284     71.0140   4.1041412059e+01   2.8783775851e+01    0.6398226    0.3350474 -34.08  0.002615225    1.791    0.442
       157  -9.2151    153.8086     72.4366   4.7640391897e+01   3.6314886189e+01    0.2171704     0.134236  41.84 0.0006273068    1.674    0.403
       158 -11.2490    122.9334     68.8971   5.4088900142e+01   4.4365725639e+01    0.5186251    0.3171794  43.61  0.001404356    1.603    0.376
       159 -11.0543    219.8762     66.6353   3.5319536755e+01   2.2363323588e+01    0.3778835    0.2604927  65.41  0.001598972    1.675    0.403
       160  -9.8527     92.0068     71.9930   6.4980071772e+01   5.0686478536e+01    0.2760761    0.2149053  41.57 0.0004224056    1.244    0.196
       161 -11.4389     59.1547     63.9858   7.5964240598e+01   5.8551678116e+01    0.4929684    0.2971622 -57.48  0.001201561    1.697    0.411
       162  -9.9392     66.0254     74.5102   7.6048545734e+01   5.4931802091e+01    0.2189919    0.1454269  34.16 0.0003218043    1.486    0.327
       163  -9.3726     52.1711     65.6487   7.9779444125e+01   5.9182418604e+01    0.2019928    0.1376056  15.30 0.0005917012    1.651    0.394
       164  -9.5746     21.1311     65.1392   9.5488168152e+01   6.2545692332e+01    0.1792178    0.1485374  74.78  0.000436517    1.278    0.217
       165 -10.0429    105.8481     63.5069   5.7383250271e+01   4.9415750227e+01    0.3040866    0.2625329 -76.73  0.001504702    1.372    0.271
       166 -10.6347    107.0630     59.2532   5.5494569413e+01   4.9957624023e+01    0.4220097    0.2687994 -66.47  0.001620957    2.441    0.590
       167  -8.9000     51.1491     56.4271   7.7441476756e+01   6.1554989021e+01    0.4197265    0.2489505  16.80 0.0008688441    2.010    0.503
       168 -12.1347     26.8962     56.3387   9.0523099310e+01   6.4353868029e+01     1.115024    0.7927936 -14.71   0.00558422    1.559    0.359
       169 -10.5330     50.7861    249.5994   1.0216789197e+02   1.9014729216e+01    0.1672029   0.06326573  36.93 0.0009550734    1.702    0.412
       170 -10.6254     39.2891     43.9537   7.9669631433e+01   6.6099018615e+01     0.352333    0.2679482 -18.18   0.00115779    1.417    0.294
       171 -11.5632     45.0323     49.1760   7.8233201042e+01   6.4125671111e+01    0.6790711    0.4121183 -50.14  0.003186732    1.576    0.366
       172 -10.9394     44.3077     43.8880   7.6731320739e+01   6.5455749394e+01    0.4348658    0.2879767  20.63 0.0003658904    1.592    0.372
       173 -11.1990     40.9481     57.1551   8.2999151412e+01   6.2721191028e+01    0.5010889    0.2556594  35.96  0.002168274    1.975    0.494
       174 -12.2472     44.1957     61.6882   8.2603300350e+01   6.1209094361e+01    0.6301075    0.3466509 -37.37  0.001376515    2.042    0.510
       175 -11.5839    234.9526     60.9700   3.2282789442e+01   2.0102479790e+01    0.3489833    0.3346606  -6.64  0.001885016    1.136    0.120
       176  -9.7274    159.1708     62.5724   4.3563218715e+01   3.6604871689e+01     0.375591    0.1056229  48.63  0.001133901    3.514    0.715
       177 -10.6353     51.7571     48.2601   7.4274178786e+01   6.3370809180e+01    0.3587711    0.2727824  33.67 0.0008846294    1.316    0.240
       178 -11.8173    117.1843     54.9672   5.0922731493e+01   4.8305017047e+01     1.449144    0.7908093 -64.32  0.004591664    3.672    0.728
       179  -9.7444    174.6834    246.5612   7.7254661580e+01   5.3220304123e+00    0.2210763   0.07908401  27.47  0.001142325    2.129    0.530
       180 -11.6945    126.9711    242.0981   8.5997135389e+01   1.1609762229e+01    0.3268879     0.211973  38.59  0.001531297    1.322    0.243
       181 -10.6345    113.9113     38.1440   4.5437495415e+01   5.1925690267e+01     0.314806    0.2203227 -35.24  0.000282923    1.490    0.329
       182 -12.1980    117.8351     44.1540   4.6728826603e+01   4.9971469138e+01    0.6889799    0.5488158  69.74  0.002244774    1.316    0.240
       183 -10.9578     67.5331    240.9895   9.8251212409e+01   1.8635307222e+01     0.242982    0.1372193  17.08  0.001222666    1.851    0.460
       184  -9.5387    135.5145     58.5051   4.7382877608e+01   4.3133390593e+01    0.2868725    0.1536924 -19.93  0.001032108    2.626    0.619
       185 -10.0190    238.1894     55.7950   3.0758463353e+01   2.0085837845e+01    0.1577815    0.1312712  -2.96 0.0002809759    1.296    0.229
       186 -10.1727    157.8107     55.0406   4.1495730591e+01   3.8086877355e+01    0.3923959     0.289638 -66.94  0.001867631    1.618    0.382
       187  -9.5752    113.6660     60.4865   5.3907311543e+01   4.8156746026e+01    0.2756445    0.1466548 -38.24  0.001081947    1.954    0.488
       188 -10.9414     52.0121     61.8108   7.8714209482e+01   6.0139325605e+01    0.4402604    0.2276532  41.17  0.001308713    1.994    0.498
       189  -9.6972     67.0283     55.0512   6.9283084184e+01   5.9291348323e+01    0.2246872     0.221513 -49.49 0.0006756282    1.070    0.065
       190  -9.9242      7.9866     53.9384   1.0093306705e+02   6.6119616386e+01    0.2137517    0.1790317 -51.51   0.00129648    1.098    0.089
       191 -10.7224    145.7275     48.5881   4.1781669192e+01   4.2109951031e+01    0.6874695    0.3067538 -19.65   0.00226402    3.296    0.697
       192  -9.4435     93.7012     52.6024   5.7512443313e+01   5.4328758709e+01    0.2057082    0.1449383  54.72 0.0006065151    1.457    0.314
       193 -10.8048    240.3841     50.6200   2.9359170286e+01   2.0252739917e+01     0.207765    0.1816383 -11.43 0.0009736254    1.185    0.156
       194 -10.3569    201.5096     48.9729   3.3043718156e+01   2.8471818657e+01    0.2043836    0.1252387 -27.01  0.000586703    1.553    0.356
       195 -10.3044     13.0255     47.7680   9.6864953786e+01   6.7458715129e+01    0.4031236    0.1780912 -45.73  0.001371485    2.062    0.515
       196  -9.6862      2.1167     49.0882   1.0375082156e+02   6.7532377402e+01     0.218251     0.174779  16.55 0.0007823084    1.390    0.280
       197 -11.5792     20.7281     45.8695   9.1632722181e+01   6.7460036644e+01     0.390629    0.2406054 -56.78 0.0005339609    1.447    0.309
       198 -10.2146    138.5953     44.2898   4.1798823107e+01   4.4589810473e+01    0.3902676     0.214382  34.59  0.001312343    2.380    0.580
       199 -10.0932    134.0150     45.7746   4.3334121716e+01   4.5553749939e+01    0.3241153    0.1993848  58.90 0.0007310155    1.569    0.363
       200 -10.1774    175.1352     48.4845   3.6521889840e+01   3.4725261517e+01    0.3819198    0.1952735  59.68  0.001319058    1.937    0.484
       201 -10.6680     32.4116     44.5548   8.4005291925e+01   6.6746205812e+01    0.4379099    0.2161761  10.23  0.001775959    2.538    0.606
       202 -10.9425     33.2819     41.4163   8.2419408875e+01   6.7402190255e+01    0.3740054    0.2210577   4.98  0.001688404    2.054    0.513
       203 -10.9108    155.7749     42.3139   3.7782671245e+01   4.0422656408e+01    0.3267087    0.2931243 -12.10 0.0009390299    1.204    0.169
       204 -10.4422     26.3971     42.9836   8.7257977845e+01   6.7712365150e+01    0.2502456    0.1969541  -4.22 0.0007409595    1.325    0.245
       205 -11.0917      4.9601     36.2948   9.9969078938e+01   7.0654701852e+01    0.3746895    0.3477981 -74.22  0.001465287    1.101    0.091
       206  -9.9863     11.3781     30.8224   9.4093171864e+01   7.1731003587e+01    0.3302774    0.1604569 -49.98  0.001173255    1.749    0.428
       207 -10.0071      6.8852     30.5920   9.7395656086e+01   7.1987899538e+01    0.3979553    0.1863284 -20.92  0.001803245    2.303    0.566
       208 -10.6035     92.8301     41.3345   5.3282955857e+01   5.6622488867e+01    0.4608517    0.2746245  50.18  0.001980334    1.604    0.377
       209  -9.7248     17.6309     41.7221   9.2571533859e+01   6.8700627964e+01    0.2343045    0.1556495 -13.82 0.0008830645    1.620    0.383
       210 -10.5013     73.5576    238.2414   9.6802583559e+01   1.8416054675e+01     0.435269    0.1427366  29.69  0.002112335    2.218    0.549
       211  -9.8258    231.5207     38.4254   2.7282366696e+01   2.3310961937e+01    0.2802818    0.1063614 -27.22  0.001245232    2.290    0.563
       212 -10.3896     22.5236     37.3255   8.8063654574e+01   6.9414356769e+01    0.5481521    0.1875681  34.94  0.002092758    3.006    0.667
       213 -10.8407    183.4399     37.9831   3.2244374147e+01   3.4040987239e+01    0.2332818    0.1958165  78.74 0.0001528152    1.214    0.176
       214 -10.3804     68.0495     32.4301   5.9291502900e+01   6.3742317173e+01    0.4685143    0.3821423  59.58  0.002056483    1.395    0.283
       215 -11.2980     60.8390     36.3200   6.4609949600e+01   6.4405028210e+01    0.4459226    0.3094431 -25.07  0.001347412    1.640    0.390
       216  -9.7409     54.0577     26.6615   6.3525296046e+01   6.7549124546e+01    0.2146631     0.183466 -32.15  0.001184014    1.170    0.146
       217 -12.1537     57.6894     30.4896   6.3482084677e+01   6.6143398289e+01    0.4557984    0.3585013  -0.62  0.001075847    1.429    0.300
       218 -11.5142     48.6944     30.4964   6.8484976620e+01   6.7718479233e+01    0.6767134    0.2911804  32.95   0.00260072    2.384    0.581
       219 -10.0608    176.7699     35.9157   3.2512591904e+01   3.5929112198e+01    0.2833816    0.2009629 -48.69 0.0009622247    1.386    0.278
       220  -9.7680    153.1774     36.8458   3.6420641944e+01   4.1827383871e+01    0.2280133    0.1993232 -75.80 0.0004602988    1.175    0.149
       221  -9.8883    132.9329     36.9608   4.0376562633e+01   4.7131325824e+01    0.3496825    0.2094775 -86.03  0.001312127    2.585    0.613
       222  -9.9748     94.0364     35.7966   5.0486351900e+01   5.7283839961e+01     0.228039    0.2014208  81.88  0.000651832    1.283    0.221
       223 -10.7178    240.1008     33.2257   2.5366038467e+01   2.2171084470e+01    0.2446608    0.2053807 -42.15  0.001685244    1.015    0.015
       224 -11.2526    146.9365    237.8184   8.1536798023e+01   9.7346147248e+00    0.3801091    0.1903569  35.60   0.00225547    1.561    0.359
       225 -11.6896    164.3096     27.6356   3.1639045685e+01   4.0074252756e+01    0.2629079    0.2564108  67.57 0.0006088333    1.070    0.066
       226  -9.6483    148.3100     32.9749   3.5947086358e+01   4.3605649982e+01    0.2753717     0.141934 -19.25 0.0009931385    2.318    0.569
       227  -9.7099    167.6047    238.2242   7.7572515759e+01   7.1432470465e+00    0.1367924    0.0934806 -15.96 0.0006079989    1.603    0.376
       228 -11.9492    107.4161     31.2595   4.4385184927e+01   5.4638509345e+01    0.7500262     0.435656  12.13   0.00259808    3.241    0.691
       229 -12.1197    114.4994     24.9155   3.9838190258e+01   5.3664562332e+01    0.6984891    0.3195193  58.85   0.00161355    1.985    0.496
       230  -9.6371    170.0045     33.3392   3.2653798019e+01   3.7938666494e+01    0.2329765    0.1631106  49.59  0.001158963    1.487    0.328
       231  -9.6921    138.4731     33.4689   3.7953215122e+01   4.6144233085e+01    0.1489485    0.1420524  71.78 0.0002842688    1.002    0.002
       232  -9.6269     86.0639     30.7982   5.1043687104e+01   6.0019906566e+01    0.2227277    0.2098377  83.94  0.001206759    1.182    0.154
       233  -9.4046    233.3162    235.3253   6.5723748413e+01  -1.0353934736e-01    0.1091166    0.0572932   4.75 0.0007043972    1.670    0.401
       234  -9.8131    199.5118    234.5392   7.1260283337e+01   3.7469944087e+00    0.1121904   0.07668035  13.25 6.160267e-05    1.028    0.027
       235  -9.2651     15.3844    233.8199   1.0883815091e+02   2.4785231677e+01    0.1241405   0.09232341 -74.79 0.0009455934    1.712    0.416
       236  -9.4834     75.4661    224.4826   9.5405550302e+01   2.0443441815e+01    0.1198348   0.08943355  37.35 9.699201e-05    1.015    0.015
       237 -10.2589    247.1277    231.1543   6.3001717016e+01  -1.1545387723e+00    0.1291464   0.09509712  10.19 0.0005622433    1.301    0.232
       238  -9.1335    120.4097    219.7953   8.5019145712e+01   1.5680806492e+01    0.1430504    0.1096986 -28.38 0.0007950429    1.610    0.379
       239 -10.1848    164.5768    212.0664   7.4751666643e+01   1.0910123747e+01    0.2241095    0.1395635  24.05 0.0006105257    1.262    0.207
       240  -9.3601    230.2226     30.6060   2.5514093082e+01   2.4401468779e+01    0.1503196    0.1116924  58.58 0.0003718236    1.534    0.348
       241 -10.5492    198.2718     29.3175   2.8067141571e+01   3.1511614690e+01    0.3325776    0.2525134  53.62  0.001401636    1.428    0.300
       242 -10.9739    188.9152     27.7685   2.8625021653e+01   3.3900366383e+01    0.3483745    0.2919895   7.55  0.001320275    1.415    0.293
       243  -9.7753     98.9712     30.2276   4.6423263531e+01   5.6947300712e+01    0.3182445    0.1991622  86.38  0.001198758    2.655    0.623
       244  -9.5057     97.4896     26.4483   4.5174336582e+01   5.7882568522e+01     0.255749    0.1506557 -28.99 0.0008346991    1.821    0.451
       245 -10.3340    152.7549    207.1374   7.6493787679e+01   1.3232013844e+01    0.2365543    0.2027944  88.08  0.001529031    2.010    0.503
       246  -9.0097     61.4805    206.5064   9.7281022619e+01   2.5207757594e+01    0.1235004   0.09591126  40.91  0.000810313    1.011    0.011
       247 -10.2470    139.1641    198.7108   7.8250588211e+01   1.6445723153e+01    0.2099668    0.1371388  41.47  0.001198755    1.452    0.311
       248 -10.1329    233.9533    196.4724   5.9785451286e+01   3.7824638876e+00    0.2170156    0.1388704 -17.24   0.00114896    1.361    0.265
       249  -9.0029     83.6788    195.7283   9.0950557517e+01   2.4595283384e+01    0.1200039   0.09212547   0.94 0.0003099568    1.569    0.363
       250  -9.8449     16.3904    191.4819   1.0737885306e+02   3.2499248115e+01     0.181121    0.1544467  63.52  0.000327913    1.130    0.115
       251  -9.4066    206.4848     37.4450   2.9410496798e+01   2.8725845372e+01    0.1293769    0.1195406 -45.03 0.0004788325    1.024    0.024
       252 -10.0004    230.4815     26.8851   2.4599438882e+01   2.4731868415e+01    0.1851845     0.106072 -28.34 0.0006467231    1.533    0.348
       253 -11.3711    182.9265     25.6318   2.8669818988e+01   3.5595832029e+01    0.3690216    0.2763928  58.38  0.001148348    1.373    0.272
       254 -11.1041    151.8481     25.9436   3.2921608267e+01   4.3535551688e+01     0.672711    0.3217442  44.87  0.002643779    2.333    0.571
       255  -9.4716    162.4751    190.9781   7.2063687674e+01   1.4249379522e+01    0.1479045    0.1168426 -79.59 0.0006343728    2.521    0.603
       256  -9.8704    213.7792     24.6021   2.5365165592e+01   2.8503105453e+01    0.2118483    0.1899909  72.89  0.001381453    1.211    0.174
       257  -9.6621    216.2649     20.9314   2.4222341202e+01   2.8333216493e+01    0.1920362    0.1373899  15.77 0.0007299594    1.890    0.471
       258  -9.7521    171.5175    190.4836   7.0114229129e+01   1.2992229254e+01    0.1285424    0.1002192  14.28 8.897683e-05    1.038    0.037
       259 -11.6873      4.9313    185.7249   1.1001147032e+02   3.4532867587e+01    0.4630926    0.3258123  67.32  0.002678098    1.229    0.186
       260  -9.1201     86.5086    185.4987   8.9144868459e+01   2.6202628712e+01    0.1323812    0.1100381  35.87 -9.704736e-05    1.008    0.008
       261  -9.4071    239.5643    184.4990   5.6921666813e+01   4.4064848718e+00    0.1136552   0.08273224   0.62 0.0001093736    1.009    0.009
       262  -9.8123    175.5117    180.0254   6.7574151436e+01   1.3934198228e+01    0.1762946    0.1204145 -32.20   0.00102441    1.565    0.361
       263 -10.6946     13.8401     23.4805   8.9924394056e+01   7.3335658515e+01    0.2219229    0.1846993 -52.66 0.0003231916    1.108    0.097
       264  -9.3500    250.3259    177.3235   5.4078299546e+01   3.8589914023e+00    0.1171359   0.06646951   2.69 0.0007048489    1.689    0.408
       265  -9.1085    223.6570     22.2810   2.3992742535e+01   2.6612304978e+01    0.1318667   0.07816304 -57.12 0.0003596822    1.633    0.387
       266  -9.1554    113.4867    175.9754   8.1061392846e+01   2.4226193193e+01     0.176734    0.1076232 -25.91 0.0008065515    2.372    0.578
       267  -9.6409     52.0930    173.8498   9.7084914533e+01   3.2811541282e+01    0.2084133    0.1449583  50.77 0.0004866951    1.261    0.207
       268 -11.2757    245.7561     19.2141   2.1779751912e+01   2.2475855960e+01    0.2152654    0.1194324 -32.20 0.0008149415    1.463    0.316
       269 -10.3726     46.7405     19.0637   6.3692290090e+01   7.0280665231e+01    0.3171875    0.2714655 -16.58   0.00181436    1.133    0.118
       270  -9.8176    169.0684     23.8648   2.9793963398e+01   3.9277388187e+01    0.2587243     0.182192  62.32  0.001025613    1.391    0.281
       271  -9.3002    207.4574    172.5059   6.0157911368e+01   1.0202059876e+01    0.1245862    0.0973528   5.17 0.0004871658    1.018    0.017
       272 -10.6164    186.4880     15.1226   2.5206892781e+01   3.5819466909e+01    0.2477993    0.2160002  88.26 0.0004798615    1.116    0.104
       273  -9.3275    170.4953    171.9686   6.7210596571e+01   1.5939493587e+01    0.1776132    0.1243666 -32.71 0.0006835145    1.522    0.343
       274  -9.5844     35.3207    169.0553   1.0133009219e+02   3.5574163412e+01    0.1754497    0.1456377  63.96 0.0004472358    1.099    0.090
       275 -11.7735    238.9451     15.6821   2.1384104285e+01   2.4132761035e+01    0.2588769     0.217191 -55.41   0.00156903    1.076    0.071
       276 -11.1864      9.6635    167.1653   1.0825729270e+02   3.8113681052e+01     0.272503    0.2392645  78.25  0.001539923    1.151    0.131
       277  -9.6482    198.1384    167.8774   6.1012402280e+01   1.2221969627e+01    0.1786809    0.1579662   6.61 0.0005651121    1.200    0.167
       278 -10.1049    187.4894    167.5272   6.2974671371e+01   1.3922887738e+01    0.1310607    0.1054904   9.14 3.781474e-05    1.032    0.031
       279  -8.8129    152.2939    166.6694   7.0234685691e+01   1.9750033604e+01     0.125385    0.1055273  63.08 0.0004321201    1.633    0.387
       280  -9.0765     80.4965    165.0032   8.8292523556e+01   3.1230158029e+01    0.1785529    0.1057565 -35.88 0.0008069458    2.332    0.571
       281  -9.7829     74.4760     19.6765   4.9986078317e+01   6.4487166871e+01    0.2478235    0.1819251  40.04 0.0005388656    1.285    0.222
       282  -9.4278      5.0093     13.0000   9.4024554708e+01   7.6230851810e+01    0.2937358     0.170853   7.48  0.001573116    1.781    0.439
       283  -9.8208     18.8756    164.8816   1.0564638564e+02   3.7926998406e+01    0.1787874    0.1675925 -35.79  0.001238861    1.328    0.247
       284 -10.7763    204.9241    162.9197   5.8854172604e+01   1.1867311879e+01    0.2362575      0.16536 -28.55 0.0007057069    1.414    0.293
       285  -9.1586    188.6673    162.6594   6.1842535668e+01   1.4450338258e+01    0.1382332   0.08831324   4.17 0.0007051404    1.750    0.428
       286  -9.4477     28.6659    160.6802   1.0265518329e+02   3.8053182577e+01    0.1228712   0.09316248 -34.26 0.0007049291    1.700    0.412
       287  -9.6519    223.9696    158.0994   5.4687292297e+01   9.6469052278e+00    0.2374684    0.1550149 -52.07  0.001232597    2.837    0.647
       288 -10.5732     13.8928    158.7555   1.0676237789e+02   3.9676631915e+01    0.2696336    0.1517498 -89.31  0.001471091    1.732    0.423
       289  -9.4421    215.3438    157.3043   5.5971914601e+01   1.1034189471e+01    0.1303036    0.0813768   6.30 0.0003004404    1.686    0.407
       290  -9.4994      9.4117    155.7861   1.0791402041e+02   4.0663754062e+01    0.1636527    0.1049173 -72.79   0.00078419    1.611    0.379
       291 -10.4676    104.5036    154.4759   8.0100866610e+01   2.9929642392e+01    0.2969927    0.2490515   1.64  0.001648547    1.322    0.243
       292 -11.4096     20.9526    150.7607   1.0430644568e+02   4.0973552513e+01    0.3206749     0.226031 -13.40 0.0004243638    1.875    0.467
       293 -11.4071     23.9985    148.0578   1.0322396638e+02   4.1361507298e+01    0.2843785    0.2431079 -60.66 0.0008195458    1.309    0.236
       294  -9.9357      3.4005    152.9946   1.0953266506e+02   4.1685068790e+01    0.3080352    0.1151862  47.32  0.001460552    2.134    0.531
       295  -9.7421    141.5178    152.4971   7.0158976675e+01   2.4101705513e+01    0.3097602    0.1256783  38.05  0.001221669    2.207    0.547
       296 -10.0324     30.8664    151.8780   1.0141212127e+02   3.9880069697e+01    0.1872473    0.1767514 -29.40 0.0008377376    1.269    0.212
       297  -9.8794     63.4083    150.3942   9.1420418638e+01   3.6733164459e+01    0.2724293    0.1299844  22.03  0.001134688    2.220    0.550
       298 -11.1048     48.2895    146.4263   9.5603254693e+01   3.9434760805e+01    0.4771616    0.3216214   8.99  0.001276964    1.754    0.430
       299 -10.9317     15.7514    147.8851   1.0570637345e+02   4.2036938432e+01     0.267935    0.2042677  28.92 0.0008301613    1.279    0.218
       300  -9.8856      3.2829    147.7253   1.0940290620e+02   4.2896141278e+01     0.154359     0.135303 -58.36  0.001038631    1.326    0.246
       301  -9.7750    239.4957    146.9492   5.0155555654e+01   8.7732656869e+00    0.1778022   0.09827787 -26.65 0.0009663072    1.566    0.362
       302 -11.2800    249.5859    144.4627   4.8236004858e+01   7.6436846113e+00    0.4064821    0.1289518 -35.29  0.001843064    2.865    0.651
       303  -9.3372     74.3905    145.8615   8.7489996938e+01   3.6335741658e+01    0.1878321    0.1262158 -50.25 0.0005562606    1.652    0.395
       304 -11.1227     33.0884    144.5329   1.0016487714e+02   4.1410028018e+01    0.2762262    0.2299483  64.80 0.0006541389    1.094    0.086
       305 -11.8792      2.6204    141.7604   1.0940737327e+02   4.4318318358e+01    0.4710406     0.280709  46.71  0.002693411    1.448    0.309
       306 -10.7785     11.6097    136.5337   1.0640582401e+02   4.5008961916e+01    0.4895324    0.2343562 -49.73  0.002284829    2.463    0.594
       307 -10.2954    217.1323    138.7765   5.2022984144e+01   1.3229660269e+01    0.2137491    0.1810283  -5.40 0.0005623216    1.056    0.053
