#   1 NUMBER                 Running object number                                     
#   2 MAG_AUTO               Kron-like elliptical aperture magnitude                    [mag]
#   3 X_IMAGE                Object position along x                                    [pixel]
#   4 Y_IMAGE                Object position along y                                    [pixel]
#   5 X_WORLD                Barycenter position along world x axis                     [deg]
#   6 Y_WORLD                Barycenter position along world y axis                     [deg]
#   7 A_WORLD                Profile RMS along major axis (world units)                 [deg]
#   8 B_WORLD                Profile RMS along minor axis (world units)                 [deg]
#   9 THETA_WORLD            Position angle (CCW/world-x)                               [deg]
#  10 FWHM_WORLD             FWHM assuming a gaussian core                              [deg]
#  11 ELONGATION             A_IMAGE/B_IMAGE                                           
#  12 ELLIPTICITY            1 - B_IMAGE/A_IMAGE                                       
         1 -12.8290    165.7185     47.5260   3.5804057531e+02   3.7956151268e+01     1.117666    0.9200128 -32.68  0.004320065    1.319    0.242
         2 -11.2910    171.5119      4.4682   3.4592036758e+02   4.1703382174e+01    0.9448074    0.2992779 -73.44  0.003327612    4.345    0.770
         3 -12.6952    181.3515     20.2015   3.4924740942e+02   3.7957218178e+01    0.8709944     0.527705  63.92   0.00466548    1.797    0.444
         4 -12.7594    180.7339     14.2422   3.4779015981e+02   3.8731897596e+01    0.8907955    0.5163524  71.32  0.004567418    1.741    0.426
         5 -10.8815    214.8203     12.8159   3.4534883956e+02   3.2050636242e+01     0.446793    0.1575092 -64.67  0.002109993    2.791    0.642
         6  -9.6034     10.0308      1.4482   2.8275396273e+01   7.8654502697e+01    0.2515093    0.1184842  36.22 0.0005056461    1.928    0.481
         7 -10.2901    168.4075    237.8284   3.7107705410e+01   3.9372197898e+00    0.2952595    0.1672808 -29.02  0.001127386    1.692    0.409
         8  -8.6855    198.6559    250.3520   3.3273463378e+01  -7.8353204118e-01     0.138081    0.1205565  23.50  0.001085501    1.674    0.402
         9 -18.9235     64.1814    224.2051   5.8937491502e+01   1.8221300004e+01     5.107578     4.854012  27.01   0.01799017    1.098    0.090
        10 -10.9060    188.7912    176.6513   2.3532238670e+01   1.1551213464e+01    0.7409691    0.3579836 -52.30  0.002965822    2.588    0.614
        11  -9.7919    126.3101    248.3789   4.7036612154e+01   6.7599887173e+00    0.3483061    0.2160879  37.62  0.001228665    1.609    0.378
        12 -11.7665    140.9334    170.5869   3.2261632549e+01   1.9600957550e+01    0.5090515    0.4518936 -35.57  0.001605999    1.094    0.086
        13  -9.4088    221.3267    176.6710   1.8104131580e+01   7.4739906691e+00    0.1867243    0.1544915 -33.93 0.0005168347    1.245    0.197
        14 -10.2032    120.9618    197.5578   4.1543608742e+01   1.6863686988e+01    0.2929135    0.2352081 -67.39  0.001029012    1.525    0.344
        15  -8.5090      1.1983    197.4107   7.3656336312e+01   3.0255074309e+01     0.124679   0.08560167 -59.61 0.0005027305    1.636    0.389
        16 -10.2012     24.6588    166.0216   6.4898055746e+01   3.6399653927e+01    0.4530021    0.2672131 -17.98   0.00149192    2.380    0.580
        17  -9.3080    140.2945    163.6221   3.1101248044e+01   2.1158698466e+01    0.2482324    0.1674228 -57.96  0.000577497    1.666    0.400
        18  -9.8926    128.9628    136.0521   2.8169094779e+01   2.9087929046e+01    0.3267142    0.2424335  75.18  0.001125898    1.918    0.478
        19  -9.5255    124.9730    133.7481   2.8668589001e+01   3.0331138166e+01    0.2949806    0.1485907  41.81 0.0009558481    2.051    0.512
        20 -11.2511    133.2415    156.6884   3.1430050171e+01   2.3784860588e+01    0.5093266    0.3746267 -42.37  0.001849973    1.310    0.236
        21 -12.0284    134.0966    146.9879   2.9252122570e+01   2.5762303016e+01     1.172733    0.3972263 -56.67   0.00341075    4.230    0.764
        22 -10.0552    189.2726    153.8492   1.9171818553e+01   1.5469104559e+01    0.4824276    0.3344511 -31.91  0.002771043    1.265    0.210
        23  -9.5027    182.2960    153.0532   2.0272967323e+01   1.6658372252e+01    0.2982655    0.2414054 -80.31  0.001274465    1.883    0.469
        24  -8.2559    177.5690    156.5151   2.1837261338e+01   1.6742367547e+01     0.133376     0.114767 -27.53  7.19738e-05    1.009    0.009
        25 -10.4074    186.1177    223.1608   3.1661789070e+01   4.2949746298e+00    0.2042962    0.1432707 -36.96  0.000934711    1.418    0.295
        26 -10.3248    185.9646    216.5735   3.0694867343e+01   5.3253176709e+00    0.2428371    0.1326974   6.88  0.001290194    2.067    0.516
        27  -7.9984      6.6575    155.7197   6.9964693833e+01   4.0606580700e+01    0.1415464   0.09947497 -40.13 0.0005301803    1.630    0.386
        28  -9.8551    152.1418    152.0652   2.6136340921e+01   2.1642591088e+01    0.3688501    0.2524431 -87.42   0.00150434    3.061    0.673
        29 -10.4842    158.4207    150.4219   2.4451020201e+01   2.0941355095e+01    0.3469052    0.2691491 -71.53  0.001805181    1.738    0.425
        30 -11.1699    144.0842    145.3342   2.6549052750e+01   2.4398460450e+01    0.6725749    0.3248868 -63.25  0.002194711    3.830    0.739
        31 -10.1085     27.3876    145.7407   6.2004739283e+01   4.1691134429e+01    0.3662817    0.2312196 -64.94  0.001269513    1.512    0.339
        32  -8.4453     22.9028    140.7062   6.3058285290e+01   4.3498776451e+01    0.1954299    0.1825122  55.47 0.0003564653    1.062    0.058
        33 -10.0011     25.9037    136.7588   6.1515126900e+01   4.4335872490e+01    0.4272107    0.2718187   2.68  0.001599016    1.890    0.471
        34 -10.8190    135.3896    121.8525   2.3331553920e+01   3.1002129966e+01    0.5711434    0.1802486 -50.53  0.001775245    3.307    0.698
        35 -10.9105    159.2232    124.4503   1.8676319444e+01   2.5976808538e+01    0.7685255    0.4784053 -75.74  0.002945982    3.221    0.689
        36  -9.1904    150.3616    116.6806   1.8713079500e+01   2.9194235847e+01    0.2810624    0.2182758 -76.35  0.001320191    1.608    0.378
        37 -10.1063    206.1387    192.8492   2.3310205233e+01   6.7475023557e+00    0.1722216    0.1443848 -25.72 0.0008856947    1.191    0.160
        38 -10.0803    132.6801    139.3394   2.7968758559e+01   2.7691157372e+01    0.2913104    0.2312694  79.42 0.0007974677    1.698    0.411
        39 -10.2153    109.3051    123.2371   3.0479676176e+01   3.5671888295e+01    0.3087177    0.2678466 -35.71 0.0004662121    1.181    0.153
        40 -10.2011     32.9964    114.4972   5.5576885867e+01   4.9891175963e+01    0.3300868    0.2221289 -52.78 0.0007764423    1.436    0.304
        41  -9.7575     36.5200    123.4765   5.5630584585e+01   4.6999771306e+01    0.2420992    0.2057115   9.41 0.0007330775    1.281    0.219
        42 -11.0868     35.1555    120.6247   5.5712020944e+01   4.7946503531e+01    0.4121494    0.2758603 -33.91   0.00107257    1.707    0.414
        43  -9.6173    114.2354    117.6863   2.7757646254e+01   3.6025097378e+01    0.2754054    0.2264459 -85.14 0.0007481852    1.446    0.308
        44  -9.6924    156.5926    190.2976   3.2275688966e+01   1.3439486217e+01     0.205855    0.1924671 -37.79 0.0002749201    1.233    0.189
        45 -10.7047    196.1770    211.8644   2.8117282660e+01   4.9309666490e+00    0.3686311    0.1686282 -46.02  0.001539903    2.311    0.567
        46  -9.2377      7.1695    139.0490   6.8605621072e+01   4.5159133850e+01    0.4120806    0.2044647 -39.42  0.001686645    2.374    0.579
        47  -9.1521    168.4987    113.8315   1.4429574262e+01   2.6301392745e+01    0.2906678    0.2068302 -76.80  0.001277269    1.986    0.497
        48  -9.8777    201.6865    205.3558   2.6121136841e+01   5.3206844501e+00     0.188135      0.15832 -27.43 0.0006865682    1.266    0.210
        49 -10.5644    114.1365    110.4438   2.5964598274e+01   3.7698015425e+01    0.4344943    0.2568713  52.83   0.00129204    1.873    0.466
        50 -10.1342     79.2318    109.7149   3.6658956063e+01   4.4524544458e+01    0.2635167    0.2548012  84.75 0.0007575621    1.039    0.038
        51 -10.0192     41.1980    110.0572   5.1365922219e+01   5.0190596032e+01    0.2486053    0.2189793  19.91  0.000330937    1.190    0.159
        52  -9.8012     94.0442    106.0900   3.0785030293e+01   4.2671627124e+01    0.2274625    0.2239969 -51.07   0.00035767    1.028    0.028
        53  -8.2808    135.9913     98.4777   1.7315480511e+01   3.5768327562e+01    0.2228207    0.1825502 -48.78 1.827341e-05    1.152    0.132
        54  -8.8666    103.9825     98.5304   2.5682733711e+01   4.2449532846e+01    0.2266958    0.1515888  45.93  0.000410724    1.521    0.342
        55  -9.1659     81.3349     97.1511   3.2615038282e+01   4.7252267919e+01    0.2805582    0.2158355  47.00 0.0002874162    1.318    0.241
        56  -9.1103     40.9449     81.6085   4.4884835417e+01   5.7812139713e+01    0.2760522    0.2164935 -72.33 0.0005627237    1.359    0.264
        57  -9.1015     55.3250     80.8142   3.8070218925e+01   5.5852523463e+01    0.2560093     0.197465  44.03 0.0006269299    1.324    0.245
        58  -9.0445    180.0896     78.0209   3.9244257926e+00   3.0311728800e+01    0.1997874    0.1647847 -54.01 -0.001320134    1.047    0.045
        59  -8.0443    179.4816     71.5487   2.4156501770e+00   3.1461246813e+01    0.1356828    0.1123418 -58.76 0.0003526214    1.059    0.056
        60 -12.1800    154.7822     61.4163   3.4501746223e+00   3.8332657287e+01    0.8693141    0.7931713  48.94  0.001930471    1.288    0.224
        61 -10.3767    153.4804    184.8659   3.2011616203e+01   1.4901289660e+01    0.2823855     0.255276 -63.32 0.0008699663    1.393    0.282
        62 -11.2542    170.7251     39.1842   3.5519494169e+02   3.7976570816e+01    0.4128875    0.3551797 -45.56  0.000882692    1.175    0.149
        63  -9.0115    136.9320     63.3162   7.1696305264e+00   4.2078058508e+01    0.2019793    0.1755315  78.07  0.001129591    1.136    0.120
        64  -7.9270    245.9939     61.4889   3.5330881897e+02   2.0915843283e+01    0.1193536   0.09184005  29.16  0.000371211    2.214    0.548
        65  -8.1844    132.1659     61.3663   7.5248028117e+00   4.3503930434e+01    0.2040775    0.1315312  74.02 0.0005542435    1.723    0.420
        66  -8.9751    100.5822     60.8953   1.4924404426e+01   5.0937983837e+01     0.302902    0.1954261  72.96 0.0009861544    1.928    0.481
        67  -7.6416     92.2519     40.3028   9.6179798551e+00   5.6328880243e+01    0.1336056    0.1095573  21.28 0.0002912216    1.502    0.334
        68  -7.8806    207.2283     38.0412   3.5143038794e+02   3.0617656773e+01    0.1488882   0.08325359 -37.31 0.0003785399    1.533    0.348
        69  -8.1233     76.5286     37.5684   1.3287615332e+01   6.0413045842e+01    0.1405857    0.1309834  60.56 6.209201e-05    1.019    0.019
        70  -9.3905    152.3870    237.9131   4.0299420733e+01   5.6358637508e+00    0.2572358    0.1493688  21.36 0.0007077218    1.491    0.329
        71 -10.7518    200.1978    241.7633   3.1831491521e+01   2.1941872940e-01    0.4032969    0.1685782 -34.24 0.0006768782    2.124    0.529
        72  -9.8448    197.6510    237.3032   3.1647667203e+01   1.0712714527e+00    0.1566522    0.1313693 -28.53  0.001188292    1.435    0.303
        73  -9.3084    205.8517     21.1878   3.4772152002e+02   3.2859541033e+01    0.1398883    0.1328417 -67.81 0.0004766737    1.331    0.249
        74 -11.7779    158.4977    196.3451   3.2883071076e+01   1.2063955555e+01    0.5567796    0.4238762  63.63  0.002905363    2.203    0.546
        75 -10.5570    148.9839    180.0221   3.2145861745e+01   1.6487479809e+01    0.2640087    0.1831756 -44.81 0.0006455755    1.408    0.290
