#   1 NUMBER                 Running object number                                     
#   2 MAG_AUTO               Kron-like elliptical aperture magnitude                    [mag]
#   3 X_IMAGE                Object position along x                                    [pixel]
#   4 Y_IMAGE                Object position along y                                    [pixel]
#   5 X_WORLD                Barycenter position along world x axis                     [deg]
#   6 Y_WORLD                Barycenter position along world y axis                     [deg]
#   7 A_WORLD                Profile RMS along major axis (world units)                 [deg]
#   8 B_WORLD                Profile RMS along minor axis (world units)                 [deg]
#   9 THETA_WORLD            Position angle (CCW/world-x)                               [deg]
#  10 FWHM_WORLD             FWHM assuming a gaussian core                              [deg]
#  11 ELONGATION             A_IMAGE/B_IMAGE                                           
#  12 ELLIPTICITY            1 - B_IMAGE/A_IMAGE                                       
         1 -14.8478    158.4241     42.3784   8.4282036983e+01   4.0064046041e+01     1.397132     1.052904 -15.12  0.004058206    1.419    0.295
         2 -13.4891    168.8001     13.6923   7.2698026533e+01   4.0824667683e+01    0.8660963    0.4769408  81.18  0.003016078    2.037    0.509
         3 -14.3086    169.7219      7.0184   7.0282890525e+01   4.1233210074e+01     1.097281    0.7521175  77.33  0.004139566    1.458    0.314
         4 -11.6208    189.9523     14.5289   7.0342809617e+01   3.5168882668e+01    0.2246878    0.1910207 -26.22 0.0007177814    1.172    0.147
         5 -11.2709    150.9448    242.7537   1.2779066382e+02   9.3630293540e+00    0.2549612    0.1526107 -45.50 0.0007880979    2.283    0.562
         6 -13.2216    190.0414    249.8335   1.2204547356e+02   3.3386913817e+00    0.3572918    0.2516768  29.36  0.001835915    1.028    0.027
         7 -13.6175    196.8053    246.7372   1.2058475569e+02   2.7505296008e+00    0.4719958    0.2472518  33.42  0.002645177    1.362    0.266
         8 -12.7467    176.0932    249.9480   1.2433629772e+02   5.1740949952e+00    0.4370459    0.1757328  32.46 0.0006308311    1.951    0.487
         9 -13.3923    179.4217    243.8634   1.2309167239e+02   5.3696321833e+00    0.3581304    0.2288973  23.10  0.002566793    1.346    0.257
        10 -10.2559    153.4567    250.4741   1.2816211867e+02   8.1287337936e+00    0.1062018   0.07535624  34.95 8.255698e-05    1.015    0.014
        11 -20.0196     80.8790    194.9712   1.3619787126e+02   2.6011106940e+01     11.73615     5.754919 -69.45   0.06496686    2.348    0.574
        12 -13.7524    176.3585    188.0924   1.1603826686e+02   1.2655146222e+01     0.648257    0.3646816 -57.03  0.003125098    3.174    0.685
        13 -13.1471    196.4778    236.2910   1.1934099540e+02   3.8418131700e+00    0.2526829    0.1729649 -23.81  0.001871788    1.759    0.432
        14 -12.8119    147.5845    189.3155   1.2181193144e+02   1.7143601930e+01    0.3890483    0.2130512  24.55  0.001911474    2.189    0.543
        15 -12.5397    125.9229    186.8816   1.2588078512e+02   2.0958734632e+01    0.5079771    0.2616552  56.89  0.001856531    2.356    0.576
        16 -14.1846    196.7834    172.5314   1.0961311458e+02   1.1387016975e+01    0.7756436    0.5794156 -56.40  0.002797907    2.099    0.524
        17 -13.4052    205.5075    180.0028   1.0936527667e+02   8.9588332815e+00    0.4050034    0.3543704  63.76  0.001839442    1.711    0.416
        18 -12.9801    208.7964    177.8005   1.0840283102e+02   8.6991186479e+00    0.3741033    0.2657652  21.31  0.001787255    1.215    0.177
        19 -10.2180      7.8621    238.3832   1.5224272769e+02   2.6616149443e+01     0.109007   0.07254036  56.32 0.0004494746    1.021    0.021
        20 -13.1845    179.8719    192.4211   1.1606174978e+02   1.1494560042e+01    0.3724877    0.3199533 -67.52  0.001428725    1.775    0.437
        21 -15.1456    146.8141    170.8399   1.1913232222e+02   2.0233015787e+01    0.9827574    0.7619304 -19.48  0.005810523    1.592    0.372
        22 -13.2015    137.0015    171.3376   1.2128618108e+02   2.1804945202e+01    0.4294859    0.3498334 -43.51  0.002002964    1.415    0.293
        23 -14.3999    131.9481    171.6482   1.2241714148e+02   2.2590692717e+01    0.9777351    0.4079076  48.20  0.003371329    2.321    0.569
        24 -12.8491    177.2037    177.4090   1.1412899824e+02   1.4029037546e+01    0.3328349    0.2267455 -59.06  0.001291467    2.315    0.568
        25 -13.5591    177.8070    169.8182   1.1270104557e+02   1.5035574065e+01    0.4610571     0.344151  33.61  0.002770007    1.154    0.134
        26  -9.8308     26.1892    227.6803   1.4880077605e+02   2.6607395223e+01   0.09442055   0.05076762  65.23 0.0002280529    1.473    0.321
        27 -10.7496     16.7940    225.6570   1.5036588860e+02   2.7806713423e+01   0.07836717   0.06577799 -79.93 0.0002676154    1.521    0.343
        28 -11.6168    168.4776    176.0714   1.1559893997e+02   1.5707931355e+01    0.2011659      0.15034  36.11 0.0005016369    1.142    0.124
        29 -12.0518    202.0802    165.8349   1.0743038829e+02   1.1384608053e+01    0.2922516    0.2751923  64.80  0.001236539    1.484    0.326
        30 -11.5397    223.6614    163.6599   1.0326896989e+02   8.0035249953e+00    0.2145551    0.1940434  -2.23 0.0005621152    1.240    0.194
        31 -12.2178    165.9522    158.2754   1.1297342765e+02   1.8927011709e+01    0.2319325    0.1719105 -15.91  0.001015342    1.591    0.372
        32 -12.6705    198.9244    222.7283   1.1713518242e+02   4.9346395814e+00    0.3325593    0.1434189  36.48  0.001261196    1.779    0.438
        33 -12.2846    123.4433    166.4303   1.2347304533e+02   2.4918734911e+01    0.4376151    0.2668288  66.58 0.0007380968    2.315    0.568
        34 -10.1840     16.4498    208.7727   1.4983187760e+02   3.0636400968e+01      0.16755    0.1221571 -60.74  0.001298128    1.858    0.462
        35 -14.1206    134.1703    146.4251   1.1766263117e+02   2.6770577525e+01     1.199334     0.357327 -55.31  0.003525855    5.361    0.813
        36 -11.7329     16.4646    154.1928   1.4725992868e+02   4.0989330180e+01     0.318622    0.2203369 -19.42   0.00194726    2.490    0.598
        37 -14.1540    148.8896    148.5006   1.1475090380e+02   2.3705690512e+01    0.5821118    0.5113552  73.37 0.0006697424    1.343    0.255
        38 -14.2333    143.4637    144.5259   1.1519350468e+02   2.5423093943e+01    0.8352173    0.4549925 -59.43  0.003594221    2.573    0.611
        39 -12.3348    174.3218    148.3126   1.0935631708e+02   1.8984650107e+01    0.3477176    0.2723669 -56.49  0.001561391    1.658    0.397
        40 -12.8808     11.5282    206.0600   1.5064694462e+02   3.1538126629e+01    0.4064892    0.2126001  28.97   0.00228882    2.016    0.504
        41 -13.3881    157.4026    177.9901   1.1811644770e+02   1.7288634454e+01    0.5840026    0.2210584 -48.43  0.002483444    3.264    0.694
        42 -12.7344    155.2417    147.6671   1.1321078695e+02   2.2673063096e+01    0.3538652    0.2238652  33.94  0.001666163    1.521    0.343
        43 -12.3081     27.3714    145.6587   1.4403295559e+02   4.1842228238e+01    0.2972476    0.2595706  50.51  0.001188275    1.209    0.173
        44 -11.4586    177.0425    143.5051   1.0783662617e+02   1.9239205691e+01    0.2111916    0.1249753  43.42 0.0007712232    1.571    0.364
        45 -12.1458    168.8618    202.6480   1.1963336986e+02   1.1854928366e+01    0.2176196    0.1787224  55.21 0.0006545685    1.445    0.308
        46 -12.2646    135.0000    119.9728   1.1206117088e+02   3.1698308407e+01    0.3120166    0.1857706 -49.05  0.001295774    1.784    0.439
        47 -12.8762    136.0000    128.4899   1.1367867093e+02   2.9846219168e+01      0.41999    0.2049349 -48.32  0.001769924    2.195    0.544
        48 -13.4655    136.2262    124.0024   1.1265861139e+02   3.0671677315e+01    0.6189967    0.3666117  63.17   0.00255959    2.391    0.582
        49 -14.0094    118.6736    136.0108   1.1938692004e+02   3.1565746407e+01    0.6356202    0.5698395 -60.44   0.00221556    1.184    0.156
        50 -14.7156    122.0107    128.2428   1.1703189309e+02   3.2528368408e+01     1.062739    0.6637658  28.37  0.003704164    1.868    0.465
        51 -13.1496    156.8143    200.5240   1.2160214757e+02   1.4023183281e+01    0.5507339    0.3078125 -64.15  0.002221362    3.508    0.715
        52 -11.7538    153.3444    194.5111   1.2142346138e+02   1.5440701598e+01    0.2014371    0.1791083  42.64 0.0005266736    1.144    0.126
        53 -13.5694    162.8078    201.7442   1.2063730412e+02   1.2919100570e+01     0.628866    0.3954331 -60.66  0.002726682    2.581    0.612
        54 -12.8650    160.7829    127.9145   1.0791132763e+02   2.5059705618e+01    0.4020564    0.3389306 -49.27  0.001807539    1.322    0.243
        55 -13.7869    158.3953    192.8034   1.2019469858e+02   1.4887749138e+01    0.5543375    0.4069677 -80.15  0.002377737    2.403    0.584
        56 -10.4078    184.1854    151.1461   1.0796425519e+02   1.6698917811e+01    0.1704517    0.1615732  73.74 0.0008733204    1.359    0.264
        57 -13.3723    153.3731    189.1339   1.2063679257e+02   1.6240531326e+01    0.4621002    0.2489671 -41.47  0.001532227    2.228    0.551
        58 -10.9909     30.8762    206.5740   1.4702385321e+02   2.9659271554e+01    0.2118777    0.1747723  37.52  0.001688465    1.378    0.274
        59 -11.5819     21.9275    240.8095   1.4999661635e+02   2.4980565198e+01    0.1440692    0.1019144  72.68 0.0005659306    1.240    0.194
        60 -10.7265    205.4773    110.1393   9.4961353865e+01   1.8696788020e+01     0.309439    0.1898328  38.20  0.001037659    1.627    0.386
        61 -11.8573     24.9322    106.6572   1.4104087451e+02   5.0804055561e+01    0.3575587     0.227126   3.25   0.00196111    2.290    0.563
        62 -12.6664     40.6089     93.9759   1.3422615736e+02   5.2341148234e+01    0.5101275    0.3451364 -32.69  0.002675546    1.884    0.469
        63 -13.0802    138.0987    198.2832   1.2493205319e+02   1.7253107345e+01    0.5885556    0.2716111  53.12  0.002565467    2.518    0.603
        64 -11.4409    125.2623     90.9872   1.0734969668e+02   3.9467619951e+01    0.2745074    0.2133302  54.75 0.0005098868    1.335    0.251
        65 -11.8934      4.6134     89.5537   1.4579267651e+02   5.6182605580e+01    0.3427103    0.1697013 -17.87  0.001645036    3.312    0.698
        66 -10.3396    105.8394     82.1838   1.1032274223e+02   4.5239061447e+01    0.2105008    0.1956721  88.87 0.0003557928    1.155    0.134
        67 -13.8217    174.6139    193.3149   1.1717976721e+02   1.2216194790e+01    0.4688032    0.3981125 -56.77  0.002065768    1.641    0.391
        68 -14.3038    147.8579     57.0233   9.1393874718e+01   4.0512349592e+01     1.044715    0.7863345 -12.74 0.0009928935    1.499    0.333
        69 -13.8650    167.1900    191.2272   1.1826594461e+02   1.3701859808e+01    0.5517267    0.4505015  74.72  0.003488185    1.801    0.445
        70 -12.9516    162.2461     33.6558   8.0601476775e+01   4.0248998232e+01    0.4195814    0.4153939 -13.13 0.0008361137    1.013    0.013
        71 -11.1402     13.3942     59.8787   1.3864317015e+02   6.2634726570e+01     0.183281    0.1617277  59.95 0.0005073957    1.272    0.214
        72 -11.8354     28.9157    244.2711   1.4895899583e+02   2.3799924045e+01    0.2075647    0.1136509 -85.49  0.001590839    1.934    0.483
        73 -11.9710    168.0123    242.4431   1.2484338798e+02   7.0749337088e+00    0.1935418    0.1530285 -37.43 0.0007775213    1.711    0.416
