#   1 NUMBER                 Running object number                                     
#   2 MAG_AUTO               Kron-like elliptical aperture magnitude                    [mag]
#   3 X_IMAGE                Object position along x                                    [pixel]
#   4 Y_IMAGE                Object position along y                                    [pixel]
#   5 X_WORLD                Barycenter position along world x axis                     [deg]
#   6 Y_WORLD                Barycenter position along world y axis                     [deg]
#   7 A_WORLD                Profile RMS along major axis (world units)                 [deg]
#   8 B_WORLD                Profile RMS along minor axis (world units)                 [deg]
#   9 THETA_WORLD            Position angle (CCW/world-x)                               [deg]
#  10 FWHM_WORLD             FWHM assuming a gaussian core                              [deg]
#  11 ELONGATION             A_IMAGE/B_IMAGE                                           
#  12 ELLIPTICITY            1 - B_IMAGE/A_IMAGE                                       
         1 -10.5094    228.5665     29.8848   3.5935880969e+01   2.5586285755e+01     1.343054    0.6001512 -41.51   0.00681693    1.975    0.494
         2 -12.1574    218.9357     36.6148   3.8308994489e+01   2.6792217553e+01     2.193094    0.6206738 -43.58  0.008767437    2.927    0.658
         3 -13.9536    245.3049     81.6873   4.5015025084e+01   1.4852765369e+01     7.297392     1.585121 -35.54   0.02129719    5.229    0.809
         4 -12.9607    219.7201     72.0509   4.6114492099e+01   2.1539578018e+01     1.727077     1.385273 -68.30   0.01020492    1.156    0.135
         5 -11.5567    250.2560     22.7423   3.2742367288e+01   2.2060203148e+01    0.5334378     0.289582 -29.30  0.001582483    2.276    0.561
         6 -11.7353    250.1028     36.5723   3.5422427682e+01   2.0364477544e+01     1.011957    0.2936563 -42.35   0.00288688    2.647    0.622
         7 -14.1023    179.7007     77.9632   5.3687133725e+01   2.9563764761e+01     9.045235      4.25074 -66.35   0.01602723    5.735    0.826
         8 -14.0029    240.2972     50.4313   3.9091773447e+01   2.0452623569e+01     3.030981     1.311718  62.42   0.01479007    2.405    0.584
         9 -10.8206    123.3299     35.5679   5.2635868195e+01   4.9382734147e+01    0.6025989    0.2562219 -33.09  0.002526413    2.524    0.604
        10  -7.8573     54.8423     40.4369   7.5592622633e+01   6.2387201454e+01    0.2355516   0.08780435 -42.98 0.0009709504    2.772    0.639
        11 -10.2980    134.9521     15.1672   4.3814928731e+01   4.8934568510e+01    0.4314935     0.198276 -20.09  0.001774925    2.818    0.645
        12  -9.7587    207.8980     14.1639   3.4423955287e+01   3.1918871276e+01    0.3033817    0.1953519 -25.28 0.0004665914    1.971    0.493
        13  -9.7509    142.9751     15.7111   4.2656414157e+01   4.6968201648e+01    0.4124229    0.3410386 -28.55  0.002550737    1.401    0.286
        14  -9.8851    143.4907      6.9449   3.9974620490e+01   4.7677672737e+01    0.5704088    0.2527217 -15.86  0.002474557    3.254    0.693
        15  -8.8754    232.3298     16.1027   3.2787973227e+01   2.6449173335e+01    0.2990227    0.1299553 -34.61  0.001517803    2.320    0.569
        16  -9.3877    113.6354      3.7862   4.3934734816e+01   5.4939535388e+01    0.2506669    0.2091885  49.32  0.001628924    1.081    0.075
        17 -11.5056    118.8612      9.7907   4.4982793401e+01   5.3220141545e+01    0.7910807    0.4368555  48.54   0.00310769    1.605    0.377
        18  -8.7489    245.5679     13.1619   3.1248358070e+01   2.4103596994e+01    0.2139493    0.1834524  17.10  0.001334034    2.029    0.507
        19  -8.1926     92.7839     11.7900   5.1473475272e+01   5.8876644759e+01    0.1625467    0.1411105  75.37 0.0004486098    1.310    0.237
        20  -8.1853    247.5436      7.9353   3.0131040086e+01   2.4300943249e+01     0.153807   0.09877574 -40.53  0.001000117    1.535    0.349
        21  -9.9073    250.0192      2.5703   2.8985441426e+01   2.4403032404e+01    0.2282776    0.1807704 -21.21  0.001608714    1.887    0.470
        22  -8.0645    166.6320      2.7360   3.5840808302e+01   4.2567378314e+01    0.1596289    0.1290289  70.11 0.0004466445    1.127    0.112
        23  -7.8688    137.6550      2.3103   3.9444009674e+01   4.9460652499e+01    0.1303064   0.08677036 -73.51 0.0007045313    1.704    0.413
        24 -11.8100     43.3505    151.5549   1.0712150794e+02   3.9054994676e+01    0.8345711    0.7661225  79.67    0.0027973    1.071    0.066
        25  -8.7443    197.3793    249.4187   8.5719141884e+01  -5.2085989968e+00     0.196945    0.1663771   8.50 0.0001685231    1.075    0.069
        26  -7.6407     84.5210    250.6275   1.0873618781e+02   1.1171865905e+01    0.1250939    0.0974768  51.45 0.0001151123    1.045    0.043
        27  -9.4839    249.8860    156.9983   5.9730200178e+01   1.6814910232e+00    0.2665316    0.1879404 -34.91  0.001569199    1.199    0.166
        28 -10.4067     14.1795    156.5579   1.1573701697e+02   4.0644430438e+01    0.2732305    0.1766131  74.53  0.001518079    1.518    0.341
        29  -8.5585    132.8764    140.4009   7.9862249578e+01   2.7290090675e+01    0.4654942    0.1016406 -49.51  0.001161775    4.657    0.785
        30  -9.3356    187.7408    140.2622   6.7209064382e+01   1.5978470554e+01     0.271723    0.2299216  -5.40 0.0007227763    1.350    0.259
        31  -8.7598    125.8865    141.0236   8.1821660881e+01   2.8545768174e+01    0.2230555    0.2138353  84.20  0.001177848    1.063    0.060
        32  -9.0874    180.1168    132.8476   6.7088254046e+01   1.9047590841e+01    0.2257267    0.2064157 -81.11 0.0004403402    1.197    0.164
        33  -7.6781    140.2067    132.1710   7.6089355965e+01   2.7650639682e+01    0.2119173    0.1827851  88.22 0.0004592522    1.333    0.250
        34  -7.3959     89.1999    132.3502   9.0185330893e+01   3.7429926603e+01    0.1490454    0.1070872 -37.06 0.0001706379    1.530    0.346
        35  -8.1373    181.1840    244.1812   8.8081485975e+01  -2.1029437909e+00    0.1625513    0.1416114  45.15 0.0007495124    1.359    0.264
        36 -10.7180    185.8835    121.7807   6.3334098662e+01   2.0037574818e+01    0.5076132    0.4167619 -25.84  0.002613881    1.309    0.236
        37  -7.8910    170.6564    236.3304   8.9012575836e+01   7.4627959599e-01    0.1258178   0.09744909  60.92 0.0007050825    1.751    0.429
        38  -8.2059    169.5049    115.5072   6.5198473610e+01   2.4859183356e+01    0.1523515    0.1451529 -70.79 -0.0001453561    1.046    0.044
        39  -7.2039    131.2434    115.6288   7.4322762593e+01   3.3232025044e+01    0.1565181    0.1210283 -77.25 0.0006936243    1.621    0.383
        40  -9.1756    196.2952    231.6568   8.3139205655e+01  -2.3712769654e+00    0.2989311    0.2423411 -79.13  0.001702703    2.241    0.554
        41  -8.3988     74.0315    110.6024   8.9965566081e+01   4.5161313014e+01     0.210335    0.1839405 -50.79 0.0001381114    1.087    0.080
        42  -9.3298    123.5583    102.9993   7.3057422053e+01   3.7619006719e+01    0.3537672    0.2318598 -79.02   0.00132522    2.650    0.623
        43  -8.8368    150.2953    102.7216   6.6243039280e+01   3.1762400400e+01    0.2845551    0.2628326  10.80 0.0006957659    1.211    0.174
        44  -8.3902    136.1156     98.6432   6.8591954771e+01   3.5785079338e+01    0.2557686    0.2102757 -61.93  0.000772581    1.309    0.236
        45 -10.0106    161.5577     97.6882   6.2393209108e+01   3.0187849628e+01    0.5305783    0.2854325  43.04    0.0021432    2.000    0.500
        46  -9.2930    144.3349     93.1015   6.5068005856e+01   3.5037762785e+01    0.3274019    0.3019544 -79.85  0.000912878    1.127    0.113
        47 -10.3556     91.9741     92.1598   7.9331478625e+01   4.6300034371e+01    0.2374757    0.2229438 -30.41  0.001312914    1.042    0.040
        48 -10.5123    160.2863     88.4923   6.0236652757e+01   3.2228305428e+01    0.3383462    0.2771029 -26.92 0.0007805463    1.362    0.266
        49  -8.4657    208.6661     85.7638   5.0823309127e+01   2.1693799239e+01    0.4459858     0.186214 -56.47  0.001466842    3.291    0.696
        50  -7.1931     31.4999     85.5355   9.9108576119e+01   5.6348899574e+01    0.1299582    0.1162133 -47.43 0.0003186172    1.052    0.050
        51  -9.6933    125.5410     83.4252   6.7029362133e+01   4.1173354027e+01    0.4049432     0.275782  64.50 0.0008116077    1.727    0.421
        52 -10.1515    199.3479     73.4760   4.9328440356e+01   2.5790703316e+01    0.7065793    0.4031227 -48.56  0.001965601    1.664    0.399
        53 -10.0721    197.4536     81.0676   5.1458842124e+01   2.4964356623e+01    0.3512744    0.3014582  47.23    0.0011412    1.308    0.236
        54 -10.2649    203.0285     78.9517   5.0078855302e+01   2.4069888901e+01     0.384464    0.2880897  56.75   0.00199776    1.402    0.287
        55  -7.3320     80.6743     80.3292   7.9588870377e+01   5.0831112358e+01    0.1419386    0.1162126  83.32 0.0003078176    1.702    0.412
        56 -11.9545    226.0859     87.9982   4.8810623467e+01   1.7648333184e+01     2.032022    0.5878582 -52.35   0.00562695    5.366    0.814
        57 -10.2810    216.4834    225.8952   7.8321883360e+01  -4.4050446515e+00    0.2232614    0.1912619  -4.55 0.0003435764    1.089    0.081
        58 -12.7204    234.3370     65.4231   4.2869816130e+01   1.9502693415e+01     1.230116    0.7280123 -55.36  0.001752897    1.532    0.347
        59  -9.8090    140.6542     70.8224   5.9627388809e+01   4.0009169145e+01    0.3867871    0.2536906 -89.81  0.001572566    2.415    0.586
        60  -8.9761    184.5169    225.9289   8.4546243456e+01   3.4267324702e-01    0.2482637    0.1883381  37.17 0.0003499514    1.282    0.220
        61  -9.1679    185.9498    221.3702   8.3501274742e+01   8.8737208260e-01    0.2525045    0.1978509 -22.18 0.0003766849    1.294    0.227
        62  -9.8038    137.4860     51.4586   5.4552718738e+01   4.3862632759e+01    0.2525853    0.2369278  64.23 0.0007495311    1.006    0.006
        63  -9.8947    188.5860     44.7434   4.3831282675e+01   3.2583645692e+01    0.6689072    0.2137006 -40.40  0.002553335    2.874    0.652
        64  -8.4381    186.7838    216.8800   8.2573020226e+01   1.5236276422e+00    0.1947936    0.1600623  -3.24 0.0003522167    1.180    0.153
        65  -9.9701    153.4133    210.8928   8.8634924707e+01   8.1246326216e+00    0.2451115    0.2368046 -46.10 0.0004648923    1.151    0.131
        66  -9.1920    191.0547     38.2374   4.1891191004e+01   3.2875912816e+01     0.396095    0.1546743 -44.39  0.001587732    2.420    0.587
        67  -8.1241    105.3765    206.9572   9.9004057299e+01   1.6955839632e+01    0.1820872    0.1646706 -69.95  0.000335656    1.172    0.147
        68 -10.0818    123.9955    205.9934   9.4510383603e+01   1.4103448313e+01    0.1981716    0.1821801  44.24  0.001157889    1.003    0.003
        69  -8.4326     54.0000     33.4542   7.3172220190e+01   6.3593918221e+01    0.2659239   0.06806079 -39.10 0.0009352748    3.939    0.746
        70  -8.1335    192.1224    144.1320   6.7189087619e+01   1.4328352567e+01    0.1996632    0.1717156 -67.42 0.0003842041    1.320    0.243
        71  -9.7630    182.4283    143.2696   6.8973845380e+01   1.6452849237e+01    0.2561609    0.2506496 -76.28 0.0002471542    1.081    0.075
        72  -8.1754    204.3224     40.0502   4.0695071000e+01   2.9586535260e+01    0.1776856    0.1404451 -47.23 0.0004912896    1.244    0.196
        73  -7.9315    240.1727     25.8756   3.4125923880e+01   2.3683658306e+01    0.1450284    0.1370914 -66.47 0.0006383212    1.339    0.253
        74 -10.9384    127.8764     22.2446   4.7349145916e+01   4.9879534465e+01    0.5314391    0.2569139  44.69  0.002405088    2.061    0.515
        75  -9.9589    234.7531    196.4274   6.9777824543e+01  -2.4469064776e+00    0.6537693     0.291859  51.52  0.002513371    4.242    0.764
        76  -7.5997     78.6801     20.2948   5.8846650663e+01   6.0911173029e+01    0.1157511    0.1010643 -86.82 0.0002463605    1.612    0.379
        77  -8.7242    203.5251     18.5125   3.5812398081e+01   3.2411731456e+01    0.2972075    0.1850534 -86.84  0.001664837    1.502    0.334
        78  -8.9887    193.9973    196.4966   7.7472052180e+01   3.9505184828e+00    0.3515891     0.179033 -59.63  0.001262164    3.830    0.739
        79  -8.6093    176.0437    196.2034   8.1145759471e+01   7.0726466910e+00    0.1988134    0.1830036  18.99 0.0003551959    1.037    0.035
        80  -9.1719     37.8029    195.0503   1.1359635110e+02   2.9080107257e+01     0.192774    0.1786164  54.81 0.0002179239    1.203    0.169
        81  -7.2155    161.4896    193.4664   8.3813695432e+01   1.0172846465e+01    0.1412953    0.1337525  30.72 -4.975725e-05    1.054    0.052
        82  -8.4570     39.9470    179.4472   1.1148759049e+02   3.2547900135e+01    0.1815195    0.1569263 -86.95 0.0003449752    1.049    0.047
        83  -9.8118    125.8284     14.0287   4.5075453807e+01   5.1200253454e+01    0.2742739    0.1675667  56.52  0.001467431    1.391    0.281
        84  -8.4416    153.9333    177.0369   8.2427677438e+01   1.4966480459e+01    0.3989758    0.2644733  84.05  0.001513586    3.000    0.667
        85 -10.3036      2.1651    173.0335   1.2016469374e+02   3.7649930734e+01    0.6024392    0.2201571 -76.22  0.002760018    2.248    0.555
        86  -8.8239    237.4709    175.1627   6.5284351743e+01   6.0487589961e-01    0.2411568    0.2004434 -76.81 0.0007662964    1.888    0.470
        87  -7.7598    189.8064     15.4025   3.6482022943e+01   3.5888356066e+01    0.1274713   0.07627153 -56.77 0.0006749447    1.617    0.382
        88  -7.7175     98.1684    168.1029   9.4647985136e+01   2.7140050328e+01    0.2076818    0.1680886  85.10 0.0006760872    1.354    0.261
        89 -10.9962     64.4400    144.1676   9.9848931041e+01   3.8279709149e+01     1.838014    0.8299291  28.64  0.007293646    2.486    0.598
        90 -12.0447     32.8672    156.5297   1.1069826227e+02   3.8935935616e+01    0.7071582    0.6281989 -55.90  0.001771361    1.197    0.165
