#   1 NUMBER                 Running object number                                     
#   2 MAG_AUTO               Kron-like elliptical aperture magnitude                    [mag]
#   3 X_IMAGE                Object position along x                                    [pixel]
#   4 Y_IMAGE                Object position along y                                    [pixel]
#   5 X_WORLD                Barycenter position along world x axis                     [deg]
#   6 Y_WORLD                Barycenter position along world y axis                     [deg]
#   7 A_WORLD                Profile RMS along major axis (world units)                 [deg]
#   8 B_WORLD                Profile RMS along minor axis (world units)                 [deg]
#   9 THETA_WORLD            Position angle (CCW/world-x)                               [deg]
#  10 FWHM_WORLD             FWHM assuming a gaussian core                              [deg]
#  11 ELONGATION             A_IMAGE/B_IMAGE                                           
#  12 ELLIPTICITY            1 - B_IMAGE/A_IMAGE                                       
         1 -12.9589    211.1998     44.6453   1.9328253560e+01   2.8159844536e+01    0.6785367    0.5920183 -33.27  0.001136241    1.219    0.179
         2 -13.0220    237.2502     21.6662   1.2354735765e+01   2.5892535714e+01    0.7901995    0.5767224 -48.04  0.004278365    1.014    0.014
         3 -10.3567      9.5006      7.5000   6.2432542194e+01   7.9612299389e+01    0.1280692    0.1124578  -6.35 -0.0005043021    1.007    0.007
         4 -15.1139      3.3025    249.2704   1.0125699266e+02   2.0332578724e+01    0.7731745    0.2736607  30.67  0.003952146    1.945    0.486
         5 -10.8127    142.6652    250.0768   7.1538666358e+01   6.1651552664e+00    0.4377781    0.1141227  26.07  0.001787877    3.324    0.699
         6  -9.5995    114.2953    249.6996   7.7249647098e+01   9.3038567008e+00    0.1997743    0.1467601  34.91 0.0009170015    1.242    0.195
         7 -16.3804     56.2180    233.8084   8.8752184832e+01   1.8365120455e+01     5.958487     3.510804   6.44   0.03151994    2.106    0.525
         8 -10.3935    101.2375    245.4319   7.9599163904e+01   1.1418263641e+01    0.2389686    0.1519283  42.08  0.001321782    1.476    0.322
         9 -10.2974    126.4432    213.6762   7.0448752763e+01   1.3834318131e+01     0.234874    0.1811837  27.27  0.001074604    1.137    0.121
        10  -9.3687     69.8237    195.6416   8.2088042078e+01   2.4689443502e+01    0.2803967    0.1580359 -47.57  0.001335673    2.075    0.518
        11 -10.6577    191.3383    191.8035   5.3946832579e+01   9.0667244654e+00    0.4640402     0.276219 -63.44   0.00164317    6.475    0.846
        12 -17.9170      6.6693    228.9790   1.0006119887e+02   2.3928083802e+01      6.93645       2.8332 -79.48   0.02446816    2.671    0.626
        13  -9.5729    150.5942    245.2229   6.9418675568e+01   5.9944523649e+00    0.1494833   0.09303751 -27.70 0.0009521714    1.703    0.413
        14 -10.3205    176.4972    184.5202   5.5446590547e+01   1.2157199382e+01    0.2500689    0.1151338  33.92  0.001207775    2.160    0.537
        15 -10.1882     76.7952    183.5665   7.8810848554e+01   2.6531845473e+01    0.3737353    0.2245962  51.07  0.001474707    1.694    0.410
        16 -10.4743    124.9820    243.5399   7.4379185090e+01   9.0700826249e+00    0.1647267    0.1449563 -23.62 0.0008417504    1.298    0.229
        17 -11.1008     98.9594    180.8929   7.2483231645e+01   2.4071941109e+01    0.3034778    0.2719129  30.54 0.0006971444    1.028    0.027
        18 -10.5457    128.7207    181.0732   6.5075088903e+01   1.9660319091e+01    0.2396262    0.1768047  38.40  0.000910448    1.334    0.250
        19 -10.8101    172.6085    177.3733   5.4937099045e+01   1.3889354836e+01    0.2940628    0.2164458 -34.20 0.0008462535    1.282    0.220
        20 -11.4406    181.5470    173.1231   5.2454793165e+01   1.3326544916e+01    0.4697328    0.2971572 -32.99  0.002641315    1.438    0.305
        21 -10.6342    178.7574    167.4386   5.1923494729e+01   1.4680630823e+01    0.3008583    0.2571814   8.72  0.001595961    1.121    0.108
        22 -10.4931    198.7584    171.1430   4.9010708567e+01   1.1249852008e+01    0.2495357    0.1465621 -44.93  0.001007926    1.815    0.449
        23  -9.1931     68.5375    171.3561   7.9601002607e+01   3.0516428306e+01     0.260686    0.1445835 -75.28  0.001126866    2.072    0.517
        24 -11.1158    102.9137    170.7843   6.9870023744e+01   2.5733665482e+01    0.3846322    0.2141527  51.14  0.001642485    2.080    0.519
        25 -10.3590    108.8612    239.9365   7.7409881874e+01   1.1463570064e+01    0.2609133    0.1550531 -40.17  0.001531836    1.999    0.500
        26 -11.5007     90.1440    166.2621   7.2647511052e+01   2.8697322841e+01    0.7967901    0.3058964  48.11  0.002699196    3.084    0.676
        27  -9.7766     79.9886    166.9615   7.5657954915e+01   3.0011276721e+01    0.2687247    0.2432432 -13.12 0.0008786671    1.232    0.188
        28 -10.4992     82.4784    164.4977   7.4566647970e+01   3.0248294738e+01    0.4254359    0.3395531 -16.16   0.00151724    1.520    0.342
        29 -16.2921      8.5508    207.3692   9.8985984449e+01   2.8310015133e+01      1.66715     1.151407 -20.86  0.009469676    2.083    0.520
        30  -8.8919     46.5305    166.5421   8.5652233984e+01   3.4443280577e+01    0.1439161    0.1290438  56.29 0.0001234185    1.007    0.007
        31 -10.8299     66.8585    126.6400   7.3036703779e+01   4.2307234194e+01     0.735073    0.4287913 -72.37  0.002995115    1.886    0.470
        32 -13.8000     68.0570    143.7298   7.5703685874e+01   3.7593268153e+01      2.07972     1.196216  86.16  0.005824352    2.522    0.604
        33 -11.2386     67.4909    163.4895   7.8865445500e+01   3.2600719173e+01    0.3295701    0.3012294   4.48 0.0009018935    1.205    0.170
        34 -11.9000     72.2021    159.2079   7.6824071138e+01   3.3025425061e+01    0.5367329    0.3266041 -31.16  0.002221712    2.294    0.564
        35  -9.4838     39.6111    161.9727   8.7343825535e+01   3.6391858122e+01     0.406908    0.2086386  85.00  0.001664161    2.273    0.560
        36  -8.6995     48.2747    156.6571   8.3993553686e+01   3.6799202062e+01    0.1556822   0.09982439  62.68 0.0006158366    1.619    0.382
        37  -9.6224     87.1200    154.3651   7.1564793561e+01   3.2020661512e+01    0.3458969    0.2122793 -87.74  0.001376101    2.438    0.590
        38 -10.9376     80.7985    151.4098   7.2962089937e+01   3.3724880444e+01    0.3626992    0.2823521 -80.40 0.0004941759    1.412    0.292
        39 -10.8706    133.7359    146.2560   5.7364363699e+01   2.6044660155e+01    0.8593193    0.2334532 -53.68  0.002269616    5.166    0.806
        40 -11.4291     87.1639    147.1099   7.0268978402e+01   3.3806367064e+01    0.5700845    0.4021757 -30.22  0.001231755    1.755    0.430
        41  -9.7644     88.3760    140.6595   6.8685345740e+01   3.5219686614e+01    0.2923067     0.204185 -85.22 0.0007147476    1.827    0.453
        42 -10.5129     54.5439    148.0369   8.0826420067e+01   3.8303219743e+01    0.3819014    0.3724404  -5.45  0.001646073    1.140    0.123
        43 -10.3748     24.0277    148.4390   9.1196797528e+01   4.1545919304e+01    0.4350857    0.2334294  28.91  0.001958602    1.769    0.435
        44  -9.3625     35.7781    144.4171   8.6750843543e+01   4.1484422296e+01    0.2780827    0.1853361 -45.61  0.001275473    1.700    0.412
        45  -9.7770     32.1063    143.8667   8.7968434801e+01   4.2015293548e+01    0.3679569     0.226739  60.98  0.001682987    1.621    0.383
        46  -9.6110     24.4009    137.9315   9.0097158509e+01   4.4388665531e+01    0.3424309    0.1848015  63.02  0.001099247    1.908    0.476
        47 -10.8060    104.3757    131.9837   6.2088811493e+01   3.4565604490e+01    0.6824705    0.4391325 -17.38  0.002481234    2.587    0.613
        48 -11.5737     89.4156    133.0075   6.6823772103e+01   3.6965446221e+01    0.2954947    0.2784597 -37.03 0.0004301129    1.113    0.102
        49  -9.4562     43.9528    129.6897   8.1887381365e+01   4.4616737136e+01    0.2142654     0.193893  57.08 0.0008547957    1.063    0.060
        50  -8.9481     81.9029    128.5920   6.8308636204e+01   3.9368460068e+01    0.2168691    0.1358614  48.17 0.0005546345    1.638    0.390
        51  -9.6548    111.2529    126.8176   5.8949746312e+01   3.4511270101e+01    0.2731205    0.1978403   7.65 0.0005989464    1.926    0.481
        52  -8.6597     93.3441    124.7278   6.3790910542e+01   3.8345552437e+01    0.1599173    0.1187145  68.02 0.0004709958    1.617    0.382
        53 -10.2285     98.3259    122.1123   6.1643144129e+01   3.8074220372e+01    0.2741119    0.2558796 -10.10 0.0006033066    1.174    0.148
        54  -9.9660     44.1001    123.0739   8.0800109799e+01   4.6439440562e+01    0.2409785    0.2002957 -44.96  0.001008027    1.293    0.227
        55 -10.3808     55.9504    118.5965   7.5463544500e+01   4.6106775347e+01    0.4388197    0.2557379  54.60 0.0009083357    1.907    0.476
        56  -8.9736    107.5447    116.4869   5.7520238241e+01   3.7655864006e+01    0.1538203     0.150702 -54.76 0.0001188631    1.018    0.018
        57  -9.8555     39.6816    113.0427   8.0878059480e+01   4.9783233369e+01    0.2713731    0.2094695  42.10 0.0003285142    1.289    0.224
        58  -9.6752    205.4638    110.3125   3.5501337233e+01   1.9837177207e+01    0.2070637    0.1933272 -40.37 0.0006755477    1.148    0.129
        59  -9.7298     54.2607    110.5398   7.4494587138e+01   4.8562374625e+01    0.3581871    0.1642893  16.88  0.001147631    3.237    0.691
        60 -10.7446     31.6582    108.0754   8.3418277305e+01   5.2083863861e+01    0.5461382    0.3104707  37.84  0.002364501    1.731    0.422
        61 -10.0176    114.8397    108.9765   5.3505195387e+01   3.7921633427e+01    0.2647827    0.1843018 -20.15  0.001096036    2.026    0.506
        62 -10.0005     49.4889    104.9402   7.5248660820e+01   5.0781198762e+01     0.250537    0.1480175 -64.25   0.00104559    1.630    0.386
        63  -9.3603     45.0022    105.0268   7.7150355667e+01   5.1363474745e+01    0.2484222    0.1710182  61.22 0.0004459897    1.599    0.375
        64  -9.4866     40.5447    102.6974   7.8593157522e+01   5.2581255665e+01    0.2056352    0.1444993 -84.89 0.0009271835    1.495    0.331
        65 -10.0450     36.0839    101.0152   8.0227858289e+01   5.3586945489e+01    0.3679661    0.1943189  25.09  0.001458327    1.974    0.493
        66 -11.3959    102.2038    240.8241   7.8944061860e+01   1.2069869639e+01    0.4809774    0.2327807 -36.24  0.002392944    2.836    0.647
        67 -11.3909     15.6812     89.5459   8.7881041248e+01   5.8782584070e+01    0.5495516    0.1677858  29.69  0.001904834    2.988    0.665
        68  -9.8358     42.1782     87.3740   7.4428962347e+01   5.6604037717e+01    0.2208962    0.1330288  40.87 0.0003791437    1.687    0.407
        69 -10.4392     59.3091     79.1688   6.4228427762e+01   5.6108235267e+01    0.4758391    0.2358872  59.93  0.001479425    3.508    0.715
        70 -10.0417     47.0316     75.8338   6.8892348610e+01   5.8975912580e+01    0.2560035    0.1590139  55.92 0.0007867461    1.939    0.484
        71 -12.4100    188.7615     60.8743   2.5689180337e+01   3.0584456294e+01      1.03182    0.6696525  34.64 0.0007026764    2.321    0.569
        72 -13.3615    204.1042     50.1315   2.1306022230e+01   2.8877758431e+01    0.8936133    0.8429163  29.66  0.004553077    1.388    0.279
        73 -10.2423    248.3260    249.2072   5.3539091227e+01  -3.7331307894e+00    0.1645233    0.1055939   3.98  0.001392447    1.167    0.143
        74  -9.5829     62.3020     62.0190   5.6840833917e+01   5.9675952240e+01    0.3208535    0.1846534  63.52   0.00116508    2.663    0.624
        75 -11.1116      8.9604     55.6990   8.5364468804e+01   6.8526747249e+01    0.1960061    0.1878784 -22.88 0.0006186912    1.079    0.073
        76  -9.2762     35.8434     35.6533   5.8994130627e+01   7.0232479665e+01    0.2003624    0.1254713  45.60  0.000479445    1.692    0.409
        77 -10.1604    125.0109    248.5228   7.4912715499e+01   8.3087865183e+00    0.1621667    0.1430649  -3.70 0.0006419881    1.207    0.171
        78  -9.4728     60.3527     21.0930   3.7523934122e+01   6.7725398894e+01    0.2363638    0.1803464  45.43 0.0004015975    1.251    0.200
