#   1 NUMBER                 Running object number                                     
#   2 MAG_AUTO               Kron-like elliptical aperture magnitude                    [mag]
#   3 X_IMAGE                Object position along x                                    [pixel]
#   4 Y_IMAGE                Object position along y                                    [pixel]
#   5 X_WORLD                Barycenter position along world x axis                     [deg]
#   6 Y_WORLD                Barycenter position along world y axis                     [deg]
#   7 A_WORLD                Profile RMS along major axis (world units)                 [deg]
#   8 B_WORLD                Profile RMS along minor axis (world units)                 [deg]
#   9 THETA_WORLD            Position angle (CCW/world-x)                               [deg]
#  10 FWHM_WORLD             FWHM assuming a gaussian core                              [deg]
#  11 ELONGATION             A_IMAGE/B_IMAGE                                           
#  12 ELLIPTICITY            1 - B_IMAGE/A_IMAGE                                       
         1 -11.2170     80.7246     23.0185   5.4779390874e+01   6.0090684309e+01    0.6672836    0.2143106  43.93 0.0008309498    2.676    0.626
         2 -11.2022    218.0131      7.8510   2.8566455569e+01   3.0704596338e+01    0.8561959    0.5243017 -63.16  0.005423269    1.379    0.275
         3 -12.0657    236.5862      3.6341   2.6494443844e+01   2.7436117235e+01     1.299229    0.5859211  74.47  0.007557742    2.037    0.509
         4  -8.8152    148.1346     13.7178   3.7191823792e+01   4.5756671168e+01    0.4034465    0.1326431  55.82  0.001671553    2.534    0.605
         5  -9.9775     78.1462     12.9256   5.1438457072e+01   6.1652363450e+01    0.6491327      0.20793  54.74  0.002638252    2.710    0.631
         6  -8.7449     64.9049     13.5494   5.5954831053e+01   6.4205414443e+01    0.3071179    0.1458774  37.67 0.0007970147    1.832    0.454
         7  -9.4693     31.4452     11.1518   6.8833194279e+01   7.0033335499e+01    0.3047687    0.1604788  12.23 0.0004316506    2.162    0.538
         8  -8.5199    156.1676     11.4260   3.5469163876e+01   4.4090646463e+01    0.2385256    0.1458372 -27.68 0.0008976131    1.907    0.475
         9  -7.8197    156.2848      7.3033   3.4344210704e+01   4.4444204314e+01    0.1203902   0.08491947  45.69 0.0002134556    1.558    0.358
        10  -8.4793     97.1283     11.4650   4.5835218782e+01   5.7739078500e+01    0.2451534    0.1584365  36.40 0.0007051603    1.460    0.315
        11  -8.7250    125.3491      9.9210   3.9613409556e+01   5.1446445294e+01     0.230659    0.1518046  58.42  0.000337333    1.273    0.214
        12  -9.9979     20.8383      8.4981   7.3048448296e+01   7.1749451380e+01    0.3308139    0.2021125  32.40 0.0003877627    1.631    0.387
        13 -10.2188     13.8982      4.2182   7.4754631169e+01   7.3096448527e+01    0.2830545    0.1750576  -5.59 0.0002489366    1.403    0.287
        14  -9.9880      8.4850      5.0309   7.8470531588e+01   7.3569038600e+01    0.5763277    0.2476132  12.84  0.002852815    2.670    0.626
        15  -8.1296    142.7341      9.4513   3.6743627097e+01   4.7419813751e+01    0.1705933   0.09967371  58.85  0.000301302    1.465    0.318
        16  -8.7320     40.9664      5.5598   6.1528301608e+01   6.9213113744e+01     0.248375     0.144045  -4.15  0.001100055    1.846    0.458
        17  -9.9877     84.9934      5.1481   4.6378900359e+01   6.0898090520e+01    0.2346279      0.19124  44.28 0.0003802064    1.013    0.012
        18  -8.6215     31.9454      5.8636   6.5878057541e+01   7.0565961728e+01    0.1849341    0.1212214  11.08 0.0004562563    1.316    0.240
        19  -8.6935    110.8590      3.0154   3.9926480641e+01   5.5346921214e+01    0.2563089    0.1594409 -33.71   0.00110394    1.876    0.467
        20  -8.1636    105.6506      1.8551   4.0515752974e+01   5.6613600182e+01    0.3694969     0.117774  60.25  0.001576025    2.366    0.577
        21  -8.8161     77.1173      5.8744   4.8799286034e+01   6.2486839000e+01    0.3039056    0.2674005  82.11  0.002036081    1.463    0.317
        22  -9.3078     57.7573      3.2095   5.3740834236e+01   6.6508698772e+01    0.2617218    0.1415091  39.95  0.000335856    1.486    0.327
        23  -8.1306    125.4937      3.1174   3.7440114906e+01   5.1974526782e+01    0.1550328    0.1255597 -21.85  0.000519466    1.482    0.325
        24  -8.5172    154.4027      2.9040   3.3392611895e+01   4.5266439741e+01    0.2655838    0.1155223  57.09 0.0007269671    2.002    0.500
        25  -8.3022    133.5861    147.2112   7.7485194195e+01   2.5254733106e+01    0.2399047    0.1440995 -37.94 0.0009535381    1.748    0.428
        26  -9.2321    213.7959    250.4295   7.9273044147e+01  -8.3877294943e+00    0.2205349    0.1013601  32.49 0.0007144313    2.043    0.511
        27  -9.4205     67.0248    144.5380   9.6285345698e+01   3.7446246204e+01    0.5246337    0.3367327  64.15  0.002224196    2.057    0.514
        28  -7.3872     34.3214    144.6759   1.0642300019e+02   4.1281787072e+01    0.1464048    0.1002025  68.83 0.0007046572    1.679    0.405
        29  -8.1117     75.7251    133.9576   9.1423360571e+01   3.8947704677e+01    0.2178658    0.1876269 -59.02 0.0003641825    1.112    0.100
        30  -8.0617    135.6093    123.0057   7.1079444875e+01   3.0524988105e+01    0.4429157    0.1400118 -55.58  0.000950209    6.245    0.840
        31  -8.9677    135.5046    113.0094   6.8503255650e+01   3.2794117679e+01    0.3987575    0.2719823 -62.43  0.001677473    1.782    0.439
        32  -9.8153    133.7580    106.5907   6.7235158555e+01   3.4575146685e+01    0.5782514    0.3065351 -40.53  0.001820985    1.890    0.471
        33  -8.2675     35.0015    113.3382   1.0090834275e+02   4.9360017084e+01    0.2306402   0.07617807  44.62 0.0007051341    4.447    0.775
        34  -9.1711      9.2411    109.1540   1.0931260757e+02   5.2414121415e+01    0.2557855    0.2011576  51.31 0.0008585331    1.527    0.345
        35  -7.8225     39.0000    108.9908   9.8593750090e+01   5.0060597112e+01    0.2473071   0.07330589 -61.54 0.0008114308    3.005    0.667
        36  -8.3743    180.6830    106.7150   5.6554088709e+01   2.4176457151e+01    0.2520368    0.2290684  -5.11 0.0007267311    1.254    0.203
        37  -9.5015    115.3951    106.7632   7.2355517956e+01   3.8441427790e+01    0.3218818    0.2588892  87.45 0.0009284187    1.671    0.402
        38  -8.2365     86.9128    105.3815   8.0837277126e+01   4.4233276533e+01    0.2419727    0.2124001 -65.59 0.0005277407    1.260    0.206
        39  -8.7324    124.2701    106.7493   6.9835681332e+01   3.6584695940e+01    0.2509594    0.1287987  32.32 0.0008865314    2.395    0.583
        40  -9.2372     71.8170    104.8171   8.5826739401e+01   4.6865490640e+01    0.4070263    0.2425752  48.40  0.001346623    2.040    0.510
        41  -8.1445     13.8517    105.3954   1.0705756450e+02   5.3064545049e+01    0.1760703    0.1180867 -15.10 0.0009401891    1.703    0.413
        42  -8.9070    247.2336    102.2449   4.4983826259e+01   1.1779088319e+01     0.215325   0.07766555 -48.02 0.0008780041    2.425    0.588
        43  -8.2081     64.6973    101.0541   8.7366837849e+01   4.8835119939e+01    0.2159433    0.1826483 -39.57  0.001142042    1.087    0.080
        44  -9.3752    140.7061     98.9231   6.3356570365e+01   3.4654267373e+01     0.328303    0.2397429   6.24  0.001396535    1.991    0.498
        45  -9.2243     13.6953     96.6809   1.0556843682e+02   5.5220165934e+01    0.2329025     0.194416 -50.49 0.0006334378    1.017    0.017
        46  -9.3721     12.0495     93.8976   1.0567954854e+02   5.5999023452e+01    0.3819022    0.1897355 -48.84  0.001026366    1.615    0.381
        47  -9.2820     55.8173     93.2034   8.8558751938e+01   5.1927706549e+01     0.385865    0.3137217  26.49  0.001865481    1.304    0.233
        48  -8.7429      1.5345     92.4137   1.0945436399e+02   5.6924517313e+01    0.2333453    0.1305875 -70.62 0.0005283889    1.565    0.361
        49  -8.3235    116.1426     90.7223   6.7561575098e+01   4.1742131138e+01      0.26017    0.1771044 -88.24 0.0009602082    2.834    0.647
        50  -9.3508     43.5029     91.1202   9.2745006025e+01   5.3933504461e+01     0.387742    0.1886581   7.94  0.001475108    3.011    0.668
        51  -7.7953    109.7714     90.4338   6.9332995973e+01   4.3147279154e+01    0.2237779     0.143707  30.84 0.0009503133    1.717    0.418
        52  -9.2746    151.3851     86.6812   5.7442812926e+01   3.4629738827e+01    0.4677989     0.322696  13.55  0.001929494    2.335    0.572
        53 -10.7913     37.4800     81.1722   9.2540222715e+01   5.6888771673e+01    0.8307167    0.4165927 -19.64  0.003273058    2.849    0.649
        54  -8.2635    126.6847     83.2031   6.2437282654e+01   4.0927456237e+01    0.4868261    0.2177117  29.22  0.001251733    5.324    0.812
        55  -8.7396     66.1591     83.7906   8.1979272184e+01   5.2574927986e+01    0.2494239    0.2230775 -20.49 0.0005899062    1.015    0.015
        56  -8.9241     20.9892     84.0491   1.0006117530e+02   5.7725218799e+01    0.2008984    0.1673547 -43.85 0.0002979065    1.022    0.021
        57  -8.8778     95.2428     78.2895   7.0092567507e+01   4.8570723592e+01    0.6635659    0.2218274  50.90  0.001910687    4.195    0.762
        58  -8.3981     88.2349     78.5667   7.2486303708e+01   4.9872842197e+01    0.2787488    0.1387442  29.61  0.001054965    2.370    0.578
        59  -9.3957     49.8530     76.9227   8.6264701228e+01   5.6378874130e+01    0.6023018     0.307695  -4.69  0.002015778    3.991    0.749
        60  -8.6882    184.3667     77.5037   4.8564755330e+01   2.8686557635e+01    0.2480907      0.21414 -41.14 0.0007055677    1.164    0.141
        61  -9.7036      8.1449     76.9386   1.0383938159e+02   6.0219962943e+01    0.3762116    0.1744531 -34.36  0.001494548    1.995    0.499
        62  -8.5124     57.4475     77.1322   8.3295652714e+01   5.5303125447e+01    0.2588455     0.187187  66.48  0.001189867    2.352    0.575
        63  -8.1171    112.2039     76.3985   6.4336034309e+01   4.5412610495e+01     0.217507    0.1409331  56.73 0.0009537921    1.722    0.419
        64 -10.7065     23.5125     73.9775   9.6518698963e+01   5.9821788563e+01     1.709065    0.4165624 -35.52  0.003989888    7.969    0.875
        65 -10.4543     24.4480     69.9443   9.5022897123e+01   6.0631037160e+01     1.195066    0.4100768   8.95  0.003859631    4.957    0.798
        66  -9.0398    168.0142     74.7055   5.0758558370e+01   3.2910708356e+01    0.3486103    0.2165214 -42.89  0.001502467    1.576    0.366
        67 -10.2697    164.1199     70.7548   5.0432714522e+01   3.4481347048e+01    0.4211498    0.3218083 -53.46  0.001522717    1.317    0.240
        68  -8.4268     74.9933     74.0157   7.5648390636e+01   5.3183134771e+01    0.2295828    0.1655881  -6.58 0.0004209383    1.610    0.379
        69  -8.6947     73.6442     85.8274   7.9839761240e+01   5.0937187837e+01    0.3705873    0.2206473  55.71  0.001487208    2.544    0.607
        70  -8.1295    131.5388     67.6661   5.6530031003e+01   4.2627583896e+01    0.2714348    0.1323335  52.43  0.001088045    1.976    0.494
        71  -8.4885    107.8968     66.7881   6.2504992400e+01   4.8088174669e+01    0.5191129    0.1893473  49.76  0.001807651    2.730    0.634
        72  -9.1622     84.0039     63.7686   6.9019783478e+01   5.3498773410e+01    0.5066777     0.254555  27.90  0.001978614    2.468    0.595
        73  -8.3271     16.0152     63.6838   9.7098278343e+01   6.2651094032e+01    0.1937326    0.1278846 -29.27 0.0006243873    1.318    0.241
        74  -9.1237     19.9267     60.5151   9.4380035274e+01   6.3018158266e+01    0.3246764    0.1554862  -5.17  0.001322999    2.731    0.634
        75  -8.1278    163.6952     62.9292   4.8384771865e+01   3.5843965887e+01    0.2001161    0.1823965 -58.13 0.0007199352    1.087    0.080
        76  -9.3740     25.8352     62.2842   9.2179963725e+01   6.2139213111e+01    0.2794722    0.2033365 -64.27 0.0009849078    1.651    0.394
        77 -10.5999     62.5333     60.8714   7.5912723252e+01   5.7793194882e+01    0.5350926    0.2687262  30.06 0.0003478421    2.032    0.508
        78  -8.1645      1.5130     59.0700   1.0266283035e+02   6.4513880407e+01    0.1794686    0.1466899 -71.31 0.0006296888    1.416    0.294
        79  -9.3207    183.1214     58.8863   4.4072648380e+01   3.1942559145e+01    0.2897551    0.2222628 -37.86  0.001598121    1.345    0.256
        80 -10.5399    177.8733     54.1779   4.3680207853e+01   3.3849302990e+01    0.6633515    0.3887221  84.59  0.001936563    2.125    0.529
        81  -9.9831     38.6458     58.1562   8.5038125021e+01   6.1631553445e+01    0.5689029    0.2414522  17.87  0.002282585    2.929    0.659
        82  -9.4503     99.9727     54.9363   6.0848113947e+01   5.1766778966e+01    0.3451979    0.2968035  41.48 0.0006186435    1.104    0.094
        83 -10.7193     75.5878     49.8989   6.6995637042e+01   5.7444441777e+01    0.4328366    0.2580202  42.27 0.0004336667    1.617    0.382
        84  -8.4495    119.1818     50.6977   5.4198567035e+01   4.8156834503e+01    0.3298392     0.167535  44.27  0.001044787    1.898    0.473
        85  -9.0778    106.1826     48.9424   5.7003283619e+01   5.1337668662e+01     0.456444     0.259316  11.66  0.001621062    3.607    0.723
        86  -8.5998     11.4912     60.5264   9.8335538000e+01   6.3635644394e+01    0.1288801    0.1012384 -34.60 -8.527294e-05    1.007    0.007
        87  -9.4466     45.2106     48.5280   7.8653223910e+01   6.2591160585e+01    0.3210135     0.201296   5.40 0.0009821383    1.767    0.434
        88  -8.9449      3.2639     44.9967   9.7912039567e+01   6.7309221297e+01    0.2545211    0.2135482  26.72  0.001755618    1.531    0.347
        89  -9.2364      9.7933     46.9699   9.5167319671e+01   6.6513345483e+01     0.344976    0.2056684  13.20  0.001540927    1.724    0.420
        90  -8.5499     13.9743     45.4453   9.2535765071e+01   6.6504295246e+01    0.2017962    0.1435251  15.24 0.0007602574    1.458    0.314
        91  -8.5721     49.9518     58.6956   8.0295118331e+01   6.0077135404e+01    0.1884504    0.1581196  12.18 0.0003851936    1.141    0.124
        92  -9.3161     55.8142     43.3756   7.2105993218e+01   6.1897338884e+01    0.3668323    0.1972809  -3.57  0.001391762    3.406    0.706
        93  -8.7025     81.4881     43.5309   6.2556558195e+01   5.7296081737e+01    0.2406089    0.2084977   7.60 0.0005803995    1.081    0.075
        94 -10.5492     83.0993     39.7308   6.0580519301e+01   5.7520158990e+01    0.4838557    0.2628834  33.52 0.0002570432    1.849    0.459
        95  -9.1694     99.8049     42.0019   5.6347210891e+01   5.3718318886e+01    0.4378984    0.1944227  61.61  0.001622311    2.994    0.666
        96  -8.9436     92.0000     42.9956   5.8996250166e+01   5.5241408498e+01     0.181985    0.1705903 -84.94 0.0006854131    1.346    0.257
        97  -9.0455     31.9988     42.9181   8.2632405551e+01   6.5238130766e+01    0.5728914    0.1972963  27.85  0.002395774    2.902    0.655
        98  -8.8652    250.1788     41.7946   3.2690969882e+01   2.0313557417e+01    0.2696252   0.05048931 -42.08  0.001024744    3.569    0.720
        99  -8.0669    113.9956     41.4829   5.2418045841e+01   5.0630876763e+01    0.2066319   0.09764468  37.14 0.0005541776    2.474    0.596
       100  -9.0230    203.6280     38.3773   3.6448896135e+01   3.0197953981e+01    0.2149074    0.1930672  86.07 0.0004880354    1.150    0.131
       101  -8.3269     18.6778     31.6867   8.4966232442e+01   6.8576074212e+01    0.2170487     0.114278 -27.87 0.0009582419    1.712    0.416
       102  -9.6868     19.9393     36.0511   8.6037240185e+01   6.7708854263e+01    0.4503761    0.3040765  -0.20  0.002215485    1.350    0.259
       103  -9.0625     21.9223     31.8869   8.3327220664e+01   6.8219337221e+01    0.2536567    0.1615636  -9.60  0.001060287    1.455    0.312
       104  -8.4686     35.5037     37.5419   7.8823845587e+01   6.5733651027e+01    0.2477203    0.1128902 -41.22 0.0006769126    2.096    0.523
       105  -9.4467     38.5351     35.0243   7.6346559538e+01   6.5747774231e+01    0.3403224    0.1531204  29.65  0.001331608    2.138    0.532
       106  -9.5591     71.6637     34.8652   6.2574706076e+01   6.0408025419e+01    0.3557886    0.2223062  24.94   0.00182916    1.621    0.383
       107  -8.7404    185.9061     35.8215   3.7947462783e+01   3.4487212622e+01    0.1876647      0.16936  50.33 0.0006914131    1.315    0.239
       108  -8.3281    106.8486     36.2767   5.2423165821e+01   5.2919718488e+01    0.4616565   0.07760711  51.30  0.001321273    4.423    0.774
       109  -7.5265     92.3058     36.6752   5.6569189434e+01   5.6037141504e+01    0.1274063    0.1078525 -79.37 0.0002705748    1.646    0.392
       110  -9.3596      3.2711     24.3960   9.0669376541e+01   7.1086575093e+01    0.2174966    0.1042412 -37.51 0.0006849731    1.649    0.393
       111  -9.8682     12.2542     34.2613   8.9445624468e+01   6.8702365865e+01    0.3532116    0.2235451  43.09  0.001956376    2.520    0.603
       112 -10.2998      5.9770     34.2129   9.2869277835e+01   6.9180266921e+01    0.2865398     0.263067  23.64  0.001731187    1.510    0.338
       113  -8.2959    178.1720     34.5877   3.8639613386e+01   3.6418739779e+01    0.1904249    0.1878792  57.75 0.0006822395    1.233    0.189
       114  -9.7208    179.5775     30.4961   3.7430655797e+01   3.6592775983e+01    0.2451116    0.2241729   9.69 0.0005195031    1.450    0.310
       115  -8.5268     55.7313     35.0425   6.8761571547e+01   6.3187350497e+01    0.1843073    0.1518936  -3.30 0.0004894171    1.081    0.075
       116  -9.7919    197.1786     32.4151   3.5801569406e+01   3.2373939752e+01     0.226509    0.2140059  74.87 0.0004646672    1.244    0.196
       117  -8.8702     96.3441     32.8283   5.3986322332e+01   5.5661291712e+01     0.241489    0.1858148  40.49 0.0002965928    1.149    0.130
       118  -9.4267    212.0228     30.3213   3.3783281735e+01   2.9402801656e+01    0.2444729    0.2180484 -89.30 0.0005683273    1.172    0.147
       119  -8.8303     71.0234     30.0539   6.0848079398e+01   6.1162878167e+01    0.2019497    0.1695735  23.08 0.0003569614    1.014    0.014
       120  -8.1010    190.5200     27.9505   3.5504050190e+01   3.4403083140e+01    0.1767165    0.1182339 -39.57 0.0008926257    1.526    0.345
       121  -8.9761     42.6183     27.4878   7.1205822568e+01   6.6304460512e+01    0.2798786    0.1750376   6.79 0.0006721645    1.669    0.401
       122  -8.3196    173.6883     26.9514   3.7287782747e+01   3.8371363633e+01    0.1761486     0.156248 -81.12 0.0006076617    1.053    0.051
       123  -9.1639     63.0815     26.5920   6.2293005105e+01   6.3068400740e+01     0.501195    0.1925545  46.62  0.001547744    2.458    0.593
       124  -9.4945     70.3534     26.1310   5.9461322538e+01   6.1777343625e+01     0.369038    0.1757462  45.69 0.0008493984    1.867    0.464
       125 -10.6619     44.0283    248.9490   1.1481365953e+02   1.5074055940e+01    0.4305851    0.2216482  24.34  0.002169737    2.345    0.574
       126  -8.2376    186.1101     26.1389   3.5574566785e+01   3.5612315443e+01    0.1816604    0.1606814  56.37 0.0006208203    1.304    0.233
       127  -7.6186    153.3189     26.3222   3.9978603735e+01   4.3226908998e+01    0.1329231   0.09314697  38.71 0.0007044034    1.669    0.401
       128  -9.9310    204.8253     23.8493   3.3068529705e+01   3.1723781804e+01    0.2372757     0.214426 -83.29 0.0005989111    1.167    0.143
       129  -8.6223     25.9717     24.7208   7.8117198079e+01   6.8905656581e+01    0.2571437    0.1186617 -20.15  0.001151085    2.718    0.632
       130  -9.0196     29.5587     20.4746   7.4317544358e+01   6.9079703844e+01    0.3936628    0.1339827  24.27  0.001483847    3.844    0.740
       131  -8.8438     46.3260     20.9728   6.6606512604e+01   6.6610820607e+01    0.3209137    0.1468614 -34.51  0.001593083    2.282    0.562
       132  -9.1807    128.9563     22.0143   4.2800824714e+01   4.9451394872e+01    0.1947969    0.1685118  58.78 0.0003100902    1.029    0.028
       133  -8.9069     92.5117     20.4905   5.0403270728e+01   5.7884287937e+01    0.2664194    0.1835484  31.92 0.0007274218    1.390    0.280
       134  -9.1117     18.0567     17.4954   7.9068185663e+01   7.0857845654e+01    0.3304537    0.1607157  35.68   0.00125724    2.338    0.572
       135  -9.0668      9.0060     19.5392   8.5221803319e+01   7.1429292033e+01    0.2785006    0.1693882  -5.43  0.001069589    1.462    0.316
       136  -8.5459     13.1810     17.6240   8.1907605367e+01   7.1338498331e+01    0.2199334    0.1398921  -3.18 0.0006868863    1.364    0.267
       137  -8.8939    198.2439     18.6426   3.2546867289e+01   3.3751493241e+01    0.2408208    0.1560145 -35.98  0.001425652    1.644    0.392
       138  -7.5994    140.6660     19.6686   4.0051626147e+01   4.6931448293e+01    0.1361006   0.08832895  39.07 0.0007052192    1.729    0.422
       139  -7.2882    146.7152     18.7355   3.8830962008e+01   4.5597112006e+01    0.1245311    0.0883015  44.36 -0.0001541599    1.490    0.329
       140  -7.6210    111.9865     18.8034   4.5125065916e+01   5.3714316616e+01    0.1724682   0.08972134  59.79 0.0008307942    1.658    0.397
       141  -8.1882    127.1559     16.4890   4.1381148990e+01   5.0424450609e+01    0.1987406    0.1118869  63.77  0.001011387    1.527    0.345
       142 -10.4853    185.1874    241.5280   8.3526351285e+01  -3.2449583583e+00    0.3534116    0.3033362 -78.01  0.001282576    1.999    0.500
       143 -11.1071     34.2038    244.7169   1.1650343825e+02   1.7067790728e+01    0.4057523     0.224087  73.03  0.002244154    1.767    0.434
       144  -8.6452    189.4911     15.2290   3.2630542281e+01   3.6061233798e+01    0.2216812    0.1519638  78.28 0.0008851622    1.275    0.216
       145  -8.0641    177.7418     15.1260   3.3844866167e+01   3.8728621855e+01    0.1917103    0.1365651  29.64   0.00107709    2.073    0.518
       146  -8.0697    161.3118    238.3083   8.8064257064e+01   7.4893188024e-01    0.1356307   0.09436163  -3.14 0.0004739366    1.623    0.384
       147  -9.7071    205.7898    236.0562   7.8460072800e+01  -5.1770309161e+00    0.2187897    0.1810166  -0.46 0.0003539041    1.065    0.061
       148  -7.9995    163.4739     12.8635   3.4933306102e+01   4.2248389172e+01    0.1660757    0.1224405 -35.18 0.0006159419    1.516    0.340
       149  -9.2090    172.9885    235.9168   8.5178365609e+01  -5.4858637195e-01    0.2287734    0.1766752 -34.83 0.0005696498    1.353    0.261
       150  -9.4996    188.0838    233.6931   8.1643354036e+01  -2.3467235589e+00    0.2597492    0.1910326 -57.38 0.0009525552    1.985    0.496
       151  -8.3727    175.7660    226.3884   8.3010852999e+01   7.3365478815e-01    0.2006753    0.1734777 -36.78 0.0005848258    1.278    0.217
       152 -11.5895     41.1071    219.1506   1.1304756928e+02   2.1856931953e+01    0.9680728    0.6036637  54.60  0.003155872    1.453    0.312
       153  -7.6951    142.5938    218.8291   8.9154068313e+01   7.3619735293e+00     0.172496    0.1383638 -63.99 0.0004498512    1.515    0.340
       154  -9.8078     30.6189    212.0440   1.1481693669e+02   2.4659538190e+01    0.3231174    0.2501018 -30.56  0.001119854    1.828    0.453
       155  -8.5823    165.1351    206.0087   8.1778086599e+01   6.3030332711e+00    0.2131968    0.1932427  -0.33 0.0003733022    1.010    0.010
       156 -10.6658     55.4364    195.2954   1.0718612232e+02   2.5830871623e+01    0.4098747    0.2799149  22.66  0.002089772    1.686    0.407
       157  -8.5928    192.3064    194.3066   7.3640324681e+01   4.1618202741e+00    0.5153783    0.1714145 -53.69  0.001284337    6.656    0.850
       158  -8.6663     26.4631    199.3275   1.1470829765e+02   2.8109462870e+01    0.1915866    0.1829177  78.15 0.0003561602    1.185    0.156
       159  -7.4168     92.7573    190.6667   9.6901759766e+01   2.1739700228e+01    0.1445967    0.1102123 -32.66 0.0003748794    1.545    0.353
       160  -8.0146    242.3446    180.3213   6.1433120093e+01  -9.2414818306e-01     0.136007   0.08787293 -10.96 0.0004669564    1.730    0.422
       161  -7.6715     95.5431    178.4757   9.4154226115e+01   2.4329991186e+01    0.1483092    0.1459749 -50.29 1.299512e-05    1.042    0.040
       162 -10.7225    100.9964    175.9905   9.2239290646e+01   2.4065764636e+01    0.2123257    0.2093277  84.84            0    1.004    0.004
       163  -7.4217    125.0469    174.0000   8.5449313213e+01   2.0397664254e+01    0.2423798   0.08745411  36.14 0.0004616069    2.768    0.639
       164  -7.4909    107.3074    151.6805   8.5709760694e+01   2.9119166599e+01    0.1602785    0.1250196  77.25 0.0003712701    1.637    0.389
       165  -7.7753    188.5349    149.4744   6.5054023495e+01   1.3871897174e+01    0.1507891    0.1368112 -27.23 8.634419e-05    1.018    0.018
       166  -8.8165    116.8240    149.0809   8.2461248443e+01   2.8025319910e+01    0.2516071     0.222604  42.30  0.000289812    1.160    0.138
