#   1 NUMBER                 Running object number                                     
#   2 MAG_AUTO               Kron-like elliptical aperture magnitude                    [mag]
#   3 X_IMAGE                Object position along x                                    [pixel]
#   4 Y_IMAGE                Object position along y                                    [pixel]
#   5 X_WORLD                Barycenter position along world x axis                     [deg]
#   6 Y_WORLD                Barycenter position along world y axis                     [deg]
#   7 A_WORLD                Profile RMS along major axis (world units)                 [deg]
#   8 B_WORLD                Profile RMS along minor axis (world units)                 [deg]
#   9 THETA_WORLD            Position angle (CCW/world-x)                               [deg]
#  10 FWHM_WORLD             FWHM assuming a gaussian core                              [deg]
#  11 ELONGATION             A_IMAGE/B_IMAGE                                           
#  12 ELLIPTICITY            1 - B_IMAGE/A_IMAGE                                       
         1 -12.2104     14.8450     17.9643   7.5528992813e+01   7.0507863836e+01    0.3016228    0.1760053 -33.88 0.0005103881    1.577    0.366
         2  -9.8726     29.2954      7.5464   6.3116880265e+01   7.0094227534e+01    0.2022396    0.1403251 -18.93  0.001370534    1.400    0.286
         3 -11.4343     21.8589      6.5051   6.6367365058e+01   7.1189600937e+01      0.38356    0.1893196  13.82  0.001136004    2.204    0.546
         4 -10.8892     89.4883      6.5106   4.1390848041e+01   5.9399245921e+01    0.2650872    0.1031089  59.38  0.001213601    2.183    0.542
         5 -10.4725    117.3386    238.8767   9.2143725513e+01   7.2217870757e+00    0.3594015    0.1604193 -47.28  0.001249064    2.493    0.599
         6  -8.5585    196.2825    250.3076   7.6678643733e+01  -6.2043756829e+00      0.12788   0.08301531  -6.34 0.0002269734    1.563    0.360
         7 -10.7509    170.0180    248.6101   8.1865541699e+01  -2.3541404600e+00    0.3192926    0.2272447  -5.25  0.001805912    1.463    0.316
         8 -10.5962    123.0876    248.1605   9.2086874949e+01   4.5325897319e+00    0.5531901    0.2431173  50.83  0.002176318    2.937    0.659
         9 -10.1391     95.3282    249.8381   9.8476366004e+01   8.1917732071e+00    0.2303185    0.1920403  20.09 0.0009552782    1.258    0.205
        10 -11.2950     90.1215    247.9725   9.9420337091e+01   9.2960842216e+00    0.4712545    0.2941691 -60.05  0.002540969    1.775    0.436
        11 -10.6077     77.7628    241.6393   1.0148588087e+02   1.2310907802e+01    0.3665215    0.2754411 -80.01  0.001503073    1.438    0.305
        12 -12.0438     90.7823    237.6543   9.8084401171e+01   1.1352178021e+01    0.5552257    0.4446004  74.63  0.003059485    1.346    0.257
        13 -12.2194     92.6451    224.4199   9.6002657873e+01   1.3976310298e+01    0.7868282    0.5341826  75.72  0.002959586    1.861    0.463
        14 -12.1854    104.0111    233.7677   9.4541393279e+01   1.0264024013e+01     0.503256    0.2985775 -68.30 0.0007776236    2.024    0.506
        15 -10.9396    101.9010    226.9059   9.4126394971e+01   1.2059146651e+01    0.2852973    0.2109505  51.30 0.0004181952    1.333    0.250
        16 -11.1322     82.2024    246.8682   1.0105474779e+02   1.0613386959e+01    0.4637679    0.3098843 -57.18  0.002094652    1.664    0.399
        17 -10.6599     86.8453    242.1021   9.9494835421e+01   1.0965450430e+01    0.3114316    0.2023699 -44.51 0.0007365782    1.862    0.463
        18 -11.1060     98.8839    234.8339   9.5870034762e+01   1.0788676537e+01    0.3326333    0.2569036   9.13 0.0007423272    1.531    0.347
        19 -11.4925     95.0393    232.2875   9.6443317150e+01   1.1894456242e+01    0.3672848    0.2647183  60.02 0.0006116931    1.465    0.317
        20  -9.8397     75.8728    250.3180   1.0279882688e+02   1.0757531213e+01    0.1947758    0.1440922  28.15 0.0002581844    1.363    0.266
        21  -9.5125     71.9379    250.5687   1.0367643756e+02   1.1226619220e+01    0.1873743    0.1111909  34.61 0.0003769975    1.517    0.341
        22 -15.6985     14.6463    175.7295   1.0998787563e+02   3.5233549923e+01      6.30863     3.114506 -15.07  0.006557328    4.262    0.765
        23 -10.2819    219.6294    244.5813   7.1154771491e+01  -8.2571387869e+00    0.2571634    0.2166834 -58.84  0.000894389    2.014    0.503
        24  -9.5715    201.0107    244.7077   7.4822205986e+01  -5.9249786246e+00    0.2396632    0.1334732 -51.54   0.00118001    2.477    0.596
        25  -9.0507    192.3202    245.6715   7.6740118216e+01  -4.9305807835e+00    0.1147025    0.1013005  53.74  0.000704788    1.687    0.407
        26  -9.5890    134.1749    245.6508   8.9268139484e+01   3.3841588661e+00    0.1937632    0.1135304  23.23 0.0005215202    1.693    0.409
        27  -9.3535    233.6717    244.3616   6.8491560173e+01  -9.8828256668e+00   0.09966668   0.09879735 -51.48 0.0007040736    1.796    0.443
        28  -9.5155    134.1242    250.6199   8.9967020925e+01   2.4546028856e+00     0.275305   0.09717558  39.79  0.001091369    2.513    0.602
        29 -10.5347    217.4075    238.8007   7.0614976762e+01  -7.0841057117e+00    0.2042773    0.1906104  28.32 0.0008946143    1.529    0.346
        30  -9.3001    144.4906    239.5874   8.6078864973e+01   3.0082003980e+00    0.1362276    0.1176735  17.27 3.851973e-05    1.032    0.031
        31 -10.4764    231.6648    237.8608   6.7770315853e+01  -8.6752574440e+00    0.2361634    0.1998063  14.14 0.0007351487    1.326    0.246
        32 -11.6199    227.7722    234.4567   6.7913115419e+01  -7.6834506655e+00    0.4765669    0.2123322 -33.04  0.001896986    2.032    0.508
        33 -10.2439    245.1388    236.3778   6.5091640653e+01  -1.0000202591e+01    0.2084269    0.1293511 -22.34 0.0005448267    1.320    0.242
        34 -10.2620     80.6452    234.1774   1.0000883270e+02   1.3521899274e+01    0.5058993    0.3410049 -19.42  0.002411099    2.406    0.584
        35  -9.9983     81.4894    229.9388   9.9322893188e+01   1.4337240856e+01    0.2581213    0.1988667  77.98  0.001076827    1.393    0.282
        36 -10.1877     84.3187    228.3699   9.8472823403e+01   1.4289106670e+01    0.3208819     0.251978 -28.35  0.001306562    1.625    0.385
        37 -11.4207    187.6250    234.8839   7.5938648232e+01  -2.4568473588e+00    0.5393255    0.2650161  38.48  0.002534728    2.085    0.520
        38 -10.7772    167.9403    235.2371   8.0203898856e+01   3.2755100142e-01    0.3998442    0.2120297  43.05  0.001065592    2.055    0.513
        39  -9.6123    168.4320    230.7612   7.9363957796e+01   1.0848461680e+00    0.1859928    0.1192932 -30.90 0.0009374507    1.627    0.385
        40 -11.4077    124.0442    233.0397   8.9781901092e+01   7.4068209634e+00    0.5554033    0.3626151 -62.41  0.001791007    1.817    0.450
        41 -10.4600    118.7208    229.4472   9.0506994325e+01   8.9686534889e+00     0.236848    0.1929289 -55.63 0.0006213178    1.344    0.256
        42 -10.4733    113.2754    235.8560   9.2669723498e+01   8.4489377385e+00    0.2418277    0.1683628  42.20  0.000592348    1.320    0.242
        43  -9.9985    222.6087    234.2767   6.8853258682e+01  -7.0189011921e+00    0.2354288    0.1620834   3.23 0.0005780825    1.328    0.247
        44 -10.4930    177.1371    233.5018   7.7929756297e+01  -7.0613468237e-01    0.4048264     0.266192  13.43  0.002121145    1.532    0.347
        45 -10.3562    206.8035    231.7087   7.1484030873e+01  -4.5558164612e+00    0.2567949    0.2170974 -44.93  0.001171787    1.500    0.333
        46 -12.6933      4.6773    189.4205   1.1362241654e+02   3.2650614011e+01    0.7641606    0.3318114  34.46  0.003737063    2.291    0.563
        47 -10.6454    247.8330    231.3463   6.3764531157e+01  -9.5539252780e+00    0.2004021    0.1402018 -33.99  0.001026982    1.356    0.262
        48 -11.5853    237.7800    231.0004   6.5485349699e+01  -8.3468208332e+00    0.3402047    0.2226491  43.10  0.001921457    2.252    0.556
        49 -11.8337    239.0749    227.9165   6.4720566251e+01  -8.0236008891e+00    0.3813331    0.3079657 -59.79  0.002342266    2.160    0.537
        50 -11.3783    197.5660    218.8307   7.1098025908e+01  -1.0279313319e+00    0.5574394    0.2614997 -32.88  0.002452487    2.180    0.541
        51 -10.7422    196.1534    227.2645   7.2871814085e+01  -2.3274131459e+00    0.4801098    0.3429202  56.33  0.001910542    2.338    0.572
        52  -9.7470    225.8599    228.1308   6.7180373016e+01  -6.4449295054e+00    0.1766576    0.1495108 -10.77 0.0003626251    1.143    0.125
        53  -9.9765    149.9962    228.2223   8.3071042967e+01   4.3858730123e+00    0.1863064    0.1597145  86.57 0.0007465278    1.618    0.382
        54  -9.4043    209.0218    227.2549   7.0273226093e+01  -4.1045563743e+00    0.1829853    0.1483692   0.36 0.0005405563    1.056    0.053
        55 -10.2983    186.3503    225.1808   7.4555125970e+01  -5.4345299995e-01    0.2267105    0.1745232 -45.95  0.001039196    1.463    0.316
        56  -9.9688    169.6095    225.2910   7.8189547662e+01   1.9403954880e+00    0.2801233    0.1627533  28.21  0.000890906    1.631    0.387
        57 -11.1365    243.1217    223.8761   6.3299635954e+01  -7.8742588121e+00    0.2437157    0.1540867  19.02 0.0009852224    1.587    0.370
        58  -9.3007    161.9702    224.7657   7.9798140113e+01   3.2136574637e+00    0.1748471    0.1077329  30.12 0.0002238972    1.515    0.340
        59 -10.9313    107.4211    223.2255   9.2300730514e+01   1.2037485165e+01    0.3052198    0.2605597 -47.64 0.0008643539    1.262    0.207
        60 -10.0661    122.7393    223.0116   8.8608594869e+01   9.7194662206e+00    0.2635272    0.2377338  61.13 0.0006818321    1.203    0.169
        61  -9.9560    122.9025    218.7820   8.7922458789e+01   1.0610316563e+01    0.2406171    0.2029067 -48.84 0.0007598631    1.258    0.205
        62 -10.4667    230.7419    221.5865   6.5126282153e+01  -6.0019227556e+00    0.2354278    0.1244008 -30.42 0.0006167773    1.673    0.402
        63 -13.0925      4.7403    196.7129   1.1414259615e+02   3.0884942250e+01    0.4489432    0.3506489  62.60  0.002887717    1.188    0.158
        64  -9.9264    102.3974    220.0526   9.3064010006e+01   1.3506951918e+01     0.191904    0.1759973 -67.57 0.0005522046    1.158    0.136
        65  -9.5244    139.8985    216.9986   8.3584510176e+01   8.2822161797e+00    0.2934574    0.2000087  88.95  0.001227605    2.735    0.634
        66 -10.1366    249.4879    216.9876   6.0987924944e+01  -7.5483155845e+00    0.1790356   0.09814512 -35.06 0.0003761906    1.508    0.337
        67 -10.5104    222.3794    216.5034   6.5780912639e+01  -4.0765038605e+00    0.4216986    0.2128948  17.43  0.001932778    2.443    0.591
        68  -9.0248    151.6556    217.6863   8.0952124753e+01   6.2533091543e+00     0.149314    0.1054726  -6.90 0.0007047168    1.710    0.415
        69 -10.0349    116.7988    216.4453   8.9037417284e+01   1.2088770002e+01    0.3938068    0.2206859  12.45  0.001507278    2.753    0.637
        70  -9.8778     88.6082    215.6464   9.5821748351e+01   1.6568038057e+01    0.2694985    0.2077483   2.16  0.001380814    1.656    0.396
        71 -11.8391    233.8956    212.8756   6.2997335042e+01  -4.9747548490e+00    0.4861824    0.3750745 -35.44  0.001931363    1.277    0.217
        72  -9.7325     96.0454    214.9529   9.3898580735e+01   1.5627142221e+01    0.3489184     0.199473  23.43  0.001277766    1.963    0.491
        73  -9.6414    179.6229    214.2425   7.4068953127e+01   2.5222376499e+00    0.1807653    0.1216208 -32.50 0.0002414937    1.453    0.312
        74  -9.9377    104.7889    213.7157   9.1566489270e+01   1.4580394729e+01    0.3368396    0.1876708  32.79  0.001495666    1.712    0.416
        75 -11.1623    192.0470    229.7705   7.4151901318e+01  -2.1865709881e+00    0.2754119     0.210537 -43.71 0.0002245865    1.461    0.315
        76 -10.2444    186.1097    212.6770   7.2390107596e+01   1.8222623490e+00    0.3687803    0.2139499   4.35  0.001544262    2.496    0.599
        77  -9.4707    127.9915    213.3148   8.5828315461e+01   1.0997292706e+01    0.2031376    0.1773036  28.26 0.0003955065    1.080    0.074
        78  -9.4782    207.5260    209.4623   6.7383059507e+01  -7.7979822134e-01    0.2582985    0.1063714 -33.21  0.001032105    2.522    0.604
        79 -10.2469    166.4177    214.2369   7.6987137500e+01   4.5978962203e+00     0.330105    0.2300678 -47.86  0.001684879    1.523    0.343
        80  -9.8265    150.5785    209.2288   7.9743686355e+01   8.1944816625e+00    0.2084736    0.1296385 -36.55 0.0009519111    1.696    0.410
        81 -11.2195    128.4262    206.8809   8.4659892056e+01   1.2358563131e+01     0.405664    0.3175077  26.64    0.0018935    1.243    0.196
        82  -9.7902    100.8636    207.9256   9.1681224708e+01   1.6530149011e+01    0.2128718    0.2003298  59.98 0.0004796816    1.049    0.047
        83 -10.5627    241.2115    204.0349   6.0096604931e+01  -4.4457758158e+00    0.3195798    0.2004122 -15.95 0.0006552875    1.591    0.371
        84  -9.5763    241.1686    199.2343   5.9225483668e+01  -3.6373354237e+00    0.1723284    0.1453403 -10.97 0.0004281374    1.104    0.094
        85 -11.0189    235.0294    202.9026   6.0979235396e+01  -3.4503983681e+00    0.3529835    0.2045364 -23.79 0.0008609351    1.657    0.396
        86  -9.8123    190.0400    203.9996   6.9956621670e+01   2.8789987798e+00    0.2315719     0.157618  -5.47  0.001118378    1.701    0.412
        87  -9.6628    139.9500    204.0000   8.1356106003e+01   1.1089876956e+01    0.2437096   0.08072677  34.84  0.000797722    2.910    0.656
        88 -10.6927    160.6253    200.0149   7.5731368663e+01   8.4804190262e+00    0.4387179     0.273536  54.66  0.001883452    2.203    0.546
        89  -8.8111    197.7064    200.2693   6.7654699879e+01   2.4014445754e+00    0.1204328    0.1124829  81.06 0.0002423054    1.513    0.339
        90  -9.5835    184.0302    198.0302   7.0113140562e+01   5.0112890644e+00    0.2070821    0.1869054 -11.43 0.0002994276    1.026    0.025
        91 -10.0426    215.1915    196.5294   6.3463281495e+01   4.5193031506e-01    0.3457802    0.1981866 -25.92  0.001659743    1.781    0.439
        92 -10.0995    210.7312    195.4868   6.4129626949e+01   1.3098926237e+00    0.3358599    0.2428619 -30.10  0.001116234    1.225    0.184
        93 -10.6956    210.9588    190.7211   6.3169823327e+01   2.1657159296e+00    0.4079859    0.2217965  47.55  0.001838116    2.434    0.589
        94  -9.5075    225.1209    195.8314   6.1460759403e+01  -8.6118614705e-01    0.1855477    0.1361786 -11.02 0.0007534046    1.324    0.245
        95 -10.1056    190.8375    194.6825   6.8018103011e+01   4.5740148731e+00    0.3427135    0.1826598 -46.45  0.001292004    1.860    0.462
        96 -10.5095    247.3151    191.3303   5.6723624741e+01  -3.1087073477e+00     0.480628    0.1911631 -47.16  0.002076835    2.591    0.614
        97 -11.3074    242.5683    190.1979   5.7311866418e+01  -2.2887807187e+00    0.5256498    0.2251035 -32.65  0.001862115    2.162    0.538
        98  -9.7790    164.4152    194.0854   7.3736683644e+01   9.1003577370e+00    0.3638393    0.1929588  52.43  0.001385432    2.686    0.628
        99 -13.7692    138.8638    183.3649   7.7809419036e+01   1.5964797007e+01    0.9025181    0.7609633 -27.79  0.004612473    1.217    0.178
       100  -8.9191    165.3160    186.3505   7.2025636069e+01   1.0606315908e+01    0.1582903    0.1117305 -12.33 0.0007047143    1.732    0.423
       101 -13.4527    146.8326    185.7055   7.6292788229e+01   1.4011909921e+01     1.014205    0.5883783 -33.05  0.004169561    1.988    0.497
       102 -10.2354    214.8364    182.1212   6.0747933944e+01   3.1850070555e+00    0.2544187    0.1972574 -48.12 0.0004551558    1.358    0.264
       103  -9.8201    211.7795    178.8411   6.0683556388e+01   4.2903709721e+00    0.2173931    0.1937283 -29.54 0.0006621639    1.085    0.079
       104  -9.9873    203.3401    183.4938   6.3259000827e+01   4.7485369228e+00    0.2747993    0.1372296  37.95  0.001204503    2.149    0.535
       105 -10.3275    191.0020    183.0125   6.5692062003e+01   6.8810432098e+00    0.2497493    0.2085717  37.75 0.0003423621    1.309    0.236
       106 -10.1554    194.0119    179.6500   6.4389433137e+01   7.0523295269e+00    0.2602639    0.1937776 -45.78 0.0005655784    1.324    0.245
       107  -9.2530    248.4073    181.4826   5.4711732173e+01  -1.5828909723e+00    0.1281371    0.1012165 -30.27 -3.533002e-05    1.037    0.036
       108  -9.5252     24.0731    181.4994   1.0811505339e+02   3.2942678598e+01    0.1739112    0.1341461  24.87 0.0004678123    1.491    0.329
       109  -9.3906    201.8174    178.8613   6.2640463073e+01   5.9052155745e+00    0.2486035    0.1826201 -22.93 0.0006374072    1.339    0.253
       110 -10.2330    206.7754    176.2137   6.1127726379e+01   5.6076027044e+00    0.3955462    0.2836073   1.98  0.001974822    1.676    0.403
       111  -9.8100    233.0126    177.9453   5.6628554210e+01   1.2023451426e+00    0.2408747    0.1682211 -27.88  0.000710801    1.260    0.207
       112 -11.2173    238.5089    173.8863   5.4906496308e+01   1.1261361249e+00    0.4383511    0.2601706   8.86  0.002003912    2.719    0.632
       113 -10.8545    192.9581    174.9706   6.3659094527e+01   8.1791821784e+00    0.5532733    0.3069334  24.34  0.001230528    2.294    0.564
       114  -9.3476    222.3631    172.1670   5.7385809485e+01   3.8778048880e+00    0.1991895    0.1137592 -48.98  0.000943005    1.753    0.430
       115 -12.5263    153.8695    167.8793   7.0965261101e+01   1.6793618006e+01    0.5536681    0.3483793 -38.50  0.001754871    1.599    0.374
       116 -12.4642    152.0217    163.3292   7.0447432782e+01   1.8183223827e+01    0.5939221    0.2646472 -41.49   0.00200211    2.278    0.561
       117 -11.0674    170.5853    169.1263   6.7305678073e+01   1.3405315697e+01    0.2802922    0.2422573  16.86 0.0003974433    1.192    0.161
       118 -10.1762    158.5254    170.4649   7.0390523783e+01   1.5339900173e+01    0.1526506    0.1448736 -17.07 6.465852e-05    1.004    0.004
       119 -12.4500    145.0608    167.9475   7.3146469316e+01   1.8427447887e+01    0.5743775    0.2106932 -45.65  0.001902368    2.667    0.625
       120  -9.2001      6.2903    170.1746   1.1164235220e+02   3.7286746642e+01    0.1076597   0.08904696 -36.89 0.0002328796    1.424    0.298
       121 -11.7480    155.7226    176.0544   7.2215018777e+01   1.4597191485e+01    0.3766508    0.2093811 -50.38  0.001555183    1.819    0.450
       122  -9.6432    207.6248    167.9544   5.9289300987e+01   7.0815231520e+00    0.1962458    0.1611706 -36.11 0.0004527804    1.089    0.082
       123  -9.7389    176.2960    168.7005   6.5934616851e+01   1.2449656843e+01    0.1416961     0.120822 -87.93 0.0001692652    1.572    0.364
       124  -9.8914    215.7722    165.8128   5.7316263609e+01   6.1401925501e+00    0.2831913    0.1668804 -32.45  0.001075817    1.612    0.380
       125 -11.2280      4.8539    165.6971   1.1161462094e+02   3.8515009059e+01    0.2151113    0.1886909 -71.50 0.0003566365    1.104    0.094
       126 -10.0879    234.1387    166.3684   5.4181849169e+01   3.1268720874e+00    0.1682139    0.1263923  52.63 0.0009480958    1.763    0.433
       127  -9.5182    201.4870    165.9482   6.0074803971e+01   8.5265907103e+00    0.1990454    0.1851528  -0.74 0.0003786516    1.099    0.090
       128 -10.7336    238.1683    163.8496   5.3017060913e+01   2.9718531480e+00    0.2755805    0.1599844 -50.07  0.001387166    1.722    0.419
       129 -14.8050     26.6826    233.5622   1.1194534364e+02   2.0289675252e+01      1.74581     0.625455 -60.68  0.006494991    2.783    0.641
       130 -10.2146    226.1125    161.8534   5.4663108980e+01   5.2101548909e+00     0.200703    0.1904441  -1.70 0.0003074422    1.163    0.140
       131  -9.2445    229.3003    161.6475   5.4071554281e+01   4.7415752168e+00    0.1637741    0.1440391  63.03 0.0005446407    1.499    0.333
       132  -9.8593      1.2700    166.6748   1.1263924676e+02   3.8518418284e+01     0.203868    0.1093468 -85.73 0.0008373116    1.661    0.398
       133 -10.2314    207.1190    158.3690   5.7407674003e+01   9.0543390330e+00    0.2561195    0.1830715 -44.75 0.0003432139    1.285    0.222
       134 -11.0918    247.3457    156.0883   5.0048908293e+01   2.9800961761e+00      0.38691    0.2600091 -66.41  0.001205783    2.243    0.554
       135 -11.0009    157.0383    158.1142   6.8103955553e+01   1.8412426176e+01    0.2801343    0.2150361  46.27 0.0008884686    1.385    0.278
       136  -9.5941    219.9558    156.7698   5.4717316682e+01   7.1738608268e+00    0.2899862    0.1163979  45.55  0.001156616    2.923    0.658
       137 -11.1321    172.7014    156.0662   6.4027111707e+01   1.5853717946e+01    0.2924118    0.2267034  26.69 0.0006819055    1.398    0.285
       138 -11.8526     36.7590    154.0008   1.0127420056e+02   3.8799865461e+01    0.3822869    0.3044265 -87.21  0.001886809    1.240    0.194
       139 -10.6494    237.5866    151.9689   5.0775193184e+01   5.2049194971e+00    0.2864833    0.1905521  33.87  0.001567013    1.825    0.452
       140 -10.6985    165.0098    154.4568   6.5422585636e+01   1.7689856468e+01    0.2257565    0.1520563  38.84 0.0004593428    1.546    0.353
       141  -8.9061      3.6432    157.1830   1.1114457841e+02   4.0743478896e+01    0.2885473     0.113117  40.33  0.001265882    2.688    0.628
       142 -10.2021    228.8156    152.6479   5.2349360221e+01   6.4856072150e+00    0.2389353    0.1656194  19.33  0.001112237    1.909    0.476
       143 -14.7533     10.6743    207.7137   1.1357856669e+02   2.7763600887e+01     5.102522     1.495635  19.93  0.006669023    5.098    0.804
       144 -11.5022     13.0313    144.8783   1.0714254527e+02   4.3224132589e+01    0.4706508    0.2780626 -54.23  0.001491559    1.489    0.328
       145 -12.0095      6.0774    146.9825   1.0942098891e+02   4.3166161292e+01    0.6824743    0.3380036 -74.25  0.003284971    1.704    0.413
       146 -10.2858      1.5088    148.4859   1.1088487367e+02   4.3075030604e+01    0.5082003    0.1447871 -80.71  0.001676415    3.801    0.737
       147 -11.1372    210.3946    150.8045   5.5211541954e+01   9.9656446847e+00    0.3538764    0.2341731  43.00  0.001079119    1.700    0.412
       148 -11.4336    149.2433    148.8857   6.7947457311e+01   2.2045086299e+01    0.3652712     0.203492 -40.65 0.0008600524    1.799    0.444
       149  -9.7395    187.1986    151.1929   5.9835465425e+01   1.4132377289e+01      0.19137    0.1726559 -71.03  0.000352517    1.268    0.211
       150 -10.6827    163.7581    149.3977   6.4585407783e+01   1.9057229797e+01    0.2129899    0.1474256  29.36 0.0006899574    1.612    0.380
       151  -9.6349    244.1149    148.1362   4.8999424250e+01   4.8740383061e+00    0.1930631    0.1515194 -26.73 0.0003058129    1.210    0.174
       152 -10.4795     77.4987    147.4528   8.7754486261e+01   3.5381137038e+01     0.277911    0.1500382 -71.56  0.001031889    2.335    0.572
       153 -10.9752    158.1157    147.1881   6.5410841240e+01   2.0668598005e+01    0.2457151    0.2120334  -6.85  0.001139374    1.276    0.216
       154 -13.9200     47.8614    247.8027   1.0856808431e+02   1.4827858119e+01     1.300538    0.9327984  29.92   0.00792667    1.460    0.315
       155 -12.0266     50.6387    144.5910   9.5554459159e+01   3.9742165761e+01    0.7106335    0.3487423 -41.63  0.002844591    2.208    0.547
       156 -12.0726     33.2704    145.2254   1.0105516485e+02   4.1434115142e+01    0.4247895    0.2806798  77.20  0.002040436    1.818    0.450
       157 -11.6868     28.8853    145.4143   1.0242822269e+02   4.1794901617e+01    0.4882923    0.2199154 -80.97  0.001869274    2.629    0.620
       158 -10.3056     23.1648    144.9200   1.0410289250e+02   4.2422683545e+01    0.3527822    0.2036194  59.98  0.001627783    2.127    0.530
       159 -14.6729     38.5798    244.4343   1.1024850198e+02   1.6624401466e+01     1.419617     1.010837  25.57  0.008624661    1.598    0.374
       160 -15.9182     34.2842    213.5893   1.0865980772e+02   2.4033224593e+01     4.447003     2.918771  74.29   0.02440344    1.475    0.322
       161  -9.6277    208.9022    144.2164   5.4093148155e+01   1.1520452513e+01    0.2081176    0.1866895 -69.96 0.0005960275    1.262    0.208
       162 -11.3625    154.5698    142.3720   6.5155898414e+01   2.2463041739e+01    0.4487351    0.3282607   1.74  0.001937189    1.902    0.474
       163 -11.5697    134.1653    142.7159   7.0384093841e+01   2.6475670946e+01    0.3248912    0.2513505 -80.51  0.001088957    1.708    0.414
       164 -10.1714    246.4104    142.2068   4.7495069534e+01   5.5665470482e+00     0.184287    0.1027056 -48.67 0.0004811801    1.597    0.374
       165  -9.9628    169.4655    142.4680   6.1714626217e+01   1.9444759211e+01    0.1524964    0.1447798 -38.32 9.960025e-05    1.015    0.014
       166 -11.0145     41.4165    140.1182   9.7704929002e+01   4.1941805065e+01      0.29064    0.2145089  63.14  0.001472105    1.587    0.370
       167  -9.6560     20.2414    140.8545   1.0444868929e+02   4.3710377041e+01    0.2532382    0.1508263 -27.89 0.0009271858    2.054    0.513
       168 -10.1788    249.4907    139.5003   4.6518129853e+01   5.5627933380e+00    0.1301002    0.1052251 -40.24 3.338567e-05    1.007    0.007
       169 -11.1371    143.4117    138.0060   6.6892090530e+01   2.5717557516e+01    0.3326127    0.2848951   8.40  0.001629525    1.314    0.239
       170 -15.1534      5.2745    227.8175   1.1602692034e+02   2.3668474936e+01     1.228121    0.9808492  30.15  0.008401226    1.472    0.321
       171 -10.2540      5.2703    135.4062   1.0835039569e+02   4.6150341722e+01    0.3668499    0.1820371 -40.95  0.001092452    2.069    0.517
       172 -10.7391      3.8744    130.6814   1.0821398933e+02   4.7423923370e+01    0.3995105    0.2929466  28.70  0.002089306    1.601    0.375
       173 -13.0216    127.2370    128.4262   6.8832151500e+01   3.1217214642e+01    0.8108118     0.550052 -19.54  0.003297734    2.022    0.506
       174 -10.3472     28.9781    137.4677   1.0123215186e+02   4.3845676178e+01     0.191878    0.1392774  22.01 0.0004782368    1.560    0.359
       175 -12.1756    133.4543    133.4412   6.8382218296e+01   2.8793160736e+01    0.4760957    0.3357212  40.90  0.001398878    1.446    0.308
       176 -10.9399     62.7463    133.4909   8.9609802483e+01   4.1099561294e+01    0.5984146    0.3587031  49.82  0.002572386    1.997    0.499
       177 -12.4725     43.1300    131.1940   9.5602120122e+01   4.4070755541e+01    0.6439886    0.3828274 -84.57  0.001815297    2.183    0.542
       178 -11.3563    142.3997    133.6467   6.6111727838e+01   2.6921988514e+01     0.396784    0.2555898   4.98  0.001265987    2.879    0.653
       179 -10.8972     40.2523    134.2346   9.7082859947e+01   4.3590850694e+01    0.3411798    0.2300479  62.51  0.001216227    1.864    0.463
       180  -9.8100     31.6348    133.7802   9.9804178004e+01   4.4555569276e+01    0.1988317    0.1234013 -76.71 0.0003548527    1.630    0.386
       181 -10.5025     34.5181    130.9649   9.8399222535e+01   4.5008436456e+01    0.2449846    0.2268674 -79.77 0.0006352363    1.110    0.099
       182 -11.5283     30.7605    128.9130   9.9293805308e+01   4.5886734721e+01    0.5065712    0.2903094 -16.06   0.00172699    2.380    0.580
       183 -10.8480     24.7815    128.6356   1.0122045152e+02   4.6477681296e+01    0.2720428     0.215864  60.22  0.001083273    1.458    0.314
       184 -10.6258     21.1207    127.2936   1.0221571341e+02   4.7114434944e+01    0.5019246      0.24951 -21.51   0.00196433    2.856    0.650
       185 -12.3961     97.1947    130.2613   7.7973006834e+01   3.6514688320e+01    0.4612591    0.4248266 -85.89  0.002382577    1.208    0.173
       186 -11.4564    101.1771    128.3900   7.6318143690e+01   3.6257471038e+01    0.3647264    0.2265858  53.16  0.001360618    1.940    0.485
       187 -15.5479      8.7738    247.2647   1.1641443630e+02   1.9181385704e+01     1.313082    0.8159707 -68.71  0.008317206    1.659    0.397
       188  -9.9148    120.1850    130.6576   7.1326236854e+01   3.2099767625e+01    0.3532849    0.1843376  49.42  0.001134693    2.160    0.537
       189 -14.6821      2.7110    245.6991   1.1749297872e+02   2.0082795101e+01    0.7952572    0.2763111 -83.97  0.003741768    2.741    0.635
       190 -16.7352     58.7148    210.1820   1.0248509544e+02   2.1963847525e+01     10.57451     6.416831 -21.78   0.04390694    3.046    0.672
       191  -9.2339    244.3344    129.7166   4.5345288094e+01   8.0943961723e+00    0.1259054   0.09267148 -68.25 0.0003275642    1.619    0.382
       192  -8.9114    177.6566    248.3148   8.0203458458e+01  -3.3707279596e+00    0.1215026   0.09906999  53.02 0.0001158417    1.711    0.415
       193 -11.0472    161.4724    240.3840   8.2436181731e+01   3.3613552563e-01    0.3244714    0.2420867 -62.80  0.001323236    1.851    0.460
       194  -9.0622     52.2713    127.3453   9.1829413403e+01   4.4013691734e+01    0.1550067     0.100256 -35.62 0.0002598102    1.618    0.382
       195 -10.2464     11.2422    126.5052   1.0532858011e+02   4.8022198483e+01    0.3203815    0.2462459 -81.72  0.001868192    1.249    0.200
       196 -10.3760     90.2385    124.0053   7.8640628109e+01   3.9267612366e+01    0.2320361    0.2218777 -22.16            0    1.018    0.017
       197 -11.0290     93.4632    123.0070   7.7386106436e+01   3.8949948723e+01    0.3981243    0.2372143 -45.43 0.0009607186    1.627    0.385
       198  -9.8792    232.8799    133.7939   4.7871114791e+01   9.2735865636e+00    0.1968389     0.164022 -27.14 0.0004919789    1.206    0.171
       199 -10.3819    249.0397    122.1011   4.3195830390e+01   8.6488690685e+00    0.3152929    0.1826783  37.26   0.00162114    2.442    0.591
       200 -11.1149    138.3227    121.8544   6.4262854097e+01   3.0429305646e+01    0.2995946    0.2578208 -53.74 0.0008906177    1.176    0.150
       201 -10.6356    139.6673    117.9318   6.2929900428e+01   3.1012575295e+01    0.2415556    0.2154333  -8.26 0.0007071728    1.234    0.189
       202 -11.0868    105.8098    121.2846   7.3178526879e+01   3.7104816787e+01    0.3483458    0.2108806 -40.32  0.001443728    1.680    0.405
       203 -11.3704     52.3229    120.1135   9.0327026825e+01   4.5840558543e+01    0.6421369    0.3198282 -28.28  0.002335415    2.902    0.655
       204  -8.9741     14.3405    122.3128   1.0370679236e+02   4.8870804350e+01    0.1453692   0.08277686 -40.32 0.0007046578    1.698    0.411
       205  -9.3070      2.1478    121.8554   1.0765823135e+02   4.9726611930e+01    0.3145553    0.1130804 -26.85  0.001104252    4.248    0.765
       206  -9.4386    229.2773    121.6039   4.5927414712e+01   1.2105997199e+01    0.1592353    0.1294938  38.05 0.0006395181    1.497    0.332
       207 -10.5660     18.8154    120.6525   1.0194656358e+02   4.8969690349e+01    0.2790373    0.1690229 -68.81 0.0004067329    1.470    0.320
       208 -11.3827    157.1772    246.3968   8.4295710687e+01  -1.2834350904e-01    0.4409054    0.2915826 -12.57  0.002273729    1.836    0.455
       209 -10.9155     65.3441    120.0859   8.5873614215e+01   4.4140080099e+01    0.2132919    0.1892231 -52.69 0.0006895537    1.084    0.078
       210 -11.1508    129.7321    118.8320   6.5756068832e+01   3.2899340599e+01    0.4333485    0.3156313  -3.32  0.001406776    1.958    0.489
       211  -9.2835    179.2220    118.3986   5.4023035988e+01   2.2492472552e+01    0.1934574     0.143246  61.84 0.0003211914    1.524    0.344
       212  -9.4554    146.4546    115.4470   6.0607317936e+01   3.0102326780e+01    0.1525697    0.1495622 -60.64 9.523721e-05    1.023    0.022
       213 -11.7063     28.5102    113.9457   9.7427342686e+01   4.9869798572e+01    0.3246625    0.2570685  -9.37  0.001001028    1.378    0.274
       214 -10.1370    210.8354    113.1691   4.7046575768e+01   1.7085182109e+01    0.2089615    0.1774726 -66.74 0.0005581962    1.181    0.153
       215 -11.6951    131.6087    112.0454   6.3506072157e+01   3.4006354185e+01    0.5323345    0.3786039   1.21  0.002200838    2.125    0.529
       216 -10.8605    154.0118    242.6422   8.4422347675e+01   1.0185611421e+00    0.5681979    0.3165484 -26.18  0.002577242    2.363    0.577
       217  -9.5393     92.6135    113.1943   7.5193039470e+01   4.1446375765e+01    0.2203888     0.137292 -39.58 0.0004045043    1.620    0.383
       218 -11.0028     38.9177    112.2012   9.3378064660e+01   4.9317508242e+01    0.3344207    0.1729099 -55.19  0.001502647    1.666    0.400
       219 -10.2063     20.1623    112.8725   1.0018602758e+02   5.0812363597e+01    0.1976684    0.1777068  82.85 0.0006608688    1.264    0.209
       220 -10.6027     67.4988    111.8567   8.3205081900e+01   4.5852973811e+01    0.3498851    0.1493953  44.52  0.001244224    2.840    0.648
       221 -11.1865    178.9905    110.0287   5.2079669727e+01   2.4203789842e+01    0.5155489    0.3121497  21.90   0.00142309    3.193    0.687
       222 -10.7249     73.3273    109.5193   8.0623621780e+01   4.5538653777e+01    0.3730402    0.2413062 -86.31  0.001399791    2.946    0.661
       223 -10.3873     56.7593    111.2500   8.6812924902e+01   4.7479891605e+01    0.2486487    0.1793328  28.98  0.000682004    1.466    0.318
       224 -11.0155    100.2191    245.6307   9.6894629858e+01   8.3484873969e+00    0.4458208    0.3351677 -39.27  0.002540361    1.591    0.371
       225  -9.4921     89.0062    109.9642   7.5513237138e+01   4.2841109035e+01    0.2569835    0.1831142 -16.25  0.001134109    1.745    0.427
       226  -9.4189     99.2938    240.6852   9.6504713900e+01   9.4972781350e+00    0.1945386    0.1595875  32.99 0.0004662245    1.123    0.110
       227 -10.2015    105.0196    107.9605   6.9959095246e+01   4.0335147416e+01    0.2236225    0.2147366  -8.46            0    1.013    0.013
       228 -10.5663      9.7468    104.7436   1.0252287491e+02   5.3507015086e+01    0.3481546    0.2219474 -46.02   0.00152794    1.327    0.246
       229  -9.9325    187.0116    106.1896   4.9628228454e+01   2.3240906477e+01    0.2355655    0.1685097  22.42  0.001079382    2.053    0.513
       230 -10.6812    129.7425    106.0429   6.2417422047e+01   3.5694525904e+01    0.2138981    0.2063949 -47.44 0.0006606789    1.044    0.042
       231  -9.1216    229.3858    104.8395   4.2444888145e+01   1.5050945582e+01    0.1744603    0.1129434 -34.64 0.0001841547    1.548    0.354
       232 -11.1524    113.0276    104.3548   6.6607525760e+01   3.9542780503e+01    0.4349808    0.2735108  28.83  0.001413632    1.816    0.449
       233  -9.5360     34.4573    105.5665   9.3612112434e+01   5.1387333245e+01    0.1398406    0.1212123 -41.34 7.003098e-05    1.011    0.011
       234  -9.9738     81.0410    102.8889   7.6273904018e+01   4.5842836700e+01    0.2205929    0.2062766 -22.67 0.0002879911    1.013    0.012
       235  -9.0215    250.5736    102.5704   3.9203547865e+01   1.1682485355e+01    0.1267809   0.09958971 -54.99 0.0001256575    1.062    0.059
       236 -10.3290    233.2055    101.0079   4.1129038272e+01   1.5005590687e+01    0.1945691    0.1751162 -68.93 0.0003788808    1.104    0.094
       237  -9.3377    121.4983    100.5014   6.3150920117e+01   3.8614264783e+01    0.2792149    0.1430706  33.46 0.0008804176    2.305    0.566
       238  -9.4166     64.9855     98.9990   8.0833765740e+01   4.9255479517e+01     0.233594    0.1554698 -21.16  0.001060378    1.749    0.428
       239 -10.0950     23.2464     99.2430   9.6489038622e+01   5.3895340568e+01     0.215198    0.1430719  64.43  0.001044893    2.227    0.551
       240  -9.8364    143.3384     98.6857   5.7011608394e+01   3.4254670786e+01    0.1559342     0.120587 -86.58 0.0004672933    1.697    0.411
       241  -8.6733    183.3169    247.3375   7.8865443354e+01  -3.9861116647e+00    0.1359966   0.08780554  -6.07 0.0007048446    1.701    0.412
       242  -9.4311    114.4619     93.9731   6.3309696450e+01   4.1443367923e+01    0.2249831    0.1488111 -43.49  0.000558126    1.529    0.346
       243  -9.3188     42.4192     94.1822   8.8003390789e+01   5.3268004460e+01    0.1975268    0.1309867 -68.68 0.0009503642    1.778    0.438
       244 -10.1881    121.3345     91.6687   6.0735106899e+01   4.0458495645e+01    0.2243891    0.1799192  89.73 0.0006131699    1.661    0.398
       245 -10.7866     92.8355     90.9736   6.9031187930e+01   4.6359814190e+01    0.6270051    0.3338954  54.67  0.002366675    2.606    0.616
       246 -10.3706    164.0256     90.7328   5.0325174586e+01   3.1163364843e+01     0.203989    0.1945384  81.25 0.0008133475    1.032    0.031
       247 -10.2638    140.4314     90.5847   5.5530243232e+01   3.6485645026e+01    0.3344329    0.2233031  69.80  0.001444604    1.931    0.482
       248 -10.1679     56.7336     89.5839   8.1337140436e+01   5.2545712005e+01    0.2552738    0.1749886  35.56  0.001279032    1.558    0.358
       249 -10.6817     50.1577     91.0265   8.4226939310e+01   5.3078882785e+01    0.3687609    0.2220597 -28.11  0.001280155    1.788    0.441
       250 -11.0309    152.4706     85.4137   5.1377748689e+01   3.4743172119e+01    0.3012633    0.2505978 -69.69 0.0006639381    1.308    0.236
       251 -10.6170     17.9593     85.0211   9.5527749174e+01   5.7613413616e+01     0.310006    0.1732334  25.88    0.0015948    1.979    0.495
       252 -10.2550    137.4070     83.0215   5.4171541583e+01   3.8581659231e+01    0.3356706    0.1442256 -39.62  0.001252721    2.401    0.583
       253  -9.8499    106.1871     84.1517   6.2876883580e+01   4.5118764375e+01    0.1937713    0.1754875  81.74            0    1.321    0.243
       254  -8.8997     92.6529     84.7014   6.7240795611e+01   4.7683421143e+01    0.1537848    0.1130237   1.50 0.0007036048    1.681    0.405
       255 -10.0231    204.8032     82.7102   4.1245132479e+01   2.3678269419e+01    0.2141382    0.1747602 -54.17 0.0002815666    1.108    0.097
       256  -9.5452     58.4294     83.4824   7.8972308270e+01   5.3640794005e+01    0.1441274    0.1244499 -18.74 0.0001934071    1.051    0.049
       257  -9.2886    198.4885     82.4590   4.2147548683e+01   2.5050692809e+01    0.1375264     0.122433 -69.16 6.222051e-05    1.014    0.014
       258 -10.7706     45.9368     80.0251   8.2866480201e+01   5.6019330667e+01    0.3603622    0.1904012 -22.30  0.001266773    2.469    0.595
       259 -10.4512     54.5211     78.7704   7.9101893627e+01   5.5179101408e+01    0.2432222     0.180375  64.48  0.001179982    2.184    0.542
       260 -10.2643     11.1333     77.7065   9.6709619002e+01   5.9716123285e+01    0.3496764    0.1965853  47.89  0.001684819    2.707    0.631
       261  -9.5400    155.7891     76.8125   4.8385366052e+01   3.5508607055e+01    0.1982413     0.163787 -82.43  0.000255116    1.330    0.248
       262  -9.5151     68.3366     76.3069   7.3090980297e+01   5.3634984822e+01    0.1488847    0.1038667  -7.47   0.00028406    1.675    0.403
       263 -10.5900     37.9592     74.3138   8.4499107220e+01   5.8152090106e+01    0.1891449    0.1609245 -12.00 0.0006081977    1.067    0.063
       264  -9.7528    178.3124     72.9772   4.3179585452e+01   3.1037228574e+01    0.1921199    0.1684462 -52.62 0.0003351811    1.121    0.108
       265 -10.3755     17.2335     79.1016   9.4467630852e+01   5.8995510247e+01    0.2274259    0.1736601 -75.21  0.001204448    1.571    0.363
       266  -9.3916     95.9469     70.9849   6.1964775502e+01   4.9660462201e+01    0.1731961    0.1599427  17.96 0.0003275902    1.005    0.005
       267  -9.5194     88.3289     70.1508   6.4140267504e+01   5.1296094411e+01      0.20231      0.16545  20.42 0.0004316492    1.192    0.161
       268  -9.6614     34.0442     70.5444   8.5063820244e+01   5.9356543472e+01    0.1939012    0.1237221  19.21 0.0007818658    1.596    0.373
       269  -9.6488     13.4373     70.1579   9.3922754725e+01   6.1209035289e+01    0.1929187    0.1067346 -55.12 0.0008906251    1.567    0.362
       270 -10.9410    147.8577     70.4542   4.8320694611e+01   3.8396237504e+01    0.2554071    0.2311471 -36.95 0.0002650204    1.172    0.147
       271  -9.6957    172.8672     66.6786   4.2545962719e+01   3.3274942037e+01    0.2202583    0.1704237  42.28 0.0006260472    1.476    0.322
       272 -10.4155     27.0198     64.4863   8.6350894205e+01   6.1291921468e+01    0.2206797    0.1468772 -14.08 0.0005682138    1.459    0.315
       273  -9.2964    209.5097     63.5340   3.6354211442e+01   2.5733131750e+01     0.131939    0.1100642 -71.40 0.0001994744    1.045    0.043
       274  -9.1933    119.4818     61.5840   5.2343876892e+01   4.6271158909e+01    0.1416357    0.1303946  44.76 0.0001085341    1.014    0.014
       275  -8.7373     22.6675     61.2499   8.7351231240e+01   6.2337836277e+01    0.1112939    0.0967695  42.70 0.0002983844    1.555    0.357
       276  -9.9272    104.0434     59.6512   5.5910286336e+01   4.9925812876e+01    0.2106636     0.190454 -44.08 0.0002883948    1.229    0.186
       277  -8.8521     76.3014     58.2648   6.4289719314e+01   5.5606668367e+01    0.1371248    0.0990553   8.30 0.0002515771    1.520    0.342
       278 -10.2380     48.1979     58.4241   7.5209984024e+01   6.0031999596e+01    0.1755425    0.1184699  36.41 0.0003467237    1.596    0.374
       279  -8.5791      7.2905     58.2911   9.3633757562e+01   6.4074424936e+01    0.1293561   0.07107656 -31.50 0.0002025218    1.546    0.353
       280  -9.8183    118.8590     56.6145   5.0971742831e+01   4.7181296507e+01    0.2492407    0.1687707  59.54 0.0007404729    1.486    0.327
       281  -9.8131    163.5074     56.4999   4.1562607253e+01   3.6963199110e+01    0.1371832    0.1243322  86.79 -7.473124e-05    1.019    0.019
       282 -11.0768     35.9418     54.5324   7.9201699128e+01   6.2283347863e+01    0.2957639    0.1757004 -44.53 0.0009458594    1.614    0.380
       283  -9.6281    150.6123     54.8221   4.3467897764e+01   4.0187940098e+01     0.191239     0.122775 -48.96 0.0006952375    1.657    0.396
       284  -8.6115     21.6892     51.2872   8.4709438789e+01   6.4354961625e+01    0.1071593   0.09800502  45.76  0.000486503    1.578    0.366
       285 -10.7822     43.1839     47.6951   7.3583534030e+01   6.2593035639e+01    0.3170997    0.2122775 -40.44   0.00129615    1.516    0.340
       286  -9.9299     88.4861     47.9598   5.6654148893e+01   5.4913085415e+01     0.238535     0.189106  60.70 0.0009080094    1.484    0.326
       287  -8.8342    165.2827     46.6734   3.8722134035e+01   3.7938655599e+01    0.1364128   0.09471074 -71.63 0.0002886336    1.601    0.375
       288  -9.0587    123.2721     46.6524   4.6832852980e+01   4.7625505506e+01    0.1340328    0.1041999 -73.32 0.0005359029    1.624    0.384
       289  -9.9860    110.6874     44.4411   4.9180515526e+01   5.0735544501e+01     0.232416    0.1262809 -32.05  0.001085891    2.038    0.509
       290  -9.8891      8.8778     43.5370   8.8493388028e+01   6.6826122660e+01    0.1710081    0.1302541 -30.16 0.0003679591    1.071    0.066
       291 -10.0095    100.9684     42.9942   5.1275144962e+01   5.3034344904e+01    0.2022482    0.1856659  49.21 0.0003416706    1.104    0.094
       292  -9.8488     18.5083     43.5611   8.3659708530e+01   6.6053481539e+01    0.1242257   0.09701809 -16.76 0.0001458261    1.008    0.008
       293  -9.3862     90.7897     39.3905   5.2944185965e+01   5.5640401600e+01     0.198611     0.108078  40.72 0.0009500273    1.659    0.397
       294  -9.3384     26.6164     37.8205   7.7570864306e+01   6.6237780775e+01    0.1489171    0.1094744 -44.71 0.0002210427    1.551    0.355
       295 -10.7264    158.5505     36.9998   3.7283661966e+01   4.0742888242e+01    0.2426294    0.1739325  65.19 0.0003174858    1.247    0.198
       296  -9.3402     11.4536     36.0518   8.4606677894e+01   6.7966457137e+01    0.1693677   0.09822918 -42.25 0.0003710297    1.511    0.338
       297  -9.3392    219.7629     33.0022   2.8813819405e+01   2.7808899257e+01    0.1483959   0.08945157 -43.00 0.0004220938    1.580    0.367
       298  -9.4399    109.1748     33.2035   4.5877844699e+01   5.2492895029e+01    0.1724701    0.1502472  83.68  0.000458448    1.317    0.241
       299  -9.3653     35.8121     31.3924   7.0624892670e+01   6.6141833734e+01    0.1688476   0.09945028  18.51 0.0005857674    1.586    0.370
       300  -9.6819     46.4696     28.9521   6.4840350781e+01   6.4988349330e+01    0.1499916    0.1092068 -56.97 0.0008090003    2.492    0.599
       301  -9.4912    158.9975     27.9745   3.4855483487e+01   4.1709038063e+01    0.1969841    0.1357448 -76.56 0.0003292032    1.568    0.362
       302  -9.6262     89.6683     32.3190   5.0753483182e+01   5.6763724406e+01    0.1236042    0.1033467 -87.31 0.0007048273    1.692    0.409
       303  -8.9811    244.6809     27.3231   2.5619467322e+01   2.3663060794e+01     0.121553   0.06416181 -66.43 0.0003812583    1.672    0.402
       304 -10.2773     63.4003     26.7088   5.7192265772e+01   6.2491768261e+01    0.2220089    0.1426435  50.83  0.000857171    1.696    0.410
       305  -9.8837     67.7153     24.8133   5.4892409231e+01   6.1937282590e+01     0.195649    0.1681652 -44.15 0.0007971465    1.556    0.357
       306  -9.7581    189.2011     23.8505   2.9997666080e+01   3.5371961565e+01    0.1800418    0.1386813 -78.27 0.0003337842    1.136    0.120
       307  -9.7959     83.6416     23.7893   4.9388247304e+01   5.8971243763e+01    0.1623307    0.1151071 -36.98 0.0005633783    1.677    0.404
       308  -9.9141     24.9228     22.4179   7.2151452253e+01   6.8779851830e+01    0.1864616    0.1427956 -27.99 0.0007666248    1.348    0.258
       309  -9.3167    115.2275     21.0125   4.0540347683e+01   5.2479298864e+01    0.1660274    0.1512237  47.29   0.00035411    1.084    0.077
       310  -9.8263     77.0042     21.4981   5.0526683518e+01   6.0540301608e+01    0.1959302   0.07983478  35.00 0.0008106911    2.613    0.617
       311 -10.3492     49.9360     21.3292   6.0172186690e+01   6.5422335259e+01    0.1754158    0.1315681  25.29 0.0006529558    1.109    0.098
       312  -9.6267     35.4710     20.3541   6.6090079553e+01   6.7710810838e+01    0.2486495    0.1374664  -4.94 0.0009108848    2.208    0.547
       313  -9.1330    206.4867    249.4346   7.4501663110e+01  -7.3761502421e+00    0.1246397    0.1002282   1.52 3.933732e-05    1.040    0.039
       314  -9.3954     41.1614     18.1833   6.2537555711e+01   6.7163047334e+01    0.1452756    0.1296094  10.39 0.0002580206    1.294    0.227
       315  -9.5403    143.2102    248.1327   8.7613803010e+01   1.5900526138e+00    0.3052478      0.17874 -14.05  0.001310941    2.779    0.640
       316 -11.0624    114.0472    246.2513   9.3863217905e+01   6.2263783232e+00    0.5347348    0.4109785 -57.19  0.001794566    1.475    0.322
