#   1 NUMBER                 Running object number                                     
#   2 MAG_AUTO               Kron-like elliptical aperture magnitude                    [mag]
#   3 X_IMAGE                Object position along x                                    [pixel]
#   4 Y_IMAGE                Object position along y                                    [pixel]
#   5 X_WORLD                Barycenter position along world x axis                     [deg]
#   6 Y_WORLD                Barycenter position along world y axis                     [deg]
#   7 A_WORLD                Profile RMS along major axis (world units)                 [deg]
#   8 B_WORLD                Profile RMS along minor axis (world units)                 [deg]
#   9 THETA_WORLD            Position angle (CCW/world-x)                               [deg]
#  10 FWHM_WORLD             FWHM assuming a gaussian core                              [deg]
#  11 ELONGATION             A_IMAGE/B_IMAGE                                           
#  12 ELLIPTICITY            1 - B_IMAGE/A_IMAGE                                       
         1 -12.1602    213.4889      2.6691   5.9562168652e+01   3.1796671745e+01     1.078069    0.4851059  58.71  0.003070907    2.113    0.527
         2 -12.9345    189.7419     26.7764   6.8061811039e+01   3.4822964445e+01      1.32339     1.086919 -16.88  0.005377239    1.536    0.349
         3 -12.9247    197.2240     20.4143   6.5487250037e+01   3.3744628468e+01     1.214865     0.867837 -52.54   0.00506085    1.405    0.288
         4 -12.2042    203.5267     12.5993   6.2860124867e+01   3.3100862684e+01    0.5664023    0.5238373  34.97  0.001300189    1.395    0.283
         5 -12.1911     32.3392      8.5063   1.0107487802e+02   6.8597970998e+01    0.9834356     0.241733 -33.40  0.004161772    3.786    0.736
         6 -10.0792    193.2433    195.1163   1.0810366801e+02   3.5242698822e+00     0.860114    0.4127158 -64.03  0.002058949    8.142    0.877
         7 -11.3100    139.9775    249.6357   1.2756517776e+02   3.5273270984e+00    0.4713371    0.2154971  44.35  0.002293962    1.797    0.443
         8 -10.9652    125.1285    247.7490   1.3013733026e+02   6.3527771422e+00    0.6078423    0.1792358 -57.02  0.002362701    4.030    0.752
         9 -11.9667    102.0241    237.7858   1.3335158069e+02   1.1976551170e+01    0.6808871    0.4386589  23.18  0.003357562    2.615    0.618
        10 -11.3186    109.1280    246.3187   1.3297889443e+02   9.2404864420e+00    0.4351335    0.2907531  67.49  0.001538825    1.414    0.293
        11 -12.1495    100.9714    247.9727   1.3467721609e+02   1.0242592213e+01    0.6705027    0.5181817 -67.00  0.003964414    1.463    0.316
        12 -11.3492     94.3977    249.3633   1.3602845034e+02   1.1015254633e+01    0.4957183    0.4164039 -53.36  0.002524903    1.617    0.382
        13 -11.6925     62.9723    248.9553   1.4158744866e+02   1.5692736772e+01     1.028258    0.3058237  40.27  0.004469313    3.143    0.682
        14 -12.3968     82.8557    246.5568   1.3784510261e+02   1.3288311771e+01    0.7553233    0.5362114  51.51  0.004874052    1.232    0.188
        15  -9.4475     74.0195    250.4666   1.3978683493e+02   1.3855008705e+01    0.2715444    0.1387614  46.62  0.001328321    1.652    0.395
        16 -10.5655     73.9721    245.9837   1.3938914269e+02   1.4699957895e+01    0.3201997     0.170578  63.91  0.001683685    1.684    0.406
        17 -11.1611     71.4846    242.5180   1.3951676852e+02   1.5716645129e+01    0.3010163    0.2926225  -4.97  0.002184482    1.678    0.404
        18 -12.3125     57.0885    225.7501   1.4060724872e+02   2.1041756323e+01     2.299547     1.411281 -29.53  0.007693681    7.880    0.873
        19 -15.0195     23.4367    176.5272   1.4257989807e+02   3.5695315814e+01     7.520638     2.588373 -89.17   0.02394874    5.238    0.809
        20 -13.9279     47.1654    226.8303   1.4253179143e+02   2.2120014151e+01     2.648585    0.8662654 -59.88  0.004136931    3.137    0.681
        21 -14.8750     55.9064    211.9577   1.3950550869e+02   2.4082656086e+01     7.724113      2.20527  44.56   0.03218161    2.989    0.665
        22 -10.9277     70.9314    191.6483   1.3410266509e+02   2.6479749678e+01    0.4106255    0.2528106 -44.97  0.001892736    2.179    0.541
        23 -10.9452     75.5656    184.8139   1.3217713455e+02   2.7363517932e+01    0.3149323    0.2394298 -52.73 0.0009389262    1.473    0.321
        24 -10.0364    114.5342    174.6592   1.2159802929e+02   2.3257189142e+01     0.291016    0.1809873  47.66  0.001302115    1.565    0.361
        25 -10.2153    126.5168    174.3285   1.1873527419e+02   2.1088889189e+01    0.3674752    0.1339289  41.88  0.001271733    2.700    0.630
        26 -10.4732     84.0066    173.3701   1.2856363661e+02   2.8742876835e+01     0.257872    0.2289876 -73.52 0.0003762949    1.109    0.098
        27 -12.5018     71.7410    170.4874   1.3100726197e+02   3.1259743809e+01    0.5007037    0.2789932 -45.64  0.001503148    2.174    0.540
        28 -15.6270      5.0320    238.3721   1.5048565452e+02   2.4650399603e+01     21.80888    0.6179652 -74.57   0.05276123   12.461    0.920
        29 -12.3600     57.8493    130.6726   1.2795933194e+02   4.2596215947e+01     2.484715    0.7513852 -69.78  0.005809206    7.463    0.866
        30 -11.5789     89.3126    165.1130   1.2595365073e+02   2.9849797894e+01     0.878187    0.5399433  50.44  0.001951703    1.644    0.392
        31 -12.8182     68.3155    145.4568   1.2782542945e+02   3.7701421521e+01     1.443628    0.7684029  88.82  0.003804072    3.329    0.700
        32  -9.5238    163.5706    156.2541   1.0647099259e+02   1.7538385566e+01    0.3221452    0.2252577 -70.96  0.001384504    1.840    0.456
        33  -9.3394    102.2975    148.9872   1.1975033333e+02   3.1494300435e+01    0.3061392    0.2620791 -54.08 0.0008013647    1.158    0.137
        34  -8.7472    104.7517    145.2345   1.1836274881e+02   3.1949153214e+01    0.3596485    0.2086635 -32.03  0.001373529    2.655    0.623
        35  -8.6754    134.5927    148.7873   1.1164169276e+02   2.5348583881e+01    0.2275082    0.1448511 -62.06 0.0009574554    1.723    0.419
        36 -10.5475     45.7837    145.9368   1.3366115981e+02   4.0418603511e+01    0.3295889    0.1818772  63.22  0.001558652    2.265    0.559
        37 -11.3260     91.1461    148.2390   1.2245241164e+02   3.3574282373e+01    0.2854781    0.2506002 -40.39 0.0004874162    1.275    0.216
        38  -9.1039    112.2321    135.0763   1.1424200940e+02   3.2966901258e+01    0.2692553    0.2185895   2.19  0.001295521    1.678    0.404
        39  -9.8724     99.9117    132.0509   1.1682181160e+02   3.5930634787e+01    0.3122443    0.2467287 -22.94  0.000749715    1.609    0.378
        40 -11.2925     42.1654    127.2983   1.3163774304e+02   4.5194233154e+01    0.3405366    0.2352057 -13.90  0.001813214    2.172    0.540
        41  -8.7956    108.7884    122.7483   1.1230157309e+02   3.6482283567e+01    0.2087506    0.1980681 -23.93 0.0005916032    1.137    0.121
        42 -13.6281     11.2221    206.6889   1.4748643203e+02   3.0350654293e+01     1.295072    0.8176125  45.39  0.006101693    1.653    0.395
        43 -10.2171    168.1886    113.0922   9.5099663261e+01   2.5770415098e+01    0.3665912    0.3070877 -76.59 0.0007660259    1.328    0.247
        44 -11.3178     57.4321    238.9314   1.4171491237e+02   1.8363672839e+01    0.3572988    0.2487706  75.59  0.002367714    1.144    0.126
        45  -8.6176    205.2143    110.5946   8.6915376532e+01   1.7527912962e+01    0.2222981    0.1411117  43.09 0.0009610884    1.737    0.424
        46  -9.2585     41.0000    107.9626   1.2842539533e+02   4.9760899126e+01    0.2226632   0.06274634 -60.50 0.0008068043    2.973    0.664
        47  -9.9382     33.3109    106.7968   1.3048134146e+02   5.0767600136e+01     0.505438   0.08904812 -61.12  0.001579343    4.312    0.768
        48 -10.4059    124.2421     51.9982   8.7870141154e+01   4.7195554795e+01    0.3945352    0.2739932  78.71 0.0006781117    2.092    0.522
        49 -10.9020     74.8032    234.2053   1.3811316841e+02   1.6855307206e+01    0.3574035    0.1603927  66.68    0.0015911    2.626    0.619
        50 -10.2727    163.0508    225.4737   1.1959400438e+02   3.6730063690e+00    0.2490308     0.196035 -23.54  0.001397496    1.625    0.385
        51 -11.0212    115.0230    241.6662   1.3132277670e+02   9.1279123064e+00    0.4466067    0.1517781 -57.00  0.001868655    3.297    0.697
        52  -9.3021    226.5729    201.8684   1.0289284432e+02  -3.8365279833e+00     0.219642     0.203064 -86.06 0.0007882925    1.485    0.326
        53 -10.9394     21.4911     35.5306   1.1635252218e+02   6.5863772535e+01    0.2117968    0.1625072 -23.73  0.001543003    1.015    0.015
        54 -10.3946    248.8098    245.9622   1.0680982693e+02  -1.3682399234e+01    0.2168596    0.1479107  27.23  0.001008972    1.252    0.201
