#   1 NUMBER                 Running object number                                     
#   2 MAG_AUTO               Kron-like elliptical aperture magnitude                    [mag]
#   3 X_IMAGE                Object position along x                                    [pixel]
#   4 Y_IMAGE                Object position along y                                    [pixel]
#   5 X_WORLD                Barycenter position along world x axis                     [deg]
#   6 Y_WORLD                Barycenter position along world y axis                     [deg]
#   7 A_WORLD                Profile RMS along major axis (world units)                 [deg]
#   8 B_WORLD                Profile RMS along minor axis (world units)                 [deg]
#   9 THETA_WORLD            Position angle (CCW/world-x)                               [deg]
#  10 FWHM_WORLD             FWHM assuming a gaussian core                              [deg]
#  11 ELONGATION             A_IMAGE/B_IMAGE                                           
#  12 ELLIPTICITY            1 - B_IMAGE/A_IMAGE                                       
         1 -10.6042     45.2017     12.1635   3.2251961562e+01   7.0996976673e+01    0.2618311    0.2121252  14.71 0.0007751841    1.111    0.100
         2 -11.4575     49.8592     14.3728   3.1366668433e+01   6.9858802552e+01    0.3648577    0.2957453 -11.41 0.0009238144    1.135    0.119
         3 -11.1990    182.8831     14.5661   2.4214118753e+00   3.8173747653e+01    0.3967651    0.1765281 -54.22  0.001091782    2.198    0.545
         4 -10.7370    126.7192     14.5032   9.3859134873e+00   5.2228450817e+01    0.4485881    0.1809196  58.41  0.001588131    2.205    0.547
         5  -9.8670     35.0735     13.5741   3.8631741007e+01   7.2493448584e+01    0.2088826    0.1548816  -6.67 0.0005760631    1.262    0.208
         6  -9.5444     79.2575     11.9778   1.8848277140e+01   6.4036580998e+01    0.1837793    0.1708639  21.91 0.0007689212    1.032    0.031
         7 -10.5176     27.5058     11.1602   4.1691952533e+01   7.3984081098e+01    0.2498633     0.198536 -28.21  0.001290322    1.205    0.170
         8 -11.0908    241.7567     10.0683   3.5712713667e+02   2.5697860019e+01     0.264525    0.1471129 -24.83  0.001475124    1.865    0.464
         9 -10.0929    105.0193     11.0229   1.1952645696e+01   5.8003310288e+01    0.1682476    0.1545917  55.30  0.001005937    1.023    0.022
        10 -10.5201     69.0286      9.8784   2.0965537706e+01   6.6526459982e+01    0.2919858     0.185745  -7.33 0.0009213413    1.701    0.412
        11 -10.2484     32.2129     10.1588   3.8081047033e+01   7.3436388941e+01    0.1952865    0.1473769  -6.04 0.0006664829    1.195    0.163
        12 -10.5591     74.8985      8.3643   1.8224755283e+01   6.5385392506e+01    0.3179355    0.1916538  -8.83  0.001578875    1.821    0.451
        13 -10.1462     78.5090      6.9757   1.6404742132e+01   6.4700492761e+01    0.2432617    0.1779621  13.41  0.001197588    1.424    0.298
        14 -11.6355     16.5027      7.3169   4.6749162821e+01   7.6022359637e+01    0.3943536    0.2764884 -28.83  0.001042516    1.219    0.180
        15 -11.3823    124.0791      6.7080   6.7344941205e+00   5.3620301735e+01    0.3614943    0.2525724 -82.27  0.001419741    1.545    0.353
        16  -9.1955    114.9741      8.7822   9.0764031113e+00   5.5731970361e+01    0.1868775     0.104046  67.56 0.0008695755    1.677    0.404
        17 -10.0118     96.5268      5.0012   1.0960144318e+01   6.0617280677e+01    0.2583726    0.1516423 -35.72  0.001276914    1.808    0.447
        18 -10.9500     85.5403      7.4654   1.4754450184e+01   6.3027155941e+01    0.2786093    0.2070393 -33.69 0.0007169053    1.442    0.307
        19 -11.3461     88.5229      5.9477   1.3239856027e+01   6.2458818064e+01    0.2706597    0.2368096  28.42 0.0003872349    1.092    0.084
        20  -9.0264     40.3046      8.3183   3.2259040630e+01   7.2358990287e+01      0.13293   0.08726788   9.46 0.0003528739    1.629    0.386
        21  -9.8741      3.1836      8.1689   5.8133893977e+01   7.7195445001e+01    0.1884804    0.1308845 -27.12 0.0007158779    1.165    0.142
        22  -9.6596    236.3318      7.1349   3.5675345323e+02   2.7090239906e+01    0.1603706    0.1372518 -72.56  0.001134878    1.177    0.151
        23 -11.0558    130.6870      4.8118   5.0433407550e+00   5.2109002840e+01    0.4200286    0.2549596   0.68  0.001410781    2.109    0.526
        24 -12.8399    173.8750      4.6570   3.0663263611e-01   4.1327531940e+01    0.5931067    0.4291326 -77.60  0.001219579    1.283    0.221
        25 -10.2821      8.3369      5.2445   5.1814284587e+01   7.7253849126e+01    0.2038775    0.1466488   6.72 0.0006826762    1.327    0.246
        26  -9.7079      4.1715      3.8522   5.4454763497e+01   7.7880833074e+01    0.1697299    0.1433628 -23.32 0.0007694521    1.159    0.137
        27 -10.1563    178.7786      1.3938   3.5894526046e+02   4.0438923911e+01    0.1931161    0.1182051  81.64 0.0002649298    1.543    0.352
        28 -11.4355    114.7152      1.7893   6.1812510613e+00   5.6377436943e+01    0.5019842    0.1755526  69.69  0.001706797    2.585    0.613
        29  -9.4704     38.0378      2.0218   2.9072479159e+01   7.3514055717e+01    0.1545528    0.1279405   6.92 0.0009973013    1.017    0.016
        30  -9.9043     89.0325      1.4405   1.0858170884e+01   6.2707460611e+01    0.2007269    0.1199978  64.31 0.0004093685    1.553    0.356
        31  -9.5266     79.6822      1.4103   1.3092764455e+01   6.4909937347e+01    0.1785459    0.1087377  51.78 0.0005676025    1.449    0.310
        32 -11.2980    183.8453      3.2586   3.5909187108e+02   3.9059697583e+01    0.3571778    0.1871156 -84.12   0.00153482    1.930    0.482
        33  -9.5066    229.9839      1.0000   3.5567474988e+02   2.9006715393e+01    0.1762192   0.06253631  80.29 0.0007847489    2.891    0.654
        34  -9.1505      4.2916     96.3289   8.2080392012e+01   5.6242750621e+01    0.1425321   0.07998664 -51.08 0.0003111834    1.624    0.384
        35 -10.5046    132.5768     92.7050   3.5906645696e+01   3.8032810474e+01    0.2884239    0.2820275 -80.25  0.000613964    1.065    0.061
        36  -9.8207     38.2838     93.6285   6.8119362339e+01   5.4370084370e+01    0.1494277    0.1054343  77.62 0.0007016481    1.704    0.413
        37 -11.4523    248.5083     88.8084   1.4531729481e+01   1.4123516770e+01    0.5369977    0.2079991 -22.56  0.001711048    4.562    0.781
        38  -9.2165     37.2284     90.0151   6.7750437339e+01   5.5439043420e+01     0.192163    0.1065126 -63.50 0.0002822495    1.558    0.358
        39 -10.3996     11.9639     85.9407   7.7513291417e+01   5.8578205732e+01    0.2050977     0.168534 -67.07 0.0003051046    1.004    0.004
        40  -9.6165    232.3203     85.3266   1.5641116644e+01   1.7624224414e+01    0.1310048    0.1004236  -1.98 0.0007047164    1.683    0.406
        41  -9.4874      6.2218     85.3864   7.9848086868e+01   5.9041009547e+01    0.1634273    0.1214146  36.54 0.0003994259    1.586    0.369
        42 -10.8769    238.2774     81.3889   1.3995494818e+01   1.7097501436e+01    0.2582466    0.1256209 -47.38  0.001208207    1.829    0.453
        43  -9.1957      5.6922     80.3030   7.9306100629e+01   6.0399681630e+01    0.1315484   0.09212101  68.80 0.0004785576    1.603    0.376
        44 -11.1636     54.5907     78.8122   5.7617811244e+01   5.6227841804e+01    0.2693561    0.2477753 -50.16 0.0004134465    1.034    0.033
        45  -9.9194    242.4971     78.4968   1.2842653020e+01   1.6741868570e+01    0.1339303    0.1058384 -40.14  0.000810681    1.003    0.003
        46  -9.6295    166.6707     82.6697   2.5189062871e+01   3.2170146000e+01    0.1554869    0.1212102   7.67 0.0007051604    1.714    0.417
        47 -10.2104    135.2390     75.9776   2.9983443147e+01   4.0859797244e+01    0.2157933    0.1273093 -39.49 0.0008803878    1.609    0.378
        48 -10.2407      3.6946     75.1523   7.9377214575e+01   6.1831258615e+01    0.2138869    0.1758239  44.31  0.001309323    1.452    0.311
        49  -9.8115    201.4644     74.4986   1.7026685800e+01   2.5677449443e+01    0.1454675    0.1261577 -43.21 5.412358e-06    1.012    0.012
        50  -9.0883     89.9804     72.0094   4.1802554748e+01   5.1749916012e+01    0.1797433    0.1747547 -20.49 0.0003079468    1.038    0.037
        51  -9.5088     76.5018     71.9430   4.6640541648e+01   5.4348191040e+01    0.2406931    0.1423116 -46.99  0.001027843    1.575    0.365
        52  -9.1344    175.6687     71.6760   2.0308315918e+01   3.2017247916e+01    0.1499702    0.1177462  12.95 0.0004690761    1.703    0.413
        53 -11.9971     64.0004     69.5641   5.0734568681e+01   5.7045018221e+01    0.2628397     0.244238 -28.19 0.0002374445    1.041    0.040
        54  -9.7693      7.8340     68.8200   7.6314744276e+01   6.3257022847e+01    0.1978216     0.152267 -52.16 0.0004685052    1.112    0.100
        55  -9.0670     83.3131     68.2621   4.2807532363e+01   5.3886959163e+01    0.1492315    0.1178564  -3.38 0.0001612419    1.537    0.349
        56  -9.5218    151.9888     66.7025   2.3230719747e+01   3.8554511504e+01    0.2105544    0.2060028  79.64 0.0006641502    1.072    0.067
        57 -10.2848     69.7360     66.3178   4.7257768972e+01   5.6822846014e+01    0.2766219    0.2373394 -17.45 0.0006036216    1.202    0.168
        58  -9.7269    204.0829     65.3216   1.4213091752e+01   2.6550890775e+01    0.1967653    0.1707615 -58.80 0.0008171144    1.090    0.083
        59  -9.5504    212.4572     64.5520   1.2936928516e+01   2.4844854345e+01    0.1410438    0.1181052 -47.37 0.0001135516    1.017    0.016
        60  -8.9243     75.3007     64.6572   4.4464908605e+01   5.6191031192e+01    0.1493049    0.1204613 -82.38 0.0007037457    1.675    0.403
        61 -10.3852      4.4472     63.6785   7.6963550510e+01   6.4725705860e+01    0.2450359    0.1771891 -56.56 0.0006375449    1.112    0.101
        62 -10.6703      3.4943     58.9294   7.6479930832e+01   6.5956239308e+01      0.30121    0.2124611 -44.77  0.001770682    1.239    0.193
        63 -10.1739     99.4544     61.8431   3.4941386028e+01   5.1866081428e+01    0.4205304    0.2523032 -62.52  0.001592881    2.488    0.598
        64 -10.4526     86.7679     60.4010   3.8618159088e+01   5.4849052085e+01    0.5225806    0.2614121 -25.48   0.00175515    3.069    0.674
        65 -11.0320     43.5149     62.0864   5.7167374474e+01   6.1764250481e+01    0.3198029    0.2217005 -40.93 0.0006400303    1.301    0.231
        66 -11.3439    248.3900     54.8612   6.8125920329e+00   1.8981535511e+01    0.5670678    0.1567238 -40.73  0.002308197    2.515    0.602
        67  -9.5874     13.3172     61.3900   7.1960307024e+01   6.4812641937e+01    0.2424415    0.1298986   3.41  0.001153081    2.307    0.567
        68 -10.2127    231.2731     60.5615   9.7947895844e+00   2.1518693109e+01    0.2122809    0.1300353  60.01  0.001060966    1.930    0.482
        69 -10.5265    228.5551     57.7244   9.3865463559e+00   2.2470622354e+01    0.2916968    0.1115447 -33.47  0.001219602    2.166    0.538
        70  -9.2019    114.4639     60.5827   3.0035189595e+01   4.8696666943e+01    0.1509528    0.1474222 -15.95 5.288856e-05    1.026    0.026
        71 -11.4525     32.2832     56.6564   6.0822378129e+01   6.4354707531e+01    0.9032738    0.4792099  16.07  0.004091601    2.283    0.562
        72 -10.6493     22.4961     58.4221   6.6421153152e+01   6.4864177730e+01    0.2871391    0.2037487 -86.00 0.0005544166    1.737    0.424
        73 -11.0220     24.7685     55.9744   6.4488134080e+01   6.5255347876e+01    0.3811967    0.2218569 -59.83  0.001388382    1.512    0.339
        74 -10.2708     44.8534     55.2489   5.4065652902e+01   6.3165372716e+01    0.4268417    0.2516547 -53.19  0.002013935    1.581    0.367
        75  -9.6113     77.7785     55.6316   4.0005021434e+01   5.7608708820e+01    0.2031899    0.1406505  53.32 0.0003799668    1.675    0.403
        76 -10.5137     69.5145     51.5280   4.1550071001e+01   5.9999438180e+01    0.2910115     0.144132  42.08  0.001196937    2.126    0.530
        77  -9.2408     93.8133     57.1078   3.4933743273e+01   5.4014382818e+01    0.1964443    0.1694188   1.05  0.001001965    1.263    0.208
        78 -11.5902     94.0641     48.4815   3.1363900810e+01   5.5545330081e+01    0.3064853     0.219658 -32.91  0.001478578    1.368    0.269
        79 -11.0944     52.0393     46.6209   4.7116142231e+01   6.3976915003e+01    0.4217874    0.3110089  26.00  0.001429896    1.437    0.304
        80 -10.8181    248.7760     44.5026   4.4266749779e+00   2.0271986504e+01    0.2947878    0.2136239 -49.83  0.001833588    1.091    0.083
        81  -9.2742    137.6793     44.3139   1.8551356370e+01   4.5740752296e+01    0.1560041    0.1100234 -65.79 0.0003227874    1.654    0.396
        82 -10.4497    118.9486     42.8030   2.2116627495e+01   5.0624015305e+01    0.3335753    0.1980979 -38.80 0.0004275916    1.652    0.395
        83 -10.5653     38.4427     43.6716   5.2649896898e+01   6.6536806876e+01    0.3260305    0.2607218  31.74  0.001457502    1.394    0.282
        84 -10.0827     32.9784     43.9787   5.5717892558e+01   6.7145530623e+01    0.2469151    0.1967482  29.76 0.0006451865    1.410    0.291
        85  -9.7532     29.0627     43.2984   5.7609738891e+01   6.7734984807e+01    0.2126386    0.1637106  31.71 0.0002546944    1.487    0.328
        86  -9.0484     71.5152     42.4932   3.6792903096e+01   6.1331535984e+01    0.1441004    0.1330407 -10.65 0.0008104575    1.004    0.004
        87  -9.5946    185.9272     41.3472   9.8843087530e+00   3.4220311744e+01    0.1866406    0.1729017 -82.48 0.0004365887    1.098    0.089
        88 -10.5641    158.9737     39.4020   1.3068252348e+01   4.1089372124e+01    0.2624543    0.2054449 -35.24 0.0002821318    1.239    0.193
        89  -9.8844    224.6874     39.6831   5.3179650215e+00   2.5714797753e+01    0.1191396     0.100758  14.79 0.0004435532    1.643    0.391
        90  -9.2588    152.1442     39.5879   1.4239882058e+01   4.2778140216e+01    0.1900153    0.1314601  53.09 0.0004685246    1.495    0.331
        91  -9.6641     96.0325     38.0839   2.6324862591e+01   5.6812819903e+01    0.2098427    0.2025907  19.92 0.0003447839    1.019    0.019
        92  -9.1558     27.6926     37.3512   5.5890573365e+01   6.9158327005e+01    0.1237885    0.1056485  85.11 0.0007042997    1.711    0.416
        93 -10.2847    119.0676     35.1485   1.9075173559e+01   5.1706258271e+01    0.2364845    0.2070294 -23.25 0.0004584626    1.168    0.144
        94 -11.2424     40.1859     35.9697   4.8227826414e+01   6.7865398375e+01    0.4962859    0.2125928  35.36  0.002123536    2.484    0.597
        95  -9.0664    174.3312     34.7250   9.3906657660e+00   3.7900900902e+01    0.1478224   0.09661492 -64.39 0.0006991656    1.596    0.373
        96 -10.7122     48.6051     32.2218   4.2007759428e+01   6.7284762350e+01    0.2010912    0.1521276  -3.39 0.0004573194    1.381    0.276
        97  -9.3158     25.1157     33.8328   5.5853128912e+01   7.0170424264e+01    0.1869646    0.1324338 -23.21 0.0005489515    1.335    0.251
        98  -9.1937    168.7100     33.6200   9.7927963029e+00   3.9427905867e+01    0.1420479    0.1079901  23.30 0.0007017674    1.741    0.425
        99  -9.4647    139.4682     33.4440   1.4298073770e+01   4.6806964875e+01    0.1417903    0.1375908 -85.79 5.265239e-05    1.018    0.018
       100 -10.9683      4.6173     31.5861   6.8180763452e+01   7.2343673436e+01     0.381976    0.2084466  40.92  0.001305918    2.508    0.601
       101  -9.1846    233.5321     31.4912   2.5981019516e+00   2.4908962567e+01    0.1304476   0.09967066 -51.89 0.0001596176    1.041    0.040
       102  -9.6460    153.6711     31.6070   1.1299113589e+01   4.3447309250e+01    0.1913543    0.1330678  84.12 0.0006169857    1.523    0.344
       103 -10.4891     92.5468     31.0751   2.4239386043e+01   5.8648169327e+01     0.251531     0.202383  52.37 0.0003345364    1.236    0.191
       104  -9.4482     84.3375     31.2995   2.6914216905e+01   6.0472564010e+01    0.1491542    0.1045386  20.10 0.0004981234    1.660    0.398
       105  -9.5389     59.1860     29.3696   3.5564214994e+01   6.5920670829e+01    0.2149579    0.1596378  20.39  0.001148186    1.393    0.282
       106 -10.9603    153.4078     27.6838   1.0013113145e+01   4.3997433899e+01     0.255358    0.2430181  58.47 0.0002222453    1.120    0.107
       107  -9.7616    103.9865     28.2717   1.9834850747e+01   5.6323202037e+01    0.1964547    0.1728165  54.18 0.0002918327    1.113    0.102
       108 -10.1433    160.8190     27.0346   8.7532772287e+00   4.2209430194e+01    0.2373256    0.1949582  80.39 0.0005376745    1.194    0.162
       109 -10.6420    119.5052     26.3930   1.5469663680e+01   5.2735136180e+01    0.4446855    0.2380225  53.57  0.001239142    1.775    0.436
       110 -10.5242     47.3397     26.5188   3.9635595698e+01   6.8476435645e+01    0.3476247    0.2220475   0.11 -0.0001064843    2.035    0.509
       111 -10.2042     17.6756     31.4459   5.9443786136e+01   7.1405122800e+01    0.2153293    0.1724001 -44.90 0.0003982635    1.131    0.116
       112  -9.9914     83.4677     25.9614   2.4635042189e+01   6.1415101417e+01    0.2107976    0.1333002 -30.77  0.001019486    1.577    0.366
       113 -10.0225    111.6898     24.9557   1.6567744854e+01   5.4854641503e+01    0.1907603    0.1817394 -22.04  0.001111214    1.076    0.070
       114  -9.3292    239.4062     24.2729   4.9047214535e-01   2.4583190026e+01    0.1759285   0.08684511 -42.03 0.0004816524    1.537    0.349
       115  -9.6487    128.8607     23.9264   1.2671894754e+01   5.0670179346e+01    0.2051467    0.1820836  33.34 0.0002941475    1.200    0.166
       116 -11.2721     98.3381     22.6962   1.8796329518e+01   5.8378815752e+01    0.2978971     0.269913  77.39 0.0008158001    1.186    0.157
       117 -10.5544    142.5568     23.1284   1.0067428895e+01   4.7282467446e+01    0.3308486    0.1635606  89.49  0.001238856    2.822    0.646
       118 -11.0765     38.3337     22.7065   4.2297433256e+01   7.0545357384e+01      0.23425    0.2066429  -6.67 0.0002420462    1.068    0.064
       119  -9.1307     72.7019     22.3057   2.6448258088e+01   6.4255576147e+01     0.130151    0.1083719 -64.49 0.0002636999    1.589    0.371
       120 -10.3491     84.9037     20.3648   2.1437631092e+01   6.1805504584e+01    0.2467312    0.1829518 -43.94 0.0004402992    1.501    0.334
       121 -10.2493     66.8098     20.8055   2.7844074095e+01   6.5689312969e+01     0.199246    0.1658459  16.35 0.0003651568    1.141    0.123
       122 -10.1949    237.9892    193.9892   3.7993763903e+01  -1.8934357610e-01    0.1950874    0.1516159 -75.47 0.0009474786    4.038    0.752
       123 -11.3016    245.5782    182.1260   3.4589508259e+01   4.9580112175e-01    0.4635448    0.3100153 -56.59  0.002373632    3.071    0.674
       124 -11.6356     56.0993     19.8272   3.1731625264e+01   6.7943693721e+01    0.4253099    0.2816813  51.63  0.001176046    1.678    0.404
       125 -11.3948     50.1113     19.3562   3.4224181532e+01   6.9116938166e+01    0.4242894    0.2223201  39.92  0.001964519    1.886    0.470
       126  -9.5121    109.4845     19.5105   1.4732465386e+01   5.6029994887e+01    0.1381674    0.1321846  49.24 8.672415e-05    1.003    0.003
       127 -10.0716     23.6030     16.7575   4.7826732227e+01   7.3589748315e+01    0.3989212    0.1710771 -54.65  0.001529796    3.743    0.733
       128  -9.9338     19.8554     15.9545   4.9908982726e+01   7.4177722318e+01    0.2095338    0.1535474   4.50 0.0003483872    1.327    0.246
       129 -10.8918     14.5265     18.1274   5.4977249710e+01   7.4349403294e+01    0.2653411    0.1857842  21.83 0.0005706518    1.524    0.344
       130 -10.2063      6.0897     19.4061   6.1941913918e+01   7.4818059075e+01    0.3283627    0.1325489  23.31  0.001577169    2.646    0.622
       131  -9.2259     70.6646     18.3158   2.5062276897e+01   6.5204089169e+01    0.1318372    0.1072368 -66.77  0.000704749    1.693    0.409
       132 -10.2940     85.2523     15.9302   1.9124033857e+01   6.2239232150e+01     0.360945    0.1909629  57.44  0.001586834    1.801    0.445
       133 -10.6221    224.3299    172.9104   3.6272426825e+01   4.8068632378e+00    0.2541799    0.1010371 -42.41  0.001050274    2.502    0.600
       134  -9.8746     21.8676    169.9126   8.3466817446e+01   3.5664317856e+01     0.186425    0.1667078 -66.38 0.0006699202    1.267    0.211
       135  -9.8699    112.2374     14.1560   1.1863782788e+01   5.5908702946e+01    0.3534749    0.1033133  69.30   0.00111261    3.738    0.732
       136  -9.7808      6.2108    160.6662   8.6938074050e+01   3.9254000793e+01     0.292245    0.1312929 -51.99  0.001322987    2.573    0.611
       137  -9.7414    120.1566     12.8368   9.8411821146e+00   5.4051327653e+01    0.1998468    0.1476113  44.06  0.000559116    1.364    0.267
       138 -10.4412    244.0111    148.5345   2.8184128294e+01   5.6766019207e+00    0.1648274    0.1257348  35.65 0.0005396849    1.568    0.362
       139  -9.5827     10.6855    148.0273   8.4862104287e+01   4.2143511876e+01      0.18619    0.1426913 -84.89 0.0004314727    1.086    0.079
       140  -9.1232     39.8417    147.5799   7.6322758492e+01   3.9653768254e+01    0.1865524    0.1176302  47.14 0.0004062469    1.582    0.368
       141  -9.2064    200.3565     11.2846   4.6435269337e-02   3.4416127873e+01    0.1223392   0.09439898  43.44  0.000450497    1.671    0.401
       142 -10.1121    162.7489     11.5841   3.5227146982e+00   4.3407698650e+01    0.1900551    0.1194202 -87.29 0.0007207755    1.613    0.380
       143  -9.4947     25.4602    146.4757   8.0450646719e+01   4.1345952492e+01    0.2511952    0.1354796  24.57  0.001000753    2.105    0.525
       144  -9.5272     74.9723    144.0204   6.5304942277e+01   3.6175673131e+01    0.2126416    0.2004646 -86.32            0    1.026    0.025
       145  -9.8348      6.9137    142.6395   8.5546187524e+01   4.3808831037e+01    0.2321131    0.1453409 -73.25 0.0005944784    1.353    0.261
       146 -11.4186    246.0283    137.6622   2.5611904482e+01   7.0432032085e+00    0.2425875    0.1546424 -15.96  0.001019016    1.588    0.370
       147  -9.9047     28.6829    138.1208   7.8588667955e+01   4.3271374014e+01    0.1952897    0.1516479 -73.81 0.0003832433    1.127    0.112
       148  -9.5037     11.0740    133.3715   8.3552416269e+01   4.5955390536e+01    0.1865149    0.1554817  71.42  0.001131467    1.142    0.124
       149 -11.6640    236.0952    130.2799   2.5462677371e+01   9.7851741049e+00    0.3975642    0.1589542 -30.31  0.001636962    2.304    0.566
       150 -10.0441     17.6764    132.1622   8.1378254931e+01   4.5792722296e+01    0.2149352    0.1675077  58.43 0.0004655057    1.285    0.222
       151  -9.7431     58.1584    130.0494   6.8066309255e+01   4.2207495620e+01    0.2229893    0.1874964 -46.52 0.0005120686    1.243    0.196
       152 -11.3814    245.2169    119.9844   2.1910254772e+01   9.9140242740e+00    0.2149844    0.1147317 -34.85  0.001090376    1.474    0.322
       153  -9.0636     13.4804    117.5050   8.1194895606e+01   5.0029363014e+01    0.1393955    0.1144443 -78.05 -2.453916e-05    1.020    0.020
       154  -9.6377     91.6915    116.0972   5.4319156678e+01   4.0773697869e+01    0.2206363    0.1940183 -54.32 0.0003623471    1.068    0.064
       155 -10.1561    103.0916    119.9979   5.1783201792e+01   3.7718692115e+01    0.2348216     0.226125 -53.86 0.0003378979    1.024    0.024
       156  -9.4761     96.1378    111.8343   5.1850594214e+01   4.1056892398e+01    0.2183705    0.1770313 -34.56 0.0005154219    1.300    0.231
       157  -8.9243     79.4978    110.5826   5.6926984413e+01   4.4276149798e+01     0.155154    0.1446343 -52.21 0.0008044775    1.042    0.040
       158 -10.0360     18.7517    108.0571   7.8161218682e+01   5.2205808749e+01     0.206044    0.2000085  44.67 0.0007612575    1.219    0.179
       159  -9.1576     13.0104    105.9962   7.9992288829e+01   5.3157736461e+01    0.1687861    0.1310275 -75.49  0.000312491    1.060    0.056
       160 -10.2564      1.7671    104.1726   8.3896817321e+01   5.4282117132e+01    0.3437305    0.1510038 -74.06  0.001561417    1.779    0.438
       161  -9.0695     76.9857    103.2403   5.5931824888e+01   4.6592840663e+01    0.1825385    0.1337355  35.71 0.0002169141    1.477    0.323
       162 -10.6589    246.5964    101.2178   1.7557955782e+01   1.2582203227e+01    0.1933037    0.1053614 -26.87 0.0009494388    1.690    0.408
       163  -9.3266    108.2204    100.7724   4.5111612776e+01   4.1435769823e+01    0.2197435    0.1849595 -18.13 0.0008345662    1.357    0.263
       164 -10.7628     64.4267     96.0470   5.8566087578e+01   5.0419660808e+01    0.3029431    0.2817491 -55.46 0.0007608377    1.025    0.024
       165 -11.6431    236.0729     95.3928   1.7544054329e+01   1.5354265754e+01    0.2941861    0.2087814  88.03   0.00156762    2.088    0.521
       166 -10.2618    103.0139     95.6006   4.5190227642e+01   4.3717801423e+01    0.2897099    0.2149824 -54.54 0.0004921962    1.317    0.241
