#   1 NUMBER                 Running object number                                     
#   2 MAG_AUTO               Kron-like elliptical aperture magnitude                    [mag]
#   3 X_IMAGE                Object position along x                                    [pixel]
#   4 Y_IMAGE                Object position along y                                    [pixel]
#   5 X_WORLD                Barycenter position along world x axis                     [deg]
#   6 Y_WORLD                Barycenter position along world y axis                     [deg]
#   7 A_WORLD                Profile RMS along major axis (world units)                 [deg]
#   8 B_WORLD                Profile RMS along minor axis (world units)                 [deg]
#   9 THETA_WORLD            Position angle (CCW/world-x)                               [deg]
#  10 FWHM_WORLD             FWHM assuming a gaussian core                              [deg]
#  11 ELONGATION             A_IMAGE/B_IMAGE                                           
#  12 ELLIPTICITY            1 - B_IMAGE/A_IMAGE                                       
         1 -13.2556    109.1543     99.7810   8.9276217848e+01   4.1045783107e+01     1.548847    0.6509354  52.88  0.005161551    3.155    0.683
         2 -12.6340    216.8382     14.7544   4.2565214236e+01   2.8901138324e+01    0.8185503    0.5807394  63.00  0.002142695    1.405    0.288
         3 -12.1816     43.0685     20.5245   8.4889537409e+01   6.7067399573e+01    0.5942624    0.3232263  31.55  0.002002083    1.933    0.483
         4 -13.2307    187.2167      7.2053   4.3701520698e+01   3.7114530362e+01    0.9459428     0.485904 -76.65  0.003912784    2.501    0.600
         5 -11.2917     65.3914     10.5429   7.1074233247e+01   6.5063953552e+01    0.2991659    0.2153781  -1.25 0.0006040389    1.274    0.215
         6 -12.1817     43.8136      9.2973   7.9159433323e+01   6.8578228533e+01    0.3292638    0.3066862 -28.20  0.002362079    1.506    0.336
         7 -11.9785     57.7893      8.2079   7.2797463984e+01   6.6613804713e+01    0.4364013    0.3319602  21.81  0.001648109    1.179    0.152
         8 -11.5078     52.8540      4.5836   7.2913895022e+01   6.7827672966e+01    0.3849292    0.2782705   3.57   0.00168189    1.197    0.164
         9 -10.2916    109.1113      8.5075   5.7171531361e+01   5.6439700656e+01    0.2013647    0.1225531  56.95 0.0004945379    1.532    0.347
        10 -10.0553    164.6467      7.3271   4.6604122349e+01   4.2886311877e+01    0.1479882   0.09696054 -66.07 0.0001133465    1.769    0.435
        11 -11.7153    165.5035      1.9274   4.4791987333e+01   4.3158989571e+01    0.6724805    0.1565828  64.90  0.002246193    3.278    0.695
        12 -10.4515     31.8373      2.1217   8.0964249655e+01   7.1082106323e+01     0.162732    0.1349358  -9.90 0.0003720565    1.202    0.168
        13 -11.0143    232.0523    223.7002   8.8495093827e+01  -5.9570690454e+00    0.1790127    0.1317675  23.43 0.0009547088    1.106    0.096
        14 -10.6539    149.4883    223.5103   1.0381874775e+02   7.7032530101e+00    0.2004585    0.1232635 -66.57   0.00103574    2.325    0.570
        15 -11.1568    226.8545    221.7422   8.9075810042e+01  -4.9067152685e+00    0.1952998    0.1673755 -66.22  0.001236787    2.071    0.517
        16 -11.9438    239.0626    217.1995   8.6160696675e+01  -6.2270172531e+00    0.4212209     0.196316 -21.12  0.002029638    2.545    0.607
        17 -11.6583    222.6639    213.8062   8.8458563752e+01  -3.2035702540e+00    0.3369575    0.1417921  34.11   0.00155344    2.172    0.539
        18 -10.3819    115.8185    209.1818   1.0857010512e+02   1.5857419431e+01    0.2560091    0.1476078 -86.46  0.001152758    2.729    0.634
        19  -9.9046     98.4917    204.9992   1.1157773014e+02   1.9427357572e+01    0.1802791    0.1010865  86.23 0.0008104644    2.561    0.610
        20 -10.0899     56.3514    205.6757   1.2010454859e+02   2.5230739532e+01    0.1316468    0.0707689  66.86 0.0007048121    1.756    0.431
        21 -10.5801     48.9761    201.6947   1.2119888911e+02   2.6949529836e+01    0.3639535    0.1449135 -83.68  0.001626882    2.871    0.652
        22 -10.5773     41.7506    200.9932   1.2254924098e+02   2.7945718499e+01    0.2605622    0.1465569 -62.15   0.00103795    1.876    0.467
        23 -10.0256      5.6095    200.2456   1.2925930813e+02   3.1797813437e+01    0.1505435   0.07809699 -73.54 0.0009554807    1.695    0.410
        24 -10.5002    149.4596    198.7588   1.0012578433e+02   1.2009885508e+01    0.2864125    0.1877242  83.45  0.001267097    2.669    0.625
        25  -9.9854    112.3356    197.6529   1.0774401388e+02   1.8669344333e+01    0.1419865   0.09208269  70.90 0.0007048361    1.775    0.437
        26 -12.4610    160.3553    192.0061   9.6736391314e+01   1.1253955948e+01    0.7197139    0.5147556  74.53  0.003140079    1.991    0.498
        27  -9.7041    215.0000    193.0316   8.6091065563e+01   1.0551578939e+00    0.2028888   0.07323875 -37.45 0.0005282245    2.906    0.656
        28  -9.9538    109.6453    186.3446   1.0671021197e+02   2.1423089812e+01    0.1473766   0.09524652  71.54 0.0007037761    1.824    0.452
        29 -10.3883    183.5009    182.9823   9.0322376998e+01   8.5054261428e+00    0.3662176    0.1381108 -41.65  0.001391595    2.852    0.649
        30 -10.2258    224.3114    183.6643   8.2557882679e+01   8.2431765330e-01    0.1212616    0.1094189 -80.30  0.000704474    1.683    0.406
        31  -9.8614    128.9700    177.7655   1.0106433454e+02   1.9838777565e+01    0.1942317    0.1107515  41.91 0.0008861315    1.651    0.394
        32 -10.0679    105.9785    175.4993   1.0588750547e+02   2.4344236117e+01    0.2063868    0.1008986  59.19 0.0008100779    2.541    0.606
        33 -10.5656     38.0407    174.5271   1.2099204712e+02   3.3989205414e+01    0.1720325     0.110552  42.25  0.001034459    1.603    0.376
        34 -10.5250     45.6217    172.4417   1.1913175329e+02   3.3601103735e+01    0.3504372   0.09769382  48.51  0.001365309    3.412    0.707
        35 -11.7755     55.5527    167.9823   1.1640963562e+02   3.3414588749e+01    0.4917715    0.2558624  85.53  0.002170758    2.290    0.563
        36  -9.7787    138.7164    164.9689   9.6550567322e+01   2.0693512880e+01    0.2615424    0.1488043  71.50 0.0008899631    3.455    0.711
        37  -9.3970     69.6735    163.3451   1.1254011839e+02   3.2628058400e+01    0.1434317   0.08983652  73.28 0.0007050477    1.745    0.427
        38 -10.1333     92.6662    160.3602   1.0659950946e+02   2.9899715323e+01    0.1512117   0.09954505  75.67 0.0007039689    1.808    0.447
        39 -11.6605    121.2180    167.1050   1.0098157230e+02   2.3510239618e+01    0.6589435     0.199214 -49.63  0.002195664    3.420    0.708
        40 -11.1470     22.2170    159.4494   1.2306243110e+02   3.8938291812e+01    0.2646122    0.2034384  74.96 0.0009116668    1.134    0.118
        41 -11.3192    106.7827    158.5322   1.0288346655e+02   2.7968939266e+01    0.5894159    0.2695034  55.83   0.00220676    2.717    0.632
        42 -10.8504    167.8371    157.6492   8.8535080807e+01   1.6367074130e+01    0.3884574    0.2493688  63.26  0.001656906    2.052    0.513
        43 -11.0600    121.3359    157.6639   9.9228399301e+01   2.5559900282e+01    0.3146564    0.2186251  57.23  0.001305258    1.487    0.328
        44 -10.9268    118.3934    156.7890   9.9768644732e+01   2.6295371061e+01     0.319609    0.2151235 -49.95  0.001179673    1.526    0.345
        45 -10.6387    218.4829    156.5235   7.8001917512e+01   6.2563708786e+00    0.3014543    0.1335104 -37.11  0.001220439    2.205    0.547
        46 -10.1579     23.6381    153.8911   1.2221839290e+02   4.0061867700e+01    0.1761154    0.1247375 -86.59 0.0006420183    1.129    0.114
        47 -10.2992    189.8744    150.7531   8.2342980243e+01   1.3107491268e+01     0.283824    0.2003747 -67.39  0.001247458    2.103    0.524
        48 -10.1992    148.8276    145.5327   9.0219189933e+01   2.2801984010e+01    0.2924277    0.2021699 -86.87  0.001190402    2.317    0.568
        49 -10.5009    106.8802    145.7342   1.0049150828e+02   3.0876731773e+01    0.2920804    0.1892494 -87.44  0.001240802    2.173    0.540
        50  -9.9687    182.0279    142.0368   8.2005467295e+01   1.6444830314e+01    0.2421968    0.1923581 -85.49  0.001132247    1.757    0.431
        51 -10.9009     83.2344    131.5153   1.0390264082e+02   3.8136041556e+01    0.4564053     0.272285 -87.38  0.001874304    2.461    0.594
        52 -10.0919    131.7007    131.3625   9.1169640514e+01   2.9430115772e+01    0.1588419    0.1204358 -88.89 0.0007034604    1.720    0.418
        53 -12.0293     99.8050    129.0598   9.8942456502e+01   3.6004613471e+01    0.7027789    0.4208617  75.40  0.002636887    2.904    0.656
        54 -10.5015     59.2282    124.9612   1.0927698992e+02   4.3052970163e+01    0.3588943    0.1868056  83.56  0.001292144    3.586    0.721
        55 -10.9849     43.8086    123.7431   1.1335506098e+02   4.5125457331e+01     0.499351    0.2608411  81.59  0.002089154    2.840    0.648
        56 -11.1948     26.9661    120.6449   1.1754633149e+02   4.7481276453e+01    0.5591671    0.2352077  83.43   0.00187137    4.722    0.788
        57 -11.9953    193.5217    118.3075   7.3872890638e+01   1.8455059345e+01    0.6019251    0.4911997 -82.15  0.001988424    1.586    0.370
        58 -10.8831     15.4940    120.9918   1.2070304315e+02   4.8323199439e+01    0.2894668    0.1744544  31.89  0.001381687    1.979    0.495
        59 -11.3010    140.8074    117.2495   8.5460160915e+01   3.0632257665e+01     0.573295    0.2085711 -54.74   0.00159137    3.987    0.749
        60 -10.1047      2.3407    117.6567   1.2382928169e+02   4.9980570912e+01    0.1233206   0.07196049  71.75 0.0007048293    1.779    0.438
        61  -9.6645     21.5709    120.7733   1.1903683948e+02   4.7902340396e+01    0.1684709   0.09908116 -82.45 0.0005022888    1.503    0.335
        62 -10.5900    108.4399    112.8998   9.2873453963e+01   3.8207290058e+01    0.5556208    0.2729791 -67.43  0.001736103    3.653    0.726
        63 -11.0168     79.2718    113.4403   1.0128869612e+02   4.3043545861e+01    0.4494969    0.2468069 -86.50  0.001459554    4.083    0.755
        64 -12.5961    159.5832    109.9360   7.9028045189e+01   2.7965375764e+01    0.9209535    0.5266852 -62.18  0.003275446    2.633    0.620
        65 -11.6822     15.6713    110.7562   1.1936437767e+02   5.0689849457e+01    0.6468146     0.359107  79.86  0.003386967    2.068    0.516
        66 -10.4238     91.5620    110.7344   9.7112892619e+01   4.1719075044e+01    0.3801593    0.1390225 -55.62  0.001311915    2.689    0.628
        67 -10.1709     66.4716    110.9787   1.0451491853e+02   4.5457823436e+01    0.2002951    0.1160373 -84.22 0.0008098013    2.553    0.608
        68 -12.9038    141.5679    104.3588   8.1866260308e+01   3.3236822725e+01    0.7686784     0.563397 -71.96  0.003345974    1.793    0.442
        69 -12.0976     44.3609    101.0401   1.0920952885e+02   5.0459803388e+01    0.6734771    0.3850498  85.77  0.002928022    2.715    0.632
        70 -11.0297    174.3682    110.9802   7.5983573604e+01   2.4312698803e+01    0.3822241    0.2954398 -51.18  0.001102817    1.345    0.257
        71 -12.1962    127.0530    100.2964   8.4495154521e+01   3.7283897274e+01    0.6489403    0.4386985 -67.46  0.002707741    1.961    0.490
        72 -11.4433    220.1603    248.6618   9.4526394927e+01  -7.1212553392e+00    0.2588828     0.179691  55.60  0.001579921    2.199    0.545
        73 -10.7840     60.1626     89.8350   1.0169301859e+02   5.1240087820e+01    0.1985147    0.1735233 -74.06   0.00031597    1.189    0.159
        74 -11.0088     82.4140    100.7992   9.7402957657e+01   4.5525563225e+01    0.2561443    0.2490122 -40.08 0.0004277141    1.076    0.070
        75 -11.9883     42.4972     87.7986   1.0704708612e+02   5.3737703780e+01    0.6851128    0.3914593  -7.16  0.001700154    3.044    0.671
        76 -10.5563     45.3028     81.9793   1.0475518307e+02   5.4773844219e+01    0.2597727    0.1781344 -55.03 0.0005921515    1.223    0.182
        77 -11.1256    104.7438     83.4514   8.5891117785e+01   4.5460619846e+01    0.4832033    0.2762441 -58.11  0.001949072    2.131    0.531
        78 -10.1548    107.3757     80.1079   8.4097401350e+01   4.5644018172e+01    0.2502289    0.1975395  29.79 0.0006070072    1.363    0.266
        79 -10.8562     21.2717    100.9596   1.1630281455e+02   5.2557003787e+01     0.323679    0.1592438  67.79  0.001395882    3.228    0.690
        80 -10.7697     24.1279     80.1658   1.1164449873e+02   5.7122109780e+01    0.3390813    0.1810436 -83.39  0.001588665    2.460    0.593
        81  -9.7841    153.3362     77.9986   7.1371119607e+01   3.5759438223e+01    0.2114859    0.1971932 -23.17 0.0004647676    1.082    0.076
        82 -10.0535      1.8807     77.8420   1.1881766680e+02   5.9035430004e+01    0.1917826    0.1179566 -51.62 0.0009415077    1.333    0.250
        83 -11.0494     82.6714     73.6859   8.9779774536e+01   5.1509407425e+01    0.4306532     0.278892 -82.13  0.001611194    3.438    0.709
        84 -12.2412    223.6096     70.5016   5.6193856038e+01   1.9706116769e+01    0.2977383     0.277194  85.43 0.0004054946    1.115    0.103
        85 -12.6234    170.4519     91.1382   7.1408259672e+01   2.9109713169e+01    0.5190104    0.4183696 -48.46 0.0008888528    1.254    0.203
        86 -10.9151     62.4368     70.2735   9.5618888514e+01   5.5288145461e+01    0.2752255    0.1138051 -47.23  0.001141108    2.088    0.521
        87 -10.6979     51.9162     70.8816   9.9537442829e+01   5.6494205247e+01    0.2389813     0.187134 -61.74 0.0008521259    1.289    0.224
        88 -10.4020    196.1688     67.7719   5.9782578726e+01   2.6834515816e+01    0.3670338    0.1900602  52.28  0.001484262    1.945    0.486
        89 -11.5549     20.7860     52.0798   1.0619899159e+02   6.3479220462e+01    0.6271877    0.2064478 -58.23   0.00275505    2.455    0.593
        90 -13.6357     30.7248     59.6793   1.0433568473e+02   6.1083122870e+01     1.213755    0.8364736  25.55  0.004294058    1.715    0.417
        91 -10.8308     39.7776     53.0135   9.8783279722e+01   6.1596073919e+01     0.434204    0.1724867 -41.86  0.001160984    2.170    0.539
        92 -12.3449    238.5741     64.3559   5.2597943086e+01   1.7178798248e+01    0.4605542    0.2914386  88.88  0.002131321    2.067    0.516
        93 -11.7186    231.9032     60.7026   5.2546549699e+01   1.9252578155e+01    0.3711614    0.2613076  74.09  0.001890223    1.549    0.355
        94 -10.2721    100.7419     60.9926   7.9843095394e+01   5.0739606399e+01    0.2498821    0.1668705  86.21 0.0008985843    3.562    0.719
        95 -11.0954      7.6632     56.5244   1.1261002229e+02   6.3387534724e+01    0.3741878     0.178002 -66.85  0.002005437    1.810    0.448
        96 -11.4441     19.3778     59.5514   1.0873189564e+02   6.2009961777e+01    0.3393469    0.2160511 -43.93  0.001155224    1.283    0.221
        97 -10.2074    120.0160     57.1722   7.2946960518e+01   4.7353377243e+01    0.2434089    0.1817672  87.56  0.001086703    2.035    0.509
        98 -10.3379     54.6809     55.1308   9.3667940188e+01   5.9437714022e+01    0.3610946    0.2079926 -70.74  0.001388352    3.727    0.732
        99  -9.9843    162.0127     53.2177   6.1756716196e+01   3.7835505397e+01     0.209126    0.1214519  57.95 0.0004985951    1.690    0.408
       100 -11.7217    148.8608     52.2619   6.4207580565e+01   4.1301310971e+01    0.3376158    0.2787073  43.07 0.0004166998    1.199    0.166
       101 -10.7946    157.0072     44.9800   6.0108406334e+01   4.0348455575e+01    0.2712205    0.2059299  58.74 0.0004156038    1.280    0.219
       102 -11.9429     71.9565     42.6520   8.2682765271e+01   5.9250688728e+01     0.619669    0.3063762  49.56  0.002675769    2.661    0.624
       103 -11.5983      7.8674     43.2969   1.0921804645e+02   6.6118806348e+01    0.4907051    0.2419688  34.96  0.002731205    2.687    0.628
       104 -12.3856     41.0007     38.2972   9.3180001623e+01   6.4308178527e+01    0.5292389    0.3443336   5.84  0.001815089    1.764    0.433
       105 -11.5497    140.1197     37.8752   6.1236560388e+01   4.5600794796e+01    0.3244767    0.2680382  48.64 0.0007695532    1.154    0.134
       106 -10.5692     80.8636     37.7161   7.7591430564e+01   5.8544012134e+01    0.2550651    0.1781424 -58.11  0.001245749    2.136    0.532
       107 -11.7190    120.2884     34.2923   6.4586943666e+01   5.0856059610e+01    0.3050738     0.276145  58.09 0.0006114754    1.167    0.143
       108 -10.6291     50.0949     34.5980   8.7930770039e+01   6.3858557600e+01    0.3075427    0.2041218  31.64  0.001510433    1.637    0.389
       109 -11.1555    106.4266     29.7886   6.6495689446e+01   5.4591949581e+01    0.5036359    0.3550847  83.48  0.002260987    2.318    0.569
       110 -11.0295    101.9845     30.4680   6.8015711811e+01   5.5458000568e+01     0.643876    0.3240456  68.38  0.002223036    3.931    0.746
       111 -10.1045    101.6676     27.2790   6.6818632382e+01   5.5954220068e+01    0.2141936     0.135876 -29.00 0.0004835643    1.576    0.366
       112 -10.4766     73.8400     32.7224   7.7999376096e+01   6.0565918281e+01    0.3004428    0.2166901  67.43  0.001492087    2.416    0.586
       113 -12.6163    203.2840     21.6143   4.5846562504e+01   3.1483955259e+01    0.6076987    0.3126334  85.05  0.002563695    2.234    0.552
       114  -9.8123    187.5523    248.4749   1.0020879961e+02  -2.1431552051e+00    0.2287124   0.08828833  32.54  0.001029466    2.509    0.601
       115 -10.4289     50.8369     22.0728   8.2256500383e+01   6.5788190391e+01    0.1949054     0.160615  10.08 0.0002958706    1.156    0.135
       116 -12.5289     22.2106    239.3582   1.2846079038e+02   2.2811299795e+01    0.5345638    0.1989817  64.47  0.002996404    2.260    0.557
       117 -11.2727    239.7497     20.5502   4.1823117044e+01   2.2794056388e+01    0.3019874    0.2115072  72.59 0.0005991732    1.426    0.299
       118 -10.0837     89.1256     18.3972   6.6765601161e+01   5.9680574432e+01    0.2446198    0.1732683  66.53  0.001273272    1.904    0.475
       119  -9.8611     46.6882     16.6530   8.1506653551e+01   6.7164419448e+01     0.194691    0.1253264 -14.77 0.0008861971    1.454    0.312
       120  -9.8839    127.2020     15.2038   5.5780708066e+01   5.1520110930e+01    0.2580848    0.1198998  30.67 0.0009611704    2.870    0.652
       121 -10.8986     32.9370    241.9948   1.2686356981e+02   2.1178819106e+01    0.1806076   0.08450167  63.90  0.001123011    1.691    0.409
       122 -11.0379      8.4186    240.6432   1.3069827326e+02   2.3996489158e+01    0.1789476    0.1059904  44.78  0.001253969    1.591    0.372
       123 -10.0019     72.3266    230.3104   1.1924526700e+02   1.8407250008e+01   0.09690416    0.0926109  -4.91 0.0007040115    1.660    0.398
       124 -10.7610     12.8574    227.4826   1.2939672881e+02   2.5905870325e+01    0.2066051    0.1074821  69.73 0.0006341183    1.459    0.314
       125 -10.1503    104.4193    225.6660   1.1279418333e+02   1.4621383715e+01    0.2092962    0.1162073 -70.36  0.001129757    2.115    0.527
       126 -10.7721     96.0983    225.4972   1.1436231156e+02   1.5907238574e+01    0.3254854    0.1221988  52.60  0.001454284    2.455    0.593
       127  -9.8882     75.3038    226.6778   1.1838054562e+02   1.8667047509e+01    0.1242152    0.0710889  67.10 0.0002752598    1.635    0.388
       128  -9.7895      6.7647    226.6214   1.3035259462e+02   2.6657925723e+01    0.1440073   0.06710222  51.50 0.0006047853    1.658    0.397
