#   1 NUMBER                 Running object number                                     
#   2 MAG_AUTO               Kron-like elliptical aperture magnitude                    [mag]
#   3 X_IMAGE                Object position along x                                    [pixel]
#   4 Y_IMAGE                Object position along y                                    [pixel]
#   5 X_WORLD                Barycenter position along world x axis                     [deg]
#   6 Y_WORLD                Barycenter position along world y axis                     [deg]
#   7 A_WORLD                Profile RMS along major axis (world units)                 [deg]
#   8 B_WORLD                Profile RMS along minor axis (world units)                 [deg]
#   9 THETA_WORLD            Position angle (CCW/world-x)                               [deg]
#  10 FWHM_WORLD             FWHM assuming a gaussian core                              [deg]
#  11 ELONGATION             A_IMAGE/B_IMAGE                                           
#  12 ELLIPTICITY            1 - B_IMAGE/A_IMAGE                                       
         1 -14.4036    214.9663      4.2948   5.0155151797e+01   3.0750207005e+01     2.337406     1.517021  52.14   0.01040194    2.038    0.509
         2 -13.9159    176.9804     46.0010   6.4300496254e+01   3.4638434653e+01     1.014017    0.8415631 -22.07 0.0007893672    1.394    0.283
         3 -14.0409    188.9921     35.6203   6.0023854893e+01   3.3130228972e+01     1.021383    0.8279482 -53.37  0.003290994    1.104    0.094
         4 -14.0866    195.4457     27.0212   5.7129046204e+01   3.2666065553e+01     0.841822    0.8207579  10.43  0.001407745    1.325    0.245
         5 -10.8953     68.7477      2.2532   6.9081265064e+01   6.7539472809e+01    0.2347522   0.07599714  52.11 0.0008982844    2.444    0.591
         6  -9.8527     71.8413    229.8421   1.2681403248e+02   1.7909525373e+01    0.1681469    0.1106313  47.06            0    1.263    0.208
         7 -16.5376     72.2671    149.0961   1.1744462868e+02   3.5898353973e+01     9.861419      4.75071  71.65   0.02881489    4.514    0.778
         8 -12.5437     54.0261    210.2947   1.2951028652e+02   2.3987943505e+01    0.5315212    0.1819176  48.63   0.00167811    2.543    0.607
         9 -11.3855     48.3232    206.0987   1.3061513703e+02   2.5547612413e+01    0.2549153    0.1926038  42.67  0.001427501    1.090    0.083
        10 -11.1494     39.2246    212.8238   1.3333545209e+02   2.5128415845e+01    0.2066147    0.1257617  42.93 0.0003634171    1.295    0.228
        11 -11.7919     71.6889    211.0990   1.2519459824e+02   2.1637661746e+01    0.3030164    0.2171699  30.52 0.0006429983    1.234    0.190
        12 -10.2836     76.4534    206.2129   1.2352491346e+02   2.2030116625e+01    0.3890178    0.1975637 -59.99   0.00109458    2.234    0.552
        13  -9.8462     32.6276    211.7149   1.3487702432e+02   2.6059780111e+01     0.123599   0.09031922  45.96 9.137217e-05    1.088    0.081
        14 -19.4007     13.3529    133.5270   1.3524100678e+02   4.6602817941e+01      20.0985     2.446538 -79.97   0.04102448    9.439    0.894
        15 -11.2363     44.4933    210.5178   1.3188987955e+02   2.5036764477e+01    0.2615676     0.124577  44.94 0.0007333554    1.664    0.399
        16 -11.3194      1.6068    206.2136   1.4211143860e+02   3.0086845381e+01    0.1544763    0.1210979  50.94 0.0004722163    1.059    0.056
        17  -9.5511    163.2069    203.8152   1.0280858978e+02   9.8095371866e+00     0.172765    0.1320847   2.48 0.0003142747    1.273    0.214
        18 -10.4822     37.0162    206.6880   1.3349324256e+02   2.6673236808e+01    0.2451258    0.1090486  39.51  0.001192799    1.732    0.423
        19 -10.0665     87.6288    202.7902   1.2033821208e+02   2.1221067091e+01    0.3261284    0.1672209 -60.22  0.001542295    2.225    0.550
        20 -10.9612    155.9902    200.1320   1.0376718124e+02   1.1510606050e+01    0.3482121    0.2421304 -64.61  0.001820848    2.228    0.551
        21 -10.8566     95.1963    200.5354   1.1816409642e+02   2.0614020646e+01    0.3710148    0.2360152  61.48  0.001401822    1.853    0.460
        22 -12.2050     99.9482    197.1301   1.1653561795e+02   2.0625288691e+01    0.4524809     0.288327   9.36  0.001988089    2.069    0.517
        23 -12.3867     36.1496    199.9680   1.3327713615e+02   2.8235580296e+01    0.2379749    0.1826806  36.55 0.0006736278    1.172    0.146
        24 -10.5559    209.8573    199.3694   9.3055706209e+01   3.9034483857e+00    0.1878177    0.1463919 -30.79 0.0005314919    1.360    0.265
        25 -12.0073    193.2841    192.9301   9.4993334492e+01   7.1387894682e+00    0.7235824    0.3984141 -49.83  0.003611711    2.459    0.593
        26 -11.7519    141.1983    197.7383   1.0668065546e+02   1.4203296752e+01    0.2785225    0.2220084  87.61 0.0009465129    1.937    0.484
        27 -10.3067     82.0481    195.7912   1.2095762557e+02   2.3485829205e+01    0.3303679    0.2731102 -19.83  0.001726978    1.532    0.347
        28 -13.1782     68.4907    191.1844   1.2401751956e+02   2.6346723858e+01    0.7870253    0.7380864 -31.90  0.004335829    1.288    0.224
        29  -9.3731     60.0092    187.0128   1.2587333161e+02   2.8394118632e+01    0.1639073    0.1365638  45.03 0.0009487284    1.041    0.039
        30 -10.5183    152.6030    194.3152   1.0357542012e+02   1.3049305199e+01    0.1932282    0.1550375  59.35  0.000562278    1.641    0.391
        31 -16.7249     71.3054    247.6081   1.2831181581e+02   1.4746700804e+01       9.7202     2.886926  21.85   0.02900811    5.970    0.832
        32 -12.1586    183.5951    215.0055   1.0043619292e+02   5.1830745181e+00    0.3770323    0.3664367 -60.04  0.002707417    1.579    0.367
        33 -12.0787     96.7164    188.0299   1.1615320208e+02   2.3034720191e+01     0.496766      0.36972  35.75  0.001516929    1.173    0.148
        34 -10.3587    151.5967    183.7922   1.0204161021e+02   1.5120380429e+01    0.1742193    0.1337029 -59.15 0.0006929914    1.658    0.397
        35 -11.6373     99.4753    180.8548   1.1441408144e+02   2.4177025209e+01    0.2683892    0.2493541  28.04 0.0006260849    1.075    0.070
        36 -11.5736    144.3579    179.7449   1.0300020971e+02   1.7077510378e+01    0.2551143    0.2146829   2.20  0.000953375    1.209    0.173
        37  -9.7460     68.9334    177.7614   1.2237912083e+02   2.9373536816e+01    0.2040017      0.16461  41.81 0.0004554651    1.097    0.088
        38  -9.8817    168.2851    176.6434   9.7121998536e+01   1.3680876084e+01    0.2151595    0.1816376 -49.60 0.0005567071    1.400    0.286
        39  -9.8820    166.2731    173.5850   9.6989623929e+01   1.4560654244e+01    0.2406039    0.1818202 -71.23 0.0006567422    2.099    0.524
        40  -9.3664    202.6684    170.7136   8.9276092129e+01   9.1852463574e+00      0.13049   0.08893406   1.14 0.0003326146    1.619    0.382
        41 -11.6119    195.0553    168.4309   9.0245019205e+01   1.0737201183e+01    0.2999423    0.2627137   3.28  0.001914566    1.038    0.037
        42 -10.9528    146.0011    168.4979   1.0059643755e+02   1.8989536716e+01    0.2203688    0.1313909  36.35 0.0005314699    1.561    0.359
        43  -9.6851    198.7353    222.7317   9.8767198938e+01   2.1304886932e+00    0.1428179    0.1211198  21.32 0.0005064797    1.322    0.244
        44 -13.5063     60.0337    205.0876   1.2756921788e+02   2.4371591544e+01    0.9276282    0.6437288  51.42  0.001500835    1.248    0.198
        45 -10.5452    190.1691    160.6785   8.9675111046e+01   1.2813072762e+01    0.2557884    0.2274532 -39.40 0.0008526121    1.244    0.196
        46 -11.1499    189.2895    155.2834   8.8774216364e+01   1.3874743944e+01    0.3544719    0.3480691 -43.82  0.001710366    1.239    0.193
        47 -10.5652    140.8479    157.7399   9.9775043131e+01   2.2077789381e+01    0.2559718    0.2269486  88.40 0.0006593139    1.397    0.284
        48 -13.0056     96.3578    154.9807   1.1114488445e+02   3.0615967520e+01    0.7385817    0.5395472 -25.18  0.003440002    1.798    0.444
        49 -11.7392    134.2376    148.2481   9.9509599821e+01   2.5299351061e+01    0.8759559    0.3785897 -62.08  0.002585426    4.441    0.775
        50 -12.0882    134.0000    143.9656   9.8677446087e+01   2.6262968127e+01    0.8195965    0.3203715 -58.31  0.002465463    4.028    0.752
        51 -10.5815    113.1781    151.6686   1.0577287375e+02   2.8449976843e+01    0.2488655    0.2059789 -72.45 0.0007043636    1.377    0.274
        52  -9.6666    182.7942    150.7589   8.9117719248e+01   1.5788722078e+01    0.1763316    0.1626902 -72.91 0.0006543027    1.381    0.276
        53 -10.3615    174.9106    149.1332   9.0369657941e+01   1.7496145684e+01    0.2025631    0.1954168  83.36  0.000530776    1.255    0.203
        54 -11.7906    144.2633    146.7787   9.6721679002e+01   2.3699572845e+01    0.4423834    0.2761653 -62.56  0.001885103    2.162    0.538
        55 -12.3825    107.7811    140.2228   1.0502866195e+02   3.2090714749e+01    0.5790042    0.3970509 -30.15  0.002536652    1.860    0.462
        56 -12.4693     95.7258    140.4080   1.0863708624e+02   3.4229175386e+01    0.3288144    0.3009007   7.69 0.0003574323    1.201    0.167
        57 -10.3652    115.8021    144.5956   1.0365051240e+02   2.9583775190e+01    0.2219652    0.1333525  48.13 0.0005887123    1.672    0.402
        58 -11.2003    106.0560    130.8342   1.0354765384e+02   3.4634511426e+01    0.4190427    0.3414595 -80.36  0.001226551    1.420    0.296
        59 -11.2390    102.5620    126.5901   1.0366149586e+02   3.6314274130e+01    0.3068135    0.2598296 -18.59 0.0005688848    1.406    0.289
        60 -12.5119    115.2922    130.0414   1.0068362383e+02   3.3027857359e+01    0.8189358    0.5264998  14.35  0.003178065    2.382    0.580
        61 -11.6548    136.0000    126.5552   9.4288939517e+01   2.9609975087e+01    0.7950487    0.1370115 -47.56  0.001799582    6.155    0.838
        62 -10.2478    160.9866    127.9832   8.8702651905e+01   2.4176495363e+01    0.2339612    0.1864417 -83.17  0.001140377    1.712    0.416
        63 -11.1641    119.6727    124.6527   9.8208639809e+01   3.3384460393e+01    0.3934551     0.221326 -28.05  0.001309942    2.830    0.647
        64 -10.4475    110.2665    119.3103   9.9652825977e+01   3.6522688844e+01     0.249244    0.2313216  -2.97 0.0003430241    1.193    0.162
        65  -9.9985    167.8949    112.7816   8.3627882923e+01   2.5649600460e+01    0.2810278    0.1871767 -66.12  0.001219316    2.082    0.520
        66 -10.0716    104.7407    111.6105   9.9435033549e+01   3.9447541416e+01    0.2655867    0.1863259  50.59 0.0004848262    1.427    0.299
        67 -11.4131    120.5551    110.6010   9.4505944279e+01   3.6365287290e+01    0.3376425    0.2831095  77.41  0.001635155    1.361    0.265
        68 -10.2744    205.6227    110.1039   7.6218144569e+01   1.8474717845e+01    0.2359563    0.1945387  38.25 0.0006428283    1.344    0.256
        69  99.0000     66.1568    224.9711   1.2774395586e+02   1.9544671512e+01    0.4512402   0.09986363  40.30  0.001689766    2.983    0.665
        70 -11.8552     53.0583     90.8224   1.1309171090e+02   5.3797173084e+01    0.3760102    0.2303853 -64.67   0.00165957    1.663    0.399
        71 -11.6674     41.7124     91.8327   1.1825210694e+02   5.5023962318e+01    0.2880051     0.254393  31.02 0.0005930587    1.160    0.138
        72  -9.9863     70.0654     72.1009   1.0048315750e+02   5.5560277545e+01     0.228783    0.2119476  49.75 0.0004729302    1.084    0.078
        73 -11.7057    165.7857     66.1553   7.1699590066e+01   3.4355678070e+01    0.4566249    0.2879562 -76.63  0.000716295    2.126    0.530
        74 -10.0848    104.9535     61.0534   8.4066195958e+01   5.0309779383e+01    0.2334097    0.2165715  71.15 0.0003388854    1.061    0.057
        75 -10.9003     35.4999     57.1832   1.1217260119e+02   6.4411060689e+01    0.2466619    0.1906773  23.50 0.0005342218    1.308    0.236
        76 -10.0156     73.9100    218.1228   1.2530522133e+02   1.9928195915e+01    0.2048456    0.1436826  50.30 0.0004404918    1.253    0.202
        77  -9.6585    176.0000    239.9619   1.0549513713e+02   2.6503320989e+00    0.1575467    0.0642231 -42.79 0.0005673413    2.858    0.650
        78 -10.6630     53.4659    231.4823   1.3117481455e+02   1.9782346291e+01    0.2286787    0.1408461  55.61   0.00104324    1.433    0.302
        79 -11.1993     53.2333    228.3976   1.3102121684e+02   2.0405954630e+01     0.259436     0.136961  52.94  0.001029723    1.647    0.393
        80 -11.6460     49.5048    226.0115   1.3172958324e+02   2.1298885653e+01    0.2170486    0.1378327  39.23 0.0004323644    1.224    0.183
        81 -12.8099     46.1677    215.1133   1.3179474618e+02   2.3884471774e+01    0.5484431    0.1997997  54.00  0.001449715    2.606    0.616
