#   1 NUMBER                 Running object number                                     
#   2 MAG_AUTO               Kron-like elliptical aperture magnitude                    [mag]
#   3 X_IMAGE                Object position along x                                    [pixel]
#   4 Y_IMAGE                Object position along y                                    [pixel]
#   5 X_WORLD                Barycenter position along world x axis                     [deg]
#   6 Y_WORLD                Barycenter position along world y axis                     [deg]
#   7 A_WORLD                Profile RMS along major axis (world units)                 [deg]
#   8 B_WORLD                Profile RMS along minor axis (world units)                 [deg]
#   9 THETA_WORLD            Position angle (CCW/world-x)                               [deg]
#  10 FWHM_WORLD             FWHM assuming a gaussian core                              [deg]
#  11 ELONGATION             A_IMAGE/B_IMAGE                                           
#  12 ELLIPTICITY            1 - B_IMAGE/A_IMAGE                                       
         1 -12.8881     58.9890    133.4145   1.2468681606e+02   4.1936505471e+01     1.595881    0.4555821 -64.39  0.004817959    4.037    0.752
         2 -12.2526    188.9569     29.9362   6.5613065057e+01   3.4594965680e+01    0.8609749    0.7551684  77.01  0.004022525    1.078    0.072
         3 -12.3113    198.1245     17.4109   6.1489268731e+01   3.3888470012e+01    0.7104004    0.6670963  11.44  0.002762622    1.457    0.314
         4 -10.1177     59.1820      3.5875   8.4677652475e+01   6.5201486018e+01    0.2464177    0.1580925 -29.27  0.001589492    1.765    0.433
         5 -11.1803     96.4469    244.2605   1.3201300159e+02   1.0822523580e+01    0.3681871    0.2879585 -65.45  0.002300564    1.419    0.295
         6 -10.8269    132.5369    247.0500   1.2518603470e+02   4.3841772421e+00    0.2925619    0.1920277  49.92 0.0009453923    1.319    0.242
         7 -11.5437    141.2409    249.4644   1.2377346076e+02   2.4833874447e+00    0.8435281    0.1942228  42.20   0.00284157    3.570    0.720
         8 -11.5304    120.2541    249.1331   1.2789542790e+02   6.0498517897e+00    0.6373602    0.3397168  33.68  0.002587877    1.984    0.496
         9 -10.5969     98.4323    250.1748   1.3228538757e+02   9.3707963681e+00    0.5134821    0.1599999  41.43   0.00193825    2.714    0.632
        10 -10.0873     94.5262    248.4883   1.3285572078e+02   1.0303333985e+01    0.2486554    0.1926878 -79.99 0.0009811427    1.333    0.250
        11 -19.3106      8.5616    130.3203   1.3815569211e+02   4.7615931259e+01     18.25546     1.956021 -69.91   0.04099505    9.087    0.890
        12 -11.3272    110.7725    227.5365   1.2704186059e+02   1.1851197868e+01    0.4530555    0.3904475 -73.70  0.002761339    1.222    0.181
        13 -10.7052    119.4849    228.6091   1.2536024422e+02   1.0153561396e+01    0.4395228    0.3283146  85.21  0.002417166    1.500    0.333
        14 -10.2855    146.9917    230.0336   1.1979995547e+02   5.0602229733e+00    0.3367297    0.2085892  73.35  0.001376517    2.624    0.619
        15  -9.4663    197.7098    199.8725   1.0390673676e+02   1.5098912804e+00    0.2868628    0.1596171  28.32   0.00122872    2.071    0.517
        16  -9.0545     83.0000    195.0253   1.2864893825e+02   2.3568026660e+01     0.224966   0.07472145 -61.97 0.0007991236    2.920    0.657
        17  -8.5853    208.5101    187.9915   9.9378290719e+01   1.7349678912e+00    0.2194325    0.1358824 -41.68  0.001033569    1.595    0.373
        18  -8.5874    189.5219    186.7405   1.0301271290e+02   5.6100998819e+00    0.2900485    0.1393042 -38.69  0.001144779    2.198    0.545
        19  -9.5394    102.8883    235.9005   1.2974229011e+02   1.1450832699e+01    0.2045636    0.1674813  68.77 0.0007790453    1.077    0.072
        20 -11.0123     77.9436    183.3224   1.2813270555e+02   2.7113704176e+01    0.5009608    0.3544458 -38.18  0.001875157    1.874    0.466
        21 -11.0242     81.9225    177.5528   1.2629410238e+02   2.7890451360e+01    0.7652158    0.2569457 -51.35  0.001327391    3.020    0.669
        22  -8.2213    199.0002    178.5197   9.9361491700e+01   5.3880378690e+00    0.2036841    0.1289703  66.79 0.0004879626    2.535    0.606
        23  -8.7456     72.9895    175.9699   1.2822049263e+02   2.9622882204e+01    0.2107805    0.1671974 -33.94 0.0006023635    1.652    0.395
        24  -9.6685     88.6911    235.7802   1.3259245153e+02   1.3728233741e+01     0.181027    0.1576314 -60.31 0.0007006648    1.388    0.280
        25  -8.1590    109.3241    172.3297   1.1866855431e+02   2.4538445457e+01     0.148648    0.1197669 -19.65 0.0007050023    1.700    0.412
        26 -10.4127     89.0067    167.3744   1.2284977498e+02   2.9234700067e+01    0.2999982    0.2779896 -46.00 0.0004093683    1.210    0.174
        27 -12.1163     77.8561    163.1787   1.2495497074e+02   3.2014559599e+01       0.5838    0.5707183  -6.18  0.001300948    1.235    0.190
        28 -12.8809     68.0642    144.4885   1.2423408429e+02   3.8026867882e+01     1.236255    0.7324595  89.24  0.005100604    2.494    0.599
        29 -10.5499     49.8821    151.8298   1.3033050068e+02   3.8591896039e+01    0.3338446     0.228451 -69.24  0.001078508    1.274    0.215
        30  -9.5813    106.5500    142.9917   1.1350598175e+02   3.2133099470e+01    0.5561625    0.2637689 -33.94  0.001725456    3.678    0.728
        31 -10.6862     94.7457    143.8528   1.1685810689e+02   3.4023551675e+01    0.3025905    0.2664492 -37.28 0.0005145533    1.226    0.184
        32 -11.5756     51.1472    156.6003   1.3073506421e+02   3.7278335989e+01    0.4464802    0.3503114  63.79  0.002581767    1.322    0.243
        33 -10.8505    163.7766    245.0106   1.1863261573e+02  -5.7210017914e-01    0.5098751    0.2985669 -20.99  0.002186767    3.197    0.687
        34 -11.3836     54.9366    149.5129   1.2863280062e+02   3.8538064833e+01    0.3936878    0.3149399  77.75  0.002245221    1.293    0.227
        35  -9.3001    114.4709    132.4982   1.0901504157e+02   3.3136758927e+01     0.295134     0.214787 -42.32  0.001049625    1.394    0.282
        36  -8.7932    105.9769    130.9890   1.1096524421e+02   3.5109589646e+01    0.2400507     0.230198 -63.02  0.001036351    1.007    0.007
        37  -9.3375    101.9495    129.2391   1.1166810345e+02   3.6264491212e+01    0.2786499    0.2096764 -41.76 0.0007823356    1.341    0.255
        38 -10.3580     93.8876    161.2998   1.2051399120e+02   2.9909329500e+01    0.3662557    0.2992005 -35.25  0.000544516    1.443    0.307
        39  -8.1404    167.8175    112.7672   9.0872313931e+01   2.5922362820e+01    0.2250862    0.1837225 -77.89  0.001020062    1.393    0.282
        40  -8.3843    109.9799    120.6937   1.0739272363e+02   3.6756832328e+01     0.203146    0.1956543  45.20 0.0003909129    1.074    0.069
        41  -9.7826     95.7633    157.7611   1.1936332217e+02   3.0455851745e+01    0.4171281    0.2681208  46.60  0.001929562    1.592    0.372
        42 -11.6591    126.7004    229.9123   1.2403032422e+02   8.6484254843e+00    0.5505581      0.39168  75.50  0.002903843    1.639    0.390
        43 -11.2301    115.0914    228.7981   1.2630704107e+02   1.0863931821e+01    0.6255994    0.2836756 -61.43  0.002722508    2.477    0.596
        44  -9.0494    164.0000     51.4963   7.5208156779e+01   3.7768815249e+01    0.2943492   0.08141363 -33.77 0.0009295224    3.893    0.743
        45 -11.3085    179.2933     37.8123   6.8979933599e+01   3.5929313661e+01    0.4197128    0.3605399 -15.22  0.001383635    1.470    0.320
        46 -10.2306     88.2007    242.1444   1.3339649679e+02   1.2522202525e+01    0.2001676    0.1575906  46.58 0.0004788962    1.241    0.194
        47  -8.7848    194.5077    241.5503   1.1198474307e+02  -5.1756155672e+00    0.1295496    0.1108506  23.69 -0.0001699991    1.005    0.005
