#   1 NUMBER                 Running object number                                     
#   2 MAG_AUTO               Kron-like elliptical aperture magnitude                    [mag]
#   3 X_IMAGE                Object position along x                                    [pixel]
#   4 Y_IMAGE                Object position along y                                    [pixel]
#   5 X_WORLD                Barycenter position along world x axis                     [deg]
#   6 Y_WORLD                Barycenter position along world y axis                     [deg]
#   7 A_WORLD                Profile RMS along major axis (world units)                 [deg]
#   8 B_WORLD                Profile RMS along minor axis (world units)                 [deg]
#   9 THETA_WORLD            Position angle (CCW/world-x)                               [deg]
#  10 FWHM_WORLD             FWHM assuming a gaussian core                              [deg]
#  11 ELONGATION             A_IMAGE/B_IMAGE                                           
#  12 ELLIPTICITY            1 - B_IMAGE/A_IMAGE                                       
         1 -13.5495    207.3994     34.7540   5.2510317239e+01   2.8394027767e+01     1.294151       1.1331 -34.43   0.00619536    1.058    0.055
         2 -13.5352      3.9447     10.7146   1.0814900240e+02   7.5186003832e+01     1.706414    0.3384773 -60.02  0.006378547    3.449    0.710
         3 -13.9640    227.4538     17.4983   4.5763435891e+01   2.5467247917e+01     1.042648    0.8857608  18.28  0.001438312    1.361    0.265
         4 -10.9811    181.1452    243.2625   1.0068638438e+02   5.4730685070e+00    0.2293834   0.09404913  43.70  0.001298331    2.126    0.530
         5 -11.3138    161.0911    250.1547   1.0475648264e+02   7.3767405353e+00     0.289168    0.1049706  31.85  0.001520607    2.375    0.579
         6 -11.9456    150.4281    248.0591   1.0631779142e+02   9.0067160192e+00    0.3162944    0.2614873 -11.75  0.002636199    1.553    0.356
         7 -11.0065    143.3105    249.2619   1.0763733387e+02   9.7986241800e+00     0.355217    0.1465559  48.78  0.001974878    2.369    0.578
         8 -12.4155    144.7692    243.1192   1.0677340179e+02   1.0332197742e+01    0.3871762    0.2647771  21.06  0.002813835    1.482    0.325
         9 -12.6221     89.8452    224.3076   1.1488083010e+02   2.0123220462e+01    0.6737694    0.4936358 -14.73  0.004324938    2.552    0.608
        10 -12.6936    136.0810    245.0247   1.0845443667e+02   1.1249903156e+01    0.7625256    0.4865166 -60.33  0.005485793    2.304    0.566
        11 -11.6583     99.7783    248.3619   1.1501156246e+02   1.5456418636e+01    0.4664673    0.2780802  37.39  0.003375094    1.277    0.217
        12 -13.2193    123.4288    248.9260   1.1098734082e+02   1.2410366238e+01    0.8047998     0.552906  22.19  0.005808937    1.568    0.362
        13 -13.5225    113.8097    248.6725   1.1261669590e+02   1.3665844721e+01     1.280727    0.6133685  27.41  0.007425006    2.276    0.561
        14 -12.3619     89.4351    239.5348   1.1615737479e+02   1.7937249640e+01    0.6795932    0.3830959  69.42  0.004407187    2.137    0.532
        15 -14.1205     61.3851    246.6308   1.2153146668e+02   2.0196082903e+01     2.191842    0.8741755  34.80   0.01327509    2.026    0.506
        16 -15.3713     20.2867    219.2066   1.2755648230e+02   2.8687675975e+01     1.556939     1.067507  63.67   0.01250875    1.096    0.088
        17 -13.7152      3.4138    193.9431   1.2989490679e+02   3.4581202219e+01     2.073148    0.4379064 -85.59  0.008342047    4.663    0.786
        18 -11.9047     88.1272    248.4575   1.1703119886e+02   1.6857583790e+01    0.5593135    0.2439711  39.40  0.003337514    1.625    0.385
        19 -11.9258    104.6987    229.5492   1.1257988639e+02   1.7432780063e+01    0.2865846    0.1976901  33.06  0.001866474    1.299    0.230
        20 -12.6314      2.7566    223.9274   1.3084105037e+02   2.9475461450e+01    0.5384887    0.2320237 -89.75  0.002145833    2.197    0.545
        21  -9.5010    123.3193    230.2977   1.0925542127e+02   1.4852679170e+01    0.1029581   0.07533099  16.99 0.0007019721    1.616    0.381
        22 -10.9211     78.1267    225.9081   1.1719674151e+02   2.1335614053e+01    0.2830979    0.2539551 -49.25  0.002320071    1.576    0.366
        23 -11.6349    101.5692    220.5782   1.1234432674e+02   1.9168057604e+01    0.2738902    0.2326634  34.97  0.001099662    1.211    0.174
        24 -10.4411     72.3063    219.8487   1.1784172790e+02   2.2993573645e+01    0.2951171    0.1927232  47.64  0.002089441    1.151    0.131
        25  -9.2996     59.9569    220.4983   1.2022769581e+02   2.4340446600e+01    0.1538695   0.08192383  39.99 0.0003430841    1.465    0.317
        26 -10.6073     50.7750    218.5841   1.2184445436e+02   2.5684113831e+01    0.2578817    0.1296528  68.15  0.000739962    1.938    0.484
        27 -13.8343     24.5351    247.8864   1.2782034942e+02   2.3807827234e+01     1.339038    0.7371634  22.97  0.009095483    2.451    0.592
        28 -12.8286     97.4118    239.6342   1.1474656987e+02   1.6936043461e+01    0.4578502    0.4228919 -69.16  0.004007753    1.454    0.312
        29  -9.2717     88.1552    213.4294   1.1426849651e+02   2.2042909046e+01    0.1943369    0.1130958  77.10  0.001130684    2.234    0.552
        30 -12.1751    101.6071    240.2018   1.1404748414e+02   1.6330809196e+01    0.3322859    0.2315087 -73.26  0.001482779    1.890    0.471
        31 -10.0439     55.8768    208.1478   1.2019445131e+02   2.6868573811e+01    0.2134239    0.1277793  72.92  0.001198097    1.624    0.384
        32 -12.0130     82.4851    244.5743   1.1774319391e+02   1.8065965904e+01    0.6653343    0.2667803 -60.59   0.00404263    3.184    0.686
        33 -10.2581     63.1833    209.0735   1.1881658341e+02   2.5861745535e+01    0.3046133   0.08015016  46.23  0.001393565    2.736    0.634
        34  -8.7002    137.3273    207.6709   1.0412642866e+02   1.6066765437e+01    0.1165743   0.07966869  60.02 0.0007050893    1.706    0.414
        35  -9.9913     66.1721    205.5390   1.1795584646e+02   2.6110142475e+01    0.3174501    0.1340822  48.63  0.001747904    1.861    0.463
        36 -12.9102    106.2034    236.9564   1.1295684197e+02   1.6193412917e+01    0.5915248    0.2241419  39.18  0.003300763    1.913    0.477
        37  -9.5722    106.7343    203.6542   1.0963828674e+02   2.1112553223e+01    0.1741553    0.1360777 -50.39 0.0005978446    1.607    0.378
        38  -9.7931    250.4265    200.7570   8.3777224839e+01   3.6997912641e-01    0.1463551   0.08377995  -8.21 0.0009472846    1.643    0.391
        39  -9.0653     88.3203    201.6643   1.1314451240e+02   2.3965228690e+01    0.1224609   0.07185067  61.00  0.000704976    1.705    0.414
        40  -8.9323     80.1749    197.4027   1.1440783652e+02   2.5771938500e+01    0.1610299   0.08464923  46.56 0.0004419718    1.525    0.344
        41 -12.9339     34.2580    205.3963   1.2429097722e+02   2.9683231129e+01    0.5082114    0.4371212  70.05  0.002930501    1.214    0.177
        42 -12.1579     47.8544    191.4016   1.2066854813e+02   3.0765912789e+01      0.23791    0.2049309  81.84 0.0005647748    1.200    0.167
        43 -10.7789     19.8779    190.5798   1.2644712598e+02   3.3765598223e+01    0.4540555    0.1520976  75.82  0.002081034    3.357    0.702
        44  -8.7630    191.5280    191.5174   9.1785970753e+01   9.9425907318e+00    0.1196587    0.0967804  23.49 0.0001672666    1.021    0.021
        45  -9.7592     57.4034    190.2294   1.1856112555e+02   2.9891608627e+01    0.1440669   0.09518372  82.15 0.0002964163    1.498    0.333
        46 -14.2430      6.2298    244.9274   1.3074910267e+02   2.5913337719e+01     1.045473    0.6608899  55.64  0.009043862    1.030    0.029
        47 -12.2056     55.4759    183.8494   1.1845927634e+02   3.1316569057e+01    0.2431292    0.1994943  50.21 0.0004903179    1.128    0.113
        48  -9.4763     52.2609    231.9145   1.2233004100e+02   2.3391617923e+01    0.1596625    0.1010573  58.04 0.0005372053    1.219    0.180
        49 -10.0554     37.1613    179.9279   1.2217330248e+02   3.4099248867e+01    0.2101635    0.1871725 -35.75  0.001022819    1.637    0.389
        50 -10.6132     45.5579    177.9087   1.2017181584e+02   3.3592960538e+01    0.2440065    0.1635439  58.93 0.0004002025    1.228    0.186
        51  -9.5743     31.9208    176.8809   1.2312779605e+02   3.5230918812e+01    0.1541195     0.141712  79.88 0.0005532779    1.261    0.207
        52  -8.6192     82.3149    176.6465   1.1181485139e+02   2.9282643663e+01    0.1311379   0.07951436  64.86 0.0007045874    1.736    0.424
        53 -11.7729     12.4238    172.3843   1.2718866574e+02   3.7928020137e+01    0.2924263    0.2121084 -85.22   0.00212451    1.309    0.236
        54 -10.7181    249.0748    172.7345   7.9191135078e+01   3.3093638818e+00    0.2730142    0.1662006  21.61  0.001717203    1.448    0.309
        55 -10.8973     68.1096    171.8923   1.1452303857e+02   3.2090351678e+01    0.2211323      0.19548  83.56 0.0003784405    1.138    0.121
        56 -10.8949      3.0831    173.0335   1.2925577833e+02   3.8564749811e+01    0.1988826     0.145382  53.50 0.0006514976    1.157    0.136
        57 -12.6157      7.4775    165.8911   1.2799744659e+02   3.9636458034e+01    0.7451566    0.2896733  28.08  0.003993467    2.586    0.613
        58 -10.9557     52.5379    170.5996   1.1798405273e+02   3.4251632715e+01    0.2674906     0.238672 -60.20 0.0007125037    1.387    0.279
        59 -11.0085     19.8699    168.7991   1.2534146497e+02   3.7991036769e+01    0.2544038    0.1502954 -54.61  0.000934814    2.161    0.537
        60 -12.1879     76.1637    164.2030   1.1179219511e+02   3.2561274110e+01    0.4598805    0.4054996  48.95  0.001552181    1.124    0.110
        61 -10.6447    249.4532    161.7373   7.7108599158e+01   4.4118566296e+00    0.2142538   0.09758586 -30.50  0.001137841    2.102    0.524
        62 -10.5422    245.4919    162.0031   7.7741856874e+01   4.9848697011e+00    0.1748054    0.1013785 -23.25  0.001032883    1.591    0.371
        63  -9.4136     49.8654    161.1944   1.1775323482e+02   3.6482051727e+01    0.1786857     0.131846  60.68 0.0002557953    1.153    0.133
        64 -10.4091     40.4994    167.8208   1.2053845650e+02   3.6156619251e+01    0.2446504    0.2122008 -16.67  0.001692864    1.717    0.418
        65 -11.3740     25.9865    155.7869   1.2308834072e+02   4.0113089277e+01     0.387221    0.1510551  45.08  0.001613287    2.106    0.525
        66 -10.4966     16.3164    154.9562   1.2537512876e+02   4.1156803853e+01    0.1567318    0.1232749  79.13 0.0004395638    1.064    0.060
        67 -11.7277     12.3786    152.9600   1.2621159856e+02   4.1907395610e+01    0.2640985    0.1601132  49.52  0.001056538    1.408    0.290
        68 -11.6531      3.0169    132.4138   1.2744949116e+02   4.7055654613e+01    0.3983777    0.3277834  69.42  0.002914886    1.090    0.082
        69 -13.7782      4.1436    122.4863   1.2655924174e+02   4.9196941352e+01      1.10251    0.5459379  56.31   0.00616987    1.815    0.449
        70 -13.5016      8.8861    142.9662   1.2651503121e+02   4.4320817631e+01     1.018503    0.2558517 -69.95   0.00435037    3.275    0.695
        71 -12.4605      3.2262    143.5506   1.2797124939e+02   4.4616051400e+01    0.5270874    0.3055897 -71.54  0.002666052    1.631    0.387
        72 -10.7450    249.7777    150.8652   7.4974483825e+01   5.5437503722e+00    0.2563137    0.1890963  -8.74  0.001698124    1.140    0.123
        73 -11.0918     91.6125    149.5771   1.0608801278e+02   3.3318073902e+01    0.2910128    0.2510399  49.39 0.0009674231    1.079    0.073
        74 -11.3155     22.9752    150.0329   1.2342352126e+02   4.1616150235e+01    0.2543595    0.2002014   1.27  0.001623107    1.863    0.463
        75 -10.4084     79.2541    148.5048   1.0901406414e+02   3.5370389730e+01    0.2273579    0.1969412  64.56 0.0002709287    1.027    0.026
        76 -13.0358    248.1956    101.7013   6.4751199559e+01   1.1507110926e+01    0.9339096    0.4134871 -22.75  0.004285415    2.077    0.518
        77 -13.2810    248.4362    134.0557   7.1776180585e+01   7.6557495006e+00      1.34643    0.3906531 -26.44  0.005260415    3.269    0.694
        78 -10.6099    249.8277    117.8053   6.8125602197e+01   9.3102329437e+00    0.3026617    0.2322786 -12.34 0.0009826088    1.100    0.091
        79 -12.8235    248.0393    112.8477   6.7278163180e+01   1.0208403681e+01    0.8894802    0.5121732   0.78  0.004396466    2.098    0.523
        80 -11.4927     68.4817    143.6301   1.1110194581e+02   3.7907797799e+01    0.5748417    0.2979357  66.40  0.002206177    2.436    0.590
        81  -9.6230     35.4976    142.0091   1.1956147677e+02   4.2159635652e+01    0.1788008    0.1067093 -75.85 0.0005435018    1.544    0.352
        82 -10.2547    105.9340    135.1967   1.0009811651e+02   3.3983946656e+01    0.4031954    0.2758166   0.69  0.001715395    2.715    0.632
        83 -12.4548     16.3386    132.1736   1.2385217779e+02   4.6108699977e+01    0.3774111    0.2641844 -69.94  0.002427661    1.375    0.273
        84  -8.8987     44.2269    129.9655   1.1591567330e+02   4.3935596223e+01    0.1647802   0.09522568 -74.71 0.0005478819    1.611    0.379
        85 -12.9815     15.8970    120.6545   1.2306195270e+02   4.8758696111e+01    0.7321309    0.2781728  58.28  0.001734675    2.698    0.629
        86  -9.1099    236.1536    145.8653   7.6001164331e+01   8.3139295016e+00    0.1748806     0.123401   6.54 0.0005054974    1.322    0.243
        87 -10.0598    232.4003    116.2614   7.0248621903e+01   1.2626582849e+01    0.1822437    0.1087829 -34.82 0.0009444996    1.621    0.383
        88 -13.4362      6.0306    112.3705   1.2531843358e+02   5.1382850942e+01    0.6979543    0.4551694  51.81  0.004387941    1.454    0.312
        89  -9.6045     95.0626    145.4387   1.0458990710e+02   3.3639087971e+01    0.1883931     0.172897 -89.54 0.0004160916    1.093    0.085
        90 -10.0902     18.7663     95.3956   1.1959962703e+02   5.4469997198e+01    0.1461218    0.1224568  -1.24 0.0003874338    1.552    0.356
        91 -13.4914      3.3970     74.7992   1.2274658431e+02   6.0406286198e+01     1.025169     0.259148 -74.20  0.003998946    3.009    0.668
        92 -12.1594    248.2719    142.4795   7.3524311041e+01   6.7201593953e+00    0.5003937    0.3413036 -11.30  0.003113137    1.281    0.219
        93  -9.5535    162.4951     80.4827   7.3247714525e+01   3.2916686226e+01    0.1482417    0.1453118 -16.74 3.087332e-05    1.019    0.019
        94 -11.7590    243.5642    245.8150   9.1375792100e+01  -2.6237453280e+00    0.2555509    0.1108148 -27.85  0.001707759    2.605    0.616
        95 -11.2094    198.1591    245.8209   9.8253438824e+01   2.9942435538e+00    0.1982093    0.1052213  30.57  0.001011427    1.371    0.271
