#   1 NUMBER                 Running object number                                     
#   2 MAG_AUTO               Kron-like elliptical aperture magnitude                    [mag]
#   3 X_IMAGE                Object position along x                                    [pixel]
#   4 Y_IMAGE                Object position along y                                    [pixel]
#   5 X_WORLD                Barycenter position along world x axis                     [deg]
#   6 Y_WORLD                Barycenter position along world y axis                     [deg]
#   7 A_WORLD                Profile RMS along major axis (world units)                 [deg]
#   8 B_WORLD                Profile RMS along minor axis (world units)                 [deg]
#   9 THETA_WORLD            Position angle (CCW/world-x)                               [deg]
#  10 FWHM_WORLD             FWHM assuming a gaussian core                              [deg]
#  11 ELONGATION             A_IMAGE/B_IMAGE                                           
#  12 ELLIPTICITY            1 - B_IMAGE/A_IMAGE                                       
         1 -11.8813     21.1338     29.5523   1.1234635697e+02   6.6912790247e+01     1.296753    0.8949824  21.51   0.00909894    1.542    0.352
         2 -11.1697     39.9696      3.2828   9.3456976249e+01   6.8145432878e+01    0.5289801    0.2775912  27.14  0.001837291    1.692    0.409
         3 -11.6051      9.1595      3.4278   1.0714374335e+02   7.1563300717e+01    0.7245372    0.2375433  28.86  0.003913604    3.041    0.671
         4 -11.5025     25.6847      5.5333   1.0044986304e+02   6.9667320558e+01    0.5559248    0.3789079  13.03  0.002628219    1.231    0.188
         5 -10.9026      6.2724     17.6069   1.1448607635e+02   6.9896991455e+01    0.7526124    0.3960145 -18.10  0.004805708    1.746    0.427
         6 -11.6048     30.1616     13.4148   1.0199206183e+02   6.8227968770e+01     1.068712    0.5151998  11.10  0.005464534    2.708    0.631
         7 -10.3840     10.5143     10.3684   1.0953890897e+02   7.0563677305e+01    0.3398552    0.2084014 -11.19 0.0008456163    1.362    0.266
         8 -10.6275     16.7829     10.0334   1.0646529960e+02   7.0044786593e+01    0.2779028    0.1899448  -9.70 0.0003835343    1.125    0.111
         9 -10.1943     75.1327     18.2625   8.7444036867e+01   6.1139038727e+01     0.393288    0.1691426 -20.65  0.001823477    2.667    0.625
        10 -12.1795     68.8829     11.7434   8.6808059992e+01   6.2892830762e+01    0.3531585    0.2337354  34.49 0.0002871122    1.289    0.224
        11  -8.4720    161.0006     10.7011   6.6141661018e+01   4.3370714280e+01    0.1883614    0.1465908  66.51 0.0005191158    1.090    0.083
        12  -9.0726     48.7598      9.9646   9.3035402677e+01   6.6231134614e+01    0.1958146    0.1470648  27.59 0.0006171835    1.236    0.191
        13 -11.0434     81.0210      6.3373   8.0997017493e+01   6.1235165759e+01    0.5120053    0.3207267  49.33  0.001114838    1.438    0.305
        14  -8.6139    144.5639      4.4568   6.6854791912e+01   4.7815454855e+01    0.2960774    0.1482341  36.08  0.001382143    2.392    0.582
        15  -9.4316    248.8629      3.7712   5.5438015585e+01   2.3823178076e+01    0.3665845    0.1315563 -89.30   0.00145542    3.547    0.718
        16  -8.3215     99.3183      3.6407   7.5290228143e+01   5.7878127055e+01    0.1143772   0.09274404 -69.28 0.0007043777    1.761    0.432
        17 -10.7730     20.0275     14.7445   1.0699920006e+02   6.9123828606e+01    0.5842054    0.2973242   1.67  0.003255164    2.374    0.579
        18  -9.3502    157.9827      1.4185   6.4018478839e+01   4.4920990720e+01    0.3123871    0.1051628  68.16  0.001026075    2.484    0.597
        19  -8.9057     56.0991      1.6833   8.6796537544e+01   6.5934676180e+01    0.2120727   0.09697863  51.85  0.001094207    2.508    0.601
        20  -7.8860    249.0370    245.4991   1.0459857969e+02  -1.3833451936e+01    0.1605767   0.09844853  28.23  0.000431525    1.431    0.301
        21  -8.9752    250.0293    250.4360   1.0525866356e+02  -1.4591733624e+01     0.159367    0.1143327  23.50 0.0004290085    1.192    0.161
        22  -8.3641    231.9902    250.7459   1.0851778708e+02  -1.2067873958e+01    0.2432976   0.08827131  38.15 0.0008746444    2.429    0.588
        23  -9.3121    202.5794    250.0343   1.1383995515e+02  -7.4332967801e+00    0.3182168    0.1874758  31.94 0.0008757854    1.477    0.323
        24  -9.1214    198.0047    250.6010   1.1479359763e+02  -6.7764978989e+00    0.2100432    0.1023479  41.01 0.0003251607    1.768    0.434
        25  -8.5891    189.9624    250.0230   1.1623344348e+02  -5.3745514271e+00    0.2520636    0.1472088  19.59  0.001241993    2.126    0.530
        26  -8.6010    183.2159    250.6800   1.1762488724e+02  -4.3551029315e+00    0.1705208   0.09880508  34.12 0.0002932787    1.513    0.339
        27  -8.7941    166.4059    250.0759   1.2077674407e+02  -1.4309871810e+00    0.2304602    0.1565929  55.58  0.001295568    1.531    0.347
        28  -8.4763    150.1801    249.8266   1.2389058706e+02   1.3707885665e+00    0.2639648    0.1483964  35.58 0.0003747433    1.656    0.396
        29  -8.6083    148.0835    245.4358   1.2369455352e+02   2.4778408933e+00    0.2633062     0.217578 -54.99  0.001651129    1.423    0.297
        30 -10.2585    156.9950    246.1505   1.2204632656e+02   8.2312977626e-01    0.4070712    0.3005279   0.71  0.000449268    2.009    0.502
        31  -9.4059    151.9038    244.5881   1.2282424337e+02   1.9658111878e+00    0.2320125    0.2107517 -68.16 0.0003789981    1.285    0.222
        32  -8.5620    136.7217    250.3960   1.2657653358e+02   3.5551796129e+00     0.279044    0.1076722  41.76 0.0008229882    2.174    0.540
        33  -9.8314    140.8025    247.2972   1.2537517485e+02   3.4015504506e+00    0.2843954     0.236108  31.79 0.0003633369    1.252    0.201
        34  -8.3729    108.6493    249.7100   1.3188695614e+02   8.3197163706e+00    0.1586006    0.1516824 -78.18  0.001100321    1.310    0.237
        35  -8.4484     90.1669    249.6880   1.3536622306e+02   1.1230277263e+01    0.3299441    0.1045692  50.88  0.001356054    2.749    0.636
        36  -9.6842     71.7665    250.0174   1.3877721706e+02   1.3897633642e+01    0.3160459    0.1710723  62.45 0.0005273671    1.627    0.385
        37 -10.3182     61.8238    248.9808   1.4047139535e+02   1.5493235458e+01    0.2221887    0.2009888  77.81 0.0004040137    1.335    0.251
        38 -10.5462     47.4556    250.2420   1.4309333841e+02   1.7170497127e+01    0.3474141    0.1533516  40.69  0.001786914    2.165    0.538
        39 -10.1494     16.4684    249.1015   1.4818574142e+02   2.1098689736e+01    0.2185002    0.1955515  61.25 0.0005153774    1.534    0.348
        40  -9.0553      2.4916    249.8538   1.5043221507e+02   2.2442465868e+01    0.2566572    0.1543928 -54.87  0.001663278    2.607    0.616
        41 -10.9875    234.2133    243.2244   1.0685733789e+02  -1.1396400559e+01     0.362792    0.2399676  -4.58 0.0006167991    1.611    0.379
        42  -9.1230    240.6421    239.1131   1.0499367424e+02  -1.1791839228e+01     0.200688    0.1456544  20.13 0.0003738675    1.187    0.158
        43  -9.3383    163.4364    244.4873   1.2054123871e+02  -7.6242305957e-03    0.2270185    0.2156055  58.50 0.0005848036    1.150    0.130
        44  -8.7786    133.7680    245.1452   1.2646663900e+02   4.9789941001e+00    0.1856818     0.153145  65.67 0.0003915282    1.162    0.140
        45  -9.6902    113.9333    244.1339   1.3021610504e+02   8.4886843069e+00    0.2172256    0.1791087 -60.33 0.0003818941    1.417    0.294
        46  -9.8477     81.1395    244.4717   1.3652271513e+02   1.3587919431e+01    0.2154985    0.1871815  63.48 0.0003852529    1.190    0.160
        47  -7.7364     66.6753    245.7373   1.3931283987e+02   1.5441487022e+01    0.0987337   0.09499644  35.22 0.0002722497    1.560    0.359
        48  -9.8219     41.2319    244.5055   1.4373737119e+02   1.9067038462e+01    0.2035996     0.170284  72.42  0.000514967    1.232    0.188
        49  -8.5952    219.7964    243.9992   1.0963382805e+02  -9.3038322059e+00    0.2170787    0.1561918  51.06  0.001278354    1.731    0.422
        50  -8.2118     48.1611    244.0022   1.4248539407e+02   1.8282747340e+01    0.1707831    0.1195524 -55.46 0.0008614863    1.938    0.484
        51  -9.0638     19.7895    243.9502   1.4733385143e+02   2.1713492887e+01    0.1542812    0.1224786  84.69 0.0006242093    1.225    0.183
        52  -8.4732    177.0361    243.0252   1.1765422379e+02  -2.1079434191e+00     0.193792    0.1441746  11.35 0.0005661994    1.588    0.370
        53  -9.9675    170.1905    240.2323   1.1857127002e+02  -4.6686411693e-01    0.3428949     0.288536  31.78   0.00168898    1.082    0.076
        54  -8.7777     88.4254    240.6022   1.3474217620e+02   1.3235086781e+01    0.2617757    0.1294366  66.02  0.001208302    2.316    0.568
        55  -8.5429    210.4119    241.8385   1.1103306289e+02  -7.5032557639e+00    0.1922038    0.1504901  37.90 0.0003844997    1.221    0.181
        56 -10.2981    124.9594    248.5289   1.2861550012e+02   5.8574565482e+00    0.2802764    0.2238598 -73.26 0.0005522872    1.412    0.292
        57 -10.3665    104.2243    241.0047   1.3173422785e+02   1.0664265613e+01    0.3008094    0.2488445 -77.09 0.0007869843    1.283    0.220
        58  -9.6663    214.8465    238.9934   1.0972069373e+02  -7.8000687231e+00    0.2272248    0.1949713 -29.94 0.0004420475    1.307    0.235
        59 -10.5112    201.6007    238.7680   1.1220360267e+02  -5.5981612713e+00    0.7315032    0.4326958 -64.89 0.0009283502    3.945    0.747
        60 -11.3993    207.6425    232.6022   1.1000480600e+02  -5.6559152639e+00    0.9039911    0.4998893  24.52  0.004374968    1.988    0.497
        61 -10.1772    221.9975    225.7278   1.0607031376e+02  -6.9712692984e+00    0.7737665    0.3745819  19.67  0.002176663    3.313    0.698
        62 -10.4490    239.0363    217.7216   1.0146057208e+02  -8.4934269807e+00    0.3751341    0.2315424  32.69 0.0005720842    1.540    0.351
        63  -9.9195    231.9093    203.5106   1.0009061260e+02  -5.1078725977e+00    0.3841651    0.2913949 -27.72 0.0009903094    1.262    0.208
        64  -8.8993    236.3316    202.0194   9.8988516051e+01  -5.6078727287e+00    0.2122575    0.1758511  20.74 0.0004498278    1.147    0.128
        65 -11.3571    227.1414    215.7787   1.0329545650e+02  -6.2742871224e+00    0.7944211    0.6141529  18.47  0.003975255    1.204    0.169
        66 -10.5704    233.6507    210.5403   1.0110699136e+02  -6.5229557834e+00    0.4392062    0.3155539 -16.44  0.001061901    1.391    0.281
        67  -8.1333    155.3800    241.1885   1.2164882700e+02   1.9495458504e+00    0.1537572    0.1252325 -71.31 0.0002799415    1.499    0.333
        68  -9.6934    126.5230    240.5022   1.2728612022e+02   7.0560710390e+00     0.233196    0.2050442  53.30 6.215513e-05    1.076    0.071
        69  -9.9307     69.1312    240.1305   1.3834176641e+02   1.6190084963e+01    0.2073549    0.1768662  61.52 0.0003887007    1.211    0.174
        70  -8.0202     29.4841    235.4005   1.4511555091e+02   2.2284655275e+01    0.1440264   0.09158748 -71.12  0.000617742    1.542    0.351
        71 -10.5836     35.5919    231.9875   1.4378073038e+02   2.2247187512e+01    0.3938541    0.1858875 -71.16  0.001225317    1.921    0.479
        72  -9.2976     35.3983    240.0933   1.4442463368e+02   2.0649821817e+01    0.1970211    0.1522587  64.47 0.0004436444    1.171    0.146
        73  -8.9246     32.4417    237.5168   1.4475197498e+02   2.1514646147e+01    0.1633106    0.1284992  62.06  7.78231e-05    1.227    0.185
        74 -10.3196     25.2792    239.4778   1.4612363797e+02   2.1963208268e+01    0.2131639    0.1798116 -82.09 0.0006501041    1.397    0.284
        75 -10.3508     10.5804    239.1123   1.4855896251e+02   2.3648773318e+01    0.2306005    0.1804989  79.57 0.0004713406    1.188    0.159
        76  -9.4887    135.7976    239.3249   1.2528398789e+02   5.6832935050e+00    0.3666264    0.2216525  61.50   0.00184175    1.813    0.449
        77  -9.2611    118.3357    239.3068   1.2875441823e+02   8.6626325512e+00    0.2187972    0.1797268  62.21 0.0003852728    1.053    0.050
        78  -9.4300     61.9041    239.8150   1.3965127951e+02   1.7267484329e+01    0.1909104    0.1549657  75.46 0.0004108382    1.087    0.080
        79 -10.2040    171.7743    233.5455   1.1721296492e+02   3.8844009034e-01    0.3419286    0.2611929  47.29  0.001659756    1.209    0.173
        80  -8.7356    176.9311    232.9793   1.1609136975e+02  -4.2546530081e-01    0.1953199    0.1731805  32.29 0.0003534399    1.020    0.020
        81  -9.6493    149.3753    238.3267   1.2242955472e+02   3.5007423902e+00    0.2313328    0.2177009  28.62 0.0004225791    1.158    0.137
        82  -9.7569     41.7646    236.9431   1.4306266678e+02   2.0491791317e+01    0.2822064    0.1745678 -84.90  0.001451851    1.409    0.290
        83  -9.4256    220.4860    238.0291   1.0849947772e+02  -8.5594592714e+00    0.2215689    0.1579001  30.96 0.0004365755    1.232    0.188
        84  -8.9441    112.3259    237.4824   1.2971633631e+02   1.0013417027e+01    0.2787783    0.1634579 -55.30 0.0009692177    1.933    0.483
        85  -8.8235     97.6824    237.4624   1.3260030187e+02   1.2400122116e+01    0.2101693    0.1133443 -64.00  0.001077675    1.991    0.498
        86  -7.9836     48.4630    238.5316   1.4198912880e+02   1.9322206050e+01    0.1190546   0.09183255  74.99 9.811205e-05    1.039    0.037
        87  -8.4181    183.8106    237.1784   1.1540457523e+02  -2.3251580071e+00    0.1905779    0.1603912  48.56  0.000610182    1.204    0.169
        88 -10.0608     91.4635    236.3696   1.3369124807e+02   1.3596237302e+01       0.2289    0.1992929  73.61 0.0003990992    1.108    0.098
        89 -11.1670     93.2516    228.5027   1.3243090772e+02   1.4896232844e+01    0.4162024    0.3873753 -74.99  0.001546966    1.283    0.221
        90  -9.7756     78.8119    236.2396   1.3612497446e+02   1.5552553014e+01    0.2280151    0.1822172  64.46 0.0003613226    1.054    0.051
        91  -8.1821    225.0223    236.3281   1.0736354369e+02  -9.0290208171e+00    0.1723286    0.1406039  19.30 0.0004403075    1.048    0.046
        92  -8.5604    129.9675    235.4462   1.2592220676e+02   7.4101672085e+00    0.1775692    0.1622735  67.95 0.0001130947    1.091    0.084
        93  -9.4537      3.4839    235.5775   1.4951848623e+02   2.5065290614e+01    0.1867074    0.1502243 -87.69 0.0007327094    1.325    0.245
        94  -8.2688    238.6840    234.5114   1.0454547910e+02  -1.0869584884e+01    0.1793533    0.1509976 -53.85  0.001144442    1.774    0.436
        95  -9.5242    140.4077    234.9285   1.2374378740e+02   5.6890469592e+00    0.2385585    0.1960348  46.18 0.0004251954    1.067    0.063
        96  -8.3224    119.6197    234.1334   1.2783022554e+02   9.4336913333e+00    0.2550877    0.1244885 -68.77  0.001105317    2.724    0.633
        97  -8.6755     64.8117    234.3028   1.3859688451e+02   1.7966949094e+01    0.1834493    0.1477079  89.86 0.0003209881    1.153    0.133
        98 -10.3230    192.2135    233.2659   1.1311304076e+02  -3.1403170796e+00    0.2520179    0.2378649  15.12 0.0004883624    1.111    0.100
        99  -9.1025    108.5226    233.2323   1.2994417916e+02   1.1470797128e+01    0.2232581    0.1807739  45.17 0.0003940453    1.208    0.172
       100  -8.8631    230.9310    232.9191   1.0567960982e+02  -9.4607825151e+00    0.2007737    0.1651605  35.53 0.0006863907    1.285    0.222
       101  -8.0357    166.2077    232.8283   1.1821746948e+02   1.4995984857e+00    0.1731037    0.1436552  20.41 0.0003272715    1.269    0.212
       102  -8.8755    153.1695    233.0996   1.2089306463e+02   3.7696335578e+00    0.1967891    0.1677814  52.65 0.0004850524    1.077    0.072
       103 -10.0489     10.4903    231.7701   1.4813430725e+02   2.5101496106e+01    0.2257231    0.1680946 -84.02 0.0006837181    1.258    0.205
       104 -10.2028      7.5289    226.4759   1.4831150244e+02   2.6462805059e+01    0.3436913    0.2222524 -66.94  0.001885785    1.640    0.390
       105 -10.2561      1.8697    226.8528   1.4929076624e+02   2.6946398728e+01    0.5607463     0.105545 -72.61  0.002307825    3.908    0.744
       106 -10.2622      7.9011    216.1849   1.4759117115e+02   2.8526035514e+01    0.2723354    0.2305144 -29.69 0.0005391253    2.105    0.525
       107 -10.1259    250.3407    231.6214   1.0195558180e+02  -1.2187788594e+01    0.2086311     0.149561 -27.32  0.000673047    1.354    0.261
       108  -9.5890    123.5171    231.1362   1.2664065449e+02   9.3471009623e+00    0.2359745      0.19341  50.58 0.0003593788    1.079    0.073
       109  -9.8492    100.6336    231.2556   1.3128128657e+02   1.3155850077e+01    0.2557727    0.2303709  27.49 0.0004253054    1.433    0.302
       110  -9.0991     85.0311    231.5443   1.3441321999e+02   1.5558788568e+01     0.216317    0.1698657 -79.85 0.0003511872    1.256    0.204
       111  -9.1278     55.4092    231.2113   1.4007815887e+02   1.9885306027e+01    0.1861151    0.1748527  85.03 0.0005576783    1.388    0.279
       112  -9.3025    133.4479    230.3105   1.2449966385e+02   7.7786275896e+00    0.2386222    0.2086301  85.78 0.0007369592    1.195    0.164
       113  -8.4262    226.2426    230.2622   1.0607978118e+02  -8.3370829176e+00    0.1568273    0.1360144  39.11 0.0004975894    1.311    0.237
       114  -9.1458    159.0038    229.6862   1.1918416126e+02   3.3453399875e+00     0.216566    0.1942967 -30.95 0.0002931388    1.291    0.226
       115  -9.6718    113.9324    229.0994   1.2832001785e+02   1.1383475563e+01    0.3409776    0.2144806  51.42  0.001064345    1.390    0.281
       116  -9.7816     45.0033    229.3835   1.4185566687e+02   2.1616088887e+01    0.2070204    0.1830887 -86.07 0.0003989944    1.325    0.245
       117  -8.7038    144.8773    229.2885   1.2201024773e+02   5.9482166271e+00    0.2362941    0.1723713  28.18  0.001272293    1.503    0.335
       118  -9.1153     79.2156    228.8720   1.3526401229e+02   1.6986043688e+01    0.2075292     0.164524  49.88 0.0003694281    1.244    0.196
       119  -9.0742     29.5936    229.0244   1.4462972999e+02   2.3558490149e+01    0.1682603    0.1549528  62.17  0.000414949    1.456    0.313
       120 -10.4836    236.3761    226.6114   1.0356337983e+02  -9.3929121552e+00    0.2713619    0.2399208  14.13  0.001103598    1.139    0.122
       121  -8.5934    153.0004    228.0721   1.2016004876e+02   4.7192435227e+00    0.1995187    0.1772908  48.96 0.0003605395    1.018    0.018
       122  -8.4274    107.2150    228.4944   1.2960876302e+02   1.2630203374e+01    0.1867298    0.1161504  45.12 0.0006408395    1.434    0.303
       123  -8.8878     60.0960    227.7346   1.3886406589e+02   1.9966237947e+01     0.444259    0.1006647  46.13  0.001674874    3.481    0.713
       124 -10.1251     19.5252    226.8978   1.4626186095e+02   2.5122428838e+01    0.2389339    0.1764076 -86.37 0.0005778971    1.183    0.154
       125  -8.5839    185.1836    226.3111   1.1333877513e+02  -7.5176368060e-01    0.2022728    0.1718682 -22.99 0.0003390202    1.287    0.223
       126  -8.6517    175.5777    227.2372   1.1542602089e+02   8.0458769971e-01    0.2204726    0.1650258  38.64 0.0003865008    1.186    0.157
       127  -7.8355    139.2049    227.3783   1.2289191231e+02   7.3214804939e+00    0.1219977    0.1019774 -23.57 0.0005223069    1.583    0.368
       128  -9.6902    229.3846    225.8361   1.0470959362e+02  -8.1799267468e+00    0.2166548    0.1860932   5.67 0.0004190751    1.025    0.025
       129  -9.7487    200.2024    225.2315   1.1017524470e+02  -3.2133597337e+00    0.2210374    0.1990744  10.05 0.0003545513    1.055    0.052
       130  -8.7448    160.1748    218.1890   1.1709156354e+02   5.2618443195e+00    0.2477043    0.2156208  84.41 0.0003002995    1.322    0.244
       131  -9.0757    163.2310    225.2267   1.1761152863e+02   3.3930166098e+00    0.2366353    0.2028912 -60.98 0.0009708158    1.342    0.255
       132  -9.6194    160.4619    222.5010   1.1773999450e+02   4.3995435426e+00    0.3081787     0.266396  14.53  0.001801628    1.288    0.224
       133  -9.0757    191.6165    224.2643   1.1170430705e+02  -1.5458873878e+00    0.2277018    0.1958829  12.93 0.0004531341    1.138    0.121
       134  -8.7324    120.9495    225.0013   1.2632340773e+02   1.0999520579e+01    0.1948227    0.1724085  62.58 0.0003118452    1.032    0.031
       135 -10.5323    248.9870    223.1235   1.0066679372e+02  -1.0806324855e+01    0.2763163    0.2390964 -23.96  0.000484516    1.259    0.206
       136  -9.2438    216.8330    220.8800   1.0617941809e+02  -5.3587734696e+00    0.2645428    0.2086416  13.35 0.0003403946    1.203    0.169
       137 -11.2622    203.6215    217.0420   1.0804794249e+02  -2.4512319091e+00    0.5995761    0.3476172 -51.58  0.001697997    2.173    0.540
       138  -8.1263    170.7516    223.9807   1.1586784612e+02   2.2532782686e+00    0.1720002    0.1663006  26.72   0.00107518    1.088    0.081
       139  -8.1063    155.9311    223.9245   1.1890575855e+02   4.9603940859e+00    0.1896562    0.1705389  18.40 0.0003007611    1.211    0.174
       140  -9.8012    129.8249    223.8099   1.2431112971e+02   9.6821826023e+00    0.2159961    0.1980109  49.87 0.0003068177    1.104    0.094
       141  -8.4359    104.4809    223.9794   1.2958702623e+02   1.4001234328e+01     0.194557    0.1570731  56.98 0.0003763157    1.083    0.076
       142 -10.0309     50.3773    221.6343   1.4015290291e+02   2.2540453200e+01    0.3350422    0.2813899 -56.68  0.001140816    1.567    0.362
       143 -10.2211     48.7659    217.5075   1.4007791304e+02   2.3624886986e+01    0.4464062    0.3261221  88.43  0.002860867    1.138    0.121
       144  -8.3783    135.9857    223.3322   1.2295746830e+02   8.6799447894e+00    0.1959179     0.155606  48.42 0.0008389362    1.115    0.103
       145  -8.8800     83.0288    223.0652   1.3385256354e+02   1.7614272974e+01    0.1891804     0.160585  72.22  0.000332886    1.053    0.050
       146  -8.6599     75.2807    222.8184   1.3538220892e+02   1.8831138680e+01    0.1903436    0.1430226  74.29 0.0005214876    1.144    0.126
       147  -8.8200    175.0309    221.4211   1.1456442233e+02   1.9347161414e+00    0.2444701    0.2143103 -89.82 0.0007599621    1.416    0.294
       148  -8.5555    115.3335    221.8604   1.2705445202e+02   1.2603243562e+01    0.1763735    0.1581711  88.31 0.0003632033    1.118    0.105
       149  -8.7454     97.8701    222.0343   1.3069916540e+02   1.5488419081e+01    0.1919344    0.1695162  71.49 0.0003854551    1.074    0.069
       150  -9.6310     15.8447    221.4210   1.4653413797e+02   2.6637050336e+01    0.2047196    0.1801415 -67.31 0.0006547215    1.540    0.351
       151  -8.7725    186.0627    220.2433   1.1212044932e+02   1.3980380035e-01    0.2041297     0.190016 -22.42 0.0003864857    1.153    0.133
       152  -8.1139    181.1136    221.1310   1.1327592294e+02   8.7992496353e-01    0.1961885    0.1692704   7.57 0.0004558639    1.224    0.183
       153  -8.5242    141.1945    220.5327   1.2144267691e+02   8.2904297243e+00    0.1904442    0.1785862  84.68 0.0006774289    1.114    0.102
       154  -8.3640     68.2253    221.0867   1.3660283882e+02   2.0222182380e+01    0.1731524     0.154572 -86.88  0.000539593    1.226    0.184
       155  -9.0371     59.9160    220.8813   1.3822520485e+02   2.1427773317e+01    0.1932901    0.1550669 -86.07 0.0004517022    1.147    0.128
       156  -9.5930     40.3674    220.8353   1.4199021388e+02   2.3971927131e+01    0.2014233    0.1701195  88.50 0.0004263228    1.198    0.165
       157  -8.1683    109.0886    219.6449   1.2805537095e+02   1.4124453430e+01    0.1835525    0.1503378  55.27 0.0002800153    1.089    0.082
       158  -7.9106     87.9833    220.4828   1.3253916456e+02   1.7390826489e+01    0.1865204    0.1176643  44.55 0.0004243117    1.481    0.325
       159  -8.6285    109.9232    224.2587   1.2850200486e+02   1.3034529461e+01     0.206361    0.1541805  63.55 0.0005579003    1.220    0.180
       160  -8.2359    104.3819    219.1968   1.2897944516e+02   1.5008657484e+01    0.1720067    0.1207675 -80.10 0.0003069631    1.512    0.339
       161  -8.4273    136.9520    218.4609   1.2201573165e+02   9.4691417437e+00    0.2020108    0.1249911  41.67 0.0003408268    1.478    0.323
       162  -8.4739    120.0656    217.6804   1.2546941732e+02   1.2639773789e+01    0.1892017    0.1557138  49.28  0.000332768    1.120    0.107
       163  -8.1992     92.7522    222.0098   1.3174779371e+02   1.6316901978e+01    0.1753901    0.1490619  86.59 0.0003497614    1.101    0.092
       164  -9.9859    194.5520    216.8005   1.0980524284e+02  -7.9270516388e-01    0.2706235    0.2233839  19.22 0.0004489744    1.174    0.148
       165  -8.4198     72.3744    217.1639   1.3533987609e+02   2.0459954143e+01    0.1827239    0.1462126 -63.01 0.0005000057    1.392    0.282
       166  -9.1902     56.1069    216.6290   1.3854979518e+02   2.2850920800e+01    0.2434313     0.144243 -72.53 0.0006889908    1.556    0.357
       167  -8.5293     21.8325    216.8627   1.4512348581e+02   2.6946155725e+01    0.1615119    0.1309802 -83.57 0.0005016314    1.243    0.195
       168  -7.9442    180.2396    216.3817   1.1263030877e+02   1.8891103234e+00    0.1880617    0.1205224  47.22 0.0004878179    1.498    0.332
       169  -7.9540    124.8375    215.8582   1.2418936868e+02   1.2172758355e+01    0.1862815    0.1443949  68.48  0.001015901    1.283    0.220
       170  -8.2369     91.0237    216.5040   1.3141937267e+02   1.7755718903e+01    0.1880158     0.120309  44.33 0.0004052393    1.471    0.320
       171  -9.2654     83.1251    215.8270   1.3297748482e+02   1.9136210135e+01     0.207677    0.1960965  44.02 0.0002612746    1.335    0.251
       172  -8.8997    171.9345    214.4396   1.1400470839e+02   3.7839914384e+00    0.2224742    0.1986234 -29.35  0.001300836    1.228    0.186
       173  -8.5168    144.0478    215.0001   1.1996793275e+02   8.8625515943e+00    0.2043766    0.1866709  48.72 0.0003895088    1.042    0.040
       174  -7.8411    101.4215    215.4469   1.2909988160e+02   1.6291535157e+01    0.1391392    0.1131736  71.32            0    1.101    0.092
       175  -9.9832    248.7218    212.8182   9.8811729462e+01  -9.2658433061e+00    0.3107531    0.2074238 -16.62  0.001291916    1.474    0.322
       176  -8.6827    132.8121    213.8658   1.2218423101e+02   1.1148372651e+01    0.1908882    0.1820738  36.70 0.0003243895    1.162    0.139
       177  -8.6104    117.8931    212.9193   1.2523712383e+02   1.4012029030e+01    0.1908884    0.1836267  36.43  0.000285382    1.223    0.182
       178  -8.2652    111.8019    213.4086   1.2661207121e+02   1.4968493874e+01    0.1791223    0.1262176  34.12 0.0003433193    1.557    0.358
       179  -8.2224     74.7760    212.9454   1.3436417159e+02   2.1018732878e+01    0.1758336    0.1454321  83.25            0    1.044    0.042
       180  -8.8303     41.9162    212.9238   1.4098651227e+02   2.5468649835e+01    0.1795402    0.1455705  84.15  0.000367801    1.078    0.072
       181  -9.0377     98.8648    211.6246   1.2912689098e+02   1.7533158160e+01    0.2157397    0.2105265 -12.28 0.0007075772    1.360    0.265
       182  -9.1163     24.9930    211.1991   1.4409300684e+02   2.7801648876e+01    0.2360636    0.1630155  83.35 0.0008929503    1.131    0.116
       183  -9.9715     17.1735    210.5430   1.4550867476e+02   2.8773494818e+01    0.4231819    0.1911902 -88.70  0.001397468    2.005    0.501
       184  -8.3887    125.1440    211.1933   1.2341834664e+02   1.3086529603e+01    0.1955104    0.1754424  43.74 0.0002720572    1.147    0.128
       185 -11.0350    212.0745    217.3924   1.0646146892e+02  -3.9850772628e+00    0.5907242    0.5255246  22.91  0.002624991    1.064    0.060
       186  -7.8699    141.4334    210.4685   1.1979277064e+02   1.0259179768e+01    0.1395944    0.1289588  51.21 0.0002361536    1.044    0.043
       187  -8.3312    107.2509    210.1620   1.2712504722e+02   1.6441560001e+01     0.187198    0.1806897  58.82 0.0005922889    1.202    0.168
       188 -10.1845     67.3193    208.1532   1.3535791482e+02   2.3150785544e+01    0.3049638    0.2280977 -75.56 0.0009147929    1.244    0.196
       189  -8.9285     72.2526    208.3562   1.3434978025e+02   2.2395040124e+01    0.2716407    0.1498607  52.40 0.0007738711    1.668    0.400
       190 -10.1140    194.0042    208.5909   1.0842174976e+02   7.5380699991e-01    0.2749317    0.2263089 -53.13 0.0006048817    1.407    0.289
       191  -7.9018    161.8555    209.5809   1.1527616244e+02   6.6035638505e+00    0.1895129    0.1242999  51.94 0.0005015225    1.508    0.337
       192  -8.5754     93.8039    209.1635   1.2987734754e+02   1.8894963355e+01    0.1654624    0.1605442 -52.27 0.0003740643    1.319    0.242
       193  -8.0640    149.6402    208.1178   1.1763536521e+02   9.2011224868e+00    0.1760895    0.1320415 -38.15 0.0001264868    1.551    0.355
       194 -10.3148    187.2014    212.1446   1.1045348405e+02   1.3708188767e+00    0.4358449    0.2226691 -31.90  0.001268991    2.497    0.600
       195  -8.6526    114.9819    207.7100   1.2509188430e+02   1.5631072021e+01    0.1939154    0.1612978  55.87 0.0002095664    1.092    0.084
       196  -8.7131     79.0102    208.2237   1.3290912572e+02   2.1419701863e+01    0.1822362    0.1721235 -87.47 0.0004938006    1.241    0.194
       197 -10.0686    206.8751    205.8856   1.0534127784e+02  -1.1218716649e+00    0.2908966    0.2713879  20.06 0.0003527565    1.066    0.062
       198 -10.2412    199.7426    201.5537   1.0593967695e+02   9.5712037359e-01    0.2800301     0.249164  -0.50 0.0001356329    1.116    0.104
       199  -9.6258    206.1109    200.9686   1.0455436384e+02  -1.1694848628e-01    0.3487193    0.2746895  23.90  0.001042836    1.247    0.198
       200 -10.7711    211.3963    199.3434   1.0319756490e+02  -7.9759791321e-01    0.4348161    0.3059341  30.56  0.001051393    1.397    0.284
       201 -12.6169    206.4243    194.9062   1.0331287022e+02   9.1373668143e-01     1.154098    0.6840925  29.88  0.005324251    1.822    0.451
       202  -9.4295    124.0200    206.0135   1.2285840839e+02   1.4384028940e+01    0.2027074    0.1812971  63.64            0    1.007    0.007
       203  -8.2068     39.3221    206.0484   1.4085698942e+02   2.7278594653e+01    0.1691192    0.1255509 -87.85 0.0003499168    1.104    0.094
       204  -9.5175    247.1579    204.7452   9.7561553455e+01  -7.7973844790e+00    0.2233123    0.1781233 -25.05 0.0003774152    1.164    0.141
       205 -10.1059    222.4159    204.0895   1.0198503040e+02  -3.5761057544e+00    0.7086375    0.3136443  52.33  0.002703001    3.250    0.692
       206  -9.4411    184.1992    206.5455   1.1004921146e+02   2.9561160046e+00     0.285174    0.1639971  30.10 0.0009929107    1.893    0.472
       207  -7.7787    104.2596    205.6923   1.2713212055e+02   1.7920526363e+01    0.1386046   0.09749324  76.71 0.0001921514    1.523    0.343
       208 -10.0190      7.4371    203.7160   1.4681904237e+02   3.1189811640e+01      0.21174    0.1895332 -68.31 0.0006681546    1.473    0.321
       209  -7.9631    141.0360    203.9639   1.1879909761e+02   1.1674675077e+01    0.1650933    0.1558489  74.35  0.000952988    1.052    0.049
       210  -9.4407     94.2297    203.5546   1.2901933592e+02   2.0061357525e+01    0.2661291    0.1973343  57.82  0.001465179    1.234    0.189
       211  -8.6671     98.8592    202.0002   1.2778384069e+02   1.9643642131e+01    0.2244042    0.2017581  35.91 0.0006024484    1.303    0.232
       212  -9.5795    179.3026    202.1738   1.1025903350e+02   4.7113277191e+00    0.3111402    0.2523055 -83.24  0.001329757    1.648    0.393
       213  -8.0886     56.9399    202.7335   1.3691414137e+02   2.5786216069e+01    0.1733765    0.1419221  70.33 0.0004033765    1.090    0.083
       214  -7.8363     43.4606    203.5219   1.3977830260e+02   2.7334908982e+01    0.1250851    0.1011353  86.71 0.0001671884    1.049    0.047
       215  -8.6738     21.3376    202.5958   1.4409130715e+02   3.0047707317e+01    0.2029102    0.1392491  42.82  0.001150141    1.595    0.373
       216  -8.1890     16.7004    201.3680   1.4488787484e+02   3.0790318938e+01    0.1322448    0.1117661  33.46 0.0009369364    1.618    0.382
       217  -8.4050     47.9162    206.3385   1.3915567030e+02   2.6158088447e+01    0.1656188    0.1368769  67.02 0.0004014875    1.145    0.127
       218  -7.7256    110.5028    202.4968   1.2528805739e+02   1.7547944322e+01    0.1402157    0.1272826  70.58 -3.314948e-05    1.040    0.038
       219 -10.3715     81.2063    200.7951   1.3148871614e+02   2.2740783114e+01    0.3368865     0.250141  64.64 0.0008258627    1.235    0.190
       220 -10.3462     68.6924    200.6708   1.3418191403e+02   2.4624365037e+01    0.4140325    0.2931381  50.19   0.00237067    1.351    0.260
       221 -11.1388     64.0612    195.6643   1.3457185064e+02   2.6412987494e+01    0.5076434    0.3570322  65.66  0.001229081    1.321    0.243
       222  -8.9970    223.9788    200.6929   1.0103319932e+02  -3.2786909494e+00    0.1882938    0.1643217  18.01 0.0003545813    1.076    0.070
       223  -9.7874    194.1986    200.7386   1.0690743612e+02   2.1455398360e+00    0.2511326    0.1758157 -11.89 0.0007925254    1.871    0.465
       224  -9.1478    132.5238    199.7958   1.1997255376e+02   1.4153221533e+01    0.3651046    0.2356853 -31.26 0.0008599898    2.294    0.564
       225  -7.7957     34.5036    201.5582   1.4139961982e+02   2.8831597897e+01    0.1230265   0.09751118  86.10 0.0002607264    1.035    0.034
       226  -9.5594    250.3592    199.2869   9.5947248069e+01  -7.4567348066e+00    0.2121394     0.156165 -30.75  0.001007496    1.259    0.205
       227  -9.3703    243.3413    198.4603   9.7029506224e+01  -6.1945069952e+00     0.227396    0.1955165  -9.25 0.0009692841    1.020    0.020
       228  -8.5032    139.9981    198.0140   1.1800896090e+02   1.3125459836e+01     0.356715     0.250926  -3.84  3.21847e-05    2.617    0.618
       229  -7.5447    103.9627    199.0137   1.2621368366e+02   1.9448513014e+01    0.1653443    0.1463371  75.28 0.0003643307    1.004    0.004
       230  -8.2366     42.3204    199.3869   1.3959653367e+02   2.8393537426e+01    0.1684441    0.1330693 -50.16 0.0005853608    1.632    0.387
       231  -8.4651    230.9906    198.0087   9.9194412829e+01  -4.0458211881e+00    0.1993599    0.1741498  -5.38 0.0003719502    1.036    0.035
       232  -8.5040     21.8046    197.6801   1.4358579382e+02   3.1073805335e+01     0.151623    0.1429808 -82.53 0.0006490408    1.391    0.281
       233  -7.4470    150.6938    197.3051   1.1551924086e+02   1.1221839405e+01    0.1465711    0.1111921  76.06 0.0002436396    1.604    0.377
       234  -8.4285     89.7685    197.2760   1.2912230559e+02   2.2192332688e+01    0.1693473     0.163129 -40.06 0.0005844745    1.332    0.249
       235  -9.2623    238.0438    196.0406   9.7512517370e+01  -4.9221223617e+00    0.1960969     0.171789  -3.57 0.0003256462    1.015    0.015
       236  -8.9704    113.9993    195.0109   1.2333688315e+02   1.8591193418e+01    0.2149739    0.1937411  73.93 0.0003101216    1.006    0.006
       237  -8.3573    120.0869    206.7753   1.2383679641e+02   1.4927689875e+01     0.193697    0.1681779  56.24 0.0003855227    1.059    0.056
       238  -8.1288     74.8473    194.3702   1.3203897408e+02   2.5159802740e+01    0.1666313     0.127685  32.07  0.000399237    1.578    0.366
       239  -8.9108    226.3107    192.4429   9.8973077396e+01  -2.2849015497e+00    0.2219584    0.1658612 -56.85 0.0004300285    1.728    0.421
       240 -10.1255    190.2763    191.4370   1.0591110859e+02   4.6501950533e+00    0.2645126     0.216971 -65.03 0.0008276373    1.478    0.323
       241  -8.3958     27.2268    192.3857   1.4201797685e+02   3.1677651603e+01    0.1536034   0.09712853  54.90 0.0002472688    1.506    0.336
       242  -7.8702      9.4284    190.5392   1.4544067565e+02   3.3853803430e+01    0.1175232   0.08829548 -87.95 7.108761e-05    1.045    0.043
       243  -9.7161    154.3676    188.1520   1.1301593773e+02   1.2431885549e+01    0.4534979    0.3179372  70.34  0.002061228    1.822    0.451
       244  -8.9874     94.5427    189.0090   1.2682808206e+02   2.3305958392e+01    0.2652247    0.1756989  58.51 0.0005369226    1.493    0.330
       245  -7.5931     14.5028    189.4262   1.4433804896e+02   3.3623230137e+01    0.1197023   0.09053238  87.34 0.0001394688    1.015    0.014
       246 -10.0996    222.4133    187.9005   9.8802325383e+01  -7.9055229805e-01     0.323294    0.1911579  48.27            0    1.851    0.460
       247  -8.0845      1.3568    187.8636   1.4681727780e+02   3.5152731833e+01    0.1581062   0.07931721 -69.42  0.000379949    1.621    0.383
       248 -10.2616    231.9358    185.5096   9.6534960369e+01  -2.0901236045e+00    0.3710922    0.2888888  16.28  0.001189456    1.339    0.253
       249  -9.8865    229.5082    182.5022   9.6374063484e+01  -1.1304423172e+00    0.2624179     0.222858 -18.28 0.0007117193    1.109    0.099
       250  -9.9918    233.0112    181.4851   9.5520258017e+01  -1.5840975093e+00    0.4382127    0.2558691  45.81  0.001693831    1.843    0.457
       251  -8.1433     29.1586    201.8493   1.4249330208e+02   2.9369609781e+01    0.1557201    0.1216679 -70.57 0.0004096499    1.308    0.236
       252  -8.1485    127.2703    206.3252   1.2219687364e+02   1.3728027673e+01    0.2045857    0.1927765  47.16  0.000475421    1.129    0.114
       253  -9.8749    224.5014    182.9210   9.7396995009e+01  -2.9029128789e-01    0.2054754    0.1961432 -76.65 0.0006749069    1.285    0.222
       254  -9.7167     28.7255    179.6521   1.4044438248e+02   3.4403173185e+01     0.400601     0.192176  41.35  0.002097942    2.143    0.533
       255  -8.8469      8.3041    182.9905   1.4504848430e+02   3.5620459380e+01    0.1666744    0.1192495 -83.28 0.0004527107    1.079    0.073
       256 -10.3183    117.4237    179.2542   1.1986866813e+02   2.1554267493e+01    0.6104414    0.3957859  59.25  0.002790399    1.644    0.392
       257  -7.6965     68.7006    183.6858   1.3198745655e+02   2.8530037129e+01    0.1274752    0.1026466 -40.38 0.0002179559    1.609    0.378
       258  -8.0958     43.3906    179.8038   1.3722895556e+02   3.2735435984e+01    0.1837251    0.1004137 -61.75 0.0009459991    1.647    0.393
       259  -9.6737     32.0489    182.4827   1.4002060939e+02   3.3400864558e+01    0.2050638    0.1683626  13.86  0.001307024    1.806    0.446
       260  -8.9828     10.3395    176.8858   1.4410120200e+02   3.6802344483e+01    0.2401834   0.09061527 -82.06  0.001083358    2.437    0.590
       261  -8.3478    100.7771    175.9825   1.2325857431e+02   2.5294654420e+01    0.1948574    0.1701804 -84.43  0.001071709    1.075    0.069
       262  -8.6561      8.8721    172.4503   1.4401159766e+02   3.7926700118e+01    0.1901619    0.1336008 -66.43 0.0004990695    1.296    0.228
       263  -9.6239     40.8148    171.8455   1.3686054745e+02   3.4892930874e+01     0.228489    0.1876063 -85.84 0.0007517127    1.007    0.007
       264  -7.3434     55.3286    169.3341   1.3313463644e+02   3.3731981043e+01    0.1323707   0.09704981 -40.64 0.0007051912    1.722    0.419
       265 -10.4973    186.0324    166.0877   1.0157353756e+02   1.0571408908e+01    0.4826152    0.3504875  32.10  0.001509945    1.481    0.325
       266  -9.4791    148.7114    166.5719   1.1002078555e+02   1.8303953508e+01    0.3137762    0.2597703 -76.38  0.001550976    1.337    0.252
       267 -10.2123      6.5281    163.5241   1.4368910795e+02   4.0136006479e+01    0.3801577    0.2301248 -58.59   0.00144589    1.549    0.354
       268  -8.7554    192.9894    164.3673   9.9737543959e+01   9.4654622079e+00    0.2185249    0.1952101  43.31  0.001156966    1.127    0.113
       269 -10.3850    217.5390    161.4350   9.4202370409e+01   5.0089335220e+00    0.7207432    0.3664538  50.52   0.00299692    2.164    0.538
       270  -9.0625    172.9559    158.5152   1.0275916747e+02   1.4945594939e+01    0.2400645    0.1510146  45.51 0.0009020595    1.584    0.369
       271  -8.3201    100.4803    157.0258   1.1989326328e+02   2.9865045459e+01    0.2109676    0.1181296 -36.64 0.0008095256    2.478    0.597
       272  -8.3315    228.9574    156.2293   9.0951416329e+01   3.7282541521e+00    0.1913039    0.1818998  12.67 0.0004392905    1.088    0.081
       273  -9.3648    123.4659    155.7172   1.1384363183e+02   2.5907081119e+01    0.2943487    0.2771309  67.56 0.0008930735    1.045    0.043
       274  -9.4498     84.3745    154.9725   1.2362336119e+02   3.3043581309e+01    0.3078746    0.2660306  64.95  0.001509067    1.165    0.142
       275  -8.9365     40.4642    162.4949   1.3576285304e+02   3.7135289550e+01    0.2030392    0.1327164  11.40  0.001036899    2.454    0.592
       276  -9.5159    245.2540    150.0779   8.6787942892e+01   1.7283505573e+00    0.3143733    0.2053008  43.02  0.001061554    1.690    0.408
       277 -11.3894     84.4336    146.2491   1.2197376280e+02   3.5142927286e+01    0.5872766    0.5488675  29.49  0.002046759    1.224    0.183
       278  -9.4099     26.9734    148.5421   1.3722857311e+02   4.1813744091e+01    0.2519387    0.1396507 -57.11 0.0009206292    1.574    0.365
       279  -8.4874    134.0266    148.2829   1.0962065798e+02   2.5521523830e+01    0.2222976    0.2057993  60.00 0.0006259105    1.074    0.069
       280  -9.2220     11.9418    146.2570   1.4063016688e+02   4.3646538672e+01    0.2531408    0.1947287  56.26  0.001131688    1.429    0.300
       281  -7.9619    236.0336    145.9570   8.7467551933e+01   4.2379994195e+00    0.1717304    0.1521685 -36.49 0.0007911497    1.033    0.031
       282  -9.7842     48.4910    143.5861   1.3100972115e+02   4.0726793087e+01    0.3710249    0.2758135  35.95  0.001744752    1.541    0.351
       283  -9.5991    217.0644    156.9472   9.3316374674e+01   5.9606169814e+00    0.2787525    0.2469427  15.50  0.001217782    1.202    0.168
       284  -7.5219    150.6597    141.6808   1.0406681302e+02   2.3500557029e+01    0.1603311    0.1277919  -0.08 0.0007049651    1.714    0.417
       285  -8.8054    224.9189    139.0638   8.7899142609e+01   7.7620727307e+00    0.2834987    0.2419788 -25.94  0.001050014    1.184    0.156
       286 -10.0076     98.6602    138.0764   1.1651104897e+02   3.4730365730e+01    0.3958312    0.3782683  62.80  0.001346113    1.084    0.078
       287 -10.3891    244.9645    133.8250   8.3334775831e+01   4.6967122050e+00     0.423408    0.2876331  86.30  0.001559458    2.428    0.588
       288  -9.6126     42.3202    134.3070   1.3114772630e+02   4.3627195075e+01    0.2913271    0.2225382 -71.30 0.0008092844    1.134    0.119
       289  -7.9565    234.3833    133.1812   8.4939375947e+01   6.9209079636e+00    0.1998735    0.1230585 -48.77 0.0004432945    1.567    0.362
       290  -8.3458    173.4568    129.7576   9.5966542114e+01   2.1003421176e+01     0.218084    0.1507499 -30.44 0.0009322889    1.649    0.394
       291  -9.4005    242.3053    125.9553   8.2040840797e+01   6.6410763259e+00    0.2064398    0.1675523 -39.43 0.0006082293    1.121    0.108
       292  -8.0761    222.9865    126.4914   8.5394447882e+01   1.0551285496e+01    0.1906753     0.129547  85.90 -0.000131839    2.253    0.556
       293  -8.7258    150.5495    123.5063   9.9693997924e+01   2.7563499529e+01    0.1565417    0.1532069 -72.48 0.0001492958    1.009    0.009
       294  -8.0787    165.4995    120.5336   9.5460100488e+01   2.4790141852e+01    0.1566963    0.1530047 -81.00 0.0001736802    1.003    0.003
       295 -10.6895    100.7747    116.8908   1.1104433337e+02   3.9315634400e+01     0.530574    0.3758571 -48.05 0.0007574018    1.345    0.257
       296 -10.7218     18.1853    115.4181   1.3479494938e+02   5.0232457916e+01    0.4106658    0.2578156 -71.00 0.0009766917    1.356    0.262
       297  -7.8578    249.7177    117.6964   7.9091081381e+01   6.6371558189e+00    0.1307044    0.1069002  -7.07 0.0003174043    1.554    0.357
       298  -8.6765    231.7911    116.5546   8.1638608262e+01   1.0524892418e+01    0.2510389    0.1804076  65.26  0.001252601    1.575    0.365
       299  -9.7857    129.5120    110.4700   1.0159853792e+02   3.5038994164e+01    0.2969239    0.2560544 -88.08  0.001138639    1.327    0.246
       300  -9.0416     33.8352    109.7366   1.2921429200e+02   5.0191829773e+01    0.2694334    0.1868225 -41.82 0.0009533304    1.373    0.272
       301  -8.6874    237.2997    106.3483   7.8463478136e+01   1.1200893792e+01    0.1384385    0.1126635  -1.59 0.0007037197    1.686    0.407
       302  -8.4487    145.0153    106.4723   9.6627311929e+01   3.2464766140e+01    0.2444225    0.1530531  47.03  0.001033009    1.601    0.375
       303  -9.4503    250.5068    103.4108   7.5875835768e+01   8.9738525551e+00    0.2924263    0.1227864 -39.47  0.001199747    2.127    0.530
       304 -10.4752      8.0551     99.3621   1.3514658816e+02   5.4506133250e+01    0.3300668    0.2602863 -45.05  0.001205447    1.179    0.152
       305  -8.3231    141.6988     98.3330   9.5236072528e+01   3.4894170791e+01    0.1579257    0.1224175 -80.98 0.0003304881    1.654    0.395
       306  -8.2621     72.4902     97.9839   1.1463678073e+02   4.8201955123e+01     0.194185    0.1048118 -32.13 0.0004503266    2.264    0.558
       307 -11.3878    242.7170     95.9045   7.5333617597e+01   1.1884047407e+01    0.4562962    0.3223903 -48.20  0.002416822    1.259    0.205
       308  -9.9916    237.5780     95.1242   7.5899961884e+01   1.3116837823e+01    0.3140301    0.2655485  25.98   0.00122669    1.569    0.363
       309  -8.6790    114.4556     95.6887   1.0161692371e+02   4.1317714214e+01    0.3362623    0.2230854   7.34  0.001324325    2.549    0.608
       310  -8.3766     54.4782     95.8668   1.1978795886e+02   5.1076676086e+01    0.2021259    0.1171207 -53.59 0.0004675892    1.521    0.342
       311  -9.2006      2.0257     94.5580   1.3618602162e+02   5.5898100154e+01     0.220043     0.166754 -63.18  0.001538518    1.060    0.056
       312  -8.7059    158.1707     91.2027   8.9401464760e+01   3.2459771164e+01    0.2237294     0.209363  30.08 0.0005024115    1.143    0.125
       313  -9.7030     17.1711     89.6619   1.3049516345e+02   5.5993338898e+01    0.5142787    0.2286796 -32.36   0.00242316    2.671    0.626
       314  -8.7133     16.4861     85.9615   1.2996668294e+02   5.6827942336e+01    0.2890964    0.1598098 -52.75  0.001130805    1.393    0.282
       315 -10.3417    237.5915     89.3853   7.4609672434e+01   1.4102254303e+01    0.3850134     0.244387  58.97  0.001916579    1.678    0.404
       316 -12.1354    242.8596     83.5258   7.2579377684e+01   1.3952153837e+01    0.8250737    0.4315808 -49.61  0.003812252    1.739    0.425
       317 -12.4080    246.6419     75.2743   7.0286393137e+01   1.4493476239e+01     1.018527    0.5237694 -38.83  0.004773237    1.823    0.451
       318  -8.7764     33.9427     89.0382   1.2485724428e+02   5.4749397186e+01    0.1910269    0.1567104 -46.40 0.0004050654    1.007    0.007
       319  -9.8985    154.8056     82.2370   8.7668122686e+01   3.4939464804e+01    0.3649878    0.3378908   9.20  0.001295453    1.207    0.172
       320  -9.8525    156.7107     78.0418   8.6067562589e+01   3.5239126647e+01    0.3434225    0.2882874  20.02 0.0006152843    1.416    0.294
       321 -10.2935    220.6080     79.7909   7.4884504044e+01   1.9543680698e+01     0.350385    0.2900595 -86.84 0.0004884707    1.193    0.162
       322 -12.5336     79.9986     76.0094   1.0611851809e+02   5.1566234813e+01    0.3555638    0.3355061 -39.11 0.0003724503    1.135    0.119
       323  -8.0923    184.4898     77.5418   8.0343843314e+01   2.8564560056e+01    0.1481353    0.1416159  81.27 0.0001663199    1.045    0.044
       324 -11.0595    115.8175     74.3297   9.4983329269e+01   4.5189305561e+01    0.4805461    0.4061561  74.94  0.001853173    1.442    0.307
       325 -12.2525     22.2432     74.5568   1.2544917148e+02   5.8760974538e+01    0.4010071     0.376291   0.14  0.002974157    1.258    0.205
       326  -9.7623     45.1430     75.3061   1.1759980887e+02   5.6456994047e+01    0.2799654    0.2443084 -76.88  0.001007712    1.469    0.319
       327 -11.1088    239.2152     73.0380   7.0744533263e+01   1.6462190600e+01    0.3829641    0.2741158  36.56  0.001951116    2.013    0.503
       328 -11.2000    227.2683     70.7753   7.1830023200e+01   1.9502439700e+01    0.5004829    0.3551631 -77.15 0.0006583208    1.484    0.326
       329  -8.9627      9.1853     72.5683   1.2959392528e+02   6.0071120114e+01    0.3616659    0.1138679 -41.86  0.001642067    2.652    0.623
       330  -8.3940    101.8623     73.1789   9.8563449265e+01   4.8208067471e+01    0.2001261     0.164234  -2.67 0.0007556823    1.324    0.245
       331  -8.2081     46.8460     69.3969   1.1533613948e+02   5.7426159500e+01     0.163832    0.1132569   5.76  0.000370286    1.635    0.388
       332 -10.7471    143.8520     64.0118   8.4866107231e+01   4.0686877434e+01     0.514038     0.388134 -13.38  0.001578245    1.628    0.386
       333 -11.2922    237.1918     64.8308   6.9187421951e+01   1.8210165498e+01    0.3451864    0.3155904   1.93  0.002077731    1.518    0.341
       334  -9.5682     59.0742     60.9167   1.0842088811e+02   5.7479694622e+01    0.4752505    0.2794837 -19.33    0.0023334    2.050    0.512
       335  -8.3980     51.8928     64.9525   1.1222244694e+02   5.7670283173e+01    0.1794099    0.1579673  83.10  0.000786106    1.699    0.412
       336 -11.2271     79.7877     54.6389   9.9331107253e+01   5.5405084567e+01    0.8638211    0.4921003  13.06  0.003680016    2.724    0.633
       337  -9.5432     15.2476     55.5981   1.2313734027e+02   6.2960118536e+01    0.5662429    0.2247529 -34.43  0.002785821    2.388    0.581
       338  -9.8911     32.7264     54.4046   1.1604287110e+02   6.1707543091e+01    0.4327919    0.1935759 -48.22  0.002219735    1.936    0.484
       339  -9.8354    249.3293     51.0265   6.4818311867e+01   1.7639368663e+01    0.2682375    0.1769262 -55.04  0.001237108    1.311    0.237
       340 -10.6495    245.9831     47.4584   6.4428426296e+01   1.8875893123e+01    0.3891537    0.2209183  69.33  0.001459863    1.742    0.426
       341  -8.7164     37.9264     51.7419   1.1321063787e+02   6.1650028134e+01    0.3309912    0.1488224 -57.57  0.001408319    3.319    0.699
       342  -7.8109    172.0106     49.9824   7.5199851576e+01   3.6005021586e+01      0.15949    0.1489164  84.20            0    1.028    0.028
       343 -10.2296    225.3186    248.0563   1.0928798059e+02  -1.0713824001e+01    0.2307223    0.1961641  23.02 0.0003895541    1.140    0.123
       344  -9.8484     13.5360     26.8724   1.1467444952e+02   6.7964816964e+01    0.9532686      0.17851  25.13  0.003589338    5.741    0.826
       345  -8.2158    221.4669    248.4587   1.1006205486e+02  -1.0181549772e+01    0.1223851    0.1003967  17.96 8.979443e-05    1.017    0.016
       346  -8.6959    119.8862    248.8012   1.2962824305e+02   6.6506893430e+00    0.1761257    0.1527076  46.30 0.0003735056    1.167    0.143
       347 -10.4044     33.0541    248.2439   1.4540217328e+02   1.9349393116e+01    0.2151661    0.1793734  74.61 0.0004608393    1.262    0.208
       348  -9.0243     24.4987    249.0522   1.4687708888e+02   2.0202601556e+01    0.1685898    0.1442822  50.46 0.0005803042    1.533    0.348
       349  -9.8638      8.9772    248.5775   1.4935117652e+02   2.2007058905e+01    0.1970856    0.1588604  70.65 0.0005754674    1.292    0.226
       350 -11.1597    211.6683    246.8778   1.1162442590e+02  -8.4326992525e+00    0.2861532    0.2172065  23.00 0.0004679379    1.128    0.113
       351  -7.1402    206.2899    245.7062   1.1244619948e+02  -7.4035940152e+00    0.1960563    0.1345204  36.18 0.0002896902    1.265    0.210
       352 -12.7773     19.8443     41.1313   1.1692574822e+02   6.5167783593e+01    0.5716343    0.3031435  -9.90  0.001188129    2.255    0.557
       353 -12.4061     13.1451     39.2125   1.1908838393e+02   6.6012248071e+01    0.5606914    0.3285234  -2.05  0.001998357    1.818    0.450
       354  -7.8465     75.3492     42.3056   9.6464396622e+01   5.8052112511e+01    0.1350363   0.09003893   7.73 0.0007042019    1.702    0.412
       355  -8.6585     49.4572     41.2552   1.0522565882e+02   6.2030238551e+01    0.2245046    0.1027305 -35.98  0.001121032    1.993    0.498
       356  -8.6548     32.0461     40.6729   1.1179957787e+02   6.4121538305e+01    0.1624817    0.1280198 -12.28 0.0004829555    1.071    0.067
       357 -10.2547    243.0025     39.7154   6.3118020177e+01   2.0612340462e+01    0.2551208    0.1372107 -53.02   0.00130616    1.657    0.396
       358 -10.0266     46.2714     32.5228   1.0319765104e+02   6.3741696304e+01    0.4347411    0.1899809 -35.29  0.002218685    2.099    0.524
       359  -9.4773     53.7496     36.3486   1.0181837311e+02   6.2199332229e+01    0.2949181    0.1867294  10.60  0.001030409    1.685    0.407
       360  -9.2052    145.6552     34.5934   7.5652061358e+01   4.4449079572e+01    0.3728536    0.2180549  55.85  0.001517929    1.513    0.339
       361  -9.4515      4.6099     32.5246   1.2057245470e+02   6.7705658754e+01     0.322589      0.17339  28.28  0.002065324    2.253    0.556
       362  -9.5144     76.4380     32.0751   9.2343221497e+01   5.9275474645e+01    0.5116934    0.1516042  41.68  0.001989721    3.146    0.682
       363  -9.2694     66.6964     30.4837   9.4970842548e+01   6.1093086983e+01    0.2263517    0.1890876  -1.80 0.0005725521    1.052    0.050
       364  -8.1092    111.0049     29.6575   8.1670693138e+01   5.2884257432e+01    0.2116062     0.112101  76.72 0.0007045096    4.543    0.780
       365  -8.1974    205.5078     31.4849   6.5494971005e+01   3.0325009033e+01    0.1358399    0.1146727 -85.91 0.0008103591    1.021    0.021
       366  -8.7261     40.3278     27.3166   1.0351242029e+02   6.5215054423e+01    0.1220192   0.07513069  -5.14 0.0003857419    1.677    0.404
       367 -10.5699     67.8934     24.5819   9.2274685426e+01   6.1642481542e+01    0.5535122      0.22451  29.31  0.002315442    3.043    0.671
       368 -10.0678    243.6792     23.9080   5.9801054805e+01   2.2545029050e+01    0.2762489    0.2009252  -3.49  0.001477451    2.673    0.626
       369  -7.3569    128.6659     22.7004   7.5360008474e+01   4.9761519862e+01    0.1392705    0.0883089  34.33 0.0007033146    1.653    0.395
       370  -9.4092     83.8827     19.7685   8.5384365907e+01   5.9398997912e+01    0.2494637    0.1687996 -26.09    0.0010367    1.555    0.357
       371  -8.2802    171.1356    246.8096   1.1937909698e+02  -1.7096977154e+00    0.1846312    0.1496435  48.71 0.0003954021    1.164    0.141
       372  -9.9493     58.5287     18.3627   9.3011375696e+01   6.3854638861e+01    0.2434947    0.1882596  11.56 0.0007067125    1.065    0.061
       373  -8.4169     75.8762    246.8106   1.3772833592e+02   1.3914783806e+01      0.16672    0.1449841  67.36 0.0005149915    1.202    0.168
       374 -10.0066    243.1960    245.3134   1.0559925148e+02  -1.2984411964e+01    0.2322227    0.1673734 -15.69 0.0003773642    1.313    0.238
       375  -9.1272    245.1314    229.9011   1.0257274984e+02  -1.1188851184e+01    0.2499572    0.1709909  -9.04  0.001100104    1.442    0.307
       376 -10.1857    247.6964    238.6551   1.0365788469e+02  -1.2753485309e+01    0.2868166    0.1863026  26.55 0.0006125605    1.367    0.269
       377  -9.3431    243.7020    234.7960   1.0369380593e+02  -1.1654271212e+01    0.2893625    0.2429954 -73.17 0.0008743072    2.286    0.563
       378  -9.2171    187.7816    245.2930   1.1591795054e+02  -4.2907859237e+00    0.3507773    0.2655062  -1.02  0.001589528    1.567    0.362
       379  -9.7460    193.2603    243.4535   1.1457050088e+02  -4.9251719694e+00    0.4223352    0.3060368  75.29  0.001476978    2.464    0.594
       380 -10.0988     94.7820    245.0916   1.3401262911e+02   1.1384417539e+01    0.2262844    0.1943306  63.29 0.0003787106    1.118    0.105
       381  -9.1387     90.6853    245.3196   1.3481405534e+02   1.1976728771e+01    0.2061691     0.144835  63.60 0.0009644005    1.199    0.166
