#   1 NUMBER                 Running object number                                     
#   2 MAG_AUTO               Kron-like elliptical aperture magnitude                    [mag]
#   3 X_IMAGE                Object position along x                                    [pixel]
#   4 Y_IMAGE                Object position along y                                    [pixel]
#   5 X_WORLD                Barycenter position along world x axis                     [deg]
#   6 Y_WORLD                Barycenter position along world y axis                     [deg]
#   7 A_WORLD                Profile RMS along major axis (world units)                 [deg]
#   8 B_WORLD                Profile RMS along minor axis (world units)                 [deg]
#   9 THETA_WORLD            Position angle (CCW/world-x)                               [deg]
#  10 FWHM_WORLD             FWHM assuming a gaussian core                              [deg]
#  11 ELONGATION             A_IMAGE/B_IMAGE                                           
#  12 ELLIPTICITY            1 - B_IMAGE/A_IMAGE                                       
         1 -14.9583    168.3774     43.4963   7.2726225584e+01   3.7885729662e+01      1.20318      1.08698  -1.89  0.003960154    1.350    0.259
         2 -15.1386    188.8987      9.7913   6.1126028241e+01   3.6902041282e+01      2.63389    0.9960355  66.41  0.008176768    2.177    0.541
         3  -9.5409    160.2619    244.3365   1.1984081581e+02   3.3384455853e-01      0.12268   0.09797913   2.14 0.0003369463    1.582    0.368
         4 -19.8344     61.6303    167.9715   1.3025893305e+02   3.3239008492e+01     18.97606     6.654977 -66.22   0.07087719    2.711    0.631
         5 -11.4233    153.2827    192.6621   1.1272307070e+02   1.1609038793e+01    0.2934764    0.2521101  72.84 0.0006807831    1.253    0.202
         6 -11.2510    150.4839    189.5441   1.1276590667e+02   1.2827725403e+01    0.3573407    0.2467776  51.85  0.001109551    1.439    0.305
         7 -10.0403    150.8731    242.2776   1.2141396513e+02   2.3068198672e+00    0.1650953     0.144463   9.01 0.0005830736    1.343    0.255
         8 -10.1949    121.1574    197.7616   1.2087194688e+02   1.6578451210e+01     0.195254    0.1743691  80.97 0.0004170465    1.073    0.068
         9 -10.4145    112.7430    196.2365   1.2253673917e+02   1.8432711989e+01    0.4577389    0.3160788  -7.68  0.001836295    3.103    0.678
        10 -11.4958    103.4840    195.5099   1.2453564940e+02   2.0212839345e+01    0.3618027    0.2814584  77.28  0.001306898    1.294    0.227
        11 -11.3151     12.4411    241.9309   1.4754705168e+02   2.2659592726e+01    0.1408778   0.07893048 -64.70 0.0008821534    1.938    0.484
        12 -13.3122    175.3966    186.4739   1.0666299225e+02   8.5378980506e+00    0.5457177    0.4004564 -42.92  0.002698845    1.399    0.285
        13 -12.9081    170.9304    179.8670   1.0630702667e+02   1.0814072337e+01    0.5851737    0.3939617  71.11  0.002463271    2.167    0.539
        14 -12.8525    164.3840    186.3605   1.0904881835e+02   1.0757070820e+01    0.4835702    0.3795147 -54.40  0.002201577    1.338    0.253
        15 -10.9656    109.0173    240.1247   1.2951347718e+02   9.7964859178e+00    0.1808674    0.1629238  56.29 0.0005539256    1.143    0.125
        16 -12.3763     28.5320    183.6456   1.3989148302e+02   3.3474266393e+01    0.3330101    0.2453713  88.50   0.00091075    1.113    0.102
        17  -9.9725     28.5629    239.2020   1.4461819545e+02   2.1397620527e+01    0.1634035    0.1010533  87.19   0.00104578    1.317    0.241
        18  -9.6981    242.2949    184.6724   9.3086844956e+01  -3.6448715362e+00    0.1255818    0.1056204 -66.72 0.0003433259    1.628    0.386
        19 -10.7949    107.9911    183.8032   1.2158186274e+02   2.2142727758e+01    0.4065429    0.1996308  37.14 0.0009020154    2.147    0.534
        20 -13.9878    137.8509    171.0244   1.1208694153e+02   1.9479205609e+01    0.9468381    0.6117913  49.13  0.003628958    1.539    0.350
        21 -13.0281    142.6379    165.9070   1.0990219831e+02   1.9689155253e+01     0.645293    0.4296402 -88.46  0.002538823    2.372    0.578
        22 -12.6681    204.3919    175.6708   9.8389564448e+01   4.9483717096e+00    0.4598834    0.4466396 -88.96  0.001079333    1.156    0.135
        23 -11.8976    196.7825    176.3284   1.0007164590e+02   6.3248241090e+00    0.4483911    0.3833866 -73.62  0.001954337    1.420    0.296
        24 -12.9141    191.8850    163.7765   9.8406391272e+01   9.8633997416e+00    0.8044986    0.4707489 -62.45  0.002394935    2.448    0.592
        25 -12.4283    189.3607    155.2626   9.7055412694e+01   1.2159514233e+01    0.5174325    0.4916494  18.40  0.001469273    1.097    0.088
        26 -11.8750    188.4738    176.2435   1.0178168190e+02   8.0094098947e+00    0.5148277    0.2528962 -58.60   0.00179336    3.042    0.671
        27 -11.3498     34.4317    168.3903   1.3685680257e+02   3.6423555246e+01    0.3052978    0.2031869  72.70  0.001112929    1.509    0.337
        28 -11.8131      9.5812    175.0479   1.4315437641e+02   3.7275078557e+01     0.187619    0.1532128  62.50 0.0006418416    1.278    0.218
        29 -11.7395    230.3082    167.4075   9.1690026036e+01   1.5428130520e+00    0.4518214    0.1482186 -48.57  0.001440384    3.667    0.727
        30 -11.3684    177.0487    169.0537   1.0271188409e+02   1.1849071535e+01    0.2429827    0.1900246 -87.07 0.0006763857    1.700    0.412
        31 -11.1210      4.1183    180.3323   1.4476658653e+02   3.6545784760e+01     0.257515    0.1878452 -20.99  0.001272558    2.354    0.575
        32 -10.5114     24.1750    165.7033   1.3893853474e+02   3.8103674925e+01    0.1813582    0.1608009 -14.91 0.0007778386    1.595    0.373
        33 -10.4249    131.1982    235.7656   1.2446866450e+02   6.9036412317e+00    0.1898919    0.1051267 -55.03 0.0006185388    2.030    0.507
        34 -10.2393      1.7986    165.2155   1.4394991477e+02   4.0153671810e+01    0.1347859    0.1097733 -67.49            0    1.242    0.195
        35 -13.7123    145.2750    174.5884   1.1105416843e+02   1.7176975617e+01     1.165053    0.6860971 -48.30  0.004499647    1.727    0.421
        36 -10.1686    140.9882    229.8951   1.2161159419e+02   6.3174683565e+00    0.2519235    0.1709358  85.57  0.001037369    2.133    0.531
        37 -11.6665    134.3556    161.7004   1.1101619570e+02   2.2342811870e+01    0.2491047      0.21622  76.43 0.0007267359    1.206    0.171
        38 -10.6255    236.6812    158.3036   8.8628058365e+01   2.0249129729e+00    0.1359237    0.1092201 -72.42 0.0003065153    1.627    0.386
        39 -12.1543    166.0337    154.3065   1.0193439809e+02   1.7381738821e+01    0.4789011    0.3233624  76.46   0.00190922    2.231    0.552
        40 -14.9756    100.7298    243.4702   1.3154631114e+02   1.0486231365e+01     0.777503    0.5594771 -56.22  0.004641355    1.629    0.386
        41 -11.2295    174.1944    148.7627   9.8848798967e+01   1.6821602650e+01     0.367714    0.3111091 -77.35  0.001300191    1.338    0.253
        42 -10.2396     25.4485    224.2916   1.4408882242e+02   2.4814970062e+01    0.2484499   0.08025525 -65.66  0.001151808    2.715    0.632
        43 -12.5669     15.0703    109.6997   1.3365799897e+02   5.1929796561e+01    0.4794614    0.2207754   4.23  0.001516823    3.615    0.723
        44 -12.9685      4.2547    112.0116   1.3718040943e+02   5.2128639534e+01    0.5469477    0.3526631 -52.78  0.002562625    1.289    0.224
        45 -13.3925      2.9771    127.7562   1.3966658315e+02   4.8645876336e+01    0.8546145    0.3391917 -72.75   0.00414983    2.029    0.507
        46 -13.1102      4.8299    120.4994   1.3821878047e+02   5.0178084316e+01    0.4526605    0.3931052  13.22  0.002712361    1.496    0.332
        47  -9.8557    138.9576    250.3690   1.2489787797e+02   2.9103328308e+00    0.1803696    0.1385203  42.11  0.000952788    1.132    0.116
        48 -10.3876    138.5720    243.5000   1.2404804453e+02   4.1997062692e+00    0.2058951    0.1295776 -55.99 0.0006433783    1.835    0.455
        49 -12.2849    160.3169    127.5678   9.6943679181e+01   2.4540842472e+01      0.48111    0.3653047 -62.85  0.001318331    1.433    0.302
        50 -11.7131    106.1743    206.1975   1.2554902520e+02   1.7342533835e+01    0.3639693    0.2791739 -40.18   0.00152461    1.659    0.397
        51 -14.0944    116.2259    109.0636   1.0329356310e+02   3.8194520049e+01     1.187111    0.6819701  65.07  0.004311855    2.809    0.644
        52 -10.9394    167.9034    112.8064   9.1511311158e+01   2.5935938867e+01    0.4022505    0.2985309 -89.42   0.00151323    1.766    0.434
        53 -10.9286    204.9489    110.2962   8.3443381798e+01   1.7817296074e+01    0.3874357    0.2298345  47.56  0.001108175    1.803    0.446
        54 -12.0140     25.5975    108.9520   1.3036165431e+02   5.1277077868e+01    0.2096887    0.1903531  -3.43 0.0005493293    1.309    0.236
        55 -13.0646      6.2806    139.0598   1.4018948844e+02   4.5828659423e+01     1.300491    0.3858164 -65.11   0.00574897    2.370    0.578
        56 -12.0534    103.7944    202.0948   1.2546924590e+02   1.8664573090e+01    0.3401133    0.2736006  35.28 0.0007359262    1.374    0.272
        57 -12.8411     11.9925    206.0704   1.4523249047e+02   3.0129724403e+01    0.3711365    0.2307071  37.81   0.00211946    1.837    0.456
        58 -11.3011    168.5692    200.1957   1.1077673898e+02   7.0778454574e+00    0.3714284    0.1449329 -47.90   0.00136792    2.710    0.631
        59 -12.5091    170.0221    195.5509   1.0959086242e+02   7.7370413444e+00     0.330617    0.2810184  11.00 0.0009034876    1.324    0.245
        60 -10.7069    146.6781     81.1073   8.7746075865e+01   3.7148003399e+01    0.2077906    0.1991177 -29.16 0.0006340726    1.089    0.082
        61 -10.9238    124.8600     81.1444   9.3123748184e+01   4.2083691179e+01    0.2196636     0.205169 -86.26 0.0006653311    1.181    0.153
        62 -10.9912    152.0436    197.0340   1.1380471046e+02   1.0920283044e+01    0.3558818    0.3038803 -24.43 0.0009172889    1.376    0.273
        63 -11.4345     95.7706     79.9767   1.0093351010e+02   4.8181769476e+01    0.2856129    0.2015513  44.82 0.0004519667    1.479    0.324
        64 -11.5194    151.1556    183.1027   1.1138066330e+02   1.4100638696e+01    0.3423972    0.2598225 -75.58 0.0004305322    1.587    0.370
        65 -14.4848    156.0603     58.1264   7.9122344445e+01   3.8770900106e+01     1.360638     1.132536  53.46  0.002913298    1.145    0.127
        66 -12.4819    125.0754    242.3162   1.2658669287e+02   6.7087715436e+00    0.4795989    0.1712467 -54.98  0.001970566    3.156    0.683
        67 -13.0454    172.7167     35.7298   6.9909342820e+01   3.7844205243e+01    0.3845749    0.3590718 -68.19 0.0008942575    1.120    0.108
        68 -10.8047     13.5269     59.8212   1.2363046407e+02   6.2505709608e+01    0.1826725    0.1680655 -31.03 0.0004023947    1.228    0.186
        69 -12.3804    155.1754    187.5192   1.1132586998e+02   1.2340607833e+01    0.4264618    0.3172485  52.43 0.0009116921    1.338    0.253
        70 -11.6364    187.9004     31.1758   6.6502729762e+01   3.4735914629e+01    0.2238275    0.2126964  19.69  0.001016766    1.332    0.249
