#   1 NUMBER                 Running object number                                     
#   2 MAG_AUTO               Kron-like elliptical aperture magnitude                    [mag]
#   3 X_IMAGE                Object position along x                                    [pixel]
#   4 Y_IMAGE                Object position along y                                    [pixel]
#   5 X_WORLD                Barycenter position along world x axis                     [deg]
#   6 Y_WORLD                Barycenter position along world y axis                     [deg]
#   7 A_WORLD                Profile RMS along major axis (world units)                 [deg]
#   8 B_WORLD                Profile RMS along minor axis (world units)                 [deg]
#   9 THETA_WORLD            Position angle (CCW/world-x)                               [deg]
#  10 FWHM_WORLD             FWHM assuming a gaussian core                              [deg]
#  11 ELONGATION             A_IMAGE/B_IMAGE                                           
#  12 ELLIPTICITY            1 - B_IMAGE/A_IMAGE                                       
         1 -11.0992    142.2237     31.4609   5.7954309231e+01   4.6098606179e+01    0.4172182    0.2804768 -45.53  0.001369654    1.642    0.391
         2 -12.1754      2.0511     24.6952   1.0637984502e+02   7.0191445798e+01    0.3882599    0.1511384 -58.57  0.001283234    2.182    0.542
         3 -12.0513      5.7864     16.2652   1.0135182585e+02   7.1502916266e+01    0.3657418    0.2986618 -56.01  0.001590337    1.466    0.318
         4 -11.1544    182.1973     18.8753   4.7151968742e+01   3.7354187570e+01     0.324137    0.2656229  -6.95  0.001196791    1.454    0.312
         5 -10.5901    199.3463     18.2134   4.4807984147e+01   3.3057490755e+01    0.2735367    0.2072351  46.07  0.001480946    1.464    0.317
         6 -11.4394    173.3782     13.1924   4.6652893049e+01   4.0230885286e+01    0.3292016    0.2083105 -40.56  0.001509908    1.634    0.388
         7 -11.4167    176.2005     10.5879   4.5489363360e+01   3.9771008095e+01    0.2616136    0.2371859  84.57 0.0007226954    1.019    0.018
         8 -10.5630     65.7187     15.4231   7.2891955920e+01   6.4591296685e+01    0.3813379    0.3359456  72.94  0.002385875    1.795    0.443
         9 -11.1901    116.7351     14.8651   5.7406644693e+01   5.4208236141e+01    0.3432173    0.2381922  37.60   0.00104765    1.349    0.259
        10 -11.3454    133.1192     12.8979   5.3167357919e+01   5.0473910760e+01    0.2895006    0.2521047 -27.71 0.0003637878    1.248    0.198
        11 -10.3099     23.1377     13.3186   9.0898799810e+01   7.0614418271e+01     0.326634    0.1194545 -42.65  0.001602739    2.287    0.563
        12 -11.2332    209.3787     13.6333   4.2479012974e+01   3.1060898528e+01    0.3210533    0.2045312 -30.91  0.001543215    1.623    0.384
        13 -10.4367    139.5373     13.7909   5.2265278264e+01   4.8793917168e+01    0.3335612    0.1815764  48.81  0.001395716    1.669    0.401
        14 -10.4984     70.1923     11.6906   6.9486612449e+01   6.4268694070e+01    0.4565392    0.1437521  44.08  0.001838411    2.914    0.657
        15 -11.0105    148.5535     12.2858   5.0144535325e+01   4.6677084152e+01    0.4630368    0.1800774  53.19  0.001848289    2.212    0.548
        16 -10.4501    218.5157     11.6158   4.1058335404e+01   2.9048013319e+01    0.2469578    0.2060244  70.96 0.0007299433    1.199    0.166
        17  -9.7722     97.6981     11.1425   6.0651211538e+01   5.8877088066e+01    0.2861311      0.14543 -36.37  0.001007187    2.188    0.543
        18 -11.3495     14.4832      9.7450   9.3808061075e+01   7.1959214595e+01    0.3882735    0.1904529 -41.66  0.002294748    1.645    0.392
        19  -9.2729     38.0309     10.0186   8.1931910850e+01   6.9434873626e+01    0.1542044    0.1461805 -46.56  0.001098976    1.680    0.405
        20 -10.6943      5.4531      9.4093   9.8666523303e+01   7.2690465086e+01     0.242357    0.2218523   1.69  0.001783011    1.447    0.309
        21 -10.9137    164.7315      8.2380   4.6323837813e+01   4.2943167989e+01    0.2919328    0.2225049 -69.62 0.0007856843    1.413    0.292
        22 -10.9064    146.0846      8.3380   4.9209943290e+01   4.7681164951e+01    0.2341887    0.1880789  18.89  0.001308767    1.376    0.273
        23 -10.8313    128.4297      8.2741   5.2377819514e+01   5.2066791482e+01    0.2387526    0.2014476  66.79 0.0001596759    1.164    0.141
        24 -10.5767    185.4357      8.8094   4.3817673311e+01   3.7587224846e+01    0.2378042    0.1745509  74.10 0.0003310183    1.238    0.192
        25 -11.3400    193.8648      7.8936   4.2596803517e+01   3.5541286405e+01    0.3790673    0.1766043  82.11  0.001378367    2.263    0.558
        26 -11.8235    109.0932      7.1236   5.6080308872e+01   5.6740142076e+01    0.5268088    0.4341329  45.69  0.001904191    1.087    0.080
        27 -10.8070    103.9452      7.8666   5.7633636478e+01   5.7832067400e+01    0.2716687    0.1920279  26.83 0.0004959161    1.358    0.264
        28 -11.9581     87.0606      6.0019   6.1369345875e+01   6.1631057956e+01    0.3121955    0.2433575  35.09  0.001899587    1.121    0.108
        29 -10.3655     87.6774      1.7236   5.9238097629e+01   6.1904203509e+01     0.474278     0.124866  50.50  0.001810226    2.956    0.662
        30 -10.5161     73.8423      8.1576   6.6535036368e+01   6.4000675911e+01    0.2564878    0.1481651  33.89  0.001018244    1.594    0.373
        31 -10.7871     49.2207      7.7752   7.5757611366e+01   6.8186484504e+01    0.4471302    0.1754323  30.69  0.001980103    2.828    0.646
        32 -11.6896    208.5819      4.0503   4.0077868323e+01   3.2260494337e+01    0.4830197    0.2927401 -59.50  0.002497733    1.619    0.382
        33  -9.9972     62.0180      6.6321   7.0020595952e+01   6.6280216839e+01    0.2536262    0.2299775 -50.81  0.001687869    1.641    0.390
        34 -11.0163     39.2306      5.2160   7.8898952850e+01   6.9920736792e+01    0.3170689     0.236762  46.96  0.001426584    1.958    0.489
        35 -10.3290     38.1733      2.1219   7.7744535057e+01   7.0451832197e+01    0.1945971    0.1860936 -24.83 0.0003680131    1.628    0.386
        36 -10.1655     24.7599      6.8731   8.6915636521e+01   7.1425361285e+01    0.2043134    0.1518119 -41.88  0.001032456    1.579    0.367
        37 -10.6725     20.0961      4.8152   8.8336014000e+01   7.2199634281e+01    0.3964797    0.2819583 -55.98  0.002450059    2.370    0.578
        38 -11.0961    170.9671      6.0323   4.4797715565e+01   4.1554915142e+01    0.2088415    0.1848836  77.32 0.0003509539    1.017    0.016
        39 -11.0564    134.0350      5.9867   5.0475908449e+01   5.0902030300e+01    0.3036633    0.2066196  48.08  0.001610172    1.318    0.241
        40 -10.8343    131.1070      2.0011   4.9549437600e+01   5.1964992263e+01    0.3509683    0.2398022  73.03 0.0007800504    1.456    0.313
        41 -11.8753    195.2102      3.4559   4.1239211705e+01   3.5640073493e+01     0.537791    0.2292433  67.58  0.002114432    2.056    0.514
        42 -10.4341    184.8233      4.1631   4.2562040240e+01   3.8195386319e+01     0.180462    0.1482284  46.48 0.0003403638    1.307    0.235
        43 -11.4539    160.6778      2.9148   4.5205850312e+01   4.4467817030e+01    0.4257348      0.28958  71.67   0.00137665    1.329    0.247
        44 -10.2928    142.0014      3.5646   4.8235127906e+01   4.9135214137e+01    0.2571147     0.184018  17.80 0.0008171208    1.606    0.377
        45 -10.6989     48.9948      2.7225   7.3227475118e+01   6.8827137017e+01    0.3728443    0.1831735  21.28  0.001341093    2.380    0.580
        46  -9.7941    248.9417      2.8485   3.6535944687e+01   2.2958624314e+01    0.1713566    0.1571816  80.13 0.0003257674    1.258    0.205
        47 -10.2617    218.1396      2.1203   3.8736806555e+01   3.0132406951e+01     0.219894    0.1883333 -80.11 0.0004999256    1.013    0.013
        48 -11.3613     74.3120      1.9973   6.3408050628e+01   6.4542399260e+01    0.3057989     0.200407  47.31 0.0008214231    1.455    0.313
        49 -10.7918    180.6812      2.0740   4.2435420331e+01   3.9442244045e+01    0.2772106    0.1764286  65.28  0.001369023    1.400    0.286
        50 -11.1282    115.6909      1.9323   5.2516575864e+01   5.5670192988e+01    0.2331112    0.1729253  55.58 0.0002856048    1.203    0.169
        51 -10.6456     11.4807      1.7810   9.1574887709e+01   7.3434516732e+01    0.2260167    0.1691247  46.61 0.0004769022    2.501    0.600
        52  -9.9743    167.2687      1.3773   4.3851284918e+01   4.2922091730e+01    0.1896399    0.1184723  82.31  0.000804564    1.564    0.361
        53  -9.8816    148.2466      1.4010   4.6506796338e+01   4.7750742944e+01    0.2543669    0.1108171  63.13 0.0008016416    1.937    0.484
        54 -10.2515     30.9517      3.3646   8.1919127310e+01   7.1213119956e+01    0.1913209    0.1389701 -34.81  0.000592504    1.488    0.328
        55  -8.7374     87.2838    225.6441   1.1560370972e+02   1.7153729048e+01    0.1266212   0.07599511  69.04 0.0003129679    1.668    0.400
        56 -11.3328    187.1279    250.3885   9.9848198681e+01  -2.3447446745e+00    0.1951208    0.1259606  37.47 0.0005068652    1.215    0.177
        57 -11.0691    165.7331    248.6137   1.0348477950e+02   1.2337130504e+00    0.2936268    0.1793709  52.11 7.889661e-05    1.624    0.384
        58 -10.8115    161.4769    249.5203   1.0437612421e+02   1.7762606238e+00    0.4110009    0.1772722  31.31  0.001912114    2.459    0.593
        59 -11.4205    127.4720    248.1879   1.1043240661e+02   7.2765811893e+00    0.3086046     0.277183 -70.50  0.001392264    1.371    0.270
        60 -11.0388    115.6573    249.4465   1.1271117785e+02   8.8714914851e+00    0.2834735    0.2096819  64.37  0.001432923    1.258    0.205
        61 -10.1538    111.9800    246.4734   1.1307696842e+02   9.8978475868e+00    0.1924038    0.1582539  82.10  0.000364686    1.284    0.221
        62 -11.0139     38.8495    249.2469   1.2599989476e+02   1.9184273033e+01    0.2125228    0.1534514  86.20  0.001033912    1.258    0.205
        63 -10.1288     30.9407    250.3909   1.2733810492e+02   1.9881628548e+01    0.1572389   0.09314986  61.58  0.001139201    1.202    0.168
        64 -10.7575     26.2715    249.7368   1.2804903088e+02   2.0504600532e+01    0.2296584    0.1107466  52.19 0.0008511472    1.513    0.339
        65 -11.3958     10.8844    249.9712   1.3045841135e+02   2.2068851671e+01    0.3539531    0.1587016  52.11 0.0007312989    1.594    0.373
        66 -10.3297    125.0424    224.0486   1.0807852019e+02   1.1651622775e+01    0.1902904    0.1617187  44.92 0.0004892984    1.099    0.090
        67  -9.7403     38.8859    223.3346   1.2441402166e+02   2.3857530074e+01    0.1471127    0.1153935  62.25 0.0005981458    1.157    0.136
        68  -9.3112    110.1210    220.8062   1.1063099370e+02   1.4611215363e+01    0.1534727    0.1371872  37.01 0.0004126545    1.263    0.208
        69 -10.3065     84.0191    220.6783   1.1574062127e+02   1.8551851327e+01    0.1811522     0.147507  80.34  0.000723173    1.131    0.116
        70  -9.4390     54.4418    221.0374   1.2140440512e+02   2.2439284397e+01    0.1590828   0.09936804 -78.71 0.0004199123    1.531    0.347
        71  -9.9769    228.5973    220.0009   8.7682208791e+01  -4.8952596215e+00    0.2026781    0.1509192  40.72 0.0001063991    1.435    0.303
        72  -8.6840    183.2998    219.6840   9.6036810615e+01   2.5745550739e+00    0.1197888   0.09687259  65.14 0.0006102333    1.614    0.380
        73 -10.1723    136.4460    217.5541   1.0496290756e+02   1.0916476173e+01     0.286366    0.2239119   0.54  0.001631879    1.864    0.463
        74 -10.5138     15.2676    217.0244   1.2821843833e+02   2.7580875727e+01    0.2831517    0.1337815 -61.22  0.001668209    2.462    0.594
        75 -10.6345     96.5046    217.5222   1.1295632316e+02   1.7318014058e+01    0.2322551    0.1966924  38.11 0.0009358976    1.313    0.238
        76 -11.2728     90.2314    216.8573   1.1412814781e+02   1.8379071724e+01    0.4551589    0.1851577  46.92  0.001521462    2.053    0.513
        77  -9.4623     47.2660    217.8565   1.2249600660e+02   2.3929155326e+01    0.1377499    0.1264777  69.10 0.0005524395    1.352    0.260
        78  -9.4808     39.0554    218.0199   1.2402340844e+02   2.4857544904e+01    0.1511848    0.1265292 -58.13 0.0008074136    1.660    0.398
        79 -10.4179     72.8571    216.1459   1.1747169563e+02   2.0983302271e+01    0.1944402     0.180862  35.59 0.0003398008    1.433    0.302
        80  -8.9981    175.6828    216.7091   9.7043703886e+01   4.3398698637e+00    0.1286761   0.09282859  13.63  0.000330008    1.598    0.374
        81  -9.7448     58.2166    215.8639   1.2027250719e+02   2.2967794117e+01     0.173787    0.1236088  67.89 0.0004369921    1.131    0.116
        82  -9.7729     68.7136    214.9133   1.1816363942e+02   2.1784600326e+01    0.1607064    0.1420769  83.01 0.0005530628    1.201    0.168
        83 -10.4138    111.7543    213.4322   1.0941149171e+02   1.5725174229e+01    0.2072875    0.2041929 -63.07 0.0005778479    1.271    0.213
        84 -11.7822      8.5275    210.3657   1.2905439274e+02   2.9514195415e+01    0.3507964    0.1640174 -71.88  0.001962791    1.941    0.485
        85  -9.9227    117.8527    211.7560   1.0795563919e+02   1.5056640503e+01     0.185795    0.1637517  42.18 0.0005884227    1.162    0.140
        86  -8.7640     52.6415    212.7464   1.2108075921e+02   2.4279072448e+01   0.09630578   0.09307859 -11.72 0.0006115121    1.612    0.380
        87 -11.1724     17.8356    207.5886   1.2723491245e+02   2.9166558587e+01    0.3986652    0.1561292  61.53 0.0009694784    2.216    0.549
        88 -11.6680     23.5135    208.3611   1.2624192216e+02   2.8441314278e+01    0.3623439     0.214388  59.48  0.001639333    1.361    0.265
        89 -10.7170    125.6646    211.7057   1.0635129866e+02   1.3778135738e+01    0.4120881    0.2020144  31.15  0.001450773    2.420    0.587
        90  -9.1567    226.4064    211.5123   8.6596733495e+01  -3.4276858562e+00    0.1248653    0.1032501  11.81 6.196048e-05    1.027    0.026
        91 -10.5759    144.5335    208.6135   1.0204259282e+02   1.1128213787e+01    0.3035586    0.1851394 -66.65  0.001209194    2.236    0.553
        92  -9.4710    155.4903    209.4812   9.9938079032e+01   9.0595977877e+00    0.1331567    0.1153726  40.43 0.0002447043    1.008    0.007
        93  -9.2214     79.9814    209.2031   1.1536737168e+02   2.1358824284e+01    0.1668746   0.08641664  41.68 0.0008640246    1.744    0.426
        94 -11.2421     66.7612    207.5003   1.1785148784e+02   2.3519838886e+01     0.305666    0.2451258  66.92 0.0008139148    1.035    0.034
        95 -10.6423     59.5816    208.3519   1.1935544977e+02   2.4285479290e+01    0.3243491    0.1688189  62.78  0.001130019    1.789    0.441
        96 -10.1391     57.9056    203.0679   1.1920939915e+02   2.5573481789e+01    0.2804321    0.1416558 -61.40  0.001094019    2.048    0.512
        97  -8.9675     96.7215    208.7048   1.1190639039e+02   1.8988615337e+01    0.1092028    0.1010085 -10.14 0.0002751417    1.532    0.347
        98 -11.3254     35.2768    204.0497   1.2373788607e+02   2.8055033290e+01    0.2639466    0.1887953 -81.74  0.001081596    1.266    0.210
        99 -10.9459     32.8248    199.0524   1.2384387582e+02   2.9345385137e+01    0.3073069    0.2036762  60.57   0.00122988    1.258    0.205
       100  -9.7241      1.4645    204.1075   1.2999294916e+02   3.1377052468e+01    0.1542136   0.08085129 -86.97 0.0004388497    1.502    0.334
       101 -10.5996    126.7005    208.6949   1.0572663685e+02   1.4166256376e+01    0.4812565    0.2670205  23.95   0.00206151    2.785    0.641
       102 -10.4510    121.4834    199.8127   1.0556983783e+02   1.6751197427e+01    0.3237199    0.2283811 -83.98  0.001258386    1.730    0.422
       103  -9.5435     14.2536    212.2720   1.2814235527e+02   2.8597918996e+01    0.1644262    0.1129197  46.15 0.0006650228    1.458    0.314
       104 -10.8563     96.6246    200.3125   1.1091086616e+02   2.0682386430e+01    0.3198073    0.1784731  52.53 0.0008021379    1.625    0.384
       105 -10.9852      5.8696    200.0223   1.2899475574e+02   3.1799574783e+01    0.1693528    0.1215521  77.77 0.0003534579    1.007    0.007
       106  -9.5679     87.5419    200.4878   1.1284454574e+02   2.2022959178e+01    0.1278818    0.1089874  68.83 2.305633e-05    1.024    0.024
       107  -9.7706     41.8526    199.8207   1.2212980287e+02   2.8181964299e+01    0.1885959    0.1069846  69.48 0.0005493733    1.576    0.365
       108 -10.1782     39.4239    209.7802   1.2336801964e+02   2.6435992098e+01    0.1935579    0.1529401 -59.62  0.001352787    1.626    0.385
       109 -10.5689     12.7882    197.2781   1.2756123754e+02   3.1722885768e+01    0.2488551    0.1526902 -68.36  0.001520241    1.622    0.384
       110  -9.8388     62.3516    198.2422   1.1784557461e+02   2.6001431506e+01    0.1758765    0.1507563  50.79 0.0003570081    1.257    0.205
       111 -11.1982    108.4472    194.3030   1.0758987401e+02   2.0028470988e+01    0.4371731    0.2071383 -66.84  0.001605441    2.525    0.604
       112 -10.3135     95.4871    194.5876   1.1042886407e+02   2.2035854183e+01    0.2195421    0.2007142  54.30  0.001408579    1.162    0.140
       113  -9.1640     44.5751    194.1658   1.2110942840e+02   2.9048225988e+01    0.1458119   0.09826162 -67.84 0.0001630144    1.477    0.323
       114 -10.2453    170.1374    200.0565   9.5423352374e+01   8.0819398672e+00     0.196332    0.1779089  39.96 0.0003283143    1.062    0.058
       115 -10.1428    100.1180    192.3632   1.0913321439e+02   2.1772619909e+01    0.1954574    0.1678833 -66.56 0.0003527149    1.246    0.197
       116 -10.1814     66.0631    191.6514   1.1639155880e+02   2.6904280165e+01    0.4422244      0.31916 -14.32  0.002243584    2.916    0.657
       117  -9.0870     52.5259    192.9631   1.1936677698e+02   2.8354224792e+01    0.1609247    0.0865121 -50.50 0.0008087194    2.442    0.591
       118 -10.5515     58.9367    190.6192   1.1779479378e+02   2.8053349318e+01    0.2879117    0.1580281 -67.92 0.0008523809    1.725    0.420
       119 -11.1270     91.4094    188.8878   1.1057703687e+02   2.3863978969e+01     0.310673    0.2410354  82.66 0.0006605834    1.244    0.196
       120 -10.4956     82.5641    195.3233   1.1329033577e+02   2.3825493086e+01    0.2138372    0.1895469  77.17 0.0002846573    1.088    0.081
       121  -9.8918     79.8086    188.5379   1.1307409055e+02   2.5664830954e+01    0.3207089    0.1107513  40.02   0.00113294    2.642    0.621
       122 -10.6754    105.3587    185.8576   1.0707088629e+02   2.2295214407e+01    0.2646952     0.225826  84.01 0.0005368461    1.129    0.114
       123  -9.9185     85.8083    186.5247   1.1150519030e+02   2.5217377991e+01    0.2278338    0.1242279  36.41 0.0007665883    1.890    0.471
       124 -10.8443     15.6288    183.0479   1.2610357248e+02   3.4420243913e+01    0.2361737    0.1760172 -85.75 0.0006327877    1.139    0.122
       125  -9.7255    107.9045    181.1020   1.0579389560e+02   2.2887972038e+01    0.2048904    0.1674032  74.65 0.0003927905    1.198    0.165
       126 -10.2477     55.3929    180.6938   1.1752682640e+02   3.0655981999e+01    0.2409306    0.1694623  81.21 0.0007492903    1.274    0.215
       127  -9.3945    131.5066    179.0295   1.0011936939e+02   1.9193602492e+01    0.1929421     0.122862 -83.94 0.0007380709    2.457    0.593
       128 -12.0190     31.8243    176.7528   1.2225653654e+02   3.4202476304e+01    0.3504019     0.227775 -51.24  0.001258066    1.906    0.475
       129  -9.3096      3.8633    178.7885   1.2817719211e+02   3.6345405759e+01     0.156926   0.09506195  71.57            0    1.336    0.252
       130  -9.8495     92.0769    177.3492   1.0885163252e+02   2.6262932395e+01    0.2140778    0.1717486 -61.34 0.0005684847    1.292    0.226
       131 -10.4163     46.5124    177.1155   1.1910500584e+02   3.2512897307e+01    0.2507408    0.1499786  51.31 0.0007269402    1.555    0.357
       132  -9.2875    107.9520    175.9880   1.0499330750e+02   2.3985662624e+01    0.2626423    0.1242219  56.99 0.0007362759    2.540    0.606
       133 -12.0622     78.9275    173.9917   1.1141480472e+02   2.8988178930e+01     0.278848    0.2304679  64.04 0.0003339567    1.105    0.095
       134 -10.7097     76.5035    170.5794   1.1151751474e+02   3.0106412916e+01    0.2258798    0.2028267  82.61 8.515851e-05    1.061    0.058
       135  -9.4015     24.1581    176.2197   1.2384117658e+02   3.5086292748e+01    0.1580736    0.1052707  70.37 0.0002576151    1.279    0.218
       136  -9.5110     17.4431    174.7691   1.2513922706e+02   3.6033201371e+01    0.1574603   0.08688879 -68.00 0.0007759097    1.619    0.382
       137  -9.1772     62.9436    170.9857   1.1472106662e+02   3.1866688432e+01    0.1556605    0.1323478  68.58 0.0004336786    1.090    0.082
       138  -9.7407     43.4077    170.0604   1.1907483807e+02   3.4444241050e+01    0.2858275    0.2044803  -5.92  0.001540805    2.616    0.618
       139  -9.1715    121.5085    169.5202   1.0076983734e+02   2.3028403482e+01     0.142684    0.1323145  66.88 0.0001223396    1.002    0.002
       140  -8.9395      4.9756    168.7446   1.2731432144e+02   3.8404585152e+01    0.1171822   0.09127506  47.29 0.0008447481    1.423    0.297
       141 -10.4407     46.7752    166.3609   1.1791234944e+02   3.4899881106e+01    0.3008347    0.1749684  49.48 0.0008454733    1.658    0.397
       142 -10.0571     53.5465    166.4970   1.1636062667e+02   3.4069981250e+01    0.2502594    0.1215387  35.29  0.001217126    2.186    0.543
       143  -9.4564      2.9602    166.0101   1.2755376646e+02   3.9155410402e+01    0.1692634    0.1082492 -60.23 0.0005798652    1.647    0.393
       144  -9.2599    185.9646    164.9556   8.5485175049e+01   1.1387008039e+01    0.1712098    0.1614329  -2.25 0.0003031517    1.045    0.043
       145  -9.4501     18.6636    164.7099   1.2408707078e+02   3.8135408987e+01    0.1099659   0.08096218 -52.33 0.0003275171    1.637    0.389
       146 -10.4817     24.5047    162.7068   1.2261726485e+02   3.8048788162e+01    0.2010301    0.1683135 -87.95 0.0002957959    1.112    0.100
       147  -9.5870     75.4726    162.0020   1.1056391426e+02   3.2217127433e+01    0.1992252    0.1230091 -66.46  0.000445943    1.522    0.343
       148  -9.6675    140.1013    160.8004   9.4796419085e+01   2.1416402077e+01    0.2164976    0.1886003  65.41 0.0004588275    1.175    0.149
       149 -11.2327     37.2195    159.0671   1.1934142690e+02   3.7616125092e+01    0.5535678    0.1988837  46.71  0.002317348    2.698    0.629
       150 -10.7391     30.1339    154.3236   1.2051176691e+02   3.9419346134e+01    0.3692036    0.2006672  51.48  0.001580116    1.829    0.453
       151  -8.7903     94.6544    159.7206   1.0553357096e+02   2.9830804049e+01    0.1326959    0.1121741 -15.73 0.0004004327    1.635    0.388
       152  -9.3023    113.9527    158.4298   1.0058960146e+02   2.6842131884e+01    0.2052108    0.1374054  41.68 3.322067e-05    1.474    0.322
       153  -9.2833     66.0158    158.0114   1.1230057587e+02   3.4446357165e+01    0.1596653    0.1400353  69.82 0.0004914266    1.097    0.088
       154  -9.7415    113.0362    153.6419   9.9926225827e+01   2.8091447021e+01    0.2067184    0.1763015  51.19 0.0006145642    1.146    0.128
       155  -9.2359     72.5040    154.0249   1.1012001666e+02   3.4495060146e+01    0.1930893    0.1230137 -66.01 0.0003358829    1.451    0.311
       156  -9.1800    107.7548    152.6540   1.0105332071e+02   2.9253712062e+01    0.1880797    0.1279278  50.22 0.0002352633    1.458    0.314
       157  -9.5424     45.8959    151.6103   1.1639923944e+02   3.8406962995e+01    0.1669787    0.1414109  75.58 0.0004188834    1.104    0.094
       158  -9.4182      1.5038    152.5959   1.2693871102e+02   4.2208100854e+01     0.114597   0.08647697  88.59 6.276267e-05    1.019    0.019
       159 -11.3512      5.6788    147.7549   1.2562334468e+02   4.2987782734e+01    0.2478125    0.1663887  70.69 -0.000275831    1.342    0.255
       160  -9.5005      4.8229    142.8185   1.2541872730e+02   4.4162052758e+01     0.172888    0.1266636 -71.03 0.0003265719    1.202    0.168
       161  -9.7557     27.8673    147.8099   1.2037266345e+02   4.1137816585e+01    0.1770128    0.1452948 -63.91 0.0003461958    1.252    0.201
       162 -11.0600     13.9713    142.8546   1.2324038732e+02   4.3471924769e+01    0.3206905    0.2674005 -69.50  0.001554367    1.212    0.175
       163  -9.3846     24.7803    144.4355   1.2076790789e+02   4.2201162924e+01    0.1344518    0.1221139  -4.88 0.0003670722    1.535    0.349
       164  -9.2261      1.5497    139.5704   1.2592488467e+02   4.5120090574e+01    0.1169991   0.08771823 -88.66 0.0001625754    1.031    0.030
       165 -10.0215     34.9870    137.6743   1.1741228180e+02   4.2830485708e+01    0.2434683    0.1391711 -86.11  0.001224122    1.684    0.406
       166 -10.4493    236.0363    137.2897   6.9793132375e+01   6.1876979139e+00    0.1932479     0.180487  15.66 0.0006452696    1.111    0.100
       167  -9.4354     49.8450    136.1701   1.1330551908e+02   4.1616531152e+01    0.1812291     0.142401 -49.46 0.0007312543    1.360    0.264
       168 -10.7584     41.4283    131.4868   1.1488278171e+02   4.3650465478e+01    0.3947646    0.2774242 -46.60  0.001322175    1.541    0.351
       169 -12.4180     28.3505    131.9096   1.1842490373e+02   4.4812393997e+01    0.2821788    0.2393125  75.02  0.001890855    1.170    0.145
       170 -10.3148     33.9353    129.4958   1.1662618911e+02   4.4868360759e+01    0.2343928    0.1653561 -51.63 0.0006735999    1.430    0.301
       171  -9.9143      7.9711    133.2848   1.2380721284e+02   4.6112071240e+01    0.1629431    0.1332944 -81.79 0.0005925746    1.083    0.076
       172  -8.9064     76.2947    132.7006   1.0557820928e+02   3.9030756912e+01    0.1413504    0.1026103  77.93 0.0003273901    1.570    0.363
       173  -9.4451     61.8741    131.1146   1.0925225363e+02   4.1377826229e+01    0.1766718    0.1446268 -50.94 0.0002650352    1.248    0.199
       174 -10.2749     17.8959    130.3907   1.2098129746e+02   4.6045822627e+01    0.3188039    0.1227578 -69.65  0.001215255    2.009    0.502
       175  -9.4387      3.3386    130.6974   1.2472307626e+02   4.7016280060e+01    0.1208403   0.07142488  69.72 0.0007038185    1.670    0.401
       176  -9.4712     77.8877    129.2678   1.0449664446e+02   3.9622161661e+01    0.2826563    0.1103216  41.51  0.001086649    2.637    0.621
       177  -9.7152     91.8155    126.0901   9.9993980770e+01   3.8210330476e+01     0.221623    0.1878175 -87.56 0.0005307029    1.228    0.185
       178  -9.4764     30.0658    125.4779   1.1713611553e+02   4.6178636119e+01    0.1521966    0.1264805  33.22 -3.069413e-05    1.450    0.310
       179 -10.5076      6.5543    122.1119   1.2306083788e+02   4.8777112448e+01    0.3447839    0.1910738  68.13  0.001929955    1.941    0.485
       180 -10.6062      2.3165    123.0077   1.2426061878e+02   4.8838220332e+01    0.2602437    0.1418122 -78.38  0.001075718    1.415    0.293
       181  -9.0952    128.3792    124.4890   8.9783007437e+01   3.1805383996e+01    0.1522286     0.145205 -61.56 6.686924e-05    1.033    0.031
       182  -8.8616     83.5786    124.7158   1.0200794298e+02   3.9854382140e+01    0.1458186    0.1103901 -18.39 0.0002741337    1.838    0.456
       183  -9.8523     69.1835    123.1042   1.0576490069e+02   4.2340575058e+01    0.2001644    0.1731749 -49.67 0.0002902823    1.169    0.144
       184  -8.8084     74.3139    122.3147   1.0414801390e+02   4.1811844651e+01    0.1413035    0.1050808 -31.65 0.0004379212    1.641    0.391
       185 -10.3645    237.9560    121.4782   6.5832835831e+01   8.4158217883e+00    0.2080483    0.1417773  49.68 0.0009614935    1.610    0.379
       186  -9.0530    123.4431    120.9567   9.0220899074e+01   3.3605117453e+01    0.2137154    0.1481477 -51.05 0.0001258889    1.420    0.296
       187  -9.1093     31.2643    121.3765   1.1624030631e+02   4.7043411213e+01    0.1324228   0.07871764 -49.16 0.0006985074    1.672    0.402
       188 -11.5013     19.6344    110.9036   1.1808924254e+02   5.0476089755e+01    0.7523407    0.1810533 -61.63  0.002995285    2.795    0.642
       189 -10.6129     15.4693    115.6717   1.1990162535e+02   4.9664755713e+01    0.4476234    0.2152038 -88.63  0.002161087    2.188    0.543
       190 -10.8766     21.5813    119.8174   1.1872573634e+02   4.8232115694e+01     0.406481    0.2378166  83.19  0.001106031    1.811    0.448
       191  -9.6142     24.6742    116.7120   1.1744491377e+02   4.8714681983e+01    0.2137242    0.1003055 -65.34 0.0006498734    1.675    0.403
       192  -9.3382     97.9521    118.7473   9.6663845747e+01   3.8910893855e+01    0.1918045    0.1867071  51.75 0.0003458207    1.088    0.081
       193  -9.6726     93.1158    119.1094   9.8112234443e+01   3.9651617884e+01    0.2254383    0.1947323 -28.74 0.0007221233    1.303    0.232
       194 -11.0237     55.3046    117.9463   1.0880499964e+02   4.5357051824e+01    0.2247768     0.195319  36.54 0.0003781882    1.316    0.240
       195 -10.0214     49.7757    117.4876   1.1033436403e+02   4.6105604372e+01     0.238736    0.1638913 -70.34 0.0007330733    1.289    0.224
       196 -10.1364    239.3209    117.3216   6.4638910755e+01   8.8236146443e+00    0.1449698    0.1068376   5.31 0.0004700809    1.673    0.402
       197 -10.2095     10.4810    116.9876   1.2144218611e+02   4.9703776574e+01    0.1675994     0.148562 -86.13 0.0004409057    1.153    0.133
       198 -11.4719      4.4885    109.6218   1.2226125735e+02   5.1782193694e+01    0.4627204    0.2074127 -73.62  0.002443015    1.712    0.416
       199  -9.6073    108.8631    114.6697   9.2641277649e+01   3.7887412336e+01    0.2043582    0.1893489  57.13 0.0005622063    1.117    0.104
       200 -10.8214     61.2760    113.0331   1.0611139806e+02   4.5803024301e+01    0.3660171     0.192603 -49.04  0.001056897    1.777    0.437
       201  -9.2700     34.1891    114.4217   1.1437245855e+02   4.8429466829e+01    0.1590284    0.1126449  50.19 0.0002664193    1.583    0.368
       202  -9.5943     47.9815    111.4790   1.0979431466e+02   4.7743557551e+01    0.1762992    0.1344662  29.36 0.0004163911    1.541    0.351
       203  -9.5686     93.0896    108.4911   9.5639998797e+01   4.2155025386e+01    0.2293019    0.1858383 -52.97 0.0006237303    1.156    0.135
       204  -8.8548     85.3365    108.2872   9.7882358647e+01   4.3484160195e+01    0.1446982    0.1116082 -20.19 0.0007017751    1.631    0.387
       205  -9.6654     37.3059    108.0379   1.1240277161e+02   4.9654948065e+01    0.2723404    0.1956809 -39.95  0.001577659    1.492    0.330
       206  -9.7339     35.8764    103.8169   1.1210606392e+02   5.0789920327e+01    0.1894676    0.1584509  82.17 0.0002646279    1.264    0.209
       207 -11.2236     47.6508    102.5785   1.0820583977e+02   4.9899153885e+01    0.4538741     0.262062 -66.44   0.00227817    1.558    0.358
       208 -11.3688     41.6823     98.8705   1.0936267462e+02   5.1397699263e+01    0.3166346    0.2432615  -0.80 0.0003928415    1.678    0.404
       209  -9.9511     29.2763    103.3680   1.1406468608e+02   5.1481450309e+01    0.2366288    0.1424365 -65.53 0.0005193236    1.346    0.257
       210  -9.1871    174.9327    102.9535   7.3015900753e+01   2.5931088047e+01    0.1793096    0.1716705 -32.03            0    1.031    0.030
       211 -10.4712    141.9411    100.8272   8.0150904789e+01   3.4070952652e+01    0.2426215    0.2174996 -39.46  0.000300193    1.103    0.093
       212 -10.3666      9.0301     99.3036   1.1964088775e+02   5.3890462070e+01    0.2535084    0.1796317  52.91  0.001092714    1.653    0.395
       213 -10.4429      3.8706     97.9833   1.2102609647e+02   5.4489283381e+01     0.301514    0.1593485 -62.64  0.001750527    1.429    0.300
       214  -9.4306    106.4991     97.4884   8.8861930089e+01   4.2246730324e+01    0.1516527    0.1431252 -30.64 -2.371437e-05    1.053    0.051
       215  -8.8916    103.3111     96.6907   8.9576178394e+01   4.3028984769e+01    0.1496022    0.1194618  89.08 0.0003364006    1.623    0.384
       216 -11.1288     54.1555     94.4084   1.0439641177e+02   5.1088001629e+01    0.3726012    0.2726682 -53.80  0.002086195    1.178    0.151
       217  -9.7021     23.1389     95.7978   1.1471832125e+02   5.3746384444e+01    0.1751702     0.145817 -84.44 0.0002902348    1.179    0.152
       218 -11.3094     46.0065     94.0917   1.0698965426e+02   5.2073707409e+01    0.2369631    0.2239447   1.32 0.0002930125    1.232    0.188
       219 -10.4449     31.2171     94.1855   1.1183404710e+02   5.3469511870e+01    0.3024198    0.1591252  58.59  0.001379333    2.803    0.643
       220 -10.2637      1.6486     93.0893   1.2106629942e+02   5.5722490143e+01    0.2250998     0.127786 -83.23 0.0006847997    1.565    0.361
       221 -10.5088    104.9663     91.0276   8.7502390952e+01   4.3968724550e+01    0.3256489    0.2191241  37.54 0.0007662389    1.575    0.365
       222  -9.5989     17.4714     91.4494   1.1581053386e+02   5.5161758259e+01    0.1238479   0.09866906 -65.83 0.0001255402    1.013    0.013
       223  -9.6322     30.8772     84.1344   1.0996820665e+02   5.5822878558e+01    0.2068141    0.1247916 -38.71 0.0005052938    1.652    0.395
       224 -11.1295     26.9935     88.1248   1.1208122355e+02   5.5225248545e+01    0.4352219    0.2263837 -50.36  0.001351543    1.606    0.377
       225 -11.8559     21.2213     87.6939   1.1392886704e+02   5.5763289512e+01    0.2179665    0.1815127 -64.40 0.0002646276    1.046    0.044
       226 -10.4974      7.0585     89.4848   1.1885781569e+02   5.6256007384e+01    0.2331939    0.1563628 -74.54 0.0006405191    1.220    0.180
       227  -9.9230     87.9428     88.6961   9.2039083743e+01   4.7558254661e+01    0.2579907    0.1875445 -38.79 0.0006271428    1.329    0.248
       228 -10.8647    123.5968     86.6541   8.0895192561e+01   4.1098049134e+01    0.3071557    0.2704026 -44.66 0.0005287761    1.119    0.106
       229  -9.8966     43.5226     88.0918   1.0651018276e+02   5.3727206960e+01    0.2075639    0.1134286 -61.03  0.001024579    1.574    0.365
       230  -9.4599     63.9647     86.7269   9.9299495937e+01   5.1630689364e+01    0.1833494     0.174014 -12.52 0.0005694043    1.133    0.118
       231 -10.1982     10.9027     85.4989   1.1698237239e+02   5.6943296095e+01    0.2896441    0.1638528  88.08  0.001527752    2.080    0.519
       232 -10.5659      2.4551     86.3580   1.1988231558e+02   5.7208324017e+01    0.2587684    0.1590527 -82.10  0.001568122    1.460    0.315
       233 -11.1110    155.2435     85.0787   7.2386544049e+01   3.4134510612e+01    0.2619283    0.2407548  48.28 0.0002907393    1.094    0.086
       234  -9.0198    129.9804     85.7376   7.8892451501e+01   3.9886810735e+01    0.1896468    0.1351202  45.93 0.0003297905    1.426    0.299
       235 -11.4785     50.4793     83.0168   1.0294544299e+02   5.4139073478e+01    0.3939436    0.2709065   4.82  0.001060515    1.896    0.473
       236 -10.4916     73.2098     80.7346   9.4578560539e+01   5.1669096236e+01    0.4322338    0.1848393 -39.44  0.001653956    2.480    0.597
       237 -10.0518     19.9975     81.4325   1.1318002600e+02   5.7281376626e+01    0.2261857    0.1534862 -82.23 0.0007286363    1.528    0.345
       238  -9.7313     57.0880     81.1114   1.0017771225e+02   5.3785750353e+01    0.2139984    0.1782795  36.48 0.0006786178    1.372    0.271
       239 -10.5394     44.3951     80.0879   1.0434803092e+02   5.5466256501e+01    0.2583224    0.1947973  19.52 0.0005922799    1.558    0.358
       240  -9.3291      2.2997     80.4534   1.1905172416e+02   5.8545331666e+01    0.1382795     0.106068  43.17 0.0009427943    1.638    0.390
       241 -10.9217     52.5196     75.6559   1.0033329984e+02   5.5555080325e+01    0.3562352    0.2691788 -20.45 0.0005798969    1.454    0.312
       242  -9.1862     28.8040     76.8122   1.0912625273e+02   5.7658357150e+01    0.2531393    0.1478052 -88.76  0.001186023    2.564    0.610
       243  -9.3699     29.4472     73.4703   1.0813754284e+02   5.8353859084e+01    0.2005954   0.08963961 -52.56 0.0001771536    1.738    0.425
       244 -10.6135     19.0270     74.2706   1.1210037081e+02   5.8962803314e+01    0.4092295    0.2502432 -52.46  0.002424249    1.289    0.224
       245  -9.6670     83.1732     75.0153   8.9565460490e+01   5.1333558161e+01    0.3571835    0.1722098 -29.05  0.001247624    3.130    0.680
       246 -10.6059     63.7722     75.7258   9.6380439962e+01   5.4113345424e+01    0.3857407    0.2396271  42.55  0.001350155    1.867    0.464
       247  -9.3069     93.4212     74.4513   8.6067386666e+01   4.9664614741e+01    0.2319731     0.181551 -46.92 9.140497e-05    1.241    0.194
       248  -9.3324     95.0116     71.4788   8.4615111947e+01   4.9981316941e+01    0.2064769    0.1445174  40.07 0.0004267792    1.498    0.332
       249  -9.6761     69.2486     73.8575   9.3930794932e+01   5.3750209387e+01    0.2000658    0.1756876 -58.80 0.0007494818    1.194    0.162
       250  -9.2495    169.2126     72.3578   6.5523476898e+01   3.3027733940e+01    0.2091359     0.147093  68.04 0.0002170492    1.580    0.367
       251 -10.7493     88.8396     71.3383   8.6552217184e+01   5.1127992980e+01    0.4261528    0.2189271 -52.49  0.000938401    2.100    0.524
       252  -9.1755    199.6113     71.5291   5.9567569807e+01   2.5558750583e+01    0.1490821    0.1411971 -47.64 0.0001196872    1.025    0.024
       253 -11.3810     79.7546     69.8829   8.9104476768e+01   5.2971515690e+01      0.22846    0.2156689 -15.74 0.0002670944    1.058    0.055
       254 -11.7883     52.7179     69.4772   9.8544496984e+01   5.6882490096e+01     0.241186    0.2176783 -37.06 0.0003179846    1.059    0.055
       255  -9.9215     56.8874     66.8000   9.6227786693e+01   5.6940507327e+01    0.2593006    0.2253189  79.92 0.0009428695    1.537    0.349
       256 -10.9790     44.4402     69.2015   1.0152215604e+02   5.7878018728e+01    0.3691528    0.2186521 -22.14  0.001340107    2.145    0.534
       257  -9.6370      1.2986     69.2862   1.1756391221e+02   6.1071295507e+01    0.1782674   0.09752133 -39.49 0.0002662751    1.717    0.418
       258 -11.6983      1.5838     63.5607   1.1641600503e+02   6.2308060317e+01      0.60347   0.09839785 -63.66  0.002272106    3.457    0.711
       259 -11.8189      6.0238     59.0564   1.1380089129e+02   6.3067794354e+01    0.4587537    0.3714398  60.35  0.002067747    1.633    0.387
       260  -9.9558    106.0696     66.9694   7.9716484933e+01   4.8722754321e+01    0.2222738    0.2140712   3.56 0.0006294202    1.041    0.039
       261  -9.6075     15.0065     65.1642   1.1165157403e+02   6.1237851444e+01    0.1993684     0.110293 -38.58 0.0008847492    1.666    0.400
       262 -10.2499     17.2033     60.9192   1.0982880480e+02   6.2016210793e+01    0.3167247    0.2161378  77.22  0.001796767    2.195    0.544
       263 -10.6208     21.8379     64.2148   1.0881322759e+02   6.0982452733e+01     0.473602    0.1477596 -57.55  0.001412351    2.344    0.573
       264 -12.2221     24.0430     57.5339   1.0625514922e+02   6.2250512100e+01    0.3765509    0.2848314 -44.87  0.000503604    1.055    0.052
       265 -10.7276     30.0965     53.4028   1.0263434477e+02   6.2617608417e+01    0.5031074    0.1839665  33.12   0.00221989    3.153    0.683
       266  -8.9265    144.2692     66.3246   6.9210325338e+01   4.0257651926e+01    0.1539578    0.1201144   9.75 0.0004275595    1.571    0.364
       267  -9.5828     75.3080     66.0569   8.9401031826e+01   5.4471680972e+01    0.1929127    0.1618163 -38.45   0.00025982    1.088    0.081
       268  -9.6288     64.0526     69.4669   9.4440065491e+01   5.5424290574e+01    0.1900388    0.1354848  30.10 0.0005132502    1.548    0.354
       269 -10.9430     32.1060     64.6305   1.0496068315e+02   6.0068470699e+01    0.3335597    0.2158521  24.34  0.001454986    1.812    0.448
       270  -9.0236    135.3282     64.6589   7.0863698446e+01   4.2691569742e+01    0.1579999    0.1215261 -74.03 0.0007051452    1.739    0.425
       271 -10.7948     71.1480     60.5189   8.9038970718e+01   5.6235359845e+01    0.4207439    0.2610488  42.48  0.002088255    1.826    0.452
       272 -10.1520     31.8534     59.0642   1.0355131118e+02   6.1280509007e+01    0.2217266    0.2020908  74.01  0.001496433    1.432    0.302
       273  -9.0710    238.4480     58.4785   5.0520993759e+01   1.8306184186e+01    0.1388479    0.1244209 -52.52 5.520083e-05    1.013    0.012
       274  -9.9034     52.4253     54.2300   9.3926256696e+01   6.0087748460e+01    0.2390308    0.1215778 -58.84  0.001045831    2.398    0.583
       275 -10.6853     38.7770     56.9055   1.0016907254e+02   6.1077517248e+01    0.2571122    0.2080029  71.04  0.001034564    1.827    0.453
       276 -11.3929     42.2273     51.3053   9.7017483959e+01   6.1858124140e+01    0.4413995    0.2346073 -30.53  0.001752437    1.958    0.489
       277  -8.9441    249.7387     56.3350   4.8679116767e+01   1.6101868602e+01    0.1415373   0.08846126 -56.65 0.0002766358    1.578    0.366
       278  -9.7316    118.5547     55.4224   7.2151703730e+01   4.8160259235e+01    0.2663984    0.1420939 -23.23   0.00058265    2.325    0.570
       279 -10.6250     93.0809     54.6370   7.9487836792e+01   5.3582460107e+01     0.323428    0.2040912 -28.02 0.0003421227    1.623    0.384
       280 -10.8880     94.4407     49.5681   7.7197581579e+01   5.4216535949e+01    0.4331071    0.2389553  32.91  0.001173306    2.000    0.500
       281  -8.8394    145.3011     54.2932   6.5048285579e+01   4.2034216973e+01    0.1534059    0.1153323  21.75  0.000524914    1.570    0.363
       282  -9.1835    177.1219     53.6173   5.8358012533e+01   3.4085871656e+01    0.2274661    0.1281711  48.61 0.0009440833    1.792    0.442
       283 -10.2255    151.3014     53.1113   6.3324447481e+01   4.0730584113e+01     0.246579    0.1953214  43.14 0.0003529173    1.256    0.204
       284  -8.9345     75.2966     53.2955   8.5043039254e+01   5.6976464441e+01    0.1388428    0.1002753  -8.89 0.0002898576    1.566    0.361
       285  -9.7014     23.8212     46.6416   1.0324254715e+02   6.4518796562e+01    0.3632847    0.1531339  30.09  0.001809275    2.749    0.636
       286 -11.5111     17.1028     46.9994   1.0623979798e+02   6.4941645300e+01     0.565625    0.2879177 -33.27  0.003046844    1.850    0.460
       287 -11.7564      7.2262     50.0932   1.1126183946e+02   6.4900574284e+01     0.463955    0.2948566 -30.39  0.002977587    1.501    0.334
       288 -12.0758     12.4058     43.8996   1.0740217936e+02   6.5875818495e+01    0.2626152    0.1686851 -45.12 0.0004073109    1.185    0.156
       289 -11.3910     14.4569     39.5207   1.0519387127e+02   6.6618962564e+01    0.2684672    0.1975296 -40.81 0.0006217336    1.040    0.039
       290  -9.4821    199.3510     51.9474   5.4171699545e+01   2.8673368881e+01    0.1975392    0.1843625 -43.71 0.0004300782    1.075    0.070
       291 -10.4313    122.8257     51.9279   6.9770408305e+01   4.7780693962e+01    0.3757386    0.2104652  46.45  0.001327089    1.743    0.426
       292 -10.1228     60.9332     51.9527   8.9860102803e+01   5.9409498888e+01    0.1967225    0.1794684 -22.69 0.0005672319    1.093    0.085
       293 -10.6357     65.6984     49.2457   8.7083880533e+01   5.9233148915e+01    0.3040458    0.1949539 -28.05   0.00110903    1.519    0.342
       294 -11.0679     13.6656     35.7347   1.0436663243e+02   6.7411113373e+01    0.2671783    0.1847713 -10.39 0.0004022677    1.502    0.334
       295  -9.9456     47.1205     47.2828   9.3659374604e+01   6.2093494693e+01    0.3570963    0.1741555 -25.40  0.001266894    2.731    0.634
       296 -10.0662     31.7928     47.8257   1.0021396591e+02   6.3598795834e+01    0.1786864     0.137859 -29.16 0.0007977443    1.132    0.116
       297  -9.9491    114.5514     46.7921   7.0171558441e+01   5.0477999743e+01    0.2474392     0.141784 -28.49 0.0005311578    1.808    0.447
       298  -9.4994     38.6617     46.7667   9.6975629519e+01   6.3134991019e+01    0.1950857    0.1519252  48.45  0.001183289    1.782    0.439
       299  -9.0255    165.0300     46.0026   5.8250772600e+01   3.8321156721e+01    0.1727087     0.169801 -46.07 0.0003417803    1.046    0.044
       300 -11.5292     62.0769     44.2840   8.6615439729e+01   6.0678159391e+01    0.3628977    0.2201239 -40.25    0.0014814    1.494    0.330
       301  -9.3228    123.0516     45.2408   6.7329834465e+01   4.8792767878e+01    0.1899122    0.1197149  50.21 0.0003425244    1.540    0.351
       302 -10.0370     67.4038     44.2916   8.4589958186e+01   5.9876295089e+01    0.2341558    0.1531112  21.98  0.000775475    1.673    0.402
       303  -9.9725    199.9860     43.1103   5.1612632038e+01   2.9772958101e+01    0.2103697    0.2034576 -85.39 0.0004200813    1.053    0.050
       304 -11.9188    103.5921     39.0825   7.0405501187e+01   5.4052503513e+01    0.3818668    0.2461306 -26.01 0.0004405987    1.568    0.362
       305  -9.2630     52.9952     42.7216   8.9614214270e+01   6.2219377961e+01    0.1705534    0.1466072 -14.41 0.0002843956    1.055    0.053
       306 -10.2385     38.3543     40.5633   9.4933674108e+01   6.4358910006e+01     0.407021    0.2082237   7.68  0.001621074    2.888    0.654
       307  -9.6312     33.0210     43.3450   9.8211524247e+01   6.4366589450e+01    0.1631925    0.1427933 -25.66   0.00058698    1.114    0.102
       308  -9.9847     31.0165     39.1096   9.7619166303e+01   6.5370807513e+01    0.3488438    0.1461128 -55.74 0.0009292962    2.444    0.591
       309 -10.3686     21.4429     40.3964   1.0232328430e+02   6.5944978981e+01     0.349934    0.1843956   5.99  0.001873285    2.375    0.579
       310 -11.1191      4.8740     38.5655   1.0926974838e+02   6.7371138527e+01    0.3913179    0.3274183  40.92  0.002879093    1.648    0.393
       311 -10.2477      4.5438     32.4337   1.0762846840e+02   6.8591876179e+01    0.2782547    0.1477075 -37.78  0.001018666    1.496    0.331
       312  -9.6016     82.4805     39.0214   7.7099032888e+01   5.8228544047e+01    0.1967142    0.1730742  13.83 0.0004448793    1.078    0.072
       313 -10.1478     85.9951     37.0217   7.5109552437e+01   5.7894482889e+01    0.2036774    0.1775173  -1.25            0    1.034    0.033
       314 -11.5020    136.2146     35.9380   6.0822055704e+01   4.6995835896e+01    0.2993449     0.248931 -21.17 0.0002987372    1.253    0.202
       315 -10.0013    117.7563     38.2157   6.6135641732e+01   5.1058667139e+01    0.3583032    0.2374426  78.97  0.001271869    2.357    0.576
       316  -9.0280     97.3024     38.7054   7.2152114332e+01   5.5416618594e+01    0.1301868    0.1130101 -71.89 0.0002529128    1.575    0.365
       317 -11.6277    156.1588     36.5519   5.6897746333e+01   4.1910650338e+01    0.3309322    0.2594882 -62.51 0.0003300642    1.448    0.309
       318 -10.2518    208.5313     35.6081   4.8402168154e+01   2.8635914003e+01    0.2882407    0.1946106  21.52  0.001308776    2.245    0.555
       319 -12.2758    194.0627     35.0339   5.0184882282e+01   3.2360559301e+01    0.2795022    0.2581531 -85.96 0.0003658991    1.016    0.016
       320  -9.5451    198.7038     34.6780   4.9441598252e+01   3.1226787689e+01    0.2154157    0.1919618  51.69 0.0004895378    1.193    0.162
       321 -10.8629    129.6810     35.5949   6.2200914083e+01   4.8628789296e+01    0.4531688    0.2786874  74.66  0.001923471    2.197    0.545
       322 -10.5329     74.6585     34.6867   7.8091452260e+01   6.0305134056e+01     0.281012    0.1447197  25.33  0.001201751    2.453    0.592
       323 -10.6972     77.0045     33.0045   7.6556586972e+01   6.0157954233e+01    0.3265608    0.2099332 -60.56  0.001424202    2.960    0.662
       324  -9.2117     55.5375     29.4982   8.3266550153e+01   6.4151212673e+01    0.1295117     0.106892 -12.31 0.0001194507    1.007    0.007
       325 -10.2836     60.9910     32.7027   8.2427437381e+01   6.2830761043e+01    0.2511167     0.164305 -36.57 0.0004023638    1.422    0.297
       326  -9.7318     58.2975     35.2645   8.4555271834e+01   6.2803566906e+01     0.209309    0.1623414   8.64 0.0001653981    1.265    0.209
       327 -10.6385     55.0936     33.1401   8.4978624596e+01   6.3616626095e+01    0.2273033    0.1789873 -34.84 0.0002839147    1.220    0.180
       328 -10.0124     40.4296     35.0097   9.1945459775e+01   6.5151547244e+01    0.1709933      0.14245 -17.98 0.0001624823    1.055    0.052
       329  -9.0312     47.5401     34.4246   8.8649993644e+01   6.4403777985e+01    0.1285774    0.1031709 -17.94  0.000191552    1.052    0.050
       330 -10.2908     22.9029    238.3182   1.2802706631e+02   2.2857524575e+01     0.199765    0.1446093  80.12 0.0004635183    1.141    0.123
       331  -9.6699     66.8248     32.8593   8.0232935225e+01   6.1897899712e+01    0.2015471     0.156492  -9.58 0.0005311164    1.189    0.159
       332  -9.9136    233.0770     31.9956   4.4647847330e+01   2.3165686913e+01     0.201311    0.1747089 -67.42 0.0003609792    1.020    0.019
       333 -12.0838    107.6805     28.8924   6.5253684090e+01   5.4609947864e+01    0.4198776     0.315141 -22.50  0.001580087    1.346    0.257
       334 -11.2350    106.4899     21.4989   6.2611404772e+01   5.5801619393e+01    0.4943648    0.3111357  62.90   0.00067434    1.786    0.440
       335  -9.4019     36.3840     32.1180   9.2604137957e+01   6.6114075035e+01    0.2306267    0.1378817  23.29 0.0009692176    1.813    0.448
       336 -10.2558    206.0682     31.0791   4.7492815335e+01   2.9831928062e+01    0.2115032    0.1899879 -72.88 0.0003890415    1.030    0.029
       337 -10.6032    158.8575     29.9937   5.4250051531e+01   4.2065763304e+01    0.2503398    0.2250928  85.18 0.0003639691    1.128    0.114
       338 -10.3725     25.0888     30.6447   9.7229716038e+01   6.7486582686e+01     0.248409    0.2152443  -2.76  0.001133178    1.235    0.190
       339  -9.2372    128.3459     40.3061   6.4221421816e+01   4.8285733795e+01    0.1561127    0.1069588  24.55 0.0007042472    1.695    0.410
       340 -11.0604    221.3047     29.1505   4.5198623103e+01   2.6323514430e+01     0.330191    0.2060468 -44.47  0.001004594    1.485    0.326
       341 -10.4682     71.9967     29.0317   7.6681350145e+01   6.1631514821e+01    0.2077001    0.1750738  -2.66 0.0006745121    1.030    0.029
       342 -10.2066     32.0873     28.6373   9.3175180579e+01   6.7178222887e+01    0.2738629    0.1949025  -0.16  0.001740013    1.411    0.291
       343 -10.2731     19.2470     29.0692   9.9419097259e+01   6.8263110074e+01    0.1765571    0.1440421 -19.55  0.000422953    1.129    0.114
       344 -10.0412    211.9699     28.0904   4.5982502562e+01   2.8737048936e+01    0.2065699    0.1866187 -72.42 0.0004150076    1.011    0.011
       345 -10.2524    181.7796     27.5810   4.9785284355e+01   3.6449900879e+01    0.2632655    0.1994802 -28.89 0.0009505644    1.399    0.285
       346 -11.4506     48.5088     26.4979   8.4921613205e+01   6.5604922871e+01    0.3146906    0.2805457  62.21 -0.0004154328    1.790    0.441
       347 -10.0468     38.7558     27.1798   8.9517739720e+01   6.6703796663e+01    0.2806407    0.1891235 -51.08  0.001641065    1.733    0.423
       348  -9.4862     99.8608     27.1480   6.6758229271e+01   5.6532054666e+01    0.1945394    0.1476123  18.51 0.0003861076    1.318    0.241
       349 -10.8350    165.4631     26.1041   5.1863178614e+01   4.0839255799e+01    0.3197475    0.2081305  78.19   0.00124209    1.630    0.387
       350  -9.6973    118.1745     33.1071   6.4106828748e+01   5.1677904532e+01    0.1857174    0.1711348 -82.00 0.0006762083    1.304    0.233
       351 -10.5718     15.3226     18.3954   9.7185536404e+01   7.0463313658e+01    0.3456656    0.1749449 -21.12  0.001421522    2.061    0.515
       352 -11.0431     19.4319    247.2898   1.2901530227e+02   2.1651659836e+01    0.2565342   0.08945687  42.67  0.001262718    2.237    0.553
       353 -10.9495      8.1879     21.8656   1.0224402989e+02   7.0358518474e+01    0.5754614    0.1237979  27.55  0.002383573    4.836    0.793
       354 -11.0907     15.9695    243.9890   1.2941317368e+02   2.2580742613e+01    0.2397437    0.1469023  69.79  0.001135009    1.150    0.131
       355 -11.4733     18.4922     23.7329   9.7745147989e+01   6.9283232790e+01    0.2568895    0.1634645 -43.54 0.0006828731    1.289    0.224
       356 -10.6161    170.0694     23.4441   5.0290922838e+01   3.9962804902e+01    0.2328686    0.1872937 -59.63 0.0004217982    1.311    0.237
       357  -9.9037     61.7103     23.4123   7.8115790698e+01   6.4154472645e+01    0.3295895    0.1835591   7.59  0.001455519    2.659    0.624
       358 -10.7636    229.5609     22.6925   4.2731658376e+01   2.5140465633e+01    0.2815703    0.1329686  56.73  0.001270732    2.208    0.547
       359 -10.4285    153.6945     23.0223   5.2870811951e+01   4.4220801627e+01    0.2594473    0.1887951  53.19   0.00031554    1.273    0.215
       360 -10.4211    124.0044     22.5641   5.8699640502e+01   5.1639146714e+01    0.4346088    0.2707366 -75.58  0.001751027    2.945    0.660
       361 -12.3984    116.9340     22.1873   6.0224693770e+01   5.3347503907e+01    0.2983135    0.2451224 -19.13 0.0006162364    1.259    0.206
       362 -10.2389     26.4007     21.9490   9.3110076335e+01   6.8891638537e+01     0.279314    0.1635108 -23.64 0.0008306973    1.566    0.362
       363 -11.1773    176.0616     21.4555   4.8781216913e+01   3.8644306541e+01    0.3688243    0.1882259  44.90  0.001556856    2.130    0.530
       364 -10.1639    132.6909     21.7934   5.6504227433e+01   4.9627530058e+01    0.2667968    0.1828403 -83.41  0.001228884    2.066    0.516
       365 -11.7156     20.6198    242.0057   1.2857917884e+02   2.2445496879e+01    0.4392697    0.1409392  56.72   0.00240731    2.325    0.570
       366  -9.5896     40.9847     21.5091   8.6035373594e+01   6.7361916434e+01    0.2048649    0.1117856  26.13 0.0006227948    1.921    0.479
       367 -10.6060     36.2923     21.1827   8.8048222995e+01   6.7972703462e+01    0.2706994    0.1643286  19.22 0.0009850635    1.722    0.419
       368 -10.0533    190.0452     20.0184   4.6451443700e+01   3.5214831779e+01    0.2095773    0.1806199  52.57 0.0004163293    1.207    0.171
       369 -10.3246    192.8943     17.0540   4.5257134183e+01   3.4820381976e+01    0.2043158    0.1843195 -89.66 0.0003794817    1.005    0.005
       370  -9.4468    223.7597     18.9947   4.2390714165e+01   2.6955535991e+01    0.1680083    0.1072628 -32.97 0.0004788536    1.563    0.360
       371 -10.9997      8.6901    241.3695   1.3044798495e+02   2.3767899487e+01    0.2432249    0.1462436  41.08  0.001799223    1.698    0.411
       372 -10.4431    169.3455     14.2601   4.7546901852e+01   4.1157682183e+01    0.2837914    0.1707755  50.55  0.000187621    1.603    0.376
       373 -10.0504    210.9561    245.4875   9.4899689276e+01  -5.3756158605e+00    0.1658087    0.1368609   9.51 0.0005368817    1.145    0.127
       374  -9.6071    148.4569    246.1823   1.0634875199e+02   4.3100918951e+00    0.1367242    0.1132114 -87.96 0.0004503075    1.559    0.359
       375 -11.5477    201.8550    244.4444   9.6364812975e+01  -3.8615235724e+00    0.2466931    0.1797939  22.61 0.0002730372    1.153    0.133
       376 -10.1488     45.9701     17.3933   8.1903188754e+01   6.7342205844e+01    0.2635938    0.2085674  60.28  0.001561912    2.285    0.562
       377  -9.3394     61.5295     17.5431   7.5494425986e+01   6.5007469874e+01    0.1276547    0.1059636  -0.12 2.337632e-05    1.012    0.012
       378 -10.1111    230.0283     16.0255   4.1070299452e+01   2.5810129670e+01     0.200536    0.1656857 -66.38 0.0003068751    1.057    0.054
       379  -9.6132     97.4483    244.7511   1.1554668995e+02   1.2319823240e+01    0.1352313    0.1080088 -57.09  0.000915022    1.621    0.383
       380  -9.3438    112.4772     15.5009   5.8668623760e+01   5.5127243017e+01    0.1387314     0.121432  31.24  -2.8849e-05    1.026    0.025
       381 -10.5954     73.1732    244.3622   1.1984746193e+02   1.5763008472e+01    0.2105179    0.1571602  82.83 0.0008095769    1.249    0.200
       382 -11.4363     75.9479    240.7851   1.1906763802e+02   1.6011170696e+01    0.3657112    0.1860626  60.82 0.0006197939    1.744    0.427
       383 -11.1410      4.5890    246.2612   1.3127664114e+02   2.3320701349e+01    0.1877024    0.1367481  70.00 0.0006377024    1.142    0.125
       384 -11.1200     31.9999    244.0237   1.2683297159e+02   2.0862661991e+01     0.171961    0.1419622  83.29 -0.003769674    1.309    0.236
       385  -9.4023    127.5573     14.5016   5.4885212416e+01   5.1669280238e+01    0.1378105    0.1256985  42.64 0.0001330818    1.012    0.011
       386  -9.8110    103.0148     14.2496   6.0547204517e+01   5.7391072251e+01    0.1857114    0.1593695  34.07 0.0003290718    1.042    0.040
       387  -9.9959     88.9809     13.6767   6.4247648088e+01   6.0435041538e+01    0.1832117      0.14877  36.73 0.0002770385    1.135    0.119
       388 -11.6608    166.3992     17.8599   4.9107170407e+01   4.1534436125e+01    0.3256342    0.2340605  59.30 0.0003266841    1.277    0.217
       389 -10.7522     33.8118    239.3720   1.2627643801e+02   2.1481264181e+01    0.2317286      0.17368  43.00  0.001185698    1.495    0.331
       390  -9.5817    154.9122     13.4907   4.9498449490e+01   4.4939232912e+01    0.2073054    0.1284389  67.07 0.0004318783    1.489    0.328
       391  -9.9405     62.8843    242.9937   1.2154462010e+02   1.7345865193e+01     0.170177    0.1198869  66.72 0.0005361787    1.095    0.087
       392  -9.4700     51.4394     13.2224   7.7532530412e+01   6.7151568052e+01     0.166933     0.105428 -38.45 0.0009471588    1.708    0.415
       393 -10.5548    110.0983    240.2390   1.1278369464e+02   1.1206798923e+01    0.3300701    0.1934177  81.83  0.001419664    2.410    0.585
       394  -9.7820     91.8178    242.1374   1.1632511074e+02   1.3570359829e+01    0.1790335    0.1241543  62.42 0.0005460104    1.202    0.168
       395  -9.4093     65.6484     18.7041   7.4449118469e+01   6.4172874802e+01    0.1986748    0.1380695  -7.31  0.001131115    1.389    0.280
       396  -9.5039     32.5304     12.4644   8.5780671122e+01   6.9749970716e+01    0.1191786   0.09292418 -14.09 4.667708e-05    1.022    0.021
       397  -9.9277     55.2192    241.1402   1.2274348653e+02   1.8638335599e+01    0.2136795    0.1172668  89.14 0.0008489729    1.803    0.445
       398 -10.6308    134.1789    240.8318   1.0835921889e+02   7.3871719938e+00    0.1770968    0.1393106  55.44 0.0004851752    1.133    0.117
       399  -9.3018    179.5238    243.9969   1.0034745908e+02  -3.1000440055e-01    0.1521056   0.09734219  -8.69  0.000697597    2.434    0.589
       400 -10.1580    246.7312    239.9713   8.7867073999e+01  -9.9293518127e+00    0.1645781    0.1248521   4.36  0.001182033    1.103    0.093
       401 -11.4810    143.7899    237.6870   1.0617003790e+02   6.3521571128e+00    0.4521368    0.1661345  41.07  0.001229424    2.196    0.545
       402  -9.8316    119.7134    240.6231   1.1103687577e+02   9.6773952011e+00    0.1712964   0.08919179  47.99 0.0005852698    1.544    0.352
       403 -10.9884     17.6084    233.0543   1.2863718752e+02   2.4355148487e+01    0.2735732    0.1924567  63.04  0.001448121    1.114    0.103
       404 -11.7214     12.7901    235.0886   1.2952172122e+02   2.4474833641e+01    0.3258872    0.1909749  88.79  0.002370737    1.393    0.282
       405 -11.0102     10.7608    230.9955   1.2966647077e+02   2.5415082512e+01    0.1826085     0.146717  74.63 0.0007008421    1.244    0.196
       406  -9.8411    167.9518    237.9389   1.0165499976e+02   2.4016373546e+00    0.1802244    0.1369469  63.63 0.0007627279    1.615    0.381
       407 -10.2422    100.9877    236.3085   1.1407707066e+02   1.3239010919e+01    0.1698311    0.1441179  78.93 0.0003495961    1.177    0.151
       408 -10.4801    104.2950    237.6554   1.1359672355e+02   1.2515102898e+01    0.1797304    0.1528453   1.33  0.000941752    1.842    0.457
       409  -9.5849     96.0437    238.4834   1.1520897948e+02   1.3588853804e+01    0.1806583   0.09424594  44.44 0.0005758614    1.548    0.354
       410  -9.4649     84.2523    238.1551   1.1734237419e+02   1.5329144672e+01    0.1664545    0.1051321  60.38  0.001045802    1.313    0.238
       411  -9.4734     62.9730    237.7066   1.2113669771e+02   1.8268454602e+01     0.152699    0.1105844  61.88  0.001076536    1.043    0.041
       412 -11.0472      4.9405    237.6102   1.3088475382e+02   2.4792602453e+01    0.2420915    0.1182213  60.96 0.0006293645    1.467    0.318
       413 -10.8071      3.7251    232.9698   1.3088996081e+02   2.5735076725e+01     0.206586    0.1508456 -81.69  0.001319482    1.427    0.299
       414  -9.6267     44.8690    236.9804   1.2425402936e+02   2.0635767237e+01    0.2763936   0.08526786  51.41  0.001375769    2.446    0.591
       415  -9.5439    133.3806    234.6758   1.0777312441e+02   8.5062100897e+00    0.1876878    0.1190912 -64.71 0.0005700176    1.994    0.498
       416 -10.0283    230.7101    232.8800   8.9459920871e+01  -6.8185993626e+00    0.1956788     0.129113  21.74 0.0003660646    1.255    0.203
       417  -9.2503    173.3190    233.3376   1.0000024982e+02   2.1999878790e+00    0.1245498   0.08791865  12.00 0.0007049427    1.706    0.414
       418  -9.1804    156.6945    233.3398   1.0315387485e+02   4.9320964597e+00     0.122263   0.08839495  65.37 0.0007041204    1.679    0.405
       419  -9.6052     41.4733    232.2460   1.2453845601e+02   2.1895007768e+01      0.18741   0.08946551 -69.84  0.001117482    2.095    0.523
       420  -9.5349    142.5223    232.4344   1.0574463029e+02   7.3950730960e+00    0.2097537    0.1327821  45.97 0.0006540171    1.302    0.232
       421  -9.7396    146.2641    231.6157   1.0491999985e+02   6.9159449498e+00    0.2161638    0.1440471  47.34 0.0006059586    1.263    0.208
       422 -11.4242     46.9014    230.1895   1.2344714632e+02   2.1633694653e+01    0.3358248    0.1774707  64.78   0.00108915    1.584    0.369
       423 -11.2673     29.3229    230.8521   1.2655177118e+02   2.3520280285e+01    0.2013205    0.1498875  79.65 0.0004111444    1.119    0.107
       424  -9.5536     25.0133    231.9933   1.2734669031e+02   2.3775363467e+01     0.178426   0.08587881  65.04  0.000527419    1.648    0.393
       425 -10.2076    175.5359    227.2345   9.8686913046e+01   2.7405335104e+00    0.2917237     0.214041 -78.57  0.001600525    2.368    0.578
       426  -9.3136    170.2996    229.3332   9.9995545044e+01   3.2963183972e+00    0.1235107   0.09005461  10.85 0.0002566093    1.651    0.394
       427 -10.6533     73.2649    226.1150   1.1830690051e+02   1.9026552265e+01     0.351822    0.1598281  60.58  0.001424075    2.147    0.534
       428 -11.0893      2.0577    225.2054   1.3083906223e+02   2.7302938061e+01    0.2579174    0.1733231 -72.97  0.001115721    1.607    0.378
       429 -10.7186      8.7154    223.9274   1.2968060738e+02   2.6914063191e+01     0.222668    0.1583734  51.62  0.001170209    1.347    0.258
       430  -9.2188    206.4522    224.9718   9.2524256271e+01  -2.0354799194e+00    0.1502969    0.1111013 -66.58 0.0008083736    2.587    0.613
       431  -9.5938    164.5302    225.5302   1.0055198688e+02   4.8481461485e+00    0.1277787    0.1062864  38.84 6.850281e-05    1.016    0.016
       432  -9.4319    108.8056    225.1243   1.1138815234e+02   1.4031202729e+01    0.1489207    0.1421584  28.05 0.0005485436    1.329    0.248
