#   1 NUMBER                 Running object number                                     
#   2 MAG_AUTO               Kron-like elliptical aperture magnitude                    [mag]
#   3 X_IMAGE                Object position along x                                    [pixel]
#   4 Y_IMAGE                Object position along y                                    [pixel]
#   5 X_WORLD                Barycenter position along world x axis                     [deg]
#   6 Y_WORLD                Barycenter position along world y axis                     [deg]
#   7 A_WORLD                Profile RMS along major axis (world units)                 [deg]
#   8 B_WORLD                Profile RMS along minor axis (world units)                 [deg]
#   9 THETA_WORLD            Position angle (CCW/world-x)                               [deg]
#  10 FWHM_WORLD             FWHM assuming a gaussian core                              [deg]
#  11 ELONGATION             A_IMAGE/B_IMAGE                                           
#  12 ELLIPTICITY            1 - B_IMAGE/A_IMAGE                                       
         1  -9.8873     21.7106     32.3230   6.0122236630e+01   6.7670293252e+01    0.4678435    0.2836882 -23.98 0.0004591237    1.422    0.297
         2  -8.9645     46.0295     20.7951   4.3736082843e+01   6.6511317126e+01    0.3615226    0.1621652 -35.62  0.001806228    2.238    0.553
         3  -9.5838     79.2754     12.5077   2.7726810115e+01   6.1674616852e+01     0.482437    0.2378584  54.41   0.00235854    1.943    0.485
         4  -9.0676     74.3202     13.3151   2.9634961940e+01   6.2562207093e+01    0.3510192    0.1911581  19.40  0.001209749    2.143    0.533
         5  -9.1514     64.0513     13.6867   3.3320703025e+01   6.4427647998e+01     0.380661    0.1753376  35.75  0.001129629    1.941    0.485
         6  -8.2820     87.6049     13.1447   2.5535917146e+01   5.9922849014e+01    0.3016273    0.1665662  19.82  0.001451336    2.183    0.542
         7  -8.4680     96.7324     12.0387   2.2648750821e+01   5.8092731905e+01     0.316668    0.1701427  25.59  0.001122795    2.167    0.539
         8  -8.4530    106.8793     11.2261   1.9896551585e+01   5.5929201693e+01    0.2637221    0.1826555  42.12  0.001515262    1.256    0.204
         9  -9.8577     31.7473     10.8177   4.5648580727e+01   6.9746240004e+01    0.2483353    0.1704566   6.03 0.0002696914    1.213    0.176
        10  -8.5658    142.9902      9.1389   1.2354268337e+01   4.7666572007e+01    0.1949937    0.1605036  59.13 0.0004257295    1.072    0.067
        11  -9.7609     20.5322      8.3163   5.0157011597e+01   7.1400396485e+01    0.2670605    0.1796381  16.23 0.0002134377    1.305    0.234
        12  -9.0534      4.0422      6.9009   5.8821330381e+01   7.3143409047e+01    0.6600981    0.2607361  -5.59  0.002469272    5.184    0.807
        13 -10.2217     13.9200      4.0284   5.1636787185e+01   7.2652840621e+01    0.2646796    0.1834383   2.45 0.0003123224    1.138    0.121
        14  -9.7441     76.3534      6.4946   2.6061436900e+01   6.2811683793e+01    0.3364338    0.1772307  43.96  0.001805753    1.552    0.356
        15 -10.3658     84.9554      5.1234   2.2999484296e+01   6.1190396779e+01     0.242586    0.1957217  25.87 0.0003272652    1.106    0.096
        16  -7.6729    179.5519      5.0122   6.4371937517e+00   3.9279720965e+01    0.1629664    0.1239004 -32.26 0.0003309459    1.514    0.339
        17  -7.5221    120.3200      5.3217   1.5020436045e+01   5.3356818381e+01    0.1370045    0.0808676  38.45 0.0007044397    1.670    0.401
        18 -10.1297     49.0107      4.0660   3.4579882083e+01   6.7978527943e+01    0.3075253    0.1785806  27.20 0.0003327224    1.477    0.323
        19  -8.8192     57.2935      3.5861   3.1140362140e+01   6.6626085368e+01    0.3714864    0.1664728  31.33  0.001840413    2.099    0.524
        20  -8.3849     41.4118      5.0299   3.8275759579e+01   6.9068038656e+01    0.2289128    0.1306572  23.23 0.0008274217    1.552    0.356
        21  -8.7776    110.5686      2.4301   1.5915669257e+01   5.5824867451e+01    0.2744432    0.2280802 -47.71  0.001755545    1.474    0.322
        22  -7.4543    114.0192      1.2064   1.4801144787e+01   5.5130741833e+01    0.2579174    0.1092435  65.10 0.0007326228    2.056    0.514
        23  -8.4332    153.6833      2.9037   8.9790234836e+00   4.5638903760e+01    0.2100364    0.1450134  62.36 0.0002912238    1.231    0.188
        24  -8.2754    125.2737      3.0769   1.3369438655e+01   5.2380045616e+01    0.1900789    0.1477943  41.52 0.0004935141    1.227    0.185
        25  -7.4327     31.0108      1.9741   4.1539266724e+01   7.0877863006e+01    0.1388153    0.1034228   3.85 0.0004220214    1.030    0.029
        26  -8.4717    133.0396      3.7155   1.2263773837e+01   5.0499752904e+01    0.3653108    0.1649754  38.03  0.001290947    2.564    0.610
        27  -7.5075    199.0430    100.9978   2.7986928543e+01   2.0983784702e+01    0.1747728    0.1572974 -46.39            0    1.050    0.048
        28 -10.0231    211.5935    249.1505   5.6097749102e+01  -7.7753485205e+00    0.5250182    0.1790518  28.77  0.002165283    2.928    0.658
        29  -9.3740    200.9873    249.9956   5.8275781896e+01  -6.3948995323e+00    0.2641195    0.1477516  31.27   0.00146243    1.514    0.340
        30 -10.5875    183.3736    249.6293   6.1691893574e+01  -3.7576387143e+00    0.6715127    0.1572215  37.77  0.002369513    3.595    0.722
        31 -10.2442    194.9171    246.6461   5.8938817402e+01  -5.0245186088e+00    0.2901516    0.2688524 -39.28  0.001996685    1.451    0.311
        32  -7.9752     99.1043    250.6670   7.9053267020e+01   8.9232173085e+00    0.1785823   0.09824447  39.47 0.0003035535    1.520    0.342
        33  -7.9567     65.0063    101.4567   6.3733564820e+01   4.8618007605e+01    0.2092776    0.1417788  31.36  0.001022776    1.581    0.367
        34  -8.5343    241.6600     96.3005   2.0184669723e+01   1.2817850932e+01    0.1384868   0.09513732 -67.33 0.0007036517    1.668    0.401
        35  -7.5583     51.6017     93.8759   6.6548165532e+01   5.2119536922e+01    0.1856549    0.1268303 -67.70 0.0004392763    1.634    0.388
        36  -6.6834     82.3447     93.3223   5.5665468105e+01   4.7821724992e+01    0.1566317    0.1115772 -13.17 0.0007050111    1.733    0.423
        37  -8.2236     44.2755     91.6886   6.8668365390e+01   5.3459464263e+01      0.26178    0.1536103  -9.00    0.0011626    2.378    0.580
        38  -9.3436      9.9497     95.6236   8.1870665961e+01   5.5366376607e+01     0.341169      0.17259 -13.12  0.001643195    2.643    0.622
        39  -8.4099    243.6572     91.6881   1.8915473601e+01   1.3185463681e+01    0.1269306    0.1043051   4.41 0.0007046215    1.702    0.412
        40  -8.4291     96.5961     90.0938   5.0074870527e+01   4.5981922272e+01    0.4069999    0.2365547  14.81  0.001465268    2.894    0.654
        41  -7.3595    109.4565     90.4900   4.6226897486e+01   4.3366339242e+01     0.153141    0.1452319  -5.23 0.0001561509    1.026    0.025
        42  -8.3828     22.0711     90.4496   7.6552919411e+01   5.5770025479e+01    0.1861483   0.09204061 -20.70 0.0008078255    2.707    0.631
        43 -10.0473     37.7044     80.6877   6.8387787129e+01   5.6633305986e+01    0.7148814    0.3612802 -10.35  0.002830544    3.252    0.693
        44  -7.6081    126.3333     83.3136   3.9273363491e+01   4.1191560065e+01    0.1587472    0.1199922   9.76 0.0007045582    1.683    0.406
        45  -9.0704    249.6852     79.4957   1.5555537834e+01   1.3953081163e+01    0.2389255    0.1033143 -39.10  0.001075797    1.994    0.498
        46  -8.9754     88.0656     78.4645   4.9315395998e+01   4.9979750842e+01    0.5194979    0.2918833  14.20   0.00136102    3.079    0.675
        47 -10.0195      7.0054     77.9712   7.9710445935e+01   5.9564412711e+01    0.5323765    0.2280028 -30.40  0.001233943    2.487    0.598
        48  -8.0617     14.6265     72.9524   7.5624112922e+01   6.0228008456e+01    0.3149641    0.1601143 -23.19  0.001085223    2.195    0.544
        49  -7.3913     64.2855     79.2790   5.7921753693e+01   5.3696883969e+01       0.1405     0.100491 -17.43 0.0001762741    1.515    0.340
        50  -7.8279    184.3260     77.9467   2.4789327594e+01   2.8487589262e+01    0.2035051     0.181876 -45.56 0.0004924064    1.108    0.098
        51  -8.3562     48.9655     76.9674   6.3021116996e+01   5.6212999531e+01    0.2292409    0.1436194 -23.88 0.0007179034    1.733    0.423
        52  -8.2673     55.6529     75.8666   6.0135571638e+01   5.5609543311e+01    0.3405289    0.1541829  28.46  0.001340792    2.370    0.578
        53  -9.1094     23.7317     71.2615   7.1518859546e+01   5.9944378565e+01    0.5672933     0.228506 -58.17   0.00256049    2.156    0.536
        54  -7.3381    119.7031     75.3184   3.8638324675e+01   4.4180109865e+01    0.1475587    0.1213208 -81.26 0.0007017715    1.613    0.380
        55  -8.0230     74.7695     74.0214   5.2499495358e+01   5.3172215843e+01     0.200033    0.1739545 -20.48 0.0004032305    1.059    0.056
        56  -8.1358     51.6632     72.2916   6.0602651531e+01   5.6872789108e+01    0.1251989    0.1084987  69.99 0.0007024423    1.641    0.391
        57  -8.3231     20.6996     84.0667   7.5723161271e+01   5.7334708637e+01    0.1868763    0.1382842 -50.17 0.0004974533    1.099    0.090
        58  -7.2649    116.3172     67.6831   3.7157202535e+01   4.6305852846e+01    0.1459298    0.1197003 -83.09 0.0007039093    1.653    0.395
        59  -8.7623     83.5659     63.9009   4.6076925254e+01   5.3602587930e+01    0.4704806     0.279564  -6.35  0.001758387    2.819    0.645
        60  -7.9968    106.8358     66.6054   3.9538830151e+01   4.8539334318e+01    0.2019691     0.137892  54.38 0.0005862365    1.597    0.374
        61  -8.1641     15.1186     63.8610   7.3215065216e+01   6.2147796090e+01    0.1735377    0.1646234 -77.00  0.001221378    1.343    0.255
        62  -7.7221    136.2055     62.7804   3.0452002953e+01   4.2583986917e+01    0.1908456    0.1632992  21.58 0.0002693611    1.262    0.208
        63 -10.2678     62.1761     60.8456   5.2827931894e+01   5.7707071584e+01    0.4575503    0.2905987  10.80 0.0003907339    1.847    0.459
        64  -8.9928     33.4947     60.0111   6.4264249746e+01   6.1425280668e+01    0.3019667    0.1851691 -60.20  0.001577478    1.870    0.465
        65  -9.2348     29.0205     68.4711   6.8608397177e+01   6.0098881915e+01    0.3544931    0.1718937 -16.71  0.001489207    2.942    0.660
        66  -8.3934     19.5024     60.8543   7.0534496443e+01   6.2465602872e+01    0.2369757    0.1366053 -13.79  0.001137754    1.897    0.473
        67  -8.9760     49.7148     58.0875   5.6842167887e+01   5.9957519213e+01    0.2145234    0.1543501 -20.88 0.0006524005    1.300    0.231
        68  -7.5647    111.5182     57.5244   3.5155361657e+01   4.9075889798e+01    0.1459357    0.1336664  22.92  0.000384628    1.025    0.025
        69  -9.1451     99.4509     55.4446   3.7986073180e+01   5.1980098337e+01     0.384549     0.253199   4.59   0.00108851    2.094    0.522
        70  -9.4633     75.3575     49.5760   4.3873990185e+01   5.7554299120e+01    0.3488126    0.2444948 -11.48 0.0006369726    1.530    0.346
        71  -7.2654    118.9506     51.0000   3.0948647833e+01   4.8434445852e+01    0.2411738    0.0773617  52.64 0.0008004665    2.929    0.659
        72  -9.0554    106.5569     48.3437   3.3406061861e+01   5.1584465165e+01     0.334206    0.2367082   2.61 0.0007579331    1.739    0.425
        73  -8.9707     45.5475     48.3418   5.5166407727e+01   6.2286240671e+01    0.2584755    0.1813782  -3.18 0.0001788116    1.415    0.293
        74  -8.7345     10.4962     47.0091   7.0614407714e+01   6.5861238990e+01    0.3444303    0.1918696 -56.74  0.001450204    1.669    0.401
        75  -9.5052     14.6251     44.1442   6.7768600331e+01   6.6129560766e+01    0.5430263    0.2917312 -31.38  0.003070881    1.586    0.370
        76  -8.5283      2.7794     44.3780   7.3504714957e+01   6.6817844267e+01    0.2155297    0.1765342 -29.21  0.001558736    1.111    0.100
        77  -8.3466     93.0587     42.2561   3.5218774918e+01   5.5312865955e+01    0.4035609    0.1682818  32.00  0.001416202    3.252    0.692
        78  -7.8941     31.8210     43.1489   5.9357105455e+01   6.4795754558e+01    0.1801369    0.1233288 -17.84  0.001041123    1.307    0.235
        79  -7.7139    113.9740     41.4743   2.8992355182e+01   5.0922947284e+01    0.2033985    0.1007676  34.52 0.0004442892    2.362    0.577
        80  -7.7223     98.7480     41.5614   3.3241729659e+01   5.4233819888e+01    0.2681875    0.1199213  45.45  0.001125754    2.033    0.508
        81  -9.1738     84.2553     39.2549   3.6905348306e+01   5.7489829340e+01    0.5759375    0.2547385  31.51    0.0017593    2.700    0.630
        82  -7.8374     58.5160     40.0222   4.6614605030e+01   6.1865579328e+01    0.1838818    0.1169436 -29.79 0.0004297095    1.496    0.331
        83  -8.7071      4.0258     39.4825   7.1441655718e+01   6.7687815868e+01    0.1942163    0.1191304 -48.41  0.001221762    1.324    0.245
        84  -7.4154    124.2538     39.0878   2.5639408610e+01   4.8880479858e+01    0.1600394    0.1218639 -22.08 0.0003301717    1.448    0.309
        85  -9.6357     68.3093     36.7634   4.1528389111e+01   6.0763824427e+01    0.4515773    0.2852432  23.16  0.001639544    1.575    0.365
        86  -8.8522     35.4374     37.2991   5.5492327116e+01   6.5412948231e+01    0.3011113    0.1493621 -43.73  0.001281137    1.914    0.478
        87  -8.3219     38.3227     35.0230   5.3270588577e+01   6.5447328571e+01    0.2315683    0.1575639  10.96 0.0005747587    1.386    0.279
        88  -8.4971    105.2742     36.5913   2.9579812835e+01   5.3505384253e+01    0.3024819    0.1803633  27.25 0.0007263384    1.936    0.483
        89  -8.2291     92.0219     36.5394   3.3399059243e+01   5.6319116253e+01    0.2085958    0.1222552  46.07 0.0004992926    1.565    0.361
        90  -9.1593     55.8009     35.1359   4.5754330410e+01   6.3033055895e+01    0.2222217    0.1915291  14.37 0.0004199929    1.148    0.129
        91  -8.9818    157.6700    247.3363   6.6571948891e+01   5.3970945121e-01    0.2011818    0.1448008  58.76  0.001125197    1.766    0.434
        92  -9.0817      1.8394     29.7547   6.9381937232e+01   6.9592941005e+01    0.2791307    0.1804054 -68.71  0.001664309    2.252    0.556
        93  -9.0224     96.4976     32.6748   3.0605901044e+01   5.5893122300e+01    0.2795705    0.1945117  33.08 0.0001806913    1.337    0.252
        94  -7.6917     45.3070     32.6657   4.9183331172e+01   6.4920368826e+01    0.1069236    0.1036911 -80.38 0.0003530468    1.670    0.401
        95  -7.1666     92.6763     31.2408   3.1185150536e+01   5.6871855490e+01    0.1206167    0.1044997  77.39 0.0002003384    1.524    0.344
        96  -8.9560     70.7990     29.9019   3.7834555760e+01   6.1281568602e+01    0.2998391    0.1870595  37.08  0.001073645    1.453    0.312
        97  -9.5485     69.4726     25.7527   3.6589359649e+01   6.2054801406e+01    0.2819142    0.2475093   3.84 0.0009650269    1.114    0.102
        98  -7.5002    216.9682     28.0047   7.9625101495e+00   2.8133466575e+01    0.1476216    0.1234564 -76.81 0.0009403331    1.002    0.002
        99  -8.8598     42.3817     27.4936   4.8302567795e+01   6.6089820670e+01    0.2339288    0.1622062  -8.96 -5.119154e-05    1.305    0.234
       100  -7.6707    152.5482     26.9297   1.6131464377e+01   4.3556578434e+01    0.1863672    0.1365993 -26.50 0.0004578489    1.555    0.357
       101  -8.8867     62.0260     26.5907   3.9716198608e+01   6.3240846028e+01    0.2751285    0.1720871  23.08 0.0004945677    1.526    0.345
       102  -9.1428    109.6563     25.1432   2.4302917711e+01   5.3911725039e+01    0.2368687    0.1977719  45.03 0.0002783018    1.048    0.046
       103 -10.8461     80.1066     23.2467   3.1921631974e+01   6.0363830545e+01    0.4937049    0.2346342  38.87 0.0008177094    1.894    0.472
       104  -8.9368     84.7194     21.3458   2.9699397836e+01   5.9664827003e+01    0.2072714    0.1870909 -38.02 0.0005659294    1.380    0.276
       105  -9.6238      5.9770     33.6280   6.8559115736e+01   6.8653449275e+01    0.6804845    0.2358574  13.96  0.003209531    3.168    0.684
       106  -8.6573     25.7005     19.6877   5.2832050344e+01   6.9262458080e+01     0.379624    0.1808437  37.27   0.00199582    2.506    0.601
       107  -8.7035      3.1637     24.7353   6.6872443232e+01   7.0390063642e+01    0.2126597    0.1214466 -39.65 0.0004000826    1.347    0.258
       108 -10.0046    128.9089     21.9233   1.8909860567e+01   4.9799173137e+01    0.2485941     0.202642  47.79 0.0003081581    1.104    0.095
       109  -7.9177     84.8570    245.1626   8.1382368699e+01   1.2012651815e+01    0.1948331    0.1414359  60.89 0.0005053333    1.231    0.187
       110  -8.8894    166.9567     20.8637   1.2175711375e+01   4.0715643825e+01    0.2063241    0.1806882 -61.20            0    1.182    0.154
       111  -7.8340     92.4627     20.5268   2.7098596554e+01   5.8159661746e+01    0.2497874    0.0912661  44.17 0.0007366888    2.357    0.576
       112  -9.1422      8.9068     19.1218   6.1496578960e+01   7.0916590889e+01    0.2825345    0.1549191 -33.06  0.001253783    1.440    0.305
       113  -9.0985     13.1980     17.8527   5.8598038170e+01   7.0763175858e+01    0.3432294    0.1748237   1.05  0.001808968    2.143    0.533
       114  -7.2797    100.6668     19.6931   2.4560909381e+01   5.6488874307e+01    0.1410566   0.08632161  30.28 0.0001988465    1.667    0.400
       115  -8.2999    127.7905     16.1824   1.7235193937e+01   5.0641635323e+01    0.1842007    0.1656287  70.61 0.0004520722    1.103    0.093
       116  -8.3229    213.0346     14.9887   5.4445554557e+00   3.0524827179e+01    0.1776788    0.1513612 -79.12  0.001187918    1.059    0.055
       117  -7.4136    189.5086     15.4999   7.9492970672e+00   3.5883585940e+01    0.1287052    0.1096359  87.90 0.0008105505    1.020    0.020
       118  -8.6948     23.8812    244.3996   9.3163880775e+01   1.9811090893e+01    0.1858623    0.1384682 -84.70  0.000310749    1.289    0.224
       119  -7.7367    209.4619    240.9528   5.5176768124e+01  -6.3051381622e+00    0.1504226    0.1132558 -64.40 0.0008093748    2.602    0.616
       120  -9.0776    188.1645    233.7267   5.8215468865e+01  -2.0020871519e+00    0.2035047    0.1795853 -45.22  0.001289502    1.431    0.301
       121  -8.0401    147.2948     14.1294   1.3180285901e+01   4.6168422100e+01    0.2328826    0.1493466  59.39   0.00125478    1.335    0.251
       122  -7.7504     26.7174    220.4281   9.1073081681e+01   2.4411009990e+01    0.1360627    0.1133488  27.31 0.0005241859    1.545    0.353
       123  -7.6211      7.5110    215.5169   9.4559432000e+01   2.7368003396e+01    0.1153151   0.09030799  80.58 0.0008097225    1.056    0.053
       124  -7.0431     63.2879    211.6806   8.2527047275e+01   2.1959400988e+01    0.1367204   0.08614504  67.83 0.0007004315    1.596    0.374
       125  -9.3219    114.8297    201.0101   6.9134399099e+01   1.6554626828e+01    0.2301204    0.2206833 -37.35 0.0003986347    1.150    0.131
       126  -7.3726    192.3039    195.6608   5.0552941311e+01   3.9325342553e+00     0.132098    0.1156981  86.28 0.0007039571    1.674    0.403
       127  -8.6569     68.3421    144.6989   7.1893943168e+01   3.7489552089e+01    0.2719686    0.2463074  57.76  0.001530273    1.152    0.132
       128  -7.3597    139.3655    138.3181   5.0588200533e+01   2.6440388619e+01    0.1668783    0.1263568  -2.38 4.930975e-05    1.778    0.437
       129  -7.6837     55.3143    135.2822   7.4065991882e+01   4.1566409314e+01    0.1418612    0.1024204 -33.19 0.0003041849    1.575    0.365
       130  -7.3783     49.9966    129.7863   7.4705044747e+01   4.3579025525e+01    0.1629396    0.1158188  27.25 0.0008367618    1.580    0.367
       131  -9.1488     39.0737    126.6122   7.7533206406e+01   4.5548957966e+01    0.3355539     0.230932 -89.45 0.0005553431    1.630    0.386
       132  -7.2259     90.7505    119.6628   5.9848440499e+01   4.0262112572e+01    0.1543091    0.1130479 -27.31  0.000596447    1.563    0.360
       133  -8.2504     21.3792    113.8425   8.1034027055e+01   5.0253643266e+01    0.2020197   0.09232306 -56.77 0.0009463146    1.733    0.423
       134  -7.9758      1.4724    110.0422   8.6841772252e+01   5.2424869900e+01    0.2004455   0.09663574 -67.99 0.0008036273    1.602    0.376
       135  -7.6620    133.7906    105.7931   4.3732894003e+01   3.4929645180e+01     0.267666     0.175823   0.48 0.0009493501    2.781    0.640
       136  -7.3362    108.5204    106.4825   5.1047755399e+01   4.0073379816e+01    0.1572028    0.1467351 -12.92 0.0008088604    1.078    0.073
       137  -8.1000     62.1876    106.3832   6.5893950341e+01   4.7833782929e+01    0.1933954    0.1310698  41.85 0.0009390549    1.649    0.393
       138  -9.0483     14.7096    104.6450   8.1741326273e+01   5.2940880571e+01    0.3762155    0.1549753 -36.72  0.001615304    2.702    0.630
       139  -9.3545    249.7029    102.4250   2.0417582373e+01   1.0264692469e+01    0.3756696    0.1132007 -33.78  0.001234064    3.712    0.731
       140  -7.9760     94.1883    102.9726   5.4489982571e+01   4.3582812686e+01    0.2709967    0.2191511  33.63  0.001247984    1.272    0.214
       141  -8.2983     69.4810    103.6996   6.2773870893e+01   4.7453920203e+01    0.3681041    0.1406635  25.59  0.001224959    3.454    0.710
