#   1 NUMBER                 Running object number                                     
#   2 MAG_AUTO               Kron-like elliptical aperture magnitude                    [mag]
#   3 X_IMAGE                Object position along x                                    [pixel]
#   4 Y_IMAGE                Object position along y                                    [pixel]
#   5 X_WORLD                Barycenter position along world x axis                     [deg]
#   6 Y_WORLD                Barycenter position along world y axis                     [deg]
#   7 A_WORLD                Profile RMS along major axis (world units)                 [deg]
#   8 B_WORLD                Profile RMS along minor axis (world units)                 [deg]
#   9 THETA_WORLD            Position angle (CCW/world-x)                               [deg]
#  10 FWHM_WORLD             FWHM assuming a gaussian core                              [deg]
#  11 ELONGATION             A_IMAGE/B_IMAGE                                           
#  12 ELLIPTICITY            1 - B_IMAGE/A_IMAGE                                       
         1 -13.7861    244.6896    110.2577   3.6606443914e+01   1.3608531420e+01     1.805807    0.8414361 -47.76  0.009775494    1.771    0.435
         2 -11.9973    214.9339     51.8304   2.8684300582e+01   2.7044763452e+01    0.5101619     0.313399 -24.68  0.002852503    2.275    0.560
         3 -10.9639     39.5568      8.0051   5.2248691423e+01   6.9563907956e+01    0.3439472    0.1926654 -19.09  0.001596915    2.062    0.515
         4 -13.1007     45.0999     22.8511   5.6774489406e+01   6.6840144273e+01    0.9695392    0.7878947 -55.63   0.00587457    1.902    0.474
         5 -12.3553    178.5533     23.8741   2.6453035634e+01   3.7689412390e+01    0.4882877    0.3591476 -60.96  0.003222818    1.238    0.192
         6 -10.5417    128.5311     18.2398   3.1470234042e+01   4.9409771817e+01    0.2994905    0.2406158  80.22  0.001440337    1.102    0.093
         7 -13.3144    164.7671     12.0252   2.5130089818e+01   4.1867857821e+01    0.8939566    0.4153703  67.62  0.004783534    1.839    0.456
         8 -12.6949    158.5727      3.9124   2.3806290270e+01   4.3968367971e+01    0.9118772     0.367336  73.91   0.00455947    2.090    0.522
         9 -13.3627    172.4726      2.7534   2.2246286553e+01   4.1076881597e+01     1.394488    0.6387892  89.65  0.007273595    2.126    0.530
        10 -10.3851    116.5294     16.9239   3.3119911588e+01   5.2303462305e+01    0.2943618    0.1794661 -57.35  0.001559215    1.995    0.499
        11 -11.9446     78.0553     13.7999   4.0754556371e+01   6.1293782935e+01    0.4177435    0.2478149  -2.15  0.002125771    2.395    0.582
        12 -10.2674     20.9625     14.1057   6.5433865828e+01   7.1754307043e+01    0.3412758    0.1775826 -15.58  0.001672729    2.437    0.590
        13 -12.7768    156.1645     11.7423   2.5989927570e+01   4.3782115754e+01    0.6073273    0.5262121  47.83  0.004260677    1.393    0.282
        14 -10.8431    192.7568      5.6663   2.1248795919e+01   3.6619275868e+01     0.263997    0.1419533 -50.39  0.001645929    1.643    0.391
        15 -12.0043    145.5463      4.5364   2.5356369034e+01   4.6799912545e+01    0.5439965     0.326232  75.35  0.003238552    1.381    0.276
        16 -10.1981    141.3484      1.6860   2.5088022223e+01   4.7981785656e+01    0.2029536    0.1395905 -81.30  0.001270958    1.356    0.262
        17 -11.2869    131.3945      3.8480   2.6910868990e+01   5.0056734412e+01    0.6325982    0.1922539  57.33  0.002746008    2.623    0.619
        18 -10.5602     70.8644      5.7414   3.9536591599e+01   6.3572891677e+01    0.3959475    0.1269809  55.96  0.001686946    2.371    0.578
        19 -10.3135    208.5928      4.2387   1.9866887707e+01   3.3658579867e+01    0.1921855    0.1307864 -48.84 0.0009259341    1.346    0.257
        20 -10.9724    204.2907      4.5656   2.0212418413e+01   3.4452502852e+01    0.2916932    0.1464138  79.13  0.001367603    1.758    0.431
        21 -11.0228    121.5092      4.4230   2.8464608024e+01   5.2269003516e+01    0.4175343    0.2977978  79.41  0.002616968    1.210    0.173
        22 -10.2480    106.7503      5.1018   3.1086539983e+01   5.5599992563e+01    0.3235679    0.1501332  85.57  0.001347171    2.998    0.666
        23 -11.4764     85.6055      3.6309   3.4868520809e+01   6.0512486326e+01    0.4549194    0.2652075  62.40  0.001468334    1.400    0.286
        24 -10.2661     61.6787      2.0557   4.0743183812e+01   6.5819467279e+01    0.4180262    0.1171693  47.96  0.001738954    2.578    0.612
        25  -9.3388    217.6600      2.2743   1.8942314413e+01   3.2149104968e+01    0.1114804   0.05783125 -67.68 0.0006997042    1.613    0.380
        26  -9.0477     17.6659      1.6814   6.0787059942e+01   7.3780472209e+01    0.1252472   0.07366601  10.33 0.0007048693    1.697    0.411
        27  -9.8207     20.8409    155.6400   1.0156886048e+02   3.9698749856e+01     0.254061    0.1801466 -59.39  0.001042151    1.309    0.236
        28 -11.0971    163.3454    152.2371   5.8674642909e+01   1.9510682511e+01    0.3692936    0.3156041 -26.43  0.002027842    1.104    0.094
        29  -9.6139    173.5147    144.5297   5.4855286992e+01   1.9295822812e+01    0.1420683    0.1300776 -28.10 0.0002263482    1.004    0.004
        30  -9.8539     53.7053    143.4172   8.8683096147e+01   3.9691709470e+01    0.2730269     0.188922 -78.41  0.001230802    1.662    0.398
        31 -12.8439     10.0095    140.4074   1.0350675529e+02   4.4527821570e+01     0.583752    0.4924853 -48.42  0.003370119    1.123    0.110
        32  -9.8713     40.1515    139.7077   9.2812181854e+01   4.2212774760e+01    0.2456596    0.1825833  44.55 0.0009888994    1.448    0.309
        33  -9.3130    165.4898    142.5287   5.6132170431e+01   2.1127739193e+01    0.1459356    0.1323633 -20.05 0.0001900497    1.058    0.055
        34 -10.1096    165.1987    135.0820   5.4569660010e+01   2.2692516981e+01    0.3858847      0.19552 -53.77  0.001548916    2.241    0.554
        35 -13.5147    241.0563    125.0178   3.9758565999e+01   1.1841789141e+01     1.050674    0.9238894  79.89   0.00761164    1.451    0.311
        36 -11.0661    159.5003    231.9745   7.4124338690e+01   4.1154692821e+00    0.2500673     0.169974  35.46 0.0009948456    1.572    0.364
        37 -10.9010      4.7101    124.8095   1.0362567504e+02   4.8959280364e+01     0.273304    0.1511434  46.43  0.001250914    2.096    0.523
        38  -9.6858    208.5295    123.6216   4.4112937750e+01   1.7146212896e+01    0.1976189    0.1260163  48.09  0.001071966    1.815    0.449
        39 -10.2167    154.1885    120.8235   5.3747569700e+01   2.7677766345e+01    0.2038457    0.1749319  -2.53 0.0006601812    1.324    0.245
        40 -11.5743    189.5861    115.5686   4.5555993936e+01   2.1898377133e+01    0.7167835    0.3911392 -22.01  0.002794691    3.155    0.683
        41  -9.8219      2.6615    116.2997   1.0337342199e+02   5.1287115981e+01    0.1378163   0.09720802  56.08 0.0003587024    1.663    0.399
        42 -11.1135    212.7108    112.9524   4.1319375013e+01   1.8258509530e+01    0.4164008    0.2529897 -41.96  0.002033744    1.416    0.294
        43  -9.8843    224.4942    111.9911   3.9472341553e+01   1.6463203972e+01    0.2874348    0.1029248 -41.48  0.001256189    2.327    0.570
        44 -11.3810    222.8226    107.0676   3.8734476637e+01   1.7529625241e+01    0.4059623     0.238346  48.79  0.002281355    2.034    0.508
        45 -10.1976    148.5255    110.8809   5.2655753884e+01   3.0801608056e+01    0.3565687    0.1392081 -46.14  0.001282988    2.542    0.607
        46 -10.9453     18.6319    105.2739   9.5287044949e+01   5.3178500646e+01    0.7190607    0.3352053  55.86  0.002533564    3.647    0.726
        47  -9.7003    155.9920    108.7638   5.0492418627e+01   2.9695346803e+01    0.1901814    0.1205291  47.55 0.0008819869    1.627    0.385
        48 -10.2235     30.8181    101.6735   8.9451257741e+01   5.3064119891e+01    0.3359451    0.1849017 -36.18  0.001471791    1.804    0.446
        49 -10.1417    112.3200     99.6687   5.9063177164e+01   4.0545856998e+01    0.1526564    0.1220021  85.65 0.0007048697    1.693    0.410
        50  -9.4333    208.5438     94.5137   3.8145268749e+01   2.2009512179e+01    0.1258382    0.1086528 -53.10 0.0001637901    1.009    0.009
        51  -9.9839    178.8977     92.7657   4.2319445020e+01   2.7952320546e+01    0.2491866    0.1871039  83.61  0.001342499    1.587    0.370
        52 -10.6165     12.9195     89.7025   9.4893019110e+01   5.7474211321e+01    0.1951064    0.1735919 -14.63   0.00116844    1.099    0.090
        53 -11.3599      2.4304     86.6736   9.9142085670e+01   5.8796572054e+01    0.7175395    0.2556126 -71.52  0.002773948    2.791    0.642
        54 -12.5958      4.4997     75.5501   9.6067081998e+01   6.1363747058e+01    0.7687301    0.5797189  81.10  0.003738843    1.770    0.435
        55 -13.1344     14.8741     72.9746   9.0318573589e+01   6.1314987374e+01    0.9102545    0.6758718  23.94  0.005152306    1.433    0.302
        56 -10.6007    192.4986     86.8304   3.8814510563e+01   2.6247590130e+01    0.4520361    0.2124152  59.43    0.0020841    2.347    0.574
        57 -12.8039     42.7033     80.6383   7.9093053524e+01   5.6773239021e+01      1.16433    0.7754357  -7.26   0.00556947    1.668    0.400
        58  -9.3019    100.7054     83.3487   5.7914774752e+01   4.6221039489e+01     0.147081    0.1194515 -89.93 0.0005529582    1.675    0.403
        59  -9.8819    215.1118     80.0403   3.4333785073e+01   2.3061201658e+01    0.2016016    0.1275214 -66.43  0.001132056    1.701    0.412
        60 -10.1145    220.9297     77.9399   3.3227081736e+01   2.2333760188e+01    0.3634084    0.1832911 -66.39  0.001690775    2.739    0.635
        61 -10.2881    169.7231     76.4710   4.0052633182e+01   3.2528923996e+01    0.2642027    0.2386351 -68.60  0.001207137    1.038    0.037
        62 -10.0417    226.9695     71.8482   3.1372382565e+01   2.2152100951e+01    0.2008325    0.1547506  87.16  0.001371749    1.363    0.266
        63  -9.5385    218.5072     71.4936   3.2223661479e+01   2.3697976215e+01    0.1202504   0.09838832 -60.85 0.0002737596    1.021    0.021
        64 -10.5583     75.4623     69.0342   6.1966824429e+01   5.3961958253e+01    0.4686214    0.3114644  14.76  0.002143752    1.838    0.456
        65 -11.6937    214.7134     67.1401   3.1776802804e+01   2.5006113487e+01    0.3070509    0.1952177 -33.07  0.001796055    1.694    0.410
        66  -9.6159     83.5039     69.0502   5.9100284278e+01   5.2406630888e+01    0.2171237    0.1436712 -39.46    0.0010384    1.608    0.378
        67 -11.1682     25.4230     65.2728   8.2912291604e+01   6.2114995435e+01    0.4230418     0.259794 -49.40  0.002166974    1.553    0.356
        68  -9.5921    179.0161     66.4982   3.6226552590e+01   3.2111659473e+01    0.1923891    0.1221895  64.16  0.001029906    1.582    0.368
        69 -11.5757    232.9610     64.0291   2.9282360311e+01   2.2201485906e+01    0.2571397    0.2239803 -57.31  0.001750546    1.152    0.132
        70 -10.8233    226.7954     58.0083   2.8732437744e+01   2.4079545545e+01      0.24838     0.152608  49.93  0.001499028    2.167    0.538
        71  -9.6175    200.0349     63.7029   3.2780548223e+01   2.8272778645e+01    0.1705516    0.1488574 -79.25   0.00072186    1.064    0.061
        72 -10.6768     18.0285    127.6949   9.9051554170e+01   4.7369766719e+01    0.1981463    0.1861344  -8.56  0.001018352    1.112    0.100
        73 -10.9125    209.5195     59.9250   3.0888463934e+01   2.6977565561e+01    0.4537537    0.1586633 -47.14  0.002053001    2.477    0.596
        74  -9.2695    132.4843     63.5225   4.3812906954e+01   4.2748767539e+01    0.1381054    0.1290279  65.04 0.0008100271    1.011    0.011
        75 -10.3280    218.7101     61.8098   3.0280316259e+01   2.5015693280e+01    0.1755318    0.1434632 -31.71  0.001192735    1.435    0.303
        76 -10.8102      3.4179    230.4934   1.1195346416e+02   2.2513336143e+01    0.2309363    0.1673129  33.54  0.001345743    1.285    0.222
        77  -9.6163    137.9622     56.2314   4.0633168269e+01   4.2608058785e+01    0.1881082    0.1060782  59.45 0.0008844168    1.661    0.398
        78 -10.2274    164.1542     54.2992   3.5541576212e+01   3.7038122472e+01    0.2175823    0.1820153 -28.77  0.001321191    1.397    0.284
        79 -10.0643    220.5454     53.5162   2.8466077305e+01   2.5791889577e+01    0.2124259    0.1071489  69.29   0.00119047    2.099    0.524
        80  -9.8548     35.1065     52.8335   7.3936921774e+01   6.3532763150e+01    0.2012527    0.1802108  19.15  0.001094126    1.209    0.173
        81 -10.8741     85.1779     47.9641   5.1403403959e+01   5.5577925264e+01    0.5283066     0.279265  50.14  0.002418439    1.732    0.423
        82 -11.4104     81.6222     39.6087   4.9543871491e+01   5.7523900482e+01    0.6760696    0.3650584 -42.66  0.003196329    2.191    0.544
        83  -9.9473    220.7481     48.4123   2.7453628082e+01   2.6414615376e+01    0.1425467    0.1002287  63.49 0.0008713544    1.584    0.369
        84 -10.6838    196.9011     43.8520   2.8904135039e+01   3.1552443635e+01    0.1723453    0.1579791  73.94  0.001219283    1.257    0.205
        85 -11.7757     11.9771    124.5022   1.0087911435e+02   4.8622193321e+01    0.3783801    0.2151942 -61.78  0.001794574    1.533    0.348
        86 -11.5485      3.4058     41.2148   8.7880745240e+01   6.8898896630e+01    0.4741106    0.3747301  20.26  0.003046791    1.390    0.281
        87 -11.7512    191.1244     38.0940   2.8283363016e+01   3.3432989368e+01    0.5339854    0.1500277 -42.05  0.002266257    3.003    0.667
        88 -11.7825    183.1151     40.2005   2.9646656593e+01   3.4827790058e+01    0.4672839    0.3331576  86.46  0.002901457    1.314    0.239
        89 -11.4491    199.1594     51.4902   3.0282612418e+01   3.0116490842e+01    0.3339621     0.315243 -87.18  0.002415943    1.211    0.174
        90 -11.2949    240.6049    229.2993   5.7933024468e+01  -4.5322497130e+00    0.2343216    0.1808808 -32.53  0.001694069    1.398    0.285
        91 -11.8067     40.0612     29.6870   6.2245417797e+01   6.6735593408e+01    0.4746982     0.291367 -32.89  0.002603376    1.738    0.425
        92 -11.7484    163.0931    227.9115   7.2690744401e+01   4.4017246419e+00    0.3390634    0.2135885 -46.30  0.001801044    1.707    0.414
        93  -9.7301     97.3120     36.6654   4.3900677495e+01   5.4498864603e+01    0.1320779    0.1029188 -82.17 0.0007044909    1.682    0.406
        94 -10.8219      5.8170     34.9499   8.4234400005e+01   6.9939206527e+01    0.3201764    0.1660995  31.58   0.00165947    2.132    0.531
        95 -10.2328    198.1787     34.1527   2.6719591530e+01   3.2484284296e+01    0.1722187    0.1152519 -69.72 0.0009697051    1.351    0.260
        96 -10.4700    145.8062     28.1979   3.1593814596e+01   4.4411608837e+01    0.3723451    0.2019406 -79.34  0.001696313    2.510    0.602
        97  -9.9085     90.0339     28.0320   4.2812792043e+01   5.7162519480e+01    0.2091245    0.1827108  51.87  0.001296441    1.042    0.040
        98  -9.8905    111.1861    228.6552   8.5061095260e+01   1.1078422453e+01    0.1896856    0.1775139  24.70   0.00115235    1.131    0.115
        99 -11.7333    173.2569     20.5814   2.6253375874e+01   3.9169711187e+01    0.3786786    0.1951061  70.95  0.001511183    1.719    0.418
       100 -10.7874     75.4988     25.6152   4.6195532542e+01   6.0590396960e+01    0.3230744    0.2215398  -2.81  0.001750472    1.849    0.459
       101 -10.2943    168.5049     26.5262   2.8180402638e+01   3.9550783453e+01    0.1217404    0.1024368 -87.30 0.0008100837    1.005    0.005
       102  -9.7731     11.5240     24.5188   7.6380824559e+01   7.1287124065e+01    0.1253156   0.09756669  -4.14 0.0004644654    1.007    0.007
       103  -9.5782    224.4927     22.9971   2.2324505018e+01   2.8755898766e+01    0.1605102   0.05734512 -54.89 0.0008090776    2.428    0.588
       104 -10.3346    187.1519     19.5264   2.4646278834e+01   3.6363183209e+01    0.2262864    0.1773195  76.65  0.001581634    1.212    0.175
       105 -11.4964    248.6109    224.7421   5.5911982568e+01  -4.6262496153e+00    0.4637295    0.2486855 -34.44  0.002925891    1.462    0.316
       106  -9.8393     31.7804    227.3837   1.0499194233e+02   2.0710647090e+01    0.1752486    0.1188014  11.08 0.0006932047    1.642    0.391
       107 -13.0146    203.9882    220.2653   6.2985037258e+01   7.2813178954e-01    0.8111032    0.5058017  -4.26  0.004561793    1.605    0.377
       108 -13.6773    184.2650    215.4812   6.6110551010e+01   3.9528373268e+00     1.053609    0.5891088 -35.28  0.005441808    1.633    0.388
       109  -9.7231     75.3311    220.6647   9.3207124580e+01   1.7435909797e+01    0.1486762   0.09685217  55.54 0.0004204007    1.731    0.422
       110  -9.8481     94.2638     17.1055   3.7798686247e+01   5.7379163977e+01     0.247472     0.156133  87.57  0.001227328    2.166    0.538
       111  -9.7869    228.6113     15.7392   2.0723490673e+01   2.8801731745e+01    0.1501356   0.07371975 -48.85 0.0009500734    1.622    0.383
       112 -11.1403     50.4394    218.2805   9.9469679925e+01   2.0889411350e+01    0.3319907    0.2799148   2.39  0.001931718    1.291    0.225
       113  -9.3387    241.6550    218.2861   5.5994605575e+01  -3.0149992864e+00   0.09483625   0.08873086 -31.10 0.0007020028    1.648    0.393
       114 -10.1068     67.2271    217.2362   9.4943402504e+01   1.9210182352e+01    0.2436964    0.1372432  56.87  0.001065959    2.124    0.529
       115 -11.1461    158.3678    225.3637   7.3339734446e+01   5.4830187516e+00    0.2764131    0.1948391 -25.31  0.001193561    1.349    0.259
       116 -10.1303    141.3418    206.5238   7.4229153909e+01   1.1548412520e+01    0.2830876    0.1715018 -44.34  0.001349922    1.653    0.395
       117  -9.0418    123.9672    205.9778   7.8453982253e+01   1.4172462735e+01    0.1639017    0.1487011  -4.47            0    1.035    0.034
       118 -11.5731    243.7361    201.9509   5.2971715168e+01  -7.5533153732e-01    0.5165308    0.3387757 -42.47  0.003332313    1.500    0.333
       119 -10.7606    202.6933    197.0032   5.9232023173e+01   4.8744949293e+00    0.2600196    0.2112803 -35.96  0.001206557    1.238    0.192
       120 -11.3574    203.9422    192.9078   5.8264155516e+01   5.4353925308e+00    0.4585956    0.2337269  20.88  0.002169691    2.331    0.571
       121 -11.8429    195.7598    185.2101   5.8429031835e+01   7.9308885817e+00    0.4344442    0.3038604 -51.98  0.002363163    1.654    0.395
       122 -11.1866    191.1694    185.8261   5.9446230653e+01   8.4619307304e+00    0.2873338    0.2432134  14.37  0.001411697    1.200    0.167
       123  -9.9787     37.5170    185.4929   9.9699192249e+01   3.0339492936e+01    0.1373005    0.1350741 -85.02 0.0008101949    1.032    0.031
       124 -10.8450    173.6510    162.5034   5.8545612631e+01   1.5667591722e+01    0.5172808    0.3090595  16.43  0.002249953    2.261    0.558
       125 -10.3906     14.5207    160.0417   1.0406249479e+02   3.9006839922e+01    0.2204449    0.1290704 -76.11  0.001037147    1.610    0.379
       126 -11.4135    219.8834    155.6895   4.8572090421e+01   9.7982431271e+00    0.3771772    0.3142962  53.17  0.002420233    1.581    0.367
