#   1 NUMBER                 Running object number                                     
#   2 MAG_AUTO               Kron-like elliptical aperture magnitude                    [mag]
#   3 X_IMAGE                Object position along x                                    [pixel]
#   4 Y_IMAGE                Object position along y                                    [pixel]
#   5 X_WORLD                Barycenter position along world x axis                     [deg]
#   6 Y_WORLD                Barycenter position along world y axis                     [deg]
#   7 A_WORLD                Profile RMS along major axis (world units)                 [deg]
#   8 B_WORLD                Profile RMS along minor axis (world units)                 [deg]
#   9 THETA_WORLD            Position angle (CCW/world-x)                               [deg]
#  10 FWHM_WORLD             FWHM assuming a gaussian core                              [deg]
#  11 ELONGATION             A_IMAGE/B_IMAGE                                           
#  12 ELLIPTICITY            1 - B_IMAGE/A_IMAGE                                       
         1 -14.0523    161.4965     52.3035   7.8781996615e+01   3.8196735040e+01     1.901871     1.269303  20.47  0.006529351    2.207    0.547
         2 -13.5711    174.0836     36.6093   7.2126144539e+01   3.7242934347e+01    0.8413184    0.7511423 -86.20  0.002689098    1.087    0.080
         3 -11.6591    189.8976     14.7062   6.4144853146e+01   3.5928404806e+01    0.2888307    0.2281444 -29.66  0.001165557    1.482    0.325
         4 -13.5809    192.1069      4.7759   6.1446937303e+01   3.6407132578e+01    0.9094592    0.5748469  72.80  0.004120107    1.340    0.254
         5 -10.8861    168.9744    234.7107   1.1934462883e+02   8.4657004674e-01    0.2152017    0.1955259 -43.39 0.0002036848    1.266    0.210
         6 -18.5649     60.8939    242.0196   1.4097157014e+02   1.7114453507e+01     7.172651     5.785454 -86.57   0.04218465    1.224    0.183
         7  -9.7186    176.5160    187.9520   1.0953878306e+02   8.0923257190e+00    0.2191771    0.1449727 -45.19  0.001026968    1.574    0.365
         8 -10.7716    163.0445    210.2325   1.1651667234e+02   6.3514505102e+00    0.2408021    0.2063027 -50.25 0.0009484263    1.274    0.215
         9 -11.8541     33.9799    184.2605   1.4062664184e+02   3.2759812847e+01    0.2097797     0.179128 -81.60 0.0004396658    1.164    0.141
        10 -11.8720     11.5106    206.0316   1.4696136993e+02   3.0335053174e+01     0.241654    0.2064602  56.08  0.001324059    1.404    0.288
        11 -11.3881    205.5127    180.4817   1.0203626351e+02   3.7590667527e+00    0.4859074    0.3157191  40.97  0.002008564    1.528    0.346
        12 -11.2125    208.6946    178.6574   1.0102467426e+02   3.4745400979e+00    0.4042484    0.3372997 -12.92  0.002184276    1.249    0.200
        13  -8.9351    179.2578    206.2795   1.1244917030e+02   4.0207072438e+00    0.1321127    0.1062664   3.74 -0.000275831    1.471    0.320
        14 -10.7858    158.8022    204.8957   1.1647507541e+02   8.1956984522e+00    0.3658954    0.2055931  65.64  0.001394977    2.874    0.652
        15 -11.9136    196.0057    171.5835   1.0208448005e+02   7.3819302136e+00    0.6646827    0.3739654 -47.19  0.002185117    1.837    0.456
        16 -10.6207    194.1217    165.6831   1.0119916333e+02   8.9428773206e+00    0.3265779    0.2935339 -28.92  0.001077601    1.111    0.100
        17  -9.6775      3.1383    176.4354   1.4624999446e+02   3.7485960747e+01    0.1152187   0.05559695 -66.17  0.000348003    1.685    0.406
        18 -10.6395    163.4784    204.1838   1.1536028022e+02   7.4395838731e+00    0.2784829    0.2667409 -23.81 0.0005027655    1.134    0.118
        19 -13.3937    138.2616    199.1368   1.1988875034e+02   1.3284256050e+01    0.6547741    0.4343066  68.17  0.003036311    1.835    0.455
        20 -10.4495    122.0166    165.2051   1.1737462687e+02   2.3942867564e+01    0.2372583    0.2087922 -70.33 0.0002669862    1.109    0.099
        21 -11.5083    154.9988    196.8497   1.1584877341e+02   1.0547247003e+01    0.3743585    0.2693837  84.82  0.001737492    1.954    0.488
        22 -10.0359    223.5047    163.5322   9.4945306984e+01   3.3684878923e+00     0.249536    0.1281933 -49.19 0.0008506872    2.140    0.533
        23 -10.9629    237.2136    159.1813   9.1510760472e+01   1.5028598311e+00    0.1898291    0.1691729 -67.41  0.001075639    1.347    0.257
        24 -12.6678    193.3992    192.4741   1.0691577246e+02   3.8803808920e+00    0.8626938     0.503781 -52.45   0.00288702    2.011    0.503
        25 -12.8415    134.0262    145.5409   1.1028952304e+02   2.6118160352e+01     1.303703    0.3354416 -54.32  0.003105165    5.334    0.813
        26  -9.8177    198.9032    222.5316   1.1142825928e+02  -2.4358031034e+00    0.1923087    0.1751429 -12.36 0.0005684901    1.138    0.121
        27 -10.5237    174.6746    149.0049   1.0160404646e+02   1.6583171073e+01    0.2869993    0.2578822 -66.29 0.0008137532    1.165    0.142
        28 -12.0697    145.5261    146.4827   1.0771612333e+02   2.3489894455e+01     0.517796    0.3473093  69.48  0.001771827    1.976    0.494
        29 -12.8752    112.5307    139.6354   1.1438433799e+02   3.1759137098e+01    0.7498827    0.5435656  -3.54   0.00319149    2.267    0.559
        30 -12.1894    103.1489    138.6648   1.1661392607e+02   3.3719815458e+01    0.2989808    0.2876471 -33.36 0.0004626354    1.132    0.117
        31 -10.8325    161.1331    198.1876   1.1477343031e+02   9.0819347687e+00    0.2802521    0.2270256  75.76  0.001059853    1.451    0.311
        32 -12.0320    106.1281    130.8465   1.1407350684e+02   3.5021114192e+01    0.4639678    0.3717493 -73.10  0.001424505    1.334    0.250
        33 -11.1144    107.1943    125.6129   1.1256124653e+02   3.6043217352e+01    0.2893413    0.2547659 -10.01  0.000478421    1.338    0.253
        34 -12.3649    135.4731    122.2585   1.0435634364e+02   3.1107427107e+01     0.773475      0.25745 -51.96  0.002255003    3.460    0.711
        35 -12.1152    118.7827    129.5950   1.1044382588e+02   3.2892142961e+01    0.3902757    0.3739364 -44.71  0.001103904    1.060    0.057
        36 -11.6293    143.1156    127.9025   1.0387462659e+02   2.8192551025e+01    0.3890694    0.2973548  81.12  0.001253686    1.670    0.401
        37 -10.8856    160.7097    127.4656   9.9586117251e+01   2.4357955261e+01    0.3399496    0.2427385 -69.45  0.001450073    1.756    0.431
        38 -11.6127    125.5547    127.6291   1.0821557811e+02   3.1979279030e+01    0.4331324    0.2859572  78.37  0.001673644    2.440    0.590
        39 -12.1566     92.6092    123.1843   1.1597161923e+02   3.9207246314e+01    0.4486265    0.2708983 -59.68  0.002003162    1.658    0.397
        40 -10.9289    113.0839    118.7418   1.0929577068e+02   3.6496902902e+01    0.2693549    0.2430899 -72.00 0.0003710004    1.144    0.126
        41 -10.7279    168.4926    113.3656   9.4239658149e+01   2.5537839949e+01    0.4515795    0.3109418 -78.20   0.00135501    2.129    0.530
        42 -10.5080    162.9837    110.2966   9.4669029015e+01   2.7463369429e+01    0.3301286    0.2568308 -89.05 0.0008259013    1.618    0.382
        43 -10.7323    167.7974    189.7350   1.1175147351e+02   9.4757763164e+00    0.3862612    0.2592737 -32.80  0.001053153    1.744    0.427
        44 -10.4419    205.6484    110.1130   8.5897395150e+01   1.7441957286e+01    0.2809973    0.2248301  46.05  0.000669663    1.334    0.250
        45 -11.1565    208.5270    197.0326   1.0478370186e+02   1.6543782316e-01    0.2512034    0.1930728  54.75 0.0005904853    1.504    0.335
        46 -11.7826     24.9215    108.9225   1.3250587898e+02   5.1040258768e+01    0.2198669    0.1818226 -12.99 0.0008849317    1.467    0.318
        47 -11.0451    134.6541    106.0013   1.0030390317e+02   3.4822043227e+01    0.3697879    0.1437308 -43.73  0.001247029    2.532    0.605
        48 -10.9922     88.3985     78.0753   1.0515259281e+02   4.9670052853e+01    0.2477895    0.2020231  44.37 0.0005703267    1.343    0.255
        49 -10.6359    113.5548     76.4832   9.7358824528e+01   4.5202661968e+01    0.4395697    0.2059561  56.60  0.001601619    2.827    0.646
        50 -18.9970     46.5320    106.1753   1.2552718608e+02   4.9579424346e+01     17.11851    0.8275721 -58.52   0.02535376   18.075    0.945
        51  99.0000     14.4683    248.6496   1.4922662187e+02   2.1543828330e+01    0.3300821   0.08029233  45.83   0.00163104    2.984    0.665
        52 -12.8578    178.3679     29.2357   6.9460852048e+01   3.7099450345e+01    0.5221685    0.4546758  25.79  0.001652957    1.390    0.281
        53  -9.7992     13.5034     59.8696   1.2559072667e+02   6.2169028190e+01    0.1671511   0.09186424 -53.23  0.000397004    1.469    0.319
        54 -10.4845     18.3008    231.3817   1.4753982252e+02   2.4445440329e+01    0.1037223   0.07867365 -85.36 0.0004128598    1.239    0.193
