#   1 NUMBER                 Running object number                                     
#   2 MAG_AUTO               Kron-like elliptical aperture magnitude                    [mag]
#   3 X_IMAGE                Object position along x                                    [pixel]
#   4 Y_IMAGE                Object position along y                                    [pixel]
#   5 X_WORLD                Barycenter position along world x axis                     [deg]
#   6 Y_WORLD                Barycenter position along world y axis                     [deg]
#   7 A_WORLD                Profile RMS along major axis (world units)                 [deg]
#   8 B_WORLD                Profile RMS along minor axis (world units)                 [deg]
#   9 THETA_WORLD            Position angle (CCW/world-x)                               [deg]
#  10 FWHM_WORLD             FWHM assuming a gaussian core                              [deg]
#  11 ELONGATION             A_IMAGE/B_IMAGE                                           
#  12 ELLIPTICITY            1 - B_IMAGE/A_IMAGE                                       
         1 -13.3312    196.2680     41.6430   4.4155527349e+01   3.1307841284e+01     1.091586    0.9885311 -62.57  0.003321869    1.065    0.061
         2 -13.8050    204.8876     32.9738   4.0907986688e+01   3.0387417117e+01      1.54393     1.012442 -14.42  0.001336706    2.140    0.533
         3 -13.1511    228.9207      6.8984   3.2657381736e+01   2.7956015695e+01    0.9123664    0.7980101  77.79   0.00526843    1.277    0.217
         4 -10.0109     64.3068      9.0040   6.0286899506e+01   6.5448769484e+01    0.1736384    0.1456113  13.97 0.0006904931    1.044    0.042
         5 -12.1391     41.7208      7.0230   6.8064072432e+01   6.9477796704e+01     0.459122    0.2879007   8.28  0.002748324    1.571    0.363
         6 -11.5441     57.2619      4.5374   6.0583337005e+01   6.7156889076e+01    0.4349076    0.2307708  15.45  0.002191111    2.222    0.550
         7 -10.7329    183.8418    212.0910   8.6356321868e+01   3.0515788222e+00    0.3309348    0.2170182 -42.39  0.001759688    1.636    0.389
         8 -11.5335    140.0555    249.0059   1.0075646702e+02   3.8721721567e+00    0.4461074    0.4125335 -60.11  0.003144976    1.304    0.233
         9 -15.4970     70.8900    147.7701   1.0181724069e+02   3.6625020594e+01     13.32867     6.519486  79.59   0.01249133    7.303    0.863
        10 -10.5075    120.6017    195.1539   9.7205390873e+01   1.7331957946e+01    0.3096101    0.2272349  82.44 0.0005109624    1.703    0.413
        11  -9.1205     81.9782    195.2401   1.0620436161e+02   2.3538283356e+01     0.267611    0.2388039 -15.86  0.001575411    1.508    0.337
        12 -11.5900    193.9594    204.7634   8.3021161728e+01   2.6106991886e+00    0.4274482    0.2404919  19.95  0.001910375    2.221    0.550
        13 -13.5573     59.4047    185.3586   1.1027415046e+02   2.8993230928e+01     1.652695     1.329991 -53.22  0.009739006    1.403    0.287
        14 -10.0594    148.8285    187.3069   8.9382545243e+01   1.3959552839e+01    0.2787918    0.2175651  64.32  0.001393866    1.498    0.333
        15 -18.1651     16.2385    214.4616   1.2225909720e+02   2.7383789632e+01     12.71586     4.237994 -80.55   0.05806194    2.748    0.636
        16  -9.4588     91.4345    183.3543   1.0227232816e+02   2.4834180606e+01    0.2801892    0.2259305  82.74   0.00078129    1.250    0.200
        17 -10.4756     99.4586    180.9395   9.9938611513e+01   2.4104236056e+01    0.2779843    0.2502283 -79.13 0.0005982585    1.084    0.078
        18  -9.3607     41.1531    178.3260   1.1382927063e+02   3.2896512623e+01     0.244652    0.1615828 -85.16 0.0005697926    1.360    0.265
        19 -11.1585     48.9379    170.8932   1.1106435697e+02   3.3777174860e+01    0.7455198    0.3227156 -53.54  0.002966163    2.341    0.573
        20 -11.0535     45.6387    166.9631   1.1140883854e+02   3.5125924085e+01    0.5251016    0.3127609 -43.10   0.00214904    2.121    0.528
        21  -9.7434    146.5079    171.9852   8.6976875247e+01   1.7661445999e+01     0.280404     0.229535  81.08  0.001324944    1.507    0.337
        22 -10.8830    235.4051    173.0988   6.9084385867e+01   1.0055931528e+00    0.2887303    0.2005456   2.22  0.001530639    1.656    0.396
        23  -8.1617    224.2897    206.7128   7.7601962954e+01  -2.5958552681e+00    0.1076823    0.1045434 -83.44 0.0001922842    1.538    0.350
        24  -8.8856    193.9252    171.1786   7.6452661370e+01   8.7003746182e+00    0.2080369     0.201602  81.92 0.0008243235    1.233    0.189
        25  -9.8487    187.9173    176.1215   7.8703008436e+01   8.8863327883e+00    0.3663271    0.3185637 -61.13  0.002013928    1.371    0.271
        26  -9.2689    185.5315    169.2402   7.7769070889e+01   1.0669877413e+01    0.2698452    0.1390185 -46.96 0.0007963408    2.001    0.500
        27 -10.1326    240.1950    169.2009   6.7473643521e+01   8.5903964815e-01    0.1691243    0.1537627 -46.20 0.0004456332    1.323    0.244
        28  -9.3131    136.7698    166.8671   8.8261192553e+01   2.0664360967e+01    0.4195991    0.2220035  59.15  0.001514852    2.709    0.631
        29  -8.6684    133.9288    163.4803   8.8265130977e+01   2.1976383026e+01    0.2196717    0.2030255  48.77   0.00117345    1.073    0.068
        30 -11.6419     91.5648    152.0062   9.6913594865e+01   3.2375751849e+01    0.7431723      0.59414  -4.64  0.003662752    1.720    0.419
        31  -8.6842    148.6792    175.3801   8.7145110160e+01   1.6511830424e+01    0.2991994    0.2085288 -82.07 0.0007565287    2.226    0.551
        32 -10.8028    133.9436    145.8089   8.4477271090e+01   2.6031960924e+01     1.235903    0.3395359 -54.80  0.003012948    5.141    0.805
        33  -9.4574    174.9069    149.1558   7.5632521258e+01   1.6846540683e+01    0.2290322    0.2103905 -80.38 0.0005361779    1.240    0.194
        34  -9.3388    143.4077    146.1952   8.2220262255e+01   2.4019597962e+01    0.2301281    0.1462999 -58.82 0.0009567543    1.755    0.430
        35 -10.2721    104.3685    138.1673   9.0572297923e+01   3.3548778895e+01    0.5569509    0.3466954 -25.88  0.002145755    2.501    0.600
        36 -11.6120     91.8320    137.8389   9.4003738720e+01   3.5830352530e+01     0.296483     0.257877 -43.97 0.0004008412    1.175    0.149
        37 -10.1213    105.9794    130.8051   8.8459827674e+01   3.5035771698e+01    0.3715495    0.3193605 -71.24  0.001294796    1.194    0.162
        38  -9.9794    136.1045    129.3133   8.0042380224e+01   2.9374663665e+01    0.6887138   0.09163538 -47.93  0.001295347    7.884    0.873
        39 -10.6253    135.0000    117.9552   7.7444986134e+01   3.2172614946e+01     1.636146   0.06355949 -45.40  0.001726331   25.057    0.960
        40 -11.2846    119.4632    123.3253   8.2929715875e+01   3.4193713037e+01    0.5948359    0.4578154 -11.18  0.002615195    1.741    0.426
        41  -9.2099    161.1344    127.9614   7.3659549478e+01   2.4266502027e+01    0.2660556    0.1820062 -69.43  0.001086633    2.006    0.501
        42 -10.3406    100.0575    125.1451   8.8809723655e+01   3.7491891167e+01    0.3073585    0.2638014 -15.86 0.0008833987    1.365    0.268
        43  -9.2405    108.7908    118.2328   8.4612726103e+01   3.7498757838e+01    0.2158884    0.2052258 -81.69 0.0004523215    1.081    0.075
        44  -9.9954    231.3333    113.8323   5.6868719845e+01   1.1945210838e+01    0.2963096     0.232326 -42.17 0.0007407823    1.122    0.109
        45  -8.7110    167.9812    112.9854   6.8311464811e+01   2.5867705161e+01    0.2624834    0.1936971 -78.73  0.001135355    1.841    0.457
        46 -11.3529    117.0992    109.7108   8.0041981840e+01   3.7805949843e+01    0.5996373    0.4760208  63.43  0.002859548    1.441    0.306
        47  -9.4709    205.4346    110.1526   6.0247710809e+01   1.8009847088e+01    0.2968065     0.214522  41.54  0.000920896    1.552    0.356
        48  -8.1379    142.2672    108.7002   7.3145720157e+01   3.2599555136e+01    0.1538894    0.1235592 -78.33 0.0002718921    1.521    0.343
        49 -10.3426    113.1025    128.9679   8.6050828187e+01   3.4122531932e+01    0.5784213    0.3781607  17.78  0.001852031    2.261    0.558
        50 -14.1068     51.9426    202.0582   1.1381546793e+02   2.6098087961e+01     3.240639     1.138714  59.06  0.007102621    3.780    0.735
        51  -9.7585     89.9617    212.6835   1.0661748136e+02   1.8500167219e+01     0.253003    0.1805543 -79.44 0.0005240369    1.471    0.320
        52 -10.6292     56.7478     95.8340   9.5301594024e+01   5.1355948606e+01    0.4588221    0.2626588  53.70  0.001990064    2.441    0.590
        53 -11.0869    193.3962    195.5594   8.1420635674e+01   4.3114851829e+00     1.038747    0.5384583 -62.49  0.003195413    5.537    0.819
        54  -9.0155    157.4229     82.7358   6.2292957029e+01   3.4262023721e+01    0.2090352    0.1484483 -26.31 0.0005736074    1.575    0.365
        55  -8.7932    184.7923     77.1326   5.5380991313e+01   2.8666442483e+01    0.1984664    0.1786535   8.29 0.0006374104    1.333    0.250
        56  -9.8098     60.8843     68.5039   8.5922814254e+01   5.6815216717e+01    0.2843388    0.2275763  43.11  0.001599224    1.449    0.310
        57 -13.0044    184.7309     50.8999   4.8239551022e+01   3.2813483247e+01    0.9742647    0.8601679 -10.23  0.000828048    1.364    0.267
        58  -9.8894     92.2116    249.2984   1.1017864997e+02   1.0963469851e+01    0.3198401    0.1230788  40.01 0.0008399001    2.122    0.529
        59  -9.7993     95.2590    203.3780   1.0423685900e+02   1.9697513322e+01    0.4456063     0.237606 -41.23  0.001907032    2.670    0.625
        60  -8.4462     36.9355     37.9697   8.4709154695e+01   6.5733575886e+01    0.1498301    0.1237945  -6.93 0.0004262005    1.073    0.068
        61  -9.0539    241.3192    244.3497   8.1116515031e+01  -1.0173432044e+01    0.1223594   0.07200252   1.02 0.0007048227    1.738    0.425
        62 -11.1042    223.1316     28.4190   3.7939066470e+01   2.6770412578e+01    0.3988018     0.222733  41.86  0.001847732    2.803    0.643
        63  -7.8343     73.2919    199.2855   1.0871632252e+02   2.3879800967e+01    0.1197893    0.1043369 -32.12            0    1.538    0.350
        64  -9.8564    198.3725     23.4332   3.9232438764e+01   3.3077119783e+01    0.2227268    0.2008412 -46.19 0.0006201521    1.194    0.162
        65 -11.7579    111.8611    204.7567   1.0067293022e+02   1.6739729358e+01    0.4292992    0.3003075 -85.92  0.001026578    1.759    0.432
        66  -9.1760    189.6770     14.9876   3.8004968990e+01   3.6084401821e+01    0.1807029    0.1557745 -61.60 0.0005981534    1.117    0.105
        67 -11.5069    107.5846    203.7537   1.0149403093e+02   1.7653121614e+01    0.3790747    0.2463802 -71.84  0.001118599    1.743    0.426
        68 -11.2128    164.1369    213.9131   9.0715098007e+01   6.0579815626e+00    0.3705631    0.2538808 -33.91  0.001967127    1.627    0.385
