#   1 NUMBER                 Running object number                                     
#   2 MAG_AUTO               Kron-like elliptical aperture magnitude                    [mag]
#   3 X_IMAGE                Object position along x                                    [pixel]
#   4 Y_IMAGE                Object position along y                                    [pixel]
#   5 X_WORLD                Barycenter position along world x axis                     [deg]
#   6 Y_WORLD                Barycenter position along world y axis                     [deg]
#   7 A_WORLD                Profile RMS along major axis (world units)                 [deg]
#   8 B_WORLD                Profile RMS along minor axis (world units)                 [deg]
#   9 THETA_WORLD            Position angle (CCW/world-x)                               [deg]
#  10 FWHM_WORLD             FWHM assuming a gaussian core                              [deg]
#  11 ELONGATION             A_IMAGE/B_IMAGE                                           
#  12 ELLIPTICITY            1 - B_IMAGE/A_IMAGE                                       
         1 -12.5577     91.1443     26.6667   3.1256630596e+01   5.8549093099e+01    0.4124187    0.2730648 -27.96 0.0004086002    1.551    0.355
         2 -11.5161     33.5990     23.5337   5.4749312235e+01   6.9455362859e+01    0.5411921    0.3279432 -51.89  0.001622456    1.825    0.452
         3 -10.9967     32.5885     16.6968   5.1909846737e+01   7.0794964068e+01    0.5592932    0.2202635  43.24  0.002266729    3.451    0.710
         4 -10.7533     14.7179     16.1321   6.2827948554e+01   7.2834947343e+01    0.2288997    0.2057949 -60.89 0.0007902639    1.430    0.301
         5 -10.4751    226.2000     11.9836   4.4370255339e+00   2.6630659711e+01    0.2327369     0.100762 -50.87  0.001076876    2.099    0.524
         6 -11.9144     91.0208     10.1472   2.3685394103e+01   6.0598277272e+01    0.2549275      0.23456  54.40            0    1.130    0.115
         7 -10.7066     96.0342      9.8850   2.2193405199e+01   5.9433273694e+01     0.271208    0.2036862  42.14 0.0006898909    1.200    0.167
         8 -10.1431     54.4167      4.4943   3.3664674842e+01   6.9060219141e+01    0.3575308    0.1602173 -12.73  0.001265767    3.266    0.694
         9 -10.7567     52.5282     11.4949   3.8543438532e+01   6.8508122746e+01    0.3574703    0.1915021 -31.96   0.00177013    1.835    0.455
        10 -11.3854     55.7690      9.3440   3.5855853319e+01   6.8203740829e+01    0.2512384    0.2247826  42.16 0.0003070233    1.289    0.224
        11 -10.5841     43.4857     11.2100   4.2856913440e+01   7.0082757006e+01    0.3356482    0.2093108  -8.92  0.001729569    1.803    0.445
        12 -10.7111     38.9814      3.8971   4.0918355229e+01   7.1835663220e+01    0.2216167    0.1728139  -3.53 0.0003369372    1.112    0.101
        13 -11.3869     45.1248      4.6274   3.8139836227e+01   7.0720598466e+01    0.4669271    0.3436924  63.61  0.002549158    2.188    0.543
        14 -10.4115     49.5168      2.4609   3.4681795115e+01   7.0212380612e+01    0.2467466    0.1878449 -13.53  0.001495084    1.239    0.193
        15 -10.7696     35.4922     12.0098   4.7684083163e+01   7.1171949756e+01    0.1920523    0.1777913 -71.02 0.0005914859    1.685    0.406
        16 -11.4683    126.0615     10.7946   1.5904883078e+01   5.1805209280e+01    0.2442189    0.2184272  52.40 0.0002244933    1.033    0.032
        17 -10.1768    100.9120     11.1019   2.1489097032e+01   5.8126436615e+01    0.1946388    0.1834554 -81.16 0.0002705542    1.220    0.180
        18 -11.1710    116.5270      8.8548   1.6984781568e+01   5.4443470601e+01    0.2722872    0.2452237 -22.63 0.0008511184    1.206    0.171
        19 -10.2752     80.7469      9.8265   2.6624224897e+01   6.2993029976e+01    0.3784629    0.1697814  35.10  0.001521593    2.440    0.590
        20 -12.7971     29.5493      4.9406   4.7053917258e+01   7.3090276548e+01    0.3693908    0.2409958 -39.61 0.0004612774    1.594    0.373
        21 -10.1912     33.9761      3.7851   4.3678150291e+01   7.2624504505e+01    0.1932259    0.1618507  -6.69 0.0003128031    1.077    0.072
        22 -10.6587     35.2873      8.0188   4.5496048311e+01   7.1815307407e+01    0.2101692    0.1619546  19.49 0.0007373502    1.209    0.173
        23 -10.0278     15.8173      7.4104   5.7607487611e+01   7.4318512103e+01    0.1838446    0.1399858 -27.50 0.0004669409    1.086    0.079
        24 -11.5414     19.4049      2.9161   5.2452544215e+01   7.4682835470e+01    0.3735335    0.1976964 -16.79  0.001859972    2.218    0.549
        25  -9.9911      7.6184      7.8700   6.3779855814e+01   7.4956803363e+01    0.1522203    0.1046074 -59.71  0.000718885    1.701    0.412
        26  -9.7779     65.5572      5.4766   2.9644973824e+01   6.6743844163e+01    0.1317204    0.1168213  18.73 0.0002802752    1.056    0.053
        27  -9.5299    111.5820      5.8020   1.6726844635e+01   5.5983212028e+01    0.1756193    0.1284478 -35.39  0.000587541    1.500    0.333
        28 -10.9962    193.9916      4.8503   5.1961395154e+00   3.4866008986e+01    0.1973281      0.17871 -53.17 0.0003123843    1.096    0.088
        29  -9.5457     80.7432      5.3831   2.4375777266e+01   6.3462742768e+01    0.1945674    0.1099143  47.20 0.0009400695    1.553    0.356
        30 -10.2889     70.7775      4.9796   2.7456729158e+01   6.5700864095e+01    0.2022531    0.1543079  20.21 0.0003829853    1.225    0.184
        31 -10.2360    224.7908      2.9283   2.3643490699e+00   2.7836863922e+01     0.170247    0.1631509  33.42 0.0008122597    1.310    0.237
        32 -11.6157    205.0182      2.5614   3.6807629199e+00   3.2419700630e+01    0.2304321    0.2058234 -87.09 6.117768e-05    1.081    0.075
        33 -10.6571    148.5455      2.4085   9.3051768821e+00   4.6686738384e+01    0.2349597    0.2044141  76.59 0.0002967467    1.043    0.042
        34  -9.4060    120.2311      2.9246   1.3855289441e+01   5.4025185461e+01    0.1596151    0.1160084 -21.46 0.0003255749    1.503    0.335
        35 -10.5883    245.2615      1.4632   7.9358787597e-01   2.3594269190e+01     0.165922    0.1236984  82.60 0.0003707199    1.370    0.270
        36  -9.8260    210.5094      1.8718   3.0931698742e+00   3.1191632131e+01    0.1746931    0.1163924 -32.51  0.000424051    1.457    0.314
        37  -9.1967      1.2965      2.3693   6.5816998068e+01   7.6412870668e+01    0.1292994   0.06455371 -30.58 0.0007029496    1.730    0.422
        38  -9.4075    100.9186      1.2009   1.7013663946e+01   5.9052038250e+01    0.1789563    0.1007805  64.95  0.000450896    1.652    0.395
        39 -10.2493     61.8478      6.8352   3.1860478245e+01   6.7340280974e+01    0.2986889    0.1850202   9.61  0.001229998    1.871    0.465
        40 -10.0924     24.1972    120.5865   8.3155771922e+01   4.7874318718e+01    0.1579185    0.1257359  -5.51 0.0004531176    1.588    0.370
        41 -10.1949    110.1804    250.6602   7.5948617494e+01   1.0438473695e+01    0.1611671   0.08579551  29.84 0.0004823304    1.636    0.389
        42 -10.6914     31.6072    248.4484   9.0623657340e+01   2.0155974033e+01    0.2127205     0.164773 -51.41  0.001122503    1.937    0.484
        43 -11.5041     24.3085    249.5602   9.1982384842e+01   2.0705437006e+01    0.2625589    0.1689884  33.84  0.001927626    1.478    0.323
        44 -11.6911     10.2679    245.3275   9.4319058331e+01   2.2746915575e+01    0.2120661    0.1503317 -84.58  0.001693238    1.514    0.340
        45 -11.4551      4.1154    248.5851   9.5486655198e+01   2.2759495789e+01     0.409936    0.1483221  48.04  0.002582383    1.789    0.441
        46 -12.3206      4.7872    242.2793   9.5190757589e+01   2.3755056347e+01    0.4530192    0.1889425  65.65  0.002843208    1.920    0.479
        47 -11.2179     15.5697    116.7408   8.5471088907e+01   4.9480956903e+01    0.3717863    0.1581299 -55.26  0.001494868    2.150    0.535
        48 -10.7896     69.2293    115.6466   6.7761200289e+01   4.4030665579e+01    0.3285877    0.2177116 -65.80    0.0008083    1.509    0.337
        49 -10.9840     27.0543    116.9872   8.1797387932e+01   4.8521946256e+01    0.1919564    0.1697069 -79.45 0.0003280765    1.016    0.016
        50 -11.1360     24.4886    111.9932   8.1997585074e+01   4.9971654498e+01    0.3256202    0.1530847 -35.35  0.001335911    2.943    0.660
        51 -10.1214      6.3310    112.7187   8.8029376815e+01   5.1062520428e+01     0.196362     0.133731  80.32  0.000358419    1.366    0.268
        52 -11.6169      2.8584    111.8452   8.9063579784e+01   5.1471308559e+01    0.2330598    0.1897324  73.65 0.0002902909    1.167    0.143
        53  -9.2709    128.6804    112.2383   4.9131206986e+01   3.4093050236e+01    0.1484048    0.1205507  72.64 0.0002102499    1.514    0.339
        54  -9.2738    117.9833    112.2342   5.2069154712e+01   3.6297438545e+01    0.1921188    0.1269768  41.76 0.0008408712    1.495    0.331
        55 -10.9297     16.8391    108.9688   8.4179998292e+01   5.1301015907e+01    0.1965405    0.1729555 -28.14 0.0003861655    1.318    0.241
        56 -12.3438      1.6014    104.7364   8.8835660083e+01   5.3260691211e+01    0.2709297    0.1367443 -76.63  0.000735746    1.631    0.387
        57  -9.9690     89.3047    105.3193   5.8958974647e+01   4.3317315986e+01    0.1525113    0.1169781 -17.61 0.0007028865    1.631    0.387
        58 -10.1882     38.7818    104.8864   7.6036853676e+01   5.0436909277e+01    0.1978363    0.1656409 -54.18 0.0003406793    1.137    0.120
        59 -11.1880    108.8572    103.2908   5.2397264800e+01   4.0119003459e+01    0.2725165    0.2481821 -30.49 0.0003166478    1.119    0.106
        60 -10.7561    112.7023    102.0601   5.0935105129e+01   3.9618540331e+01    0.2653939    0.2155665  39.56 0.0002981375    1.226    0.185
        61 -11.2208     20.1341     98.4673   8.1664932116e+01   5.3657874874e+01    0.4069233    0.2345939  12.62  0.002080176    2.114    0.527
        62  -9.8801    217.9992     98.3449   2.6785221014e+01   1.7138065645e+01     0.182825    0.1738496  35.02 0.0004672467    1.141    0.124
        63  -9.7030    107.3860     96.8028   5.1081924177e+01   4.1858110611e+01    0.2207413    0.1417911 -36.10 0.0005072883    1.669    0.401
        64 -10.5258     37.5645     97.5037   7.5167888725e+01   5.2393359408e+01    0.1361729    0.1210181 -63.41  9.03161e-05    1.018    0.018
        65  -9.8242     66.7422     95.3171   6.4120379391e+01   4.9344147715e+01    0.2103462    0.1748679  57.53  0.000250361    1.330    0.248
        66 -11.5302     66.6787     91.7077   6.3253970095e+01   5.0221261297e+01    0.2740358    0.2387771 -58.90  0.000290328    1.110    0.099
        67  -9.8451    144.6633     94.3126   4.0163711617e+01   3.4258759083e+01    0.1576552    0.1255229 -84.14 0.0007045817    1.689    0.408
        68 -11.1580     93.5340     92.6483   5.4273131323e+01   4.5485822243e+01    0.3749427    0.2883743  16.40 0.0008373018    1.525    0.344
        69 -10.4368    103.8344    101.2732   5.3374455918e+01   4.1561803005e+01    0.2876593    0.2320472  12.66 0.0005057945    1.449    0.310
        70 -11.3341     74.6269     93.0026   6.0760221046e+01   4.8690250307e+01     0.247819    0.2116199  34.56 0.0003293624    1.213    0.176
        71 -11.1419     18.8312     93.8478   8.1470540100e+01   5.4893178334e+01    0.3052975    0.2235043 -14.74  0.001756159    1.656    0.396
        72 -11.8076     57.9644     91.2693   6.6326893220e+01   5.1553379622e+01    0.3267329    0.2619012 -32.72 0.0009890717    1.306    0.235
        73 -10.9056    145.7866     91.0922   3.8972044513e+01   3.4625098090e+01    0.2249627    0.2100776 -80.71  0.000691565    1.192    0.161
        74  -9.4908      7.5733     91.2012   8.5280749275e+01   5.6248224892e+01    0.1728618   0.09390371 -61.07 0.0004440066    1.522    0.343
        75  -9.3437    116.2880     90.6523   4.6692602001e+01   4.1340198140e+01    0.1560122    0.1249211 -83.27 0.0003487545    1.658    0.397
        76 -12.5693     31.1741     87.3222   7.5671116747e+01   5.5514331631e+01    0.2528421    0.2232053 -66.93 0.0004446002    1.033    0.032
        77 -13.6341     65.3130     81.9258   6.1185778961e+01   5.2743422452e+01    0.4898403    0.4531299 -69.45 0.0007629725    1.134    0.118
        78  -9.8132      2.4957     82.9385   8.6173869095e+01   5.8513598845e+01    0.1932049    0.1046557 -75.67 0.0006695105    1.547    0.353
        79 -10.4804     47.9512     78.6997   6.7093058091e+01   5.5853384837e+01    0.3039626    0.2041931 -23.67 0.0009511604    1.782    0.439
        80 -10.1668    176.4682     76.9186   2.8285814076e+01   2.9865649114e+01    0.2819702    0.2167746  77.00  0.001359004    1.542    0.351
        81  -9.4749     23.4539     77.4691   7.6860358151e+01   5.8569683770e+01    0.1312065    0.1147719 -62.91 9.283503e-05    1.029    0.028
        82 -10.5884     38.5859     76.3714   7.0338305871e+01   5.7462925989e+01    0.2630971    0.0880961  40.27 0.0009443502    3.408    0.707
        83 -11.6823     11.6922     59.6344   7.8421952948e+01   6.3634013883e+01    0.2659414      0.21817   1.23 0.0003264602    1.378    0.274
        84 -12.1495     11.3500     74.0445   8.1295007940e+01   6.0215115953e+01    0.4368858    0.3145046  54.06  0.001568163    1.627    0.385
        85 -10.6000     12.0474     69.2794   8.0157017848e+01   6.1321864555e+01    0.1948314    0.1585186 -64.56 0.0003258423    1.054    0.051
        86 -11.9866      4.9687     73.1452   8.3831968386e+01   6.0765506383e+01    0.2349785    0.2116847 -76.78 0.0002626944    1.106    0.095
        87 -10.6761      1.5431     70.4600   8.4878890438e+01   6.1561978844e+01     0.239921    0.1576436 -61.88 0.0005332296    1.228    0.185
        88 -11.1253     92.0262     85.2144   5.2641573242e+01   4.7442387414e+01    0.2471041    0.2106003 -51.16 0.0002642912    1.180    0.153
        89  -9.9048     71.2411     72.0632   5.6038212316e+01   5.4069142722e+01    0.1963816    0.1791699 -49.10            0    1.097    0.088
        90 -11.9532     81.1703     66.8960   5.0651824612e+01   5.3456568090e+01    0.2938084    0.2469433 -30.30            0    1.166    0.143
        91  -9.6729     50.5037     67.4638   6.2958966605e+01   5.8168311117e+01    0.1381591    0.1287122 -42.80 0.0008090991    1.048    0.046
        92 -10.3487     59.4170     64.8749   5.8439717621e+01   5.7517622250e+01    0.2324428    0.1908808  48.22  0.000313529    1.396    0.284
        93  -9.2601    166.5201     64.4652   2.6544858473e+01   3.4312953196e+01    0.1471045    0.1470455 -56.62 0.0008093123    1.005    0.005
        94 -11.4359     16.2166     64.3503   7.7327155171e+01   6.2239723993e+01    0.4027298    0.2976703 -39.22  0.001456181    1.262    0.208
        95  -9.6252    154.1517     67.1314   2.9872177200e+01   3.6947121851e+01    0.2036194    0.1751965 -63.42 0.0002734831    1.277    0.217
        96  -9.4610     97.5026     60.5331   4.2767111684e+01   5.1492080809e+01    0.1501649    0.1436428   5.16 9.048902e-05    1.004    0.004
        97 -10.5160     42.0412     58.8201   6.4044793239e+01   6.1177269050e+01    0.2945196     0.172934 -49.78  0.001089697    1.510    0.338
        98 -10.4386     37.9889     59.5650   6.6116850957e+01   6.1466461869e+01    0.2557861    0.1707022 -46.29 0.0003896894    1.321    0.243
        99 -11.9786     77.8801     58.1295   4.8807436614e+01   5.5876163944e+01    0.2511702    0.2212414 -28.78 0.0003087578    1.089    0.082
       100 -10.2880     58.1846     58.9867   5.7007202146e+01   5.8991062436e+01    0.2204847    0.1916717  19.90 0.0003961988    1.185    0.156
       101  -9.4919    130.7399     57.2976   3.2074029558e+01   4.4391060351e+01    0.1475093    0.1190448 -68.77 0.0003214224    1.506    0.336
       102  -9.3608    121.0157     57.8017   3.4773270107e+01   4.6660992714e+01    0.1986605    0.1183783  51.72 0.0003226172    1.649    0.394
       103 -10.2369     86.6737     54.6826   4.4315663172e+01   5.4855071461e+01    0.3456937    0.2858099  46.75  0.001809648    1.265    0.209
       104 -11.8550     81.7482     52.4390   4.5247078516e+01   5.6260042676e+01    0.4538417    0.3201207  22.92  0.001015305    1.577    0.366
       105 -10.6522     78.3422     50.2479   4.5674492611e+01   5.7335662602e+01    0.2392887    0.2112497  35.06 0.0002757746    1.151    0.131
       106  -9.9585    182.0932     54.4828   2.0846752153e+01   3.1957525462e+01    0.2140016     0.191163 -35.21 0.0004480498    1.105    0.095
       107  -9.5921    148.5772     55.5239   2.7370416172e+01   4.0227640294e+01    0.1498351    0.1453622  26.35 5.942778e-05    1.040    0.039
       108  -9.8633     99.5054     55.5373   4.0302349040e+01   5.1999623218e+01    0.1517054    0.1410549  10.01 6.335582e-05    1.046    0.044
       109  -9.9413    115.1323     53.1128   3.4719699311e+01   4.8866996315e+01    0.2334691    0.1876647 -74.96  0.001112878    1.624    0.384
       110 -12.5246     62.0416     49.6753   5.2003377837e+01   6.0336361577e+01    0.3524719    0.2368725 -44.15 0.0004781117    1.432    0.302
       111 -10.2749      2.8995     51.8940   8.1073091186e+01   6.5883320847e+01    0.3639774   0.09359407 -50.96  0.001454626    2.668    0.625
       112 -11.3267    105.0539     51.9956   3.7251526967e+01   5.1398228875e+01    0.2171149    0.2102285  13.38 -0.002661949    1.029    0.028
       113 -10.4138    138.3477     50.1415   2.7811751455e+01   4.3649958537e+01    0.2473704    0.1988191  42.45 0.0004678921    1.234    0.190
       114 -10.0849     92.9633     50.0129   4.0365675023e+01   5.4415792425e+01    0.2164959    0.2026824  13.99            0    1.015    0.015
       115  -9.3229     52.3326     48.3183   5.5756998677e+01   6.2103999956e+01    0.1459634   0.09985691 -15.73 0.0002977986    1.693    0.409
       116 -10.8452     17.5433     46.2541   7.2219102029e+01   6.6333942608e+01    0.2327287    0.1765074 -24.81 0.0008104399    1.275    0.215
       117  -9.6737    221.4987     45.0019   1.3023793387e+01   2.3915777155e+01    0.1964507     0.120996 -32.03 0.0009997559    1.493    0.330
       118  -9.1880     72.5965     45.7009   4.6098981857e+01   5.9273680176e+01    0.1537794     0.106837   4.49 0.0002559858    1.831    0.454
       119  -9.1255      1.6613     45.6907   8.0405835708e+01   6.7359743180e+01    0.1345334   0.06892142 -41.06 0.0007043986    1.686    0.407
       120 -12.5649     85.7073     42.5078   3.9880671849e+01   5.7265824136e+01    0.3824014    0.3062333 -21.77 0.0003037661    1.253    0.202
       121 -11.3590    108.8706     40.8636   3.1864342879e+01   5.2345710520e+01    0.5288852    0.3440834  68.82  0.002316422    1.921    0.479
       122 -11.0957     60.4513     41.3473   4.9371694267e+01   6.2224824251e+01    0.4749567     0.206575  32.80  0.001605408    2.499    0.600
       123 -11.4319     38.4448     41.6404   5.9872388874e+01   6.5323712851e+01    0.2619596    0.2383894  51.60 0.0001088981    1.396    0.284
       124 -10.0841    140.8807     40.8871   2.4061126848e+01   4.4372001387e+01    0.2729462    0.1846167 -89.52  0.001174754    1.986    0.496
       125 -10.6025    116.2045     39.3935   2.9295572428e+01   5.0799024718e+01     0.405532     0.226028 -41.98  0.001717723    1.923    0.480
       126 -10.5750    112.9002     34.8303   2.8386346774e+01   5.2270040613e+01    0.2396013    0.1972231  47.94 0.0003991729    1.148    0.129
       127 -11.1104    184.1787     40.7324   1.6526555074e+01   3.3317479365e+01    0.4273337    0.2543741  85.49  0.001633022    2.061    0.515
       128 -10.5265     28.4028     42.9519   6.5500720476e+01   6.6139020975e+01    0.4270666    0.1882062  39.25  0.001871024    2.778    0.640
       129 -11.2555     91.8474     41.2577   3.7260031624e+01   5.6168141485e+01      0.38663    0.2657356 -51.86 0.0008130164    1.773    0.436
       130  -9.5593      2.4560     39.4318   7.8522625032e+01   6.8738431584e+01    0.1223689   0.09891671 -49.63 5.967624e-05    1.011    0.011
       131 -11.3047    121.6076     36.9275   2.6984002070e+01   4.9821068930e+01    0.3515763    0.2673489 -20.91  0.001077904    1.402    0.287
       132 -10.6462     75.6589     37.9954   4.1691681401e+01   6.0072759253e+01    0.2366043    0.1987866  46.23 0.0003176521    1.274    0.215
       133 -11.4983     67.1968     35.8971   4.4160665398e+01   6.2039451418e+01      0.26745    0.2392813 -20.51 0.0003137914    1.086    0.079
       134  -9.9281    219.2057     36.1890   1.1043094095e+01   2.5515419073e+01    0.1963125    0.1383852 -58.78   0.00107285    1.378    0.275
       135 -10.0546    150.5156     35.9907   2.0489185046e+01   4.2549799731e+01    0.2174363     0.189814  61.06 0.0003973013    1.098    0.089
       136  -9.9514     22.8404     34.7765   6.5602286525e+01   6.8396700311e+01    0.1861092    0.1410605 -34.44  0.000384828    1.120    0.107
       137 -10.4700      6.1044     34.6915   7.5175875574e+01   6.9609963098e+01    0.1926727    0.1635127 -84.46 0.0006020052    1.399    0.285
       138 -10.0816    117.1062     32.3515   2.6331248522e+01   5.1578576499e+01    0.2080042    0.1806934  54.10 0.0005089289    1.105    0.095
       139  -9.2342    161.4956    249.4626   6.6032533221e+01   3.6236490257e+00    0.1169934   0.08673214  26.92 2.288921e-05    1.011    0.011
       140 -12.4423     11.0740     29.8305   7.0686443762e+01   7.0358308955e+01    0.2681116    0.2190514  22.12 0.0009659284    1.423    0.297
       141 -10.4085    135.8354     29.0275   2.0875586150e+01   4.7247370473e+01    0.2099982    0.2032657  63.80 0.0004185859    1.028    0.027
       142 -10.6653     81.0291     27.4657   3.5016356715e+01   6.0655011507e+01    0.2787737    0.2316011  -4.95  0.001547541    1.192    0.161
       143 -12.2439    216.9582     25.6879   8.6017071523e+00   2.7248889449e+01    0.2597294    0.2134588 -85.72 0.0003256006    1.191    0.161
       144 -11.9673    213.0251     23.9281   8.5235330954e+00   2.8353454504e+01     0.271208    0.2058076 -60.12 0.0002908475    1.227    0.185
       145 -11.0953    183.3319     25.4964   1.2182482746e+01   3.5385896719e+01    0.3344658    0.2301019  67.47  0.001721277    1.404    0.288
       146 -11.5096     18.5236    247.9901   9.2951083156e+01   2.1528293123e+01    0.3193528    0.1536289  18.20  0.001672431    3.505    0.715
       147 -10.1079    229.8549    247.7714   5.3655429957e+01  -5.1122602436e+00    0.1634703    0.1063352  11.36 0.0004595242    1.146    0.128
       148 -11.0088    131.0065     21.8552   1.9187377221e+01   4.9354577118e+01    0.4020576    0.2382632  33.32  0.001753979    1.960    0.490
       149  -9.8874     52.8835     23.5065   4.4715770319e+01   6.6636374129e+01    0.1910276    0.1253569  34.98 0.0006415186    1.506    0.336
       150 -10.6725    163.1052     20.6232   1.3368343577e+01   4.1115003808e+01    0.3134697    0.2249331   6.89  0.000940543    1.788    0.441
       151  -9.9832     15.6464     21.6322   6.4685565887e+01   7.1692036187e+01    0.3122357    0.1479697 -54.05  0.001569425    1.912    0.477
       152  -9.9024    131.2963    247.6537   7.1573982574e+01   8.0261514514e+00    0.1135162   0.07602978  55.28 0.0007033496    1.673    0.402
       153  -9.5056      2.2909     22.3425   7.3622593700e+01   7.2439436205e+01    0.1318495   0.06601578 -37.88 0.0002786885    1.652    0.395
       154  -9.7336     64.4854     21.4515   3.8514381643e+01   6.4879488954e+01    0.1375591    0.1206377   8.61  0.000123333    1.005    0.005
       155 -10.5723    100.5123     20.3520   2.5696126794e+01   5.7183523871e+01    0.3865893    0.2549212 -50.38  0.001545477    1.897    0.473
       156  -9.4228     21.6856     21.7187   6.0938053889e+01   7.1126424746e+01    0.1294266   0.08086653 -21.64 0.0006985798    1.574    0.364
       157 -10.5796    197.7410     19.4492   8.8418427510e+00   3.2482676551e+01    0.2249513    0.1740771 -31.94 0.0003508549    1.295    0.228
       158  -9.4019     78.2970     20.6763   3.2799931418e+01   6.2195572553e+01    0.1310882    0.1111101 -66.71 0.0002982729    1.624    0.384
       159  -9.9021     70.1942     18.1939   3.4583242301e+01   6.4218914780e+01    0.1731574    0.1671854 -88.19 0.0008999668    1.348    0.258
       160  -9.6346    207.5482     17.5723   7.3854051093e+00   3.0328336575e+01    0.1293624    0.1178736 -69.98 0.0001061303    1.032    0.031
       161 -10.3982    147.9718     16.8433   1.4370193482e+01   4.5473364927e+01    0.2039474     0.189192  84.09 0.0003149525    1.043    0.041
       162 -10.5262    214.3940     16.1752   6.4157061224e+00   2.8873582797e+01    0.2167225    0.1719956  85.09 0.0002671875    1.230    0.187
       163  -9.3765    129.0378     16.5007   1.7542603227e+01   5.0454624948e+01    0.2043642    0.1316974  62.45 -0.0009785148    1.424    0.298
       164  -9.9179     24.9481     13.9679   5.5099271734e+01   7.2201401896e+01    0.1659047    0.1537648  55.54 0.0008225206    1.612    0.380
       165  -9.7718    153.5639     12.6380   1.2096952063e+01   4.4435557413e+01    0.2098223    0.1474875  41.82 0.0002806355    1.505    0.336
       166  -9.6339    116.5122    247.5465   7.4424570544e+01   1.0055854761e+01    0.1171187   0.08837605  38.32 -7.818763e-06    1.008    0.008
       167  -9.6138    188.3298    245.9986   6.0634034376e+01   4.0500675700e-01    0.1704402   0.07851444 -16.92 0.0007051336    4.340    0.770
       168  -9.9922    243.3092    244.9992   5.1050526237e+01  -6.4328055189e+00     0.163794   0.06614471 -11.70 0.0007022948    4.110    0.757
       169  -9.9768    147.4093    243.7234   6.8018852291e+01   6.3472756046e+00    0.1413278    0.1067759 -24.16 0.0009189323    1.647    0.393
       170 -10.8129     37.2983    241.3075   8.9234315674e+01   2.0767451679e+01    0.3313527    0.1019917  57.38  0.001565642    2.976    0.664
       171  -9.6926    117.7527    238.9833   7.3302878379e+01   1.1189448124e+01    0.1227948    0.1030521 -58.86 0.0004185484    1.527    0.345
       172 -11.0081     19.9898    234.4822   9.2161490932e+01   2.3698816411e+01      0.15009   0.08587378  36.20 0.0003879534    1.520    0.342
       173 -10.2324     92.7070    117.9660   6.0869309938e+01   3.9741138232e+01    0.2092011     0.190419 -63.87 0.0004631475    1.105    0.095
       174 -10.9750     56.2236    230.8833   8.4949168068e+01   2.0490636402e+01    0.2945248    0.2004272  13.55  0.001802893    2.091    0.522
       175 -10.7034     29.3044    232.6826   9.0321820589e+01   2.3097635617e+01    0.4299142          nan  34.08   0.00141178    5.818    0.828
       176 -11.5618      7.0653    227.9373   9.4327367695e+01   2.6057926512e+01     0.346513    0.1209391  57.44   0.00192757    2.161    0.537
       177 -11.2475      2.0354    220.2631   9.5020000759e+01   2.7891573619e+01    0.2988492    0.1229846  86.96  0.001720071    2.248    0.555
       178  -9.3259    210.4245    215.5363   5.2103323355e+01   1.1134533815e+00    0.1217873   0.09254232  10.89 0.0001548909    1.031    0.030
       179  -9.8554    237.6398    186.6447   4.2355252444e+01   8.9764843974e-01    0.1893149    0.1165983   3.06 0.0007082345    1.631    0.387
       180  -9.6119     85.9975     10.4061   2.5275923179e+01   6.1738697521e+01    0.2013213    0.1242698  54.72  0.000323229    1.511    0.338
       181  -9.3858      1.2870    170.3256   9.3242741034e+01   3.8010911551e+01    0.1077529   0.07891019 -56.51 0.0003751031    1.608    0.378
       182  -9.3226    229.3250    165.6707   3.9761565966e+01   4.9710078135e+00    0.1135859    0.1031668 -58.90 0.0007050219    1.701    0.412
       183  -9.5546    213.1154    155.2181   4.0488093653e+01   9.2153179823e+00    0.1670347    0.1558687 -29.48 0.0006802725    1.289    0.224
       184 -10.2275      7.3021    154.0880   9.0894573675e+01   4.1194287335e+01    0.1739026    0.1302148  84.20 0.0006400076    1.112    0.100
       185  -9.2148     42.4006    149.4373   8.1082316706e+01   3.9134825659e+01    0.1303463    0.1128177  78.78 8.403517e-05    1.032    0.031
       186 -10.5247     24.0094    147.9406   8.6007250573e+01   4.1282688691e+01    0.3065602    0.1849644 -48.80 0.0009475268    1.898    0.473
       187 -11.8299      3.6971    145.8933   9.1325338220e+01   4.3331590235e+01    0.3487493    0.2190057 -89.23  0.002099821    1.346    0.257
       188  -9.4832    206.5070    145.4964   3.9640762520e+01   1.1924553604e+01    0.1389574    0.1217725  -1.42 0.0008106449    1.003    0.003
       189  -9.7391     32.1158    140.8948   8.3047646227e+01   4.2220759594e+01    0.1626456    0.1388727 -58.05 -0.0006383859    1.240    0.194
       190  -9.1980     54.0225    140.1942   7.6604345118e+01   4.0029454672e+01    0.1686751    0.1043098  30.66 0.0004334811    1.676    0.403
       191  -9.0630    164.3723     10.6763   1.0017603391e+01   4.1808525554e+01    0.1536814   0.09417691 -64.18 0.0007031643    1.813    0.448
       192 -11.2440     69.2176    135.8889   7.1466950668e+01   3.9099998296e+01    0.2458594    0.2150328 -54.86 0.0003744228    1.171    0.146
       193  -9.6859     70.4165    130.7378   7.0227059798e+01   4.0178914351e+01    0.1991342    0.1253327 -51.84 0.0006308916    1.588    0.370
       194 -10.5499     42.4660    129.2249   7.8550098605e+01   4.4019462324e+01     0.501313    0.1646572  47.34  0.001331274    3.374    0.704
       195 -11.2385    246.6393    127.5212   2.9115813225e+01   7.4862729970e+00     0.220613    0.1639525  11.94 0.0006126287    1.417    0.294
       196 -10.7565     74.9873    126.5291   6.8067028865e+01   4.0537225396e+01     0.253101    0.1990045 -59.80 6.230483e-05    1.244    0.196
       197  -9.0829    126.6932    129.2849   5.3785845250e+01   3.0813644328e+01    0.1486519    0.1199017  76.11 0.0001620416    1.565    0.361
       198 -13.0898     83.0839    119.7914   6.4223874857e+01   4.0913151250e+01     0.367918    0.3523375 -29.42 0.0005377448    1.102    0.092
       199  -9.6139     74.6324    121.8561   6.7276705036e+01   4.1724117172e+01    0.1961384    0.1341339 -73.47 0.0002580959    1.591    0.372
       200 -10.6536     10.2521    121.0279   8.7565585341e+01   4.8799654396e+01    0.1772871     0.144521 -84.12 0.0002740313    1.037    0.035
       201  -9.5735    114.1250    119.8622   5.5023479589e+01   3.5359699918e+01    0.2007183    0.1767767  -3.29   0.00102294    1.271    0.213
