#   1 NUMBER                 Running object number                                     
#   2 MAG_AUTO               Kron-like elliptical aperture magnitude                    [mag]
#   3 X_IMAGE                Object position along x                                    [pixel]
#   4 Y_IMAGE                Object position along y                                    [pixel]
#   5 X_WORLD                Barycenter position along world x axis                     [deg]
#   6 Y_WORLD                Barycenter position along world y axis                     [deg]
#   7 A_WORLD                Profile RMS along major axis (world units)                 [deg]
#   8 B_WORLD                Profile RMS along minor axis (world units)                 [deg]
#   9 THETA_WORLD            Position angle (CCW/world-x)                               [deg]
#  10 FWHM_WORLD             FWHM assuming a gaussian core                              [deg]
#  11 ELONGATION             A_IMAGE/B_IMAGE                                           
#  12 ELLIPTICITY            1 - B_IMAGE/A_IMAGE                                       
         1 -16.2282    240.4915     17.3450   2.8912982350e+02   6.1764270285e+00    0.1805684    0.1160637 -61.85   0.01880897    1.518    0.341
         2  -7.8089    172.4660     11.9558   2.8987245797e+02   6.6335731037e+00   0.01022305  0.006358639 -63.03 0.0006872527    1.581    0.367
         3  -9.0726    179.4989      9.3258   2.8977654236e+02   6.6231148017e+00   0.01513135   0.01236351 -79.69 0.0008322623    1.294    0.227
         4  -8.9694    176.7090      4.0011   2.8977648173e+02   6.7007024760e+00   0.01944464   0.01452413 -85.78  0.002042271    1.526    0.345
         5  -9.7681    182.0635      3.4085   2.8971189239e+02   6.6764726428e+00   0.02435795   0.01262396  26.68  0.001049833    1.976    0.494
         6  -8.6885    166.3250      8.2451   2.8992027954e+02   6.7119784280e+00   0.01199769   0.01092169  61.57 0.0006197689    1.147    0.128
         7  -7.4698    167.0000      4.0019   2.8988719248e+02   6.7570009707e+00   0.01282546  0.007224484 -55.72 0.0009037546    1.689    0.408
         8  -9.8421    192.1041      8.3576   2.8962707291e+02   6.5611378638e+00   0.02346376  0.007040928  30.49  0.001715006    3.128    0.680
         9  -8.7693    160.3929      4.9105   2.8996798134e+02   6.7848256024e+00   0.01536493   0.01149729 -70.22 0.0009304208    1.367    0.268
        10  -9.2472    242.3792    137.6192   2.8982731867e+02   4.7775010459e+00   0.01441227   0.01185462  48.82  0.001678827    1.264    0.209
        11  -7.9986    187.0333    127.6926   2.9039780795e+02   5.2129065540e+00  0.008820429  0.008432968  29.09 0.0004105646    1.066    0.062
        12  -9.0360    240.2003    124.3850   2.8977310579e+02   4.9429716130e+00   0.01326254  0.009738819 -32.49 0.0007009342    1.506    0.336
        13  -7.0467    234.9803    120.0000   2.8980629447e+02   5.0238853834e+00   0.01024095   0.00374965  27.09 0.0003478042    2.787    0.641
        14  -7.9019    168.0279    114.0028   2.9053260637e+02   5.4811174375e+00   0.01105577  0.007501575  59.98 0.0006882913    1.750    0.429
        15  -7.1483    214.0333    111.7926   2.8999561172e+02   5.2401388737e+00  0.008465023  0.005239984  28.00 0.0008426725    1.638    0.390
        16  -7.4869    197.3591    104.8439   2.9014393224e+02   5.4170455766e+00  0.009312594  0.005600391 -51.38 0.0001455569    1.610    0.379
        17  -7.7453    147.4910    104.0019   2.9070696608e+02   5.7155128831e+00   0.01024924  0.006396165 -63.80  0.001029828    1.583    0.368
        18  -8.9968    247.9550     98.9428   2.8953297711e+02   5.1917211351e+00    0.0154081   0.01210779  77.41  0.001159598    1.470    0.320
        19  -9.9028    242.1772     95.0977   2.8957571367e+02   5.2696439267e+00   0.01837829   0.01491687  51.07  0.002128962    1.295    0.228
        20  -7.8921    236.4975     90.9929   2.8961579296e+02   5.3499953883e+00  0.009722465  0.006327395 -61.38 0.0004365992    1.495    0.331
        21  -7.9485    219.3520     90.0260   2.8980510391e+02   5.4606441701e+00   0.01064436  0.009121512   3.65 0.0005036892    1.265    0.209
        22  -8.1939    249.9917     83.0020   2.8941455129e+02   5.3638855357e+00   0.01217345  0.008530838 -51.91  0.000842625    1.386    0.279
        23  -9.2082    236.9508     83.4230   2.8956539998e+02   5.4347425169e+00   0.01274432    0.0102247 -57.69 0.0003758832    1.211    0.174
        24 -10.3838    243.4027     80.0615   2.8947191475e+02   5.4360822753e+00   0.02950268   0.02026116  13.00  0.001726795    1.656    0.396
        25  -8.3028    226.8262     82.5975   2.8967566382e+02   5.5030361636e+00   0.01055981  0.008272878  52.95 0.0003832791    1.363    0.267
        26  -8.0038    223.3656     80.1773   2.8970058217e+02   5.5510556891e+00   0.01259859  0.005170343  23.98 0.0008250762    2.661    0.624
        27 -11.0417    218.6270     74.1479   2.8971848334e+02   5.6481519827e+00   0.02088016   0.01568628 -55.24 0.0005912036    1.289    0.224
        28 -10.0237    233.3346     74.6318   2.8955399691e+02   5.5572026086e+00   0.01959052   0.01216026  26.40 0.0007191604    1.651    0.394
        29  -7.9410    156.5339     76.4759   2.9043967626e+02   5.9811754173e+00  0.006571402  0.006261411 -39.24 0.0001024653    1.050    0.048
        30  -8.8050    202.9738     72.9848   2.8988974211e+02   5.7523873317e+00   0.01828596  0.009384197 -63.34  0.001443831    1.924    0.480
        31  -7.5479     63.0297    248.0714   2.9252508784e+02   4.5367199615e+00    0.0105893  0.007681677  67.79  0.000928985    1.648    0.393
        32  -8.6823    227.3046     56.9746   2.8951704822e+02   5.7959761652e+00   0.01175724  0.009698827   8.48  0.000412654    1.318    0.242
        33  -8.5058    191.5601     60.6743   2.8994617186e+02   5.9606902277e+00   0.01766812   0.01097513   7.29  0.001359856    2.056    0.514
        34  -7.5338    211.8850     59.5122   2.8970775239e+02   5.8562003313e+00   0.00901223  0.008627876  12.97 0.0004795432    1.073    0.068
        35  -8.4582    211.0614     55.5872   2.8969366433e+02   5.9062768287e+00   0.01167692  0.009267084 -54.39 0.0005479738    1.224    0.183
        36  -9.0270    196.7693     56.6939   2.8986304424e+02   5.9764250773e+00    0.0195659   0.01269695 -24.67  0.001113276    1.971    0.493
        37  -8.5920    174.1750     57.3086   2.9012414271e+02   6.1003243000e+00   0.01012341  0.008093424  -3.28 0.0005724221    1.428    0.300
        38  -7.7090    211.9245     73.6246   2.8979165415e+02   5.6930824872e+00  0.009036891  0.008285778  32.15 0.0005950463    1.108    0.098
        39  -7.7564    180.9711     53.9353   2.9002654009e+02   6.0998741593e+00   0.01097661  0.007708185  66.58  0.001127298    1.737    0.424
        40  -9.0407    219.8527     52.5879   2.8957563784e+02   5.8898592385e+00   0.01073461  0.008662508 -48.42  0.000535157    1.222    0.182
        41  -7.6499    139.9874     51.2342   2.9047762566e+02   6.3684407563e+00   0.01308229  0.005720146 -33.79  0.000896345    3.798    0.737
        42  -7.6121    181.7685     68.9766   2.9010732604e+02   5.9216070514e+00  0.009176138  0.008340645 -63.20  0.000413736    1.080    0.074
        43  -7.7410    152.2749     46.9603   2.9031196863e+02   6.3466524068e+00  0.009055623  0.008325677 -67.73 0.0003178151    1.076    0.071
        44  -7.8920    232.2762     68.5645   2.8952976931e+02   5.6333690194e+00  0.008469426  0.006448709   8.71 0.0003989432    1.476    0.322
        45  -9.5351    122.9264     35.8811   2.9058056386e+02   6.6443954826e+00   0.02252165   0.01356872 -55.91  0.000973717    1.586    0.370
        46  -7.3700    171.0080     36.7841   2.9003757187e+02   6.3555788631e+00  0.008646968   0.00533381  27.24 0.0005844805    1.651    0.394
        47  -8.6125    115.5307     34.5176   2.9065681899e+02   6.7029013556e+00   0.01272376   0.01027524  55.90 0.0009540765    1.330    0.248
        48  -9.7144    115.5773     30.2632   2.9063087712e+02   6.7517432406e+00   0.02051262   0.01221654 -69.38  0.001385249    1.768    0.434
        49  -9.7313    112.2126     30.4061   2.9067013464e+02   6.7695456961e+00   0.02118429   0.01305568  15.44  0.002083956    1.867    0.464
        50  -7.8564    160.2734     33.6398   2.9014115847e+02   6.4540733630e+00   0.01149289  0.007123929 -43.33 0.0004619102    1.676    0.403
        51  -8.6097    192.3382     32.6724   2.8976989117e+02   6.2793294152e+00   0.01154076   0.01043589 -28.05 0.0002570321    1.149    0.130
        52  -7.9799    199.9276     63.3528   2.8986687313e+02   5.8812450878e+00  0.008865358  0.008370831  18.31 0.0003984587    1.087    0.080
        53  -8.2054     98.3142     29.6800   2.9082445558e+02   6.8582419745e+00  0.006869195  0.004928307  64.35 0.0005336521    1.653    0.395
        54  -8.3031    144.1820     26.3564   2.9028114118e+02   6.6313263102e+00   0.01276091   0.01062278 -55.28 0.0009193704    1.169    0.145
        55  -7.9713    114.8091     22.3686   2.9059248500e+02   6.8473048861e+00  0.008961812  0.006307497  10.61 0.0004515666    1.628    0.386
        56  -7.3116    174.5083     19.5473   2.8989459034e+02   6.5341642781e+00  0.006574612  0.006242396 -35.15 7.739293e-05    1.062    0.058
        57  -8.6743    226.0763     60.8185   2.8955401275e+02   5.7587531244e+00    0.0130099   0.01157917  78.96 0.0007318433    1.198    0.165
        58  -8.3495    177.0714     15.0869   2.8983868671e+02   6.5707503130e+00  0.009784338  0.009335094  66.17 0.0004937969    1.076    0.071
        59  -7.9559    166.9442     15.1559   2.8995456294e+02   6.6286769303e+00   0.01155533  0.006805952  54.89  0.001076222    2.054    0.513
        60  -7.9924    184.8262    194.8709   2.9082308317e+02   4.4492826396e+00  0.009227698  0.007614026  67.74 0.0005454411    1.339    0.253
        61 -10.5650     39.3751    189.0417   2.9244497199e+02   5.3557590276e+00   0.03443437   0.03125648 -17.33  0.004239081    1.164    0.141
        62  -9.1521     50.7961    178.1813   2.9225040441e+02   5.4157015041e+00   0.01148821   0.01108521  66.86 0.0008316098    1.059    0.056
        63  -7.4006    227.3826    167.7095   2.9017729217e+02   4.5168451438e+00  0.007083207  0.004779487  58.88  0.000701598    1.749    0.428
        64  -9.6846    177.9540    150.7495   2.9063860327e+02   4.9990184487e+00   0.02530922   0.01637647  51.44  0.002524078    1.720    0.419
        65  -7.7954     66.7684    145.0143   2.9187141096e+02   5.7073883024e+00  0.009787614  0.007256131  -9.98 0.0009677135    1.634    0.388
        66  -8.9342    250.1706    137.4022   2.8973744456e+02   4.7348215490e+00   0.01542875   0.01063085  88.42  0.001530352    1.814    0.449
