#   1 NUMBER                 Running object number                                     
#   2 MAG_AUTO               Kron-like elliptical aperture magnitude                    [mag]
#   3 X_IMAGE                Object position along x                                    [pixel]
#   4 Y_IMAGE                Object position along y                                    [pixel]
#   5 X_WORLD                Barycenter position along world x axis                     [deg]
#   6 Y_WORLD                Barycenter position along world y axis                     [deg]
#   7 A_WORLD                Profile RMS along major axis (world units)                 [deg]
#   8 B_WORLD                Profile RMS along minor axis (world units)                 [deg]
#   9 THETA_WORLD            Position angle (CCW/world-x)                               [deg]
#  10 FWHM_WORLD             FWHM assuming a gaussian core                              [deg]
#  11 ELONGATION             A_IMAGE/B_IMAGE                                           
#  12 ELLIPTICITY            1 - B_IMAGE/A_IMAGE                                       
         1 -13.9741      2.9550    124.3257   1.3367697199e+02   4.9277637923e+01     1.816089    0.4796688 -66.64  0.007111785    2.824    0.646
         2 -12.8792      2.0759     51.3857   1.1921089262e+02   6.4703128065e+01     1.272787    0.1643149 -57.14  0.003172809    9.754    0.897
         3 -13.1510    203.2850     33.5127   5.9851636148e+01   3.0989564331e+01    0.9564443    0.8980385  82.44  0.006119169    1.264    0.209
         4 -13.6833    221.2266     15.9077   5.4452939080e+01   2.9276990795e+01    0.8803077    0.7412422  56.16  0.003669198    1.564    0.360
         5 -13.3426      3.9482     16.7620   1.0666689543e+02   7.0018062525e+01    0.9039453    0.4137778 -43.27  0.005457897    2.156    0.536
         6 -12.0066    180.2089    243.4543   1.0873545184e+02  -3.9124518410e+00    0.4967983    0.2494682  22.54  0.002120021    2.470    0.595
         7 -10.8899    183.1932    250.1925   1.0921749064e+02  -5.5412165203e+00    0.2410917    0.1778498  30.06  0.001414406    1.219    0.179
         8 -10.7177    162.7002    250.3096   1.1344117809e+02  -2.3522505222e+00    0.3623519    0.1406848  41.42  0.001507231    2.352    0.575
         9 -11.2215    143.0776    249.1964   1.1737346104e+02   1.0068628127e+00    0.4236398    0.2344853  50.60  0.002019483    1.888    0.470
        10 -11.5906    135.7656    241.5242   1.1780483541e+02   3.6807676002e+00    0.3257851     0.265307 -40.70  0.001684304    1.380    0.276
        11 -13.4032    125.7410    245.5804   1.2052470165e+02   4.5177777479e+00     1.409001    0.7956635  45.94  0.006952001    1.615    0.381
        12 -10.9315    109.8037    247.6383   1.2416939329e+02   6.6613254510e+00    0.4421494    0.2964395  32.60  0.002375406    1.503    0.335
        13 -11.7678     99.9682    247.8385   1.2625474351e+02   8.1606135304e+00    0.7304935    0.5371053  16.41  0.003953877    1.853    0.460
        14 -10.6009     97.1189    239.3093   1.2580020075e+02   1.0377152881e+01     0.338998    0.2198517  64.12  0.001130613    1.625    0.385
        15 -11.8283    112.2846    231.5585   1.2147234137e+02   9.6070488610e+00    0.5931665    0.4518404  17.06  0.002371469    1.650    0.394
        16 -11.5395     87.3481    248.4228   1.2893930220e+02   9.9647062893e+00    0.5460863    0.3383825  46.73  0.001607633    1.414    0.293
        17 -10.3761     81.3118    247.7951   1.3010798075e+02   1.0991072189e+01    0.3235898    0.2014947 -75.70  0.001239848    1.704    0.413
        18 -10.6943     84.2015    230.1154   1.2743646038e+02   1.4360916070e+01    0.3077935     0.226843 -46.62  0.001679347    1.635    0.389
        19 -12.2965    102.5077    238.5590   1.2454935662e+02   9.6895996665e+00    0.6591992    0.5035614  69.62  0.002434557    1.325    0.245
        20 -12.0979    102.5513    230.9576   1.2353107390e+02   1.1313646518e+01    0.6641907    0.4440548  20.20  0.002202006    2.003    0.501
        21 -11.5985     83.6210    240.5244   1.2880829847e+02   1.2180266229e+01     0.718537    0.3092062  59.51  0.002787839    2.994    0.666
        22 -12.2128     88.9156    238.4555   1.2744367103e+02   1.1824002262e+01    0.8374112     0.471957  74.33  0.003193082    2.400    0.583
        23  -9.5268     56.3126    250.4879   1.3537871658e+02   1.3947516326e+01    0.1972817     0.145086  35.69 0.0005349857    1.513    0.339
        24 -10.9919     73.9354    244.4006   1.3125051463e+02   1.2776910941e+01    0.4430122    0.2701371 -54.81   0.00237193    1.855    0.461
        25  -9.9969     73.8266    237.7448   1.3054711349e+02   1.4219633457e+01    0.3563768    0.1853304  86.06  0.001345436    2.724    0.633
        26 -11.4662     59.6885    246.1438   1.3430589799e+02   1.4402368354e+01    0.5791009    0.3501938  57.85  0.003236588    1.466    0.318
        27 -11.0284     68.3084    245.6473   1.3252663528e+02   1.3314492338e+01    0.3673456    0.2473896  63.71  0.001049998    1.344    0.256
        28 -11.3581     44.9631    200.9277   1.3268857883e+02   2.6624294397e+01    0.6260315    0.5406392 -44.85 0.0006389638    1.426    0.299
        29 -12.7186     48.7381    216.8232   1.3360941002e+02   2.2377655439e+01     1.892957    0.8581901  67.32  0.007567771    2.928    0.658
        30 -13.2309     23.0945    225.0248   1.3970501326e+02   2.3551012803e+01    0.5011832    0.4297578  -1.64 0.0008196605    1.862    0.463
        31 -14.1507     28.7107    218.5066   1.3800960210e+02   2.4399991110e+01     1.096275    0.9824013 -69.39  0.007482178    1.312    0.238
        32 -11.5613    116.2130    249.0075   1.2299990817e+02   5.3707161330e+00    0.5649139    0.4983782  79.24  0.003541394    1.167    0.143
        33 -12.0615    119.2800    236.3475   1.2061893451e+02   7.4475774243e+00    0.8527083    0.5308713 -22.61   0.00332276    3.087    0.676
        34  -9.8063     53.6915    241.0112   1.3501254312e+02   1.6302502577e+01     0.177676    0.1411889 -85.31 0.0006290271    1.165    0.142
        35 -12.9078     29.6530    233.6964   1.3912456559e+02   2.0887528052e+01     1.710936    0.8414246  27.20  0.008373676    2.746    0.636
        36  -9.3922     60.8822    239.0000   1.3335965936e+02   1.5769200368e+01    0.1986034   0.06718315  36.27 0.0007905233    2.860    0.650
        37 -10.8538    136.1052    224.6799   1.1514672945e+02   7.0722558867e+00    0.7200378    0.1698718 -50.39  0.002182054    4.291    0.767
        38 -11.6707    136.1380    235.8522   1.1687832399e+02   4.7534858813e+00    0.3734444    0.3107129   3.57  0.001956347    1.437    0.304
        39 -11.2942    133.8267    233.1225   1.1696792863e+02   5.6976027147e+00     0.432712    0.2037977 -57.27   0.00149119    2.393    0.582
        40 -13.0254     26.5468    247.4479   1.4078267657e+02   1.8304614858e+01    0.9328753    0.6549686  34.54  0.005991462    1.690    0.408
        41 -10.3326    129.6064    235.3930   1.1823105420e+02   5.9369046585e+00    0.2514803    0.1354328 -59.95   0.00113568    2.118    0.528
        42  -9.6274     54.7982    235.5854   1.3426184487e+02   1.7336292511e+01    0.2543675    0.1344682  69.30 0.0006900679    2.061    0.515
        43  -8.8363    157.3077    234.6433   1.1211249724e+02   1.4476922763e+00    0.1368892    0.1065532  73.14 0.0007041869    1.726    0.421
        44 -11.1432     71.0525    219.4379   1.2901231820e+02   1.8730655811e+01     0.718949    0.3980599  76.01  0.003128443    2.337    0.572
        45  -9.7993     77.2049    220.8427   1.2781897704e+02   1.7506748523e+01    0.2677832    0.1812586  83.08 0.0003934102    1.587    0.370
        46 -10.4846     80.6864    226.6947   1.2778013852e+02   1.5655442900e+01    0.3747762     0.275655 -17.86  0.001250556    2.342    0.573
        47  -9.8414     78.9593    224.5479   1.2789333617e+02   1.6399050307e+01    0.3447477    0.2567083  -8.97  0.001271316    2.332    0.571
        48 -14.2159      7.6641    212.1359   1.4175719854e+02   2.8052285036e+01     2.871762     1.139491 -76.08   0.01394007    2.083    0.520
        49  -9.6510     92.3482    226.0886   1.2513139638e+02   1.4005516894e+01    0.1920925     0.166654  86.58   0.00075884    1.100    0.091
        50  -9.6560    117.1782    224.7875   1.1940006870e+02   1.0263444609e+01    0.2174891    0.1863244  71.93 0.0006208309    1.183    0.155
        51  -9.4983     65.2231    223.9268   1.3082203058e+02   1.8526618170e+01    0.3630538    0.1447684 -52.34  0.001472838    2.818    0.645
        52  -9.0040     45.8260    225.2304   1.3509144892e+02   2.0815392089e+01    0.1605341    0.1340658 -69.48 0.0004282042    1.267    0.211
        53 -11.0107     98.6105    222.7655   1.2328131433e+02   1.3760191876e+01    0.3144665    0.2710517  63.49  0.001053088    1.070    0.066
        54  -9.2852     87.5456    223.6776   1.2588091152e+02   1.5294743360e+01    0.2476644    0.1438789  56.67  0.001163011    1.750    0.429
        55 -10.4504    141.7195    219.3846   1.1302533902e+02   7.2259714065e+00    0.3585881    0.2346057 -44.90  0.001253541    1.622    0.384
        56  -9.3638    250.3139    220.3264   9.1166578067e+01  -1.0282445461e+01    0.1295822    0.0825939 -10.78 0.0007042816    1.667    0.400
        57  -8.8548    111.0000    219.9486   1.2007157364e+02   1.2367078905e+01    0.2273913   0.07998011 -57.47  0.000803207    2.948    0.661
        58 -10.2670     90.6096    219.8810   1.2468695961e+02   1.5683702127e+01      0.30051    0.1821528  66.89 0.0008068615    1.935    0.483
        59  -9.8286    116.3837    216.1654   1.1826312083e+02   1.2311698608e+01    0.2908685    0.1945691  16.87  0.001304479    2.084    0.520
        60  -8.8579     80.6710    216.3807   1.2646666616e+02   1.8021376460e+01    0.1536349   0.09574369  71.89 2.038955e-05    1.855    0.461
        61  -8.7943    111.6902    215.3009   1.1920811627e+02   1.3301233995e+01    0.1472198    0.1054753  70.42 0.0002729232    1.603    0.376
        62  -8.9594     87.2341    212.4375   1.2443079753e+02   1.7937676436e+01    0.4096607    0.2161386  72.54    0.0015109    3.076    0.675
        63  -9.5944     58.3523    212.6799   1.3103155873e+02   2.2085929250e+01    0.2447986    0.1323639  54.48 0.0008398584    1.832    0.454
        64 -10.5679     55.7865    208.8437   1.3115613357e+02   2.3339359934e+01    0.5201529    0.2028668 -68.77   0.00211179    2.445    0.591
        65 -10.3755     63.2820    208.6161   1.2942786346e+02   2.2376527251e+01    0.3640893    0.3298422  -2.75  0.001651674    1.498    0.333
        66  -8.7278     74.3956    208.4753   1.2685583001e+02   2.0821783177e+01    0.1403424    0.1215293  84.11 0.0002045069    1.039    0.038
        67 -10.3082    246.7703    206.1862   8.9184061102e+01  -7.4702453127e+00    0.1853051    0.1345938 -10.99 0.0008989699    1.368    0.269
        68  -9.6695     90.0542    204.9821   1.2269892690e+02   1.9262075708e+01    0.3633792    0.1854191  31.36  0.001512839    2.211    0.548
        69  -9.7653     99.5797    210.0901   1.2122330135e+02   1.6516607020e+01    0.3194195    0.1566934  65.22 0.0006935336    3.574    0.720
        70 -10.2452    106.9331    203.4729   1.1845797207e+02   1.6851093283e+01     0.267787    0.2068194 -61.15 0.0002976964    1.293    0.226
        71  -9.8702    250.4111    200.7703   8.7540505688e+01  -7.0599404254e+00    0.1917576     0.101823 -31.60 0.0009557829    1.707    0.414
        72  -8.7864     83.5027    201.5010   1.2374158855e+02   2.1125854890e+01    0.1460196    0.1280225  79.75 -0.0004558117    1.061    0.058
        73 -10.3405     74.6420    200.1372   1.2565636457e+02   2.2796063138e+01    0.2320188    0.2136322 -76.37 0.0004597884    1.101    0.092
        74  -8.9067     96.8318    199.2069   1.2019539594e+02   1.9556442674e+01    0.1845284    0.1707719 -27.51 0.0003512818    1.280    0.219
        75 -11.9467     53.4188    193.6035   1.2982860889e+02   2.7343230783e+01     0.482371    0.3801995 -66.20  0.000662059    1.191    0.160
        76 -13.6484     37.2881    243.6517   1.3846502644e+02   1.7825910673e+01     1.479328       1.1453  73.97  0.009866273    1.023    0.022
        77 -10.1847    249.4341    194.3270   8.6490995372e+01  -5.8116783791e+00    0.2532075    0.1892891 -15.21  0.001503411    1.311    0.237
        78  -9.9306     30.7456    193.1970   1.3507175368e+02   3.0147119133e+01    0.1907283    0.1828436 -85.11 0.0002732141    1.239    0.193
        79  -9.1819     33.7176    192.1272   1.3427146157e+02   3.0078782672e+01    0.3516948    0.1667924  87.27 0.0009112873    2.661    0.624
        80  -9.5157     25.9653    192.7169   1.3610825875e+02   3.0775018458e+01    0.2498682    0.1869572 -71.87  0.000750906    1.169    0.145
        81  -9.9706     21.8894    192.9437   1.3704981974e+02   3.1141109249e+01    0.3150153    0.2054437  72.21 0.0009373873    1.475    0.322
        82  -9.4214    191.5227    191.7842   9.6979003400e+01   4.1199819591e+00    0.2101111    0.1370252 -43.97 0.0008412317    1.475    0.322
        83 -11.1194    244.8793    241.1449   9.5823745495e+01  -1.2807390508e+01    0.1751624    0.1565973  -9.47 0.0008861547    1.261    0.207
        84  -8.7977     40.3285    188.6454   1.3231986166e+02   3.0175986771e+01    0.2056971    0.1028961 -68.60 0.0009517065    1.741    0.426
        85  -8.7330     15.2859    190.2862   1.3826439217e+02   3.2427234174e+01    0.1191418   0.08540589 -52.70            0    1.529    0.346
        86 -10.3421    250.0127    188.1515   8.5215882711e+01  -4.8149780047e+00    0.4028835    0.1373829 -33.35  0.001435383    3.352    0.702
        87  -9.4406     76.3286    187.1478   1.2333345719e+02   2.5748173323e+01    0.4355473    0.2289931 -89.08  0.001534827    3.160    0.684
        88 -10.7739     71.0740    187.0794   1.2462871314e+02   2.6539407358e+01    0.3123306    0.2212744  30.16 0.0003394015    1.609    0.379
        89 -10.3931      9.8971    187.0349   1.3915632485e+02   3.3701528288e+01    0.3507534    0.1766399  84.25  0.001704931    2.034    0.508
        90 -11.7750     59.9426    185.4837   1.2715260764e+02   2.8494874937e+01    0.2927581    0.2415863 -56.79 0.0004396441    1.227    0.185
        91  -9.4054     29.4698    184.4643   1.3439871837e+02   3.2412533669e+01    0.3516607    0.1722145 -51.78  0.001132611    2.095    0.523
        92  -9.0032    107.0635    185.5362   1.1538398407e+02   2.1158309822e+01     0.214045    0.1470733  39.71 0.0003985396    1.475    0.322
        93  -9.0880     24.6437    184.1012   1.3549188479e+02   3.3001799422e+01    0.2207746    0.1632083  55.67  0.001310338    1.380    0.275
        94 -10.7864     37.1614    180.1826   1.3204257807e+02   3.2629526208e+01    0.3427605    0.1962466 -61.46 0.0004157161    1.531    0.347
        95  -9.5775     27.1078    179.5696   1.3439892821e+02   3.3859864414e+01    0.2405412    0.1549696 -70.11 0.0005959533    1.302    0.232
        96  -8.4426     47.6529    179.6963   1.2939620660e+02   3.1521161450e+01    0.1374195    0.1002715 -37.88 0.0007040619    1.693    0.409
        97 -13.9383      5.7572    245.4886   1.4440076982e+02   2.0986108866e+01     1.367566    0.9526587 -85.86  0.009520354    1.207    0.172
        98 -11.6385    248.6295    172.5110   8.2420303883e+01  -1.8049991929e+00    0.5270957    0.3482273 -34.06  0.002892792    1.323    0.244
        99 -12.1666    245.3397    163.0017   8.1086900268e+01   4.6325446065e-01    0.6586013    0.2487634 -48.02  0.002612192    2.482    0.597
       100 -11.6229    248.9164    159.4184   7.9799885475e+01   5.4580040043e-01     0.588694    0.3012333 -51.12  0.002737728    1.913    0.477
       101 -11.7127    243.4995    155.0137   7.9792597290e+01   2.2544147365e+00    0.3204083    0.2749636 -88.56  0.001908852    1.476    0.322
       102 -10.6814     71.4880    173.4173   1.2238286542e+02   2.9915190227e+01    0.2637576    0.2424996 -71.75 0.0002667698    1.048    0.046
       103 -10.2293     56.6135    173.2114   1.2620171026e+02   3.2019411235e+01     0.369774     0.201633  51.80  0.001650898    2.024    0.506
       104 -10.7531     12.4010    172.9062   1.3717181369e+02   3.6881814091e+01    0.3092909    0.1759728 -55.69  0.001665423    1.634    0.388
       105 -11.2880      2.4468    172.1819   1.3943861672e+02   3.7877964363e+01    0.5254037    0.2259852 -87.58  0.002351868    2.364    0.577
       106 -11.7905     11.1268    158.9104   1.3592645795e+02   4.0393392329e+01    0.5787638    0.2590832  86.21  0.002262821    3.028    0.670
       107 -11.6557     13.0528    167.2251   1.3639660759e+02   3.8207074165e+01    0.4051897    0.2888812  20.06  0.001721485    1.819    0.450
       108 -10.9509      8.9769    165.0368   1.3715027764e+02   3.9079399963e+01    0.3656121     0.143979 -52.34  0.001643834    2.371    0.578
       109 -10.1931     27.3547    171.6062   1.3339073156e+02   3.5798549611e+01    0.3369813    0.2086092 -40.02 0.0004550353    1.987    0.497
       110  -9.5874     17.9244    172.1810   1.3576738043e+02   3.6564508238e+01    0.2018968    0.1542894  78.02  0.001222051    1.249    0.199
       111  -9.8727     51.5985    170.9164   1.2715270220e+02   3.3238997695e+01    0.2676809    0.2043945  62.61   0.00105386    1.371    0.271
       112 -10.4839     39.0902    167.7128   1.2991881925e+02   3.5524023905e+01    0.2630081     0.225355 -25.13  0.001030046    1.462    0.316
       113 -10.2456     44.9907    164.9682   1.2799374870e+02   3.5538679644e+01    0.3335297    0.1586955 -42.16  0.001224215    2.597    0.615
       114 -11.9872     79.4109    165.3000   1.1889937459e+02   3.0787655021e+01    0.5637171    0.5372032   8.37  0.003187711    1.210    0.174
       115 -10.6812      5.1288    166.8440   1.3827237582e+02   3.8949919643e+01    0.2969872    0.2248153  15.14  0.001083559    1.776    0.437
       116  -9.6275     29.7217    165.0409   1.3196155859e+02   3.7187983436e+01    0.1890705    0.1501363 -70.17 0.0004233204    1.066    0.062
       117 -10.0293     24.0008    161.9872   1.3303010109e+02   3.8506096780e+01    0.1964024    0.1649422 -73.68 0.0003644559    1.029    0.028
       118  -9.3944     67.1737    161.1302   1.2145411775e+02   3.3649165890e+01    0.2445543    0.1967072 -18.28 0.0008433591    1.597    0.374
       119  -8.9673     33.3242    161.3218   1.3052740370e+02   3.7744471681e+01    0.1387456   0.09154545 -42.13 0.0007046842    1.681    0.405
       120  -9.3700     28.6251    160.8574   1.3168886801e+02   3.8337842139e+01    0.1860863    0.1109611 -79.48  0.000406692    1.571    0.363
       121  -8.8345     66.6027    157.1681   1.2091341973e+02   3.4734149618e+01    0.1931072    0.1238104 -52.39 0.0001773302    1.447    0.309
       122 -10.2570     68.1611    166.2885   1.2207222205e+02   3.2200439592e+01    0.2547434    0.1926113 -71.68 0.0004100961    1.241    0.194
       123 -10.5559     26.0253    154.9834   1.3157351191e+02   4.0047623339e+01    0.2430545    0.1681985  60.66  0.000779881    1.616    0.381
       124  -8.5244    228.4234    155.4544   8.2409757672e+01   4.7784816563e+00    0.1409829    0.1223971 -45.95 0.0001283017    1.050    0.047
       125  -9.7338     31.8843    154.1288   1.2988852401e+02   3.9685637521e+01    0.2895012    0.1518982 -37.90  0.001280196    2.402    0.584
       126 -10.6185     12.4849    153.5536   1.3493742649e+02   4.1588301333e+01    0.2581896    0.1520761 -62.49 0.0009537076    1.372    0.271
       127 -11.0157    249.5834    151.0082   7.8029423148e+01   1.9862787407e+00    0.4961048    0.2417448 -42.65   0.00232661    1.714    0.417
       128 -13.2555    248.2616    101.6741   6.8382814756e+01   1.1156846883e+01     1.338859    0.6811698 -37.02  0.006320686    1.998    0.500
       129 -13.0925    248.2204    134.2982   7.4905148980e+01   5.2984174212e+00     1.462258    0.5439793 -40.24  0.005878397    2.381    0.580
       130  -9.6668    105.5382    175.9361   1.1401639976e+02   2.3796085325e+01    0.3068359    0.2026892  33.90  0.001160178    1.623    0.384
       131 -10.4790     93.7155    150.0102   1.1203949778e+02   3.2329617933e+01    0.3252658    0.3083602  83.13  0.000822342    1.077    0.071
       132  -8.9818     87.1249    151.1322   1.1409231199e+02   3.3146387953e+01    0.2037026    0.1713504  87.41            0    1.299    0.230
       133 -11.0917     22.0681    149.1585   1.3182711429e+02   4.1850274785e+01    0.5045038    0.1783011  36.92  0.002122046    3.024    0.669
       134  -9.5765     81.6607    148.7381   1.1513209054e+02   3.4623137137e+01    0.3391988    0.1976503  49.04  0.001450174    1.921    0.479
       135 -11.9180     68.1696    144.1102   1.1803775354e+02   3.7805626713e+01    0.7316946    0.5086309  85.04  0.002625048    1.889    0.471
       136  -9.1829     40.6653    147.3191   1.2643076737e+02   4.0459606381e+01    0.1413982   0.09899258  73.58 0.0007049048    1.699    0.412
       137  -9.9088    236.0701    146.0818   7.9190259219e+01   5.2238832440e+00    0.2058369    0.1744594 -24.91 0.0005722285    1.238    0.192
       138 -12.8024      6.8915    143.4899   1.3515395168e+02   4.4454824590e+01    0.6381268    0.6039869 -40.38  0.004509748    1.254    0.203
       139 -10.1378    133.2574    141.0186   9.9472458002e+01   2.7064512709e+01    0.3471189    0.2617553 -65.39 0.0008863077    1.449    0.310
       140 -11.4144     16.9209    140.1733   1.3197174748e+02   4.4487337988e+01    0.3513627    0.2136284  47.50  0.001553609    1.935    0.483
       141  -9.0016     97.0103    146.2734   1.1033832633e+02   3.2692986751e+01    0.2033762    0.1973435  39.47  0.000372548    1.093    0.085
       142 -10.1716     37.0275    140.0240   1.2625709864e+02   4.2660104924e+01    0.2110812     0.181165 -63.41  0.000527235    1.004    0.004
       143  -9.7381    107.2148    135.7468   1.0515701437e+02   3.3429374792e+01    0.4150979     0.267683 -14.11  0.001527587    2.765    0.638
       144 -11.7328     19.1976    105.8008   1.2555604506e+02   5.2429439964e+01    0.2996478    0.2253535  23.93  0.001123882    1.565    0.361
       145 -12.5898      9.1308    113.0899   1.3008393476e+02   5.1490896141e+01    0.4323207    0.2487497 -63.32  0.001694221    1.400    0.286
       146 -13.1263     14.3613    100.7929   1.2617973713e+02   5.3919876891e+01    0.8807477    0.4704648  23.19  0.003233611    2.179    0.541
       147 -10.8155    168.9538    249.0378   1.1195021212e+02  -3.1192226223e+00    0.2036542    0.1813847  15.91 0.0005455186    1.036    0.035
       148 -10.2973     44.1730    129.8851   1.2234280171e+02   4.4377792094e+01    0.2041001    0.1761149 -86.78 0.0005539292    1.240    0.194
       149  -9.4672     58.9731    127.9758   1.1748612544e+02   4.3045906256e+01    0.1735567    0.1524398 -53.22 0.0004504837    1.020    0.020
       150 -10.0550     59.1535    146.8509   1.2112968026e+02   3.8350582200e+01    0.3959959    0.2140302 -30.92  0.001531451    2.795    0.642
       151  -9.3763     62.6318    126.2617   1.1601176109e+02   4.2973128892e+01     0.141321    0.1083948  68.02 0.0006980928    1.648    0.393
       152  -8.5553     41.3000    123.3161   1.2195047812e+02   4.6281459668e+01     0.142338   0.09176646 -35.75 0.0005048296    1.614    0.380
       153 -12.9096     17.1460    120.9405   1.2893226874e+02   4.9081299498e+01    0.5570359    0.3784671  69.86  0.003040044    1.933    0.483
       154  -8.6484     50.3243    122.6632   1.1902868412e+02   4.5411536929e+01    0.1398585    0.1059935  77.71 0.0007051179    1.718    0.418
       155 -10.9877    231.8101    116.6150   7.3750906321e+01   1.1587547448e+01     0.265435    0.2112504 -54.55 0.0007562176    1.092    0.084
       156  -9.6402    167.8039    113.0037   8.4523508819e+01   2.5835378811e+01    0.3378378     0.225578 -71.32  0.001416366    1.990    0.498
       157 -10.6892    239.3391    120.7021   7.3467772338e+01   9.4036670054e+00    0.4547839    0.2297127 -26.78  0.001671177    3.454    0.710
       158 -12.1671    247.8243    142.5791   7.6621557407e+01   3.8382892366e+00    0.5766744    0.5498695  26.15  0.003759067    1.259    0.206
       159  -8.6824     71.7160    100.2959   1.0696095493e+02   4.7659900960e+01    0.1320115    0.1127788  85.51 0.0002548176    1.543    0.352
       160  -9.2837     93.9728    133.1590   1.0828173364e+02   3.6438423224e+01    0.2211032    0.1941761 -19.11 0.0003129987    1.254    0.203
       161  -9.7475     54.0802    151.8810   1.2344910907e+02   3.7736579817e+01    0.2544602    0.1788485 -49.51            0    1.349    0.259
       162 -10.1566    249.7855    117.7776   7.1380794975e+01   8.0287322569e+00    0.2588921    0.2335307 -30.71 0.0007032854    1.273    0.214
       163 -12.2539    248.0907    112.8016   7.0621713571e+01   9.2260468171e+00    0.7190586    0.5658638 -14.23  0.004042257    1.832    0.454
       164 -11.5938    150.5771    246.7761   1.1543810854e+02   2.4427777378e-01     0.525638    0.3246641 -31.58  0.002583807    2.079    0.519
       165 -11.1290    198.3111    245.8427   1.0546544872e+02  -7.1032750465e+00     0.260746    0.1744195  24.70  0.001303302    1.393    0.282
       166 -11.5255    164.6776    242.3239   1.1178154866e+02  -1.2209015763e+00    0.4261087    0.2852195 -76.91  0.001967915    2.665    0.625
