#   1 NUMBER                 Running object number                                     
#   2 MAG_AUTO               Kron-like elliptical aperture magnitude                    [mag]
#   3 X_IMAGE                Object position along x                                    [pixel]
#   4 Y_IMAGE                Object position along y                                    [pixel]
#   5 X_WORLD                Barycenter position along world x axis                     [deg]
#   6 Y_WORLD                Barycenter position along world y axis                     [deg]
#   7 A_WORLD                Profile RMS along major axis (world units)                 [deg]
#   8 B_WORLD                Profile RMS along minor axis (world units)                 [deg]
#   9 THETA_WORLD            Position angle (CCW/world-x)                               [deg]
#  10 FWHM_WORLD             FWHM assuming a gaussian core                              [deg]
#  11 ELONGATION             A_IMAGE/B_IMAGE                                           
#  12 ELLIPTICITY            1 - B_IMAGE/A_IMAGE                                       
         1 -10.4540     16.8698      9.9305   1.0478241944e+02   7.0200825764e+01    0.2615216      0.17647  -0.99 0.0004220252    1.201    0.168
         2 -11.6021      9.1962      3.3419   1.0547913197e+02   7.1725118316e+01    0.7658051    0.2317304  29.40  0.003967069    3.255    0.693
         3 -10.9258     40.0630      3.1110   9.1702741100e+01   6.8232891804e+01    0.4046206    0.2320802  32.99  0.001341527    1.526    0.345
         4 -11.2507     25.8166      5.4690   9.8724679608e+01   6.9780598419e+01    0.4759138     0.327668 -10.80  0.001810458    1.164    0.141
         5 -11.0742      6.2498     17.4565   1.1293690143e+02   7.0108120696e+01      0.84317    0.4042259 -23.63   0.00511447    1.881    0.468
         6 -10.2101     10.4761     10.2282   1.0792640615e+02   7.0751327167e+01    0.3090247    0.1926627 -14.95 0.0006272409    1.278    0.217
         7 -10.5465     26.6838     15.3541   1.0271653497e+02   6.8507290523e+01    0.4028521    0.2288164 -31.69 0.0007725616    1.574    0.365
         8 -10.9530     33.8523     10.0027   9.7322132363e+01   6.8314770678e+01    0.7750483    0.4830759 -22.01  0.005239357    1.425    0.298
         9 -10.8214    243.7374     23.6587   5.8683029625e+01   2.2847760743e+01    0.3160009     0.228935 -21.50  0.001858554    2.059    0.514
        10 -10.1196     75.2117     17.8330   8.5692638274e+01   6.1218803725e+01    0.3540973    0.1635089 -20.37  0.001736893    2.413    0.586
        11 -12.0617     68.7642     11.5734   8.5206281527e+01   6.2975442978e+01    0.3800306    0.2331057  36.60 0.0002537298    1.388    0.279
        12  -9.1745     48.9784      9.8297   9.1277469420e+01   6.6292990315e+01    0.2200852    0.1463126 -16.92 0.0004310707    1.402    0.287
        13 -10.8496     80.8733      6.3833   7.9537407884e+01   6.1277943533e+01    0.4192909    0.2998474  61.26  0.001020009    1.605    0.377
        14  -9.2639    111.9488      2.8567   7.0858413314e+01   5.5286890895e+01    0.2246937     0.101823  40.39  0.001089479    2.064    0.516
        15  -9.1800    144.7159      4.3573   6.5537281499e+01   4.7815948766e+01     0.310803    0.2068608  18.37  0.001725811    1.994    0.498
        16  -9.5350    160.9861     10.2432   6.4785505125e+01   4.3474769414e+01    0.2431981     0.196284   6.41  0.001129132    1.623    0.384
        17  -9.3531    157.8494      1.4106   6.2825152247e+01   4.5001868562e+01    0.3458409     0.105948  69.35  0.001155524    2.803    0.643
        18 -11.1864     19.6085     15.8424   1.0606955407e+02   6.9175371543e+01    0.7137667    0.3834352 -22.93  0.004480963    1.623    0.384
        19 -10.9989    234.2921    243.0400   1.0541663062e+02  -1.1455470344e+01    0.3489445    0.2333548  -9.58 0.0005855319    1.541    0.351
        20  -9.0532    249.9993    250.3894   1.0386100990e+02  -1.4631823493e+01     0.159801    0.1168001  19.63  0.000372212    1.163    0.140
        21  -8.7606    232.0481    250.7036   1.0711198557e+02  -1.2170477688e+01    0.2324552   0.09349748  37.08 0.0007724206    2.223    0.550
        22  -9.1511    202.7977    249.9146   1.1241609334e+02  -7.6210264004e+00    0.2898697    0.1923994  30.30 0.0008464522    1.303    0.233
        23  -8.8439    197.9908    250.5593   1.1343282681e+02  -6.9504666045e+00     0.210328    0.1052539  40.82 0.0003684261    1.757    0.431
        24  -8.6340    183.2399    250.6624   1.1628271921e+02  -4.5689372174e+00    0.1681566    0.1014962  32.91 0.0002767025    1.468    0.319
        25  -8.5916    166.5756    250.0599   1.1943605941e+02  -1.6961951783e+00    0.2168561    0.1604121  59.62  0.001258048    1.513    0.339
        26  -9.9118    157.0181    246.0498   1.2073496493e+02   5.9537169114e-01    0.4196073    0.2951334   7.22 0.0005689283    2.109    0.526
        27  -9.2716    151.9632    244.2143   1.2147509589e+02   1.7783826574e+00    0.2628999    0.1973154 -59.71 0.0003789289    1.582    0.368
        28  -8.1946    150.2019    249.7537   1.2260568975e+02   1.1199164641e+00     0.164084    0.1377282  22.82 0.0004665725    1.288    0.224
        29  -8.2433    136.4304    250.4537   1.2540451228e+02   3.3197936310e+00    0.2739628    0.1081232  41.77 0.0007945363    2.133    0.531
        30 -10.1878    125.0636    248.4588   1.2737721758e+02   5.5764295087e+00    0.2584037    0.2044336 -70.28  0.001601232    1.427    0.299
        31  -8.3987    115.4027    249.2806   1.2936620880e+02   7.0181859569e+00    0.2486687    0.1817679 -16.21  0.001269702    2.677    0.626
        32  -8.6820     89.4308    249.2610   1.3435579130e+02   1.1135890089e+01    0.3269599    0.1486299  56.31  0.001565483    2.048    0.512
        33  -9.9478     71.8204    250.0347   1.3772132166e+02   1.3598870404e+01    0.3174692    0.1898658  63.05 0.0004792706    1.433    0.302
        34 -10.2987     61.8492    248.8213   1.3943506909e+02   1.5238508022e+01     0.227184    0.2027779  84.10  0.000429677    1.294    0.227
        35 -10.6476     47.4881    250.1823   1.4211195858e+02   1.6895029259e+01    0.3676337    0.1584636  40.19  0.001225584    2.215    0.549
        36 -10.2590     16.2815    249.0620   1.4733620620e+02   2.0855964249e+01    0.2428314    0.2253319  25.63   0.00139442    1.849    0.459
        37  -8.2965      1.7026    250.6690   1.4976093205e+02   2.2098341983e+01    0.1405217   0.07186938  52.87  0.000828017    1.583    0.368
        38  -8.9263    187.6719    244.6828   1.1449292262e+02  -4.3651147122e+00     0.292699    0.2091466 -12.62  0.001383609    1.746    0.427
        39  -9.3330    193.0617    243.1199   1.1319516445e+02  -5.0127434813e+00    0.4240302    0.2998096  76.71 0.0009252845    2.808    0.644
        40  -8.4502    163.1884    244.3797   1.1926589800e+02  -1.7466315811e-01    0.1954773    0.1751325 -26.65  0.001162854    1.296    0.229
        41  -8.6879    133.7216    245.0253   1.2522120646e+02   4.7478180634e+00    0.1687157    0.1568832  76.60 0.0003485664    1.140    0.123
        42  -9.6044    113.9291    244.0006   1.2901443557e+02   8.2469971180e+00    0.2159211    0.1807616 -62.46 0.0003633322    1.369    0.269
        43  -9.8780     81.1867    244.3587   1.3541632019e+02   1.3332141802e+01    0.2182084    0.1917599  62.16 0.0004142229    1.197    0.165
        44  -9.9085     41.1949    244.3647   1.4277446469e+02   1.8837616703e+01    0.2154754    0.1760043  61.36 0.0005791712    1.246    0.198
        45  -8.7324    219.8691    243.9308   1.0822228936e+02  -9.4178580715e+00     0.219358    0.1506682  54.88  0.001210027    2.078    0.519
        46  -8.8081     19.6008    243.9419   1.4647240006e+02   2.1481685178e+01    0.1705202    0.1471811  48.21 0.0005023148    1.545    0.353
        47  -8.3589    210.5188    241.8443   1.0963259039e+02  -7.6507739004e+00     0.160318    0.1209463 -33.89 0.0003603651    1.437    0.304
        48  -9.6879    170.1005    239.9739   1.1722060441e+02  -6.1287319843e-01    0.3572018    0.2701974  38.80  0.001493391    1.150    0.131
        49  -7.6430    142.2502    242.6452   1.2319378790e+02   3.7246357243e+00    0.1271242    0.0947971  75.15 0.0002887609    1.599    0.375
        50 -10.3586    104.3123    241.1217   1.3056736644e+02   1.0367501579e+01    0.2711819     0.231575  67.86 0.0004967382    1.046    0.044
        51  -9.2952    112.2890    237.2759   1.2850377168e+02   9.8129427971e+00    0.3150691    0.1736219 -58.09  0.001219231    1.998    0.500
        52  -9.1959     88.1139    241.2808   1.3376097963e+02   1.2889674730e+01    0.2886845    0.2023527 -67.96   0.00173062    1.505    0.336
        53  -7.9525    155.2720    240.9662   1.2034029481e+02   1.7787532569e+00     0.141383    0.1178886 -54.76 0.0003555931    1.388    0.279
        54  -9.6008    126.6112    240.3666   1.2602230377e+02   6.8155338098e+00    0.2279412    0.2107825  76.66 0.0004962992    1.124    0.110
        55  -9.9206     69.1480    239.9281   1.3726444218e+02   1.5974179758e+01    0.2237002    0.1890693  65.46  0.000407534    1.149    0.130
        56 -10.3243     25.3418    239.3312   1.4518845915e+02   2.1744781976e+01    0.2243361    0.1832524 -77.56 0.0005128147    1.399    0.285
        57  -9.7118    214.7843    238.7785   1.0830830039e+02  -7.8689334240e+00    0.2278426    0.1994177 -30.81 0.0003778192    1.293    0.226
        58 -10.5371    201.5594    238.8095   1.1084244357e+02  -5.7391984082e+00    0.5515438    0.3968427 -63.91   0.00170198    2.211    0.548
        59 -11.4145    207.5635    232.1808   1.0855883594e+02  -5.6862578250e+00    0.8427137    0.4803979  26.84  0.001057354    1.776    0.437
        60 -10.3338    221.7953    225.5989   1.0468269443e+02  -6.9736534204e+00    0.6999025    0.3637713  16.64  0.002698474    2.937    0.659
        61 -10.4558    239.1049    217.5868   1.0001588810e+02  -8.4706417278e+00    0.3875667    0.2208371  34.33 0.0007574725    1.708    0.415
        62 -10.1619    233.1074    202.9667   9.8352841700e+01  -5.1824067796e+00    0.5498682    0.3588537  24.04  0.002909865    1.611    0.379
        63  -9.1447    216.9398    220.7165   1.0472500580e+02  -5.4040239189e+00    0.2893848    0.2241882  23.50 0.0003388711    1.191    0.160
        64 -11.3139    227.5557    215.7858   1.0181008468e+02  -6.3559713908e+00     0.776109    0.6055112   7.74  0.003586627    1.234    0.189
        65 -10.5424    233.6420    210.3587   9.9664257790e+01  -6.4735404374e+00    0.4249182    0.3160947 -23.15 0.0009792675    1.271    0.213
        66 -11.2520    203.5517    216.4785   1.0655803905e+02  -2.4164861924e+00    0.6369368    0.3511383 -42.86  0.003071069    1.920    0.479
        67 -11.3225    211.5559    217.2797   1.0513638820e+02  -3.9333773946e+00    0.7792047    0.5785811  25.42  0.002514036    1.276    0.216
        68  -9.4240    135.8605    239.1344   1.2399018213e+02   5.4661450165e+00    0.3853892    0.2162202  57.55  0.001847007    1.899    0.474
        69  -9.2033    118.3696    239.1843   1.2752411940e+02   8.4294963156e+00    0.2150348    0.1759215  52.64 0.0003861053    1.057    0.054
        70  -9.4691     61.9238    239.5511   1.3859164340e+02   1.7066609039e+01    0.2076999    0.1670407 -89.05  0.000413846    1.172    0.147
        71 -10.6946     35.5771    231.8176   1.4281369244e+02   2.2067171262e+01    0.4496114    0.1863056 -68.62  0.001419022    2.192    0.544
        72  -9.5284     35.4908    239.9701   1.4345340666e+02   2.0418066307e+01    0.2688765    0.1758067  38.78  0.001316337    1.738    0.425
        73  -8.8947     32.4550    237.4882   1.4380822021e+02   2.1283309327e+01     0.154517    0.1469672  34.35 0.0005873212    1.645    0.392
        74  -9.1782     18.3580    239.5925   1.4640659561e+02   2.2478714327e+01    0.3210089    0.1643365  85.89    0.0019209    1.653    0.395
        75 -10.3522     10.4920    238.8690   1.4769005937e+02   2.3470049434e+01    0.2766423    0.1777001  64.28 0.0004880816    1.217    0.179
        76  -9.5764      3.5150    235.4435   1.4865494702e+02   2.4865818391e+01    0.2031856    0.1594746  73.20  0.000543722    1.202    0.168
        77  -8.3735    238.8107    234.2567   1.0307652527e+02  -1.0888347534e+01     0.191281    0.1654323 -37.91  0.001279523    1.444    0.307
        78 -10.2185    247.8495    238.4422   1.0219364059e+02  -1.2769520565e+01    0.2971617     0.187387  31.90  0.001049281    1.484    0.326
        79  -9.4282    243.5762    234.7770   1.0231140396e+02  -1.1656897289e+01    0.2858455    0.2424635 -87.58 0.0009770903    2.386    0.581
        80  -9.0281    240.7592    238.9596   1.0354678661e+02  -1.1831581678e+01    0.1913039      0.14622  19.24 0.0003834027    1.138    0.121
        81  -9.4765    149.4189    238.0912   1.2109700224e+02   3.3089978461e+00    0.2280457     0.199851  36.82 0.0004222363    1.093    0.085
        82  -9.4807    220.6274    237.9499   1.0706704601e+02  -8.6638956947e+00    0.2381442    0.1596139  34.08 0.0005058928    1.353    0.261
        83  -8.9025     97.7126    237.4719   1.3144546269e+02   1.2144730151e+01    0.2162485    0.1117306 -63.84  0.001068971    2.073    0.518
        84  -7.9261     48.4723    238.5089   1.4099573734e+02   1.9082221577e+01    0.1205135   0.09406513  75.49 0.0001306253    1.043    0.042
        85  -9.7690     41.7824    236.6546   1.4206614717e+02   2.0312292020e+01    0.2547925    0.1729096 -89.55  0.001264018    1.243    0.196
        86  -8.1513    183.8105    237.1497   1.1404419770e+02  -2.4937465232e+00    0.1712527    0.1410465   9.87 0.0004026273    1.262    0.208
        87  -8.0858     89.5628    224.5856   1.3156078839e+02   1.6080254524e+01    0.1740796    0.1166131 -81.46 0.0004289431    1.533    0.348
        88 -10.0567     91.4982    236.2463   1.3253778494e+02   1.3370762160e+01    0.2348694    0.2077595  82.90 0.0003822194    1.138    0.121
        89 -11.0897     93.3518    228.3539   1.3123971443e+02   1.4692975896e+01    0.3922632      0.35881 -26.77 0.0008177648    1.566    0.361
        90  -9.7723     78.7291    236.0485   1.3502860284e+02   1.5360895655e+01    0.2740874    0.1919076  58.97 0.0003751199    1.200    0.167
        91  -8.2005    225.1915    236.1850   1.0591113438e+02  -9.1117676095e+00    0.1495914    0.1437743 -11.93 0.0003973105    1.312    0.238
        92 -10.0824    171.6733    233.4356   1.1587360082e+02   2.4181773727e-01    0.3125747    0.2417496  58.25  0.001775892    1.421    0.296
        93 -10.2101    192.3009    233.1887   1.1171050178e+02  -3.2881601361e+00    0.2403538    0.2203322  -8.13 0.0003781483    1.131    0.116
        94  -8.1399    119.5742    233.7860   1.2657198099e+02   9.2755206532e+00    0.2345603    0.1272755 -73.56  0.001044813    2.514    0.602
        95  -9.5307    123.4753    230.9716   1.2538877552e+02   9.1638225144e+00    0.2864453    0.1782207  39.33 0.0003937924    1.510    0.338
        96  -8.9970    108.5591    233.1942   1.2874111196e+02   1.1238547385e+01    0.2178639    0.1860121  44.36 0.0003910961    1.203    0.169
        97  -8.6495     64.9273    234.0777   1.3750297384e+02   1.7764025838e+01    0.1831041      0.14867  75.34  0.000392686    1.046    0.044
        98  -7.8043     29.6211    234.7454   1.4411101385e+02   2.2174516787e+01   0.09559879   0.08954938 -55.68 0.0006964649    1.658    0.397
        99  -8.8568    231.0023    232.8761   1.0425826061e+02  -9.5178363114e+00    0.1869238    0.1597446  14.51 0.0006672924    1.081    0.075
       100  -8.5563    176.8215    232.8530   1.1474136119e+02  -5.5794759754e-01    0.1905413     0.164316  14.87 0.0002942427    1.174    0.148
       101  -8.9077    153.2851    233.0583   1.1955617890e+02   3.5497327479e+00    0.2128852     0.169251  44.19  0.000379561    1.107    0.097
       102  -8.4600    148.9212    232.7115   1.2039798239e+02   4.3842115711e+00    0.1962352    0.1621933  47.52  0.001155778    1.068    0.064
       103 -10.5747      8.1228    215.8589   1.4664609961e+02   2.8417745433e+01    0.4966794    0.3210651 -30.97 0.0006110599    3.685    0.729
       104 -10.1786     10.4340    231.6207   1.4725889143e+02   2.4926756938e+01    0.2234076    0.1891782 -84.52 0.0008363238    1.372    0.271
       105 -10.3529      7.5152    226.3094   1.4743195170e+02   2.6306451852e+01    0.3714519    0.2808039 -58.89   0.00138985    1.751    0.429
       106 -10.0943      1.8564    226.6184   1.4842593548e+02   2.6802732096e+01     0.406236    0.1298945 -71.15  0.001079897    2.532    0.605
       107 -10.0699    250.3353    231.4717   1.0052785499e+02  -1.2162334979e+01    0.2081078    0.1495591 -27.77  0.001322286    1.328    0.247
       108  -9.4773    140.3486    234.8269   1.2246687479e+02   5.4936861621e+00     0.243764    0.2058793  55.32 0.0004470215    1.070    0.066
       109  -9.9047    100.6990    231.0677   1.3007409177e+02   1.2955646811e+01    0.2751664    0.2482798 -24.77 0.0004727421    1.583    0.368
       110  -9.2650     85.1159    231.3110   1.3324912569e+02   1.5366206435e+01    0.2086086    0.1861591 -88.30 0.0004622904    1.187    0.158
       111  -9.4036    133.2785    230.0587   1.2323268653e+02   7.6419749339e+00    0.2782548    0.2254041  61.24  0.000823085    1.162    0.139
       112  -9.2476     55.4642    231.0470   1.3902902658e+02   1.9692596051e+01    0.1861569    0.1662647  47.81 0.0004607036    1.402    0.287
       113  -8.9588    245.1662    229.8226   1.0114932354e+02  -1.1188289612e+01    0.2011976    0.1525102  -7.72 0.0003985197    1.178    0.151
       114  -8.3686    226.2987    230.0620   1.0463291179e+02  -8.3728453255e+00    0.1658928    0.1450508  -0.19 0.0004533101    1.068    0.064
       115  -9.2968    158.9777    229.3148   1.1780584512e+02   3.2284204551e+00    0.3397074    0.2076767 -37.53 0.0009445717    1.991    0.498
       116  -9.7645    160.3258    218.3152   1.1573400897e+02   5.0563517378e+00    0.3984201    0.2715698  69.44  0.000974326    2.005    0.501
       117  -9.2765    163.1861    224.9246   1.1623085057e+02   3.2861375913e+00    0.3262021    0.2988037  60.26 0.0009731013    1.129    0.115
       118  -9.0659    160.3134    222.3205   1.1640120651e+02   4.2943119038e+00    0.2487646    0.2013182  40.66 0.0008109809    1.120    0.107
       119  -9.6145    114.1944    228.9953   1.2703724154e+02   1.1141023020e+01    0.2870236    0.2240596  63.75 0.0007793107    1.167    0.143
       120  -9.8731     44.9970    229.2258   1.4085199682e+02   2.1439780102e+01    0.2051113    0.1868211  71.67  0.000435531    1.328    0.247
       121  -8.2183    144.6018    229.3122   1.2077552343e+02   5.7889986674e+00    0.2269197    0.1555216  25.52  0.001147838    1.709    0.415
       122  -9.2938     79.2837    228.5979   1.3411335789e+02   1.6815790234e+01    0.2136035    0.2044349  81.14 0.0003569782    1.304    0.233
       123  -9.3598     29.6354    228.8428   1.4366794789e+02   2.3386485102e+01    0.2759947    0.1593463 -60.69  0.001635825    1.923    0.480
       124  -8.5737    129.9016    235.1655   1.2464993507e+02   7.2417785028e+00    0.1893754    0.1561343  61.33 0.0003114126    1.114    0.102
       125  -8.6292    152.9974    227.9867   1.1883176500e+02   4.5438892242e+00    0.2014848    0.1813355  49.18 0.0003611252    1.025    0.025
       126  -8.3209    107.3687    228.1538   1.2833673948e+02   1.2456099206e+01    0.1764601    0.1529582  80.96 0.0005571789    1.093    0.085
       127  -8.9714     58.7410    227.2462   1.3803591230e+02   2.0046341644e+01    0.3048136    0.1558096  53.44  0.001146877    1.714    0.417
       128 -10.2202     19.6221    226.6568   1.4531779007e+02   2.4966699416e+01    0.2523284    0.1888794 -80.52 0.0005729855    1.262    0.208
       129  -9.6172     15.9310    221.3567   1.4561021421e+02   2.6466594880e+01    0.2264204    0.1923148  64.50 0.0005496182    1.308    0.236
       130 -10.3198    236.3348    226.3871   1.0212584882e+02  -9.3732053360e+00     0.276536    0.2274735  27.50  0.001250172    1.207    0.172
       131  -8.8580    175.4808    227.1020   1.1406510201e+02   6.8709108659e-01    0.2140192     0.166958  29.92 0.0003420117    1.205    0.170
       132  -7.9184    139.0051    227.2685   1.2163153390e+02   7.1761117274e+00     0.164266    0.1080733  42.95 0.0002651341    1.358    0.264
       133  -9.6489    229.4467    225.6511   1.0326037822e+02  -8.1977236180e+00     0.225198    0.1867127  -2.19 0.0002450952    1.076    0.070
       134  -9.5858    200.1490    225.1741   1.0878546798e+02  -3.3000495852e+00    0.2089264    0.1951929  -3.79 0.0002920984    1.102    0.093
       135  -8.4314    185.1672    226.1940   1.1194917608e+02  -8.6768235651e-01    0.1908608    0.1663417  14.82 0.0003690226    1.119    0.106
       136  -8.9806    120.8918    224.7651   1.2505941943e+02   1.0853611706e+01    0.2183243    0.1869066 -81.79 0.0002735434    1.210    0.174
       137  -8.7737    109.9121    224.3735   1.2730729444e+02   1.2808910825e+01     0.212771    0.1713521  85.50 0.0005669333    1.236    0.191
       138 -10.5217    249.0012    223.0810   9.9252705429e+01  -1.0777828792e+01    0.2576772    0.2190769 -20.54  0.000425399    1.187    0.158
       139  -9.2099    191.6034    224.0152   1.1028046832e+02  -1.6213698008e+00    0.2308119    0.1915578  17.79 0.0004623547    1.163    0.140
       140  -8.0535    170.9631    223.7625   1.1443218746e+02   2.0984059164e+00    0.1841779    0.1602973  35.33  0.001084205    1.042    0.040
       141  -8.4781    155.9015    223.8510   1.1757117395e+02   4.8036782998e+00    0.1918962    0.1757668  21.21 0.0003713059    1.150    0.130
       142  -9.5884    129.6568    223.6152   1.2304888042e+02   9.5545262461e+00     0.275131    0.2209064  43.48 0.0009584039    1.160    0.138
       143  -8.2254    104.6101    223.9154   1.2835495892e+02   1.3790068098e+01    0.1784335    0.1550392  84.05 0.0004338719    1.094    0.086
       144  -8.1096    136.1008    223.1682   1.2162285272e+02   8.5005593451e+00    0.1963876    0.1777201  32.65  0.000625053    1.178    0.151
       145  -8.9189     83.0476    222.9647   1.3270689013e+02   1.7435171760e+01    0.1943901    0.1637547  72.76 0.0003573152    1.023    0.022
       146  -8.8004     75.2163    222.4383   1.3424809087e+02   1.8727106043e+01    0.1981261    0.1628096 -72.16  0.000635903    1.268    0.211
       147 -10.9031     49.7121    219.0950   1.3902067186e+02   2.2990650770e+01    0.6876537     0.389317 -87.49  0.003729121    1.675    0.403
       148  -7.9005     55.5223    220.4780   1.3800466869e+02   2.1926628854e+01      0.12615    0.1030293  79.75 2.865452e-06    1.048    0.046
       149  -9.7656     39.9627    220.9431   1.4108962180e+02   2.3820678486e+01    0.2989392    0.2552078 -50.58 0.0006514909    1.659    0.397
       150  -8.7704    175.2134    221.3825   1.1315418755e+02   1.7664326649e+00    0.2499644    0.1855299 -46.53  0.001203838    1.483    0.325
       151  -8.2671    115.2536    221.7176   1.2581820380e+02   1.2451729998e+01    0.1645525    0.1588932   4.73  0.000477452    1.309    0.236
       152  -8.6748     97.8300    221.8916   1.2950914980e+02   1.5328907718e+01    0.1815302    0.1733747  83.66 0.0003611298    1.209    0.173
       153  -8.2189     92.8424    221.8700   1.3054773234e+02   1.6136617808e+01     0.178737    0.1693105  87.89 0.0003858642    1.216    0.177
       154  -8.6244    141.3635    220.3583   1.2007616849e+02   8.1155636694e+00    0.2112113    0.1983025  23.34  0.001111191    1.178    0.151
       155  -7.7977    124.7182    221.2953   1.2375233725e+02   1.0895306240e+01    0.1373692   0.09832568  71.63 0.0001612425    1.538    0.350
       156  -8.3289     68.3435    220.9990   1.3548562056e+02   2.0037393345e+01    0.1737366    0.1395385 -87.19 0.0004271066    1.130    0.115
       157  -9.1759     59.9409    220.6615   1.3714222799e+02   2.1288222187e+01      0.20443    0.1584334 -63.13 0.0004967096    1.437    0.304
       158  -9.3500    186.0660    220.0536   1.1070441496e+02   5.3354653892e-02    0.3119105    0.2263913   1.03 0.0003742008    1.761    0.432
       159 -10.5419    194.7348    216.6458   1.0834592509e+02  -8.9081228513e-01     0.516575    0.2372436  35.04 0.0003834009    2.159    0.537
       160  -8.3364    109.0829    219.5387   1.2682261997e+02   1.3959694319e+01      0.19355    0.1689463 -84.60 0.0003807001    1.142    0.124
       161  -8.1516     87.8626    220.3594   1.3139784532e+02   1.7246731734e+01    0.1682161    0.1199628  34.61 0.0003612174    1.591    0.371
       162  -8.3014    129.8061    218.9990   1.2232715308e+02   1.0465970014e+01    0.1935725    0.1723904  58.65 0.0006761667    1.002    0.002
       163  -8.0393    104.3657    219.2134   1.2777913634e+02   1.4821106333e+01    0.1716608    0.1220491 -78.42 0.0003263881    1.480    0.324
       164  -8.2412    136.8826    218.1844   1.2069014977e+02   9.3624335437e+00    0.1781246    0.1590785  21.68 0.0003082932    1.275    0.216
       165  -8.4697    181.1118    220.8684   1.1185593202e+02   7.9625039179e-01    0.1945253    0.1763244  52.94 0.0003565261    1.173    0.147
       166  -8.5030    120.0506    217.3578   1.2417030277e+02   1.2530089603e+01    0.1937413    0.1576706  52.77 0.0004666861    1.106    0.096
       167  -8.1906     72.5424    216.9850   1.3417952403e+02   2.0300721957e+01    0.1837201    0.1173736 -71.28 0.0003431601    1.500    0.333
       168  -8.7229     56.0638    216.8523   1.3753174719e+02   2.2641122905e+01    0.2050346    0.1455006 -84.54 0.0007276237    1.240    0.193
       169  -8.6758     21.8613    216.7771   1.4418214890e+02   2.6802125254e+01    0.1617541    0.1361296 -84.00 0.0005189383    1.268    0.211
       170  -9.5660    180.3060    216.0314   1.1117442791e+02   1.8227918086e+00    0.1848162    0.1759534  12.25  0.000450508    1.055    0.052
       171  -8.1805    124.8435    215.8220   1.2291092177e+02   1.2006816745e+01    0.1919155    0.1491487  69.92 0.0003675308    1.309    0.236
       172  -8.0772     91.2194    216.3960   1.3019491188e+02   1.7572046467e+01    0.1772052     0.112433  52.19 0.0004182697    1.424    0.298
       173  -9.0220     83.0886    215.6334   1.3181702856e+02   1.9012368175e+01    0.2131597    0.1777292 -67.62 0.0003995839    1.273    0.215
       174 -10.5396    172.6179    214.0109   1.1241449016e+02   3.6127669338e+00     0.482403    0.2516077  28.68 0.0007496881    2.320    0.569
       175  -8.6348    144.0821    214.9454   1.1863141216e+02   8.7079379635e+00    0.2065219    0.1915578  49.41 0.0003814049    1.036    0.035
       176  -7.6638    101.2816    215.5812   1.2794362252e+02   1.6112148990e+01    0.1474306   0.09441563  77.28 0.0006963504    1.822    0.451
       177  -9.8676    248.7303    212.7252   9.7388536707e+01  -9.2000161029e+00    0.3035001    0.2006884 -19.06  0.001266921    1.461    0.315
       178  -8.8320    132.8432    213.6579   1.2084853973e+02   1.1023266406e+01    0.2064562    0.1884124 -48.08 0.0003713113    1.237    0.192
       179 -10.6989    207.0958    205.9325   1.0389478455e+02  -1.2038916647e+00    0.5477113    0.4124246 -26.66  0.002154618    1.358    0.263
       180 -10.8709    187.4252    211.6277   1.0892014483e+02   1.3311475317e+00    0.7289331     0.412634 -27.32   0.00155953    2.348    0.574
       181  -9.3644    200.9341    209.3858   1.0577025010e+02  -7.1354363427e-01    0.2565148    0.1943559 -40.88  0.000680424    1.381    0.276
       182 -11.5749    218.8321    187.8770   9.8064546721e+01  -8.4453196732e-02    0.9363896    0.3518467  42.64  0.003579232    2.713    0.631
       183 -10.6675    194.0338    208.3370   1.0696546624e+02   7.2480583116e-01    0.4484961      0.31904 -52.05 0.0006733331    1.615    0.381
       184 -10.6662    199.5553    201.4556   1.0454603654e+02   9.7211667241e-01    0.5472722    0.4024593 -17.14  0.001725735    1.557    0.358
       185 -11.0138    211.2458    198.8171   1.0170816459e+02  -6.8142632727e-01      0.64926    0.3386888  34.00  0.002435532    1.989    0.497
       186 -13.5430    206.5305    194.1102   1.0171609521e+02   1.0367523073e+00     1.817185     1.504654  27.12    0.0101843    1.183    0.155
       187  -8.7446    117.9676    212.8535   1.2395243319e+02   1.3848710949e+01    0.1987492    0.1865883  11.98 0.0004631116    1.323    0.244
       188  -8.4671    111.7044    213.0965   1.2534772302e+02   1.4885795169e+01    0.1869426    0.1687476 -83.13 0.0004177127    1.119    0.107
       189  -8.2171     74.7095    212.9244   1.3325411098e+02   2.0874199953e+01    0.1799359    0.1474949 -88.70  0.000316448    1.097    0.089
       190  -8.9116     41.8637    212.7887   1.3997893194e+02   2.5355813037e+01    0.1716651    0.1471764 -87.63 0.0004066483    1.192    0.161
       191  -8.9962     98.9001    211.3871   1.2788212935e+02   1.7419510630e+01      0.26205    0.2078082 -40.46 0.0007476629    1.646    0.392
       192  -9.1987     25.1935    211.1932   1.4310612903e+02   2.7642080122e+01    0.1955821    0.1522943  84.88 0.0005254061    1.050    0.048
       193  -9.6514     17.5975    211.3236   1.4456691719e+02   2.8425635836e+01    0.2451257    0.1724917  88.69 0.0003617393    1.091    0.083
       194  -9.4803     15.6874    207.6717   1.4465004754e+02   2.9412276569e+01    0.2212482    0.2086643  -2.63  0.001649562    1.701    0.412
       195 -10.6931    183.9804    206.4877   1.0868659557e+02   2.9253212972e+00    0.3781609     0.292821  12.13  0.001401342    1.477    0.323
       196  -8.6452    125.2986    211.0229   1.2207613259e+02   1.2938160694e+01    0.1870989    0.1718984  82.84 0.0003462753    1.069    0.065
       197  -8.4650    107.3102    210.0208   1.2585820188e+02   1.6306753837e+01    0.1858391    0.1673179  82.69 0.0004446431    1.056    0.053
       198  -8.1893    162.1448    209.2177   1.1378633958e+02   6.4961445325e+00    0.1875764     0.163446  79.06 0.0004829168    1.305    0.234
       199  -8.4768     93.7979    209.1216   1.2867961772e+02   1.8754886938e+01    0.1680352    0.1629937 -41.14 0.0003533187    1.327    0.246
       200 -10.1705     67.3734    208.1016   1.3423567318e+02   2.3015607276e+01    0.3063486    0.2230765 -79.38 0.0009533258    1.251    0.200
       201  -8.7091    149.6646    207.9162   1.1625085432e+02   9.1047842398e+00    0.1916741    0.1764763 -61.76 0.0004271194    1.158    0.137
       202  -8.4190    133.8003    208.3963   1.1979661543e+02   1.1952540899e+01    0.1872286     0.130554  33.49 0.0002737148    1.512    0.338
       203  -8.6489    115.0680    207.3807   1.2376145712e+02   1.5540872095e+01    0.2216284    0.1874605 -53.75 0.0006494581    1.304    0.233
       204  -8.7792     78.7430    208.1516   1.3181195219e+02   2.1333261160e+01     0.222244    0.1605301  59.40 0.0003663279    1.256    0.204
       205  -8.0917     72.5242    208.0618   1.3313446998e+02   2.2279938913e+01    0.1892855     0.119715 -69.62 0.0003665512    1.500    0.333
       206  -8.4687    120.1362    206.7111   1.2253831149e+02   1.4789594395e+01    0.1954034    0.1688301  50.95 0.0005069985    1.098    0.089
       207  -9.7819    124.8315    206.0096   1.2138839319e+02   1.4098284875e+01    0.4188848    0.1910635  41.67 0.0007183394    2.056    0.514
       208  -8.0759    104.1498    205.7807   1.2593554428e+02   1.7779696723e+01    0.1703094    0.1620573 -44.14 0.0002715947    1.291    0.225
       209  -8.4373     47.8130    206.2416   1.3812908757e+02   2.6066842522e+01    0.1547245    0.1380606 -71.11 0.0003723618    1.315    0.239
       210  -7.7243     32.6998    206.7291   1.4124785689e+02   2.7780377223e+01    0.1070912   0.08880552 -56.45 0.0006939361    1.528    0.346
       211  -9.3355    247.1392    204.5241   9.6118407122e+01  -7.6881949774e+00    0.2261946    0.1656515 -30.46 0.0004761445    1.257    0.205
       212 -10.1399    221.6361    203.8324   1.0067010962e+02  -3.3901475877e+00    0.9059027     0.330117  49.13  0.003215739    3.608    0.723
       213  -9.5058    224.0698    200.1633   9.9498483659e+01  -3.1818523562e+00    0.3052161    0.1876996  40.33  0.001329945    1.641    0.391
       214  -8.2166     39.2996    205.6249   1.3981379235e+02   2.7253174691e+01    0.1419181    0.1168712  39.15 0.0003071348    1.486    0.327
       215 -10.1892      7.3910    203.6673   1.4592902347e+02   3.1094827766e+01    0.2272544     0.195525 -74.99 0.0007220089    1.361    0.265
       216 -10.9016    179.0371    202.2641   1.0893386069e+02   4.6661841829e+00    0.4165161    0.3094604 -46.82  0.001409138    1.425    0.298
       217  -8.7433    140.9173    203.8497   1.1747113763e+02   1.1594788854e+01    0.2054708    0.1920605  13.59 0.0003288934    1.216    0.178
       218  -9.0397     93.9409    203.3194   1.2784348398e+02   2.0031097318e+01    0.2572785    0.1786913  81.83  0.001309814    1.543    0.352
       219 -10.3889     81.5071    200.9693   1.3027666102e+02   2.2537952557e+01    0.3713446    0.2751611  89.94  0.001714418    1.293    0.227
       220  -7.9412     43.4673    203.4637   1.3874458133e+02   2.7232951874e+01    0.1271509    0.1027442  85.96 0.0001858466    1.032    0.031
       221  -8.8165     21.4443    202.3102   1.4309969580e+02   2.9993179859e+01    0.1903145    0.1610612  77.58 0.0003717837    1.177    0.150
       222  -8.3152     16.9715    201.0000   1.4387344326e+02   3.0742585914e+01    0.2273646    0.1500298  43.15  0.001366096    1.627    0.385
       223  -9.7238    187.1371    201.6297   1.0712097687e+02   3.2552691118e+00    0.1984835    0.1703471  31.02 0.0004335878    1.112    0.100
       224 -10.1011    132.2153    200.0898   1.1876798125e+02   1.4029527458e+01    0.4042932     0.279398 -25.14  0.001041283    2.232    0.552
       225  -8.3178    110.5080    202.4520   1.2402051471e+02   1.7427774699e+01    0.1413554    0.1287941  70.52 0.0001138005    1.034    0.033
       226  -8.9720     98.4851    201.9373   1.2663327118e+02   1.9594206272e+01    0.2546531    0.1958476  38.55 0.0006008105    1.380    0.276
       227  -9.6050     69.2979    200.8325   1.3294513270e+02   2.4388468498e+01    0.3519213    0.2409988  73.44  0.001660995    1.411    0.291
       228 -11.1019     64.2096    195.5108   1.3340197421e+02   2.6336249886e+01    0.5324064    0.3384554  62.43  0.001132161    1.532    0.347
       229  -9.4282    250.3510    199.0840   9.4508996300e+01  -7.3279140663e+00    0.1841718    0.1532568 -21.04  0.000544733    1.070    0.066
       230  -9.4122    243.4140    198.3132   9.5582526955e+01  -6.1036306970e+00    0.2145607    0.1938006 -10.52 0.0004003976    1.085    0.079
       231 -10.2212    140.3475    197.8260   1.1655377073e+02   1.2991764531e+01    0.3869752    0.2732657  -2.08  0.001638915    2.515    0.602
       232  -8.5133    103.9703    198.9555   1.2495562031e+02   1.9343879659e+01    0.1684739    0.1499621  71.30 0.0003206099    1.018    0.018
       233  -8.1477     42.0131    199.3209   1.3862485410e+02   2.8347216938e+01    0.1694406    0.1406331  79.20  0.000471303    1.075    0.069
       234  -8.2366    231.1929    197.7509   9.7694028306e+01  -3.9892289942e+00    0.1783376     0.140767  -5.34 0.0004349397    1.268    0.211
       235  -8.0131     89.5238    197.4511   1.2799698344e+02   2.2084465232e+01    0.1387446    0.1242464  80.97 6.611255e-05    1.043    0.041
       236  -8.7035     21.7778    197.4128   1.4261263728e+02   3.1048022594e+01    0.1696033    0.1491974  43.04 0.0004927717    1.450    0.311
       237  -8.0407      7.2223    197.6443   1.4551510972e+02   3.2423846285e+01     0.126716    0.1115449  31.42 0.0003201579    1.603    0.376
       238  -9.0426    238.0765    195.9723   9.6084719608e+01  -4.8449621514e+00    0.1943084    0.1703376  -6.82 0.0003506406    1.015    0.015
       239  -8.2150     27.6807    196.7169   1.4134730118e+02   3.0578626105e+01    0.1112757   0.08746772 -52.83 0.0006995455    1.587    0.370
       240  -9.7507    114.0274    194.9447   1.2203377525e+02   1.8497204430e+01    0.2202725    0.2008838  77.64 0.0004535864    1.011    0.011
       241 -11.0759    190.9392    191.4940   1.0436758979e+02   4.4833716552e+00    0.3645027    0.2996114  60.37  0.001088916    1.394    0.283
       242 -10.7610    186.7764    193.4741   1.0562470317e+02   4.8998736887e+00    0.2872335    0.2468477   1.69 0.0007034673    1.261    0.207
       243  -8.4289     56.9340    202.5293   1.3581476656e+02   2.5718050422e+01    0.1721908    0.1229847  41.78 0.0005377547    1.491    0.329
       244 -12.1981    154.9068    188.1384   1.1150482648e+02   1.2260314646e+01    0.6681583    0.5963478  40.87  0.003419081    1.097    0.088
       245 -10.4382    226.7586    190.6420   9.7115622780e+01  -1.9975424602e+00    0.7701174    0.3259485 -26.97  0.002641805    3.599    0.722
       246 -10.2913    233.1739    181.1563   9.4015222534e+01  -1.4578568279e+00    0.4323335    0.3825437  85.75  0.002146244    1.553    0.356
       247 -10.3838    231.6027    185.2335   9.5129955109e+01  -1.8995532476e+00    0.3658129    0.2678791 -28.51  0.001399353    1.292    0.226
       248  -9.7581    229.5180    182.5047   9.4961171725e+01  -1.0473987481e+00    0.2470123    0.2282454  -2.22 0.0006852397    1.044    0.042
       249  -8.4282     27.3446    192.6186   1.4103169124e+02   3.1542785933e+01    0.2523041    0.1414368  63.28  0.000675504    1.717    0.418
       250  -9.9633    172.7472    189.7995   1.0789227436e+02   8.3790679159e+00    0.3309751    0.2067568  37.42  0.001311117    1.595    0.373
       251  -9.1036     95.3788    189.2673   1.2543349567e+02   2.3027439912e+01    0.3188248    0.2165735  66.89  0.001544454    1.558    0.358
       252  -7.5154     79.3182    190.2999   1.2930048983e+02   2.5346908103e+01    0.1290812    0.1087866 -32.18 0.0003902124    1.618    0.382
       253  -8.5727      9.2392    190.5634   1.4456181738e+02   3.3803957120e+01    0.1243049    0.1182202  22.08 0.0005023637    1.548    0.354
       254  -7.6436     14.3718    189.2498   1.4341001460e+02   3.3617791713e+01    0.1068755   0.08434983 -49.68 0.0005884786    1.633    0.388
       255  -8.3180      1.4277    187.9590   1.4591841153e+02   3.5072625499e+01    0.1716308    0.0879394 -77.28 0.0003633782    1.504    0.335
       256  -7.7685    155.3410    213.2628   1.1593949471e+02   6.9649365751e+00    0.1379895    0.1085277  11.62 0.0002995249    1.593    0.372
       257 -12.0842    176.9334    183.5002   1.0573520733e+02   8.8442862512e+00    0.5965424    0.5277848 -12.27  0.003201635    1.237    0.191
       258 -10.8032    184.1156    182.8173   1.0405872779e+02   7.5478937966e+00     0.342106    0.2836535  29.16  0.001014964    1.230    0.187
       259  -9.9721    142.1198    184.8183   1.1377760918e+02   1.5507182076e+01    0.2873896    0.1962697 -26.42  0.001239194    2.084    0.520
       260  -9.5944    135.0323    183.7209   1.1521022299e+02   1.7133984514e+01    0.2108801    0.1914416  49.89 0.0004625529    1.080    0.074
       261 -10.1719     28.2787    179.6929   1.3953569316e+02   3.4417603118e+01    0.4453954    0.2521641  56.87  0.002435373    1.773    0.436
       262  -9.3937    224.5136    182.9623   9.5987858084e+01  -2.2849341267e-01    0.2064773    0.1298348 -39.37 0.0003587676    1.518    0.341
       263  -9.5964      7.9353    182.6937   1.4417470790e+02   3.5685268757e+01    0.1955265    0.1590191 -55.90 0.0007135216    1.477    0.323
       264  -8.5834     29.1221    201.7238   1.4151302570e+02   2.9296860863e+01    0.1677659    0.1347741  89.83 0.0006344246    1.079    0.073
       265  -8.5137    122.3071    181.6990   1.1782201984e+02   2.0022796514e+01    0.2277091    0.1490563 -59.13 0.0003840203    1.549    0.354
       266 -11.4934    117.1431    179.1539   1.1858750881e+02   2.1576559048e+01    0.7019974    0.4607337  49.03  0.002582236    1.493    0.330
       267  -8.7652      3.5005    182.4682   1.4506882771e+02   3.6118910513e+01    0.1187605   0.08937725 -85.96 0.0001074302    1.041    0.039
       268 -11.3343    192.2714    176.1980   1.0097716554e+02   7.2535671532e+00     0.404748    0.3349226 -65.00  0.002083933    1.404    0.288
       269  -7.7677     14.5310    180.4133   1.4258827789e+02   3.5605981279e+01    0.1206875   0.09454706 -84.85 8.708508e-05    1.052    0.050
       270 -13.1273    183.7336    167.8670   1.0101354034e+02   1.0709104059e+01      1.18746    0.8816432  11.35  0.005421684    1.799    0.444
       271 -11.5476    192.8640    163.2801   9.8094468562e+01   9.7619651921e+00    0.5002051    0.3879799 -17.57  0.002418039    1.519    0.342
       272  -8.5364    100.7988    175.9828   1.2196270071e+02   2.5252808673e+01    0.1984168    0.1749906 -84.77  0.001084491    1.062    0.059
       273  -9.2335      9.2420    176.8785   1.4339273846e+02   3.6887508272e+01    0.3524712    0.1387376  32.47  0.001765113    2.860    0.650
       274 -12.2715    148.5295    166.9473   1.0872789064e+02   1.8244447535e+01    0.8028564    0.4662237  38.72   0.00333823    1.785    0.440
       275  -8.2061     84.0136    173.0000   1.2555347944e+02   2.8745407409e+01    0.2221927   0.08048242  37.26 0.0005759088    2.886    0.653
       276  -9.5165     40.9109    171.4199   1.3570801263e+02   3.4985900025e+01    0.2900736    0.1882457 -62.96  0.001024046    1.373    0.272
       277 -10.7750      6.2861    163.3138   1.4277567329e+02   4.0236460630e+01    0.5502837    0.3148249 -48.99  0.002872648    1.953    0.488
       278 -10.7752    217.1188    161.3469   9.2848652823e+01   5.2157375209e+00    0.6460601    0.4062198  49.53  0.002571073    1.725    0.420
       279 -10.2663    216.9991    156.7954   9.1883037087e+01   6.1185567380e+00    0.3244988    0.2746887  -2.32  0.001082937    1.327    0.247
       280 -12.7181    171.9621    158.6164   1.0156394563e+02   1.5165157558e+01     1.034693    0.4913663  42.26  0.003893096    2.153    0.536
       281  -9.3769     10.1279    172.5434   1.4280453917e+02   3.7800207882e+01    0.3450729    0.1256406  56.21 0.0009669029    3.191    0.687
       282 -10.2179    199.5881    175.4085   9.9305240318e+01   5.9490131852e+00    0.2858838    0.2557611  -2.05 0.0008037909    1.163    0.140
       283 -11.0515    149.6469    155.8290   1.0607675861e+02   2.0541489956e+01    0.3935712    0.2509529 -66.74  0.001593163    1.976    0.494
       284 -10.5307    123.4408    155.5633   1.1242290174e+02   2.5960502673e+01    0.4188004    0.3448343  40.55  0.001163252    1.260    0.207
       285  -8.2265    100.5075    156.9796   1.1854105693e+02   2.9890126681e+01    0.2127498    0.1190868 -36.52 0.0008094278    2.459    0.593
       286  -8.1089    228.9973    155.9752   8.9492253889e+01   3.9143638865e+00    0.1649692    0.1598493   0.08 0.0004891801    1.080    0.074
       287  -9.3476     84.5491    154.2955   1.2216201917e+02   3.3216157852e+01    0.3156971     0.201514  43.83  0.001496444    1.629    0.386
       288 -10.6876    159.3123    152.8106   1.0313832969e+02   1.9162394886e+01    0.2731273    0.2408921  43.97   0.00137684    1.148    0.129
       289 -11.3073     84.2774    145.9530   1.2064317456e+02   3.5297866810e+01    0.5934777    0.5406969  45.78  0.001748926    1.183    0.155
       290  -9.4937     26.7235    148.6274   1.3623406650e+02   4.1898882504e+01    0.2624044    0.1708109 -46.47 0.0009612042    1.640    0.390
       291  -9.9028     11.5138    146.9094   1.3980789134e+02   4.3617169772e+01    0.3627637    0.2177332 -54.69  0.002126484    1.531    0.347
       292  -9.8605    134.1835    147.7569   1.0803848186e+02   2.5639446348e+01    0.3253586    0.2865997  28.36  0.001046128    1.255    0.203
       293  -9.0473    245.7035    149.8536   8.5300329148e+01   1.8866929271e+00    0.2222777    0.1868583  29.26 0.0008208035    1.340    0.254
       294  -7.9182    236.4032    145.4710   8.5923625578e+01   4.4412121715e+00     0.141981    0.1259409 -33.91 0.0001329979    1.038    0.036
       295 -10.3788    177.7339    143.4925   9.6854293689e+01   1.7180250561e+01    0.3061402    0.2403646  15.30  0.001403057    1.644    0.392
       296  -9.8344     48.1643    143.3385   1.2987665863e+02   4.0914179231e+01    0.4022926    0.2943316  28.73  0.001596411    1.634    0.388
       297  -9.0053    200.4048    141.2622   9.1617304645e+01   1.2670936938e+01    0.2203306    0.1383743 -51.00 0.0009517802    1.612    0.380
       298  -8.5314    150.5422    141.5012   1.0260503602e+02   2.3610040343e+01    0.1559996    0.1536367 -51.73  0.000168818    1.044    0.043
       299  -9.3775    225.2455    138.4114   8.6310779173e+01   7.9884695430e+00    0.3765342    0.2293371 -27.77   0.00163709    1.881    0.468
       300  -9.7875     98.9197    137.7049   1.1498073293e+02   3.4838710095e+01    0.3672646    0.3205924 -83.53 0.0009997298    1.179    0.152
       301  -9.6983     42.2532    134.1913   1.2996843375e+02   4.3778725668e+01    0.2898904    0.2436876 -67.85 0.0007710062    1.006    0.006
       302 -11.3060    171.8012    131.1317   9.5218504719e+01   2.1165722196e+01    0.6532235     0.462396  -5.31  0.002603372    2.324    0.570
       303  -9.0715    244.7614    133.5442   8.1965120905e+01   5.0155421852e+00    0.1795768    0.1370999  69.96 0.0006621576    1.621    0.383
       304  -9.0622    160.5196    133.4946   9.8345617369e+01   2.3196242398e+01    0.1571784    0.1534596 -71.51 0.0008103349    1.007    0.007
       305  -7.7276    234.3348    132.7365   8.3489129076e+01   7.2156382733e+00    0.1391885    0.1085796 -76.86 0.0004459607    1.582    0.368
       306  -9.2846    149.7666    129.2869   9.9857458714e+01   2.6527490045e+01    0.2524015    0.1260746 -36.12 0.0007884694    2.356    0.576
       307  -8.2062    222.5819    126.4590   8.4086213903e+01   1.0825868813e+01    0.1465097    0.1338104 -47.32 -1.237409e-05    1.015    0.014
       308  -8.1696    242.4816    125.5109   8.0583599649e+01   6.9204901541e+00    0.1411757    0.1257043 -43.65 7.619312e-05    1.028    0.027
       309  -9.2853    150.7899    123.3965   9.8147116875e+01   2.7602273198e+01     0.222668    0.1497423  36.95 0.0009438636    1.640    0.390
       310  -9.2711    167.2451    119.7512   9.3419667606e+01   2.4635528863e+01    0.2582613    0.1252753  38.93 0.0009003605    2.457    0.593
       311 -10.6169    100.7510    116.8027   1.0959349353e+02   3.9434850714e+01    0.4798635     0.351895 -47.22 0.0006445712    1.301    0.231
       312 -10.9583     18.0788    115.3520   1.3370220060e+02   5.0422378492e+01    0.4599435    0.2726973 -66.94  0.001130273    1.377    0.274
       313  -8.6829    231.5681    116.3759   8.0297915282e+01   1.0822176210e+01    0.3256424    0.1416965  59.17  0.001237722    2.778    0.640
       314  -8.9836    129.7060    109.4244   9.9797114705e+01   3.5302456519e+01    0.4319631     0.133523 -40.21  0.001233409    3.626    0.724
       315  -9.5201     33.9252    109.0878   1.2784625713e+02   5.0502067280e+01    0.3635504      0.19268 -54.51  0.001071709    1.529    0.346
       316  -8.9859    145.0035    106.2716   9.5106424151e+01   3.2588467711e+01    0.2275549    0.2012511  51.58 0.0007684724    1.135    0.119
       317  -8.5740    250.6218    102.7442   7.4449462564e+01   9.3471453497e+00    0.2006088    0.1097521 -48.58 0.0006075625    1.613    0.380
       318 -10.7207      7.9606     99.2282   1.3404703617e+02   5.4737337233e+01    0.3437635    0.2837828 -33.19  0.001214805    1.271    0.213
       319  -9.8624      2.3271     94.4205   1.3498307909e+02   5.6114448207e+01    0.3302566    0.1835679 -61.09  0.001608478    1.354    0.261
       320  -8.3770    142.1468     98.3757   9.3664661772e+01   3.4864098594e+01    0.2150665    0.1448802  60.69  0.000442317    1.639    0.390
       321  -7.9155     72.3381     98.2600   1.1333753006e+02   4.8306075119e+01    0.1382006    0.1036482 -14.98 0.0001834347    1.582    0.368
       322  -8.4526    114.1522     95.7955   1.0024309761e+02   4.1448281292e+01    0.2112702    0.1793256   3.66 0.0009559909    1.357    0.263
       323  -8.5082     54.4911     95.5035   1.1833247880e+02   5.1320925974e+01    0.1352669    0.1167222 -40.51 -8.61252e-05    1.023    0.022
       324 -10.3850     16.8983     89.5233   1.2936257927e+02   5.6247651308e+01     0.520945    0.2775328 -36.71  0.002851213    1.813    0.449
       325  -9.0143    158.3235     91.0083   8.7868461897e+01   3.2549068676e+01     0.277753    0.2200405  45.25 0.0005073845    1.286    0.222
       326  -8.8857     16.4813     85.4886   1.2866377876e+02   5.7137011150e+01    0.2303427    0.1654019 -54.04  0.000969944    1.112    0.101
       327  -8.7915     33.9576     88.9187   1.2353287738e+02   5.4966685860e+01    0.1944472    0.1566566 -44.37 0.0004355242    1.033    0.032
       328  -9.9612    154.8088     82.2037   8.6215774209e+01   3.5029046970e+01    0.3666851    0.3055142  41.22 0.0007342717    1.244    0.196
       329 -10.2297    156.8629     77.8921   8.4560297516e+01   3.5313817657e+01    0.4113538    0.3254707   8.70  0.001117493    1.695    0.410
       330  -9.4767    243.9960     83.0342   7.1088111289e+01   1.4066577561e+01     0.167779    0.1443965 -65.08 0.0004102629    1.015    0.015
       331 -10.1330    220.9191     79.7951   7.3560508693e+01   1.9684246743e+01    0.3280546    0.2514075  74.22 0.0008245211    1.322    0.244
       332 -12.5751     80.0853     75.9241   1.0456739870e+02   5.1695125219e+01    0.3591261      0.33582 -40.64 0.0003669702    1.141    0.124
       333  -8.1527    184.2597     78.0242   7.9146656908e+01   2.8662128871e+01    0.1893578    0.1271826 -39.63 0.0005429795    1.507    0.337
       334 -12.2627     22.2047     74.2978   1.2411220226e+02   5.9026427889e+01    0.4142204    0.3909258 -44.62  0.002101743    1.215    0.177
       335  -9.8917     45.0419     74.9648   1.1613892939e+02   5.6718462797e+01    0.3177021    0.2717043 -70.95  0.001175353    1.461    0.316
       336  -8.3382    101.7394     73.0162   9.7036461120e+01   4.8354648178e+01    0.2053136    0.1817363 -26.79 0.0009310995    1.107    0.096
       337 -11.0898    115.8387     74.2079   9.3439054388e+01   4.5287114592e+01    0.4745742    0.3945844  69.79  0.001730518    1.422    0.297
       338 -10.4238    245.0586     70.6663   6.8290244523e+01   1.5853882609e+01    0.2425377     0.161174 -54.17 0.0007493828    1.316    0.240
       339 -10.8540    143.8777     63.7209   8.3334151217e+01   4.0795873881e+01    0.5211684    0.3825546 -20.27  0.001544058    1.616    0.381
       340  -8.9361     51.9176     65.0245   1.1076799077e+02   5.7819635107e+01    0.2644327    0.2183032  69.28  0.001080499    1.913    0.477
       341 -10.6266    227.4485     70.7127   7.0552969385e+01   1.9704833974e+01    0.3908439    0.2861839 -64.91 0.0005526246    1.287    0.223
       342  -8.7442    237.6858     63.6733   6.7677038849e+01   1.8544666730e+01     0.122854    0.1081036  21.19  0.000525381    1.669    0.401
       343  -9.6149     59.2387     60.6224   1.0676544204e+02   5.7658516934e+01    0.3976391     0.259753   1.93  0.001874727    1.856    0.461
       344  -7.8971    243.3106     61.2860   6.6495946119e+01   1.7691566912e+01    0.1166175    0.1054885  30.23 0.0003029798    1.575    0.365
       345  -9.8778     74.9763     56.9969   1.0016633716e+02   5.5921612919e+01    0.4141308    0.2758309   6.88  0.002118439    1.830    0.453
       346 -11.0136     81.1831     53.7145   9.7027492850e+01   5.5418573692e+01    0.5553247    0.3729629   0.24 0.0007811663    1.839    0.456
       347  -9.3683     32.8703     55.9080   1.1501959419e+02   6.1612907663e+01    0.3229251    0.1167431 -37.14  0.001410893    2.614    0.617
       348  -8.9441     27.2834     55.7904   1.1714637368e+02   6.2161350296e+01     0.180297    0.1424172 -57.58 0.0006845532    1.474    0.321
       349  -9.3446    249.4965     50.5226   6.3567199072e+01   1.7977333920e+01     0.243272   0.08918121 -48.23 0.0008777595    2.338    0.572
       350  -8.1090    171.9878     49.9888   7.3876725930e+01   3.6103633169e+01    0.1643627    0.1502145  80.08 -0.007547014    1.004    0.004
       351  -8.5487     31.4833     50.4836   1.1384104059e+02   6.2710058225e+01    0.1200919   0.09590694 -24.27  0.000159427    1.004    0.004
       352  -9.4091    246.4810     46.5093   6.3053770689e+01   1.9195520161e+01    0.1306373    0.1058331 -71.11 -2.919751e-05    1.001    0.001
       353 -10.0223     15.4969     55.9961   1.2181707657e+02   6.3083235117e+01    0.4263406    0.2038099 -27.50  0.002254432    2.158    0.537
       354 -10.2824     31.6839     34.7124   1.0829512962e+02   6.5267530688e+01    0.5634778    0.3077258  -5.15  0.002985474    2.293    0.564
       355 -10.2389     21.2618     28.9221   1.1054560857e+02   6.7174449718e+01    0.5960792    0.3434311  -6.09  0.002570871    1.816    0.449
       356  -9.7319     14.0128     26.6891   1.1290761877e+02   6.8142511265e+01    0.7060925    0.2038853  22.59  0.003180128    3.884    0.743
       357 -10.1764    225.3313    247.7975   1.0785608437e+02  -1.0789797667e+01    0.2324678    0.2062017  18.22 0.0004407211    1.186    0.157
       358  -7.9248    221.6360    248.2730   1.0861662757e+02  -1.0301993963e+01    0.1556346     0.150879   2.98 0.0006135331    1.353    0.261
       359  -7.7982    190.5923    249.5006   1.1468447119e+02  -5.5950922917e+00    0.1253167      0.10676  24.28 0.0008032484    1.024    0.023
       360  -8.2211    119.9498    248.4939   1.2838349414e+02   6.4168528633e+00    0.1743825    0.1552122  79.37  0.001144996    1.146    0.127
       361  -8.3355    108.6586    249.4360   1.3069271070e+02   8.0828505963e+00    0.1570782    0.1096676  39.15 0.0003830407    1.395    0.283
       362 -10.3574     33.1155    248.0801   1.4445146453e+02   1.9101583779e+01    0.2271385    0.1939116  73.93 0.0004412859    1.292    0.226
       363  -9.3094     25.1154    248.6968   1.4584910238e+02   1.9927311370e+01    0.2580521    0.1935304  16.82  0.001367918    2.586    0.613
       364  -9.9201      8.9811    248.4673   1.4848817720e+02   2.1760177783e+01     0.201909    0.1631826  70.66 0.0004815132    1.280    0.218
       365 -10.3278     24.5127     38.4998   1.1263678999e+02   6.5383709004e+01    0.2177825    0.1498843 -30.41 0.0006295659    1.167    0.143
       366 -12.3858     19.5769     41.1458   1.1560359317e+02   6.5384693193e+01    0.5376531    0.2901492 -16.03  0.001518671    2.013    0.503
       367 -12.4449     13.0859     38.9032   1.1760214041e+02   6.6273795159e+01    0.5576691    0.3349979  -3.84   0.00185983    1.716    0.417
       368  -8.7869     32.0790     40.5847   1.1025601902e+02   6.4306669714e+01    0.1877164    0.1422721 -37.79 0.0005574774    1.277    0.217
       369  -8.8088     44.9805     37.9937   1.0419387837e+02   6.3237625539e+01    0.2008568    0.1249202  -7.00  0.001132876    1.745    0.427
       370  -9.8607     45.7298     32.9821   1.0201410473e+02   6.3878114617e+01    0.2979624    0.1862056 -37.90 0.0009354851    1.588    0.370
       371  -9.2145    247.9863     37.7505   6.1118574949e+01   2.0095662283e+01    0.1566638   0.09689122  75.18 0.0003588303    1.547    0.354
       372  -9.7201     53.8421     36.0774   1.0011499046e+02   6.2348720996e+01    0.3265308     0.174455  20.99  0.001537724    2.089    0.521
       373  -9.7786    145.5570     34.3225   7.4224732512e+01   4.4552132812e+01    0.4156271     0.227095  55.92   0.00137744    1.610    0.379
       374  -9.6023      5.9464     32.7228   1.1865254311e+02   6.7796628138e+01    0.2411481    0.1677235   3.69  0.001035891    1.432    0.301
       375  -9.6515     75.4339     31.8856   9.1033454725e+01   5.9545339471e+01    0.3666886     0.163749  40.20  0.001308189    2.075    0.518
       376  -8.0486    205.7593     31.0097   6.4177302798e+01   3.0495928094e+01    0.1638861    0.1074232 -39.24 0.0008787645    1.595    0.373
       377  -9.3865     66.6438     30.3696   9.3369681588e+01   6.1202733959e+01    0.2270365    0.2007246   6.51 0.0005814444    1.124    0.111
       378  -8.2338     54.4891     31.4864   9.8119937479e+01   6.2899178929e+01    0.1199463    0.1002744  -0.50 0.0001429442    1.052    0.050
       379  -8.4420    110.8163     29.7785   8.0291447444e+01   5.2941541115e+01    0.2102025    0.1040787  65.21 0.0008833749    2.544    0.607
       380  -9.4338    248.9258     25.3836   5.8572710325e+01   2.1526518434e+01    0.2829429    0.1421328 -68.25  0.001434326    1.962    0.490
       381 -10.2584     67.1093     25.1283   9.1174805718e+01   6.1778833363e+01    0.3610043    0.2048838  16.06   0.00185866    2.080    0.519
       382 -11.0694    211.6761    246.7253   1.1022115361e+02  -8.5525289604e+00     0.282447    0.2136167  23.96 0.0004286958    1.134    0.118
       383  -9.1817     83.8764     19.3426   8.3689886112e+01   5.9483846370e+01     0.228416    0.1689125  -4.85 0.0007829469    1.369    0.270
       384  -7.9592    206.3020    245.6732   1.1106571269e+02  -7.5508321029e+00    0.1287564    0.1082616  19.17 0.0004803627    1.006    0.006
       385  -9.4360     58.3204     18.2354   9.1436903758e+01   6.3979131021e+01    0.2376065    0.1654771  16.75 0.0005536427    1.268    0.212
       386  -8.4108     87.1966     14.6139   8.0960934274e+01   5.9331251275e+01    0.1744959    0.0940245  42.16 0.0005890906    1.579    0.367
       387  -9.5372    140.8458    247.1953   1.2410022552e+02   3.1506333959e+00    0.2144162    0.1869595  40.15 0.0003680844    1.105    0.095
       388  -8.5042    128.5355     22.8588   7.4050222492e+01   4.9798537555e+01    0.1768108    0.1302731 -24.49   0.00100932    1.532    0.347
       389  -8.4883     75.9092    246.6149   1.3663765693e+02   1.3670284173e+01    0.1789537    0.1534179 -82.41 0.0006217106    1.268    0.211
       390  -9.9914    243.2263    245.1859   1.0417573115e+02  -1.3026264189e+01    0.2325381    0.1684592 -12.82 0.0003439361    1.270    0.213
       391  -8.0866    171.4117    246.4958   1.1795785385e+02  -1.9276309227e+00    0.1276995    0.1109863  38.55 9.537422e-05    1.038    0.037
       392  -8.2273    147.8611    245.2353   1.2243713050e+02   2.3018913966e+00    0.2644285   0.09282793 -56.57 0.0009942722    3.815    0.738
       393 -10.2800     94.3472    244.9034   1.3294862247e+02   1.1215046951e+01    0.3820815    0.2068239  40.40 0.0005560961    1.723    0.420
       394  -8.3851    248.9935    245.3133   1.0317721543e+02  -1.3842259553e+01    0.1608955    0.1184604  20.64 0.0003412034    1.180    0.152
