#   1 NUMBER                 Running object number                                     
#   2 MAG_AUTO               Kron-like elliptical aperture magnitude                    [mag]
#   3 X_IMAGE                Object position along x                                    [pixel]
#   4 Y_IMAGE                Object position along y                                    [pixel]
#   5 X_WORLD                Barycenter position along world x axis                     [deg]
#   6 Y_WORLD                Barycenter position along world y axis                     [deg]
#   7 A_WORLD                Profile RMS along major axis (world units)                 [deg]
#   8 B_WORLD                Profile RMS along minor axis (world units)                 [deg]
#   9 THETA_WORLD            Position angle (CCW/world-x)                               [deg]
#  10 FWHM_WORLD             FWHM assuming a gaussian core                              [deg]
#  11 ELONGATION             A_IMAGE/B_IMAGE                                           
#  12 ELLIPTICITY            1 - B_IMAGE/A_IMAGE                                       
         1 -12.2343    198.0497     37.4225   4.5998070983e+01   3.0893700416e+01     1.078033    0.9657264  18.22  0.006255758    1.357    0.263
         2 -11.8387    207.8472     27.0893   4.2084958210e+01   2.9784138827e+01    0.9152747     0.489223  47.36  0.002364015    2.199    0.545
         3 -10.9680    207.3159     21.9972   4.0848747043e+01   3.0509968741e+01     0.592761    0.3472193  42.27  0.001270056    2.196    0.545
         4  -8.5086    236.6920      8.8601   3.5062707553e+01   2.5168731196e+01    0.1868905    0.1527941  77.33  0.000397733    1.239    0.193
         5  -9.3014    211.7442      7.6923   3.6862064950e+01   3.1003751357e+01    0.2504399      0.19056 -73.01  0.000653024    1.178    0.151
         6  -7.3531    248.4596      3.3829   3.3060236395e+01   2.3210668389e+01    0.1189078   0.09499756 -71.92 0.0001473684    1.028    0.027
         7  -9.9899    233.1234      2.1510   3.3856611251e+01   2.6663517281e+01    0.6631243     0.207431  73.39  0.002793522    2.918    0.657
         8  -8.3593    218.1544    231.8611   8.7170050073e+01  -5.3363177912e+00    0.1679814    0.1446877  18.49 0.0003754426    1.205    0.170
         9 -15.2581      3.6027    203.2444   1.2710186502e+02   3.0914117195e+01      1.80897    0.6401091 -65.09  0.007464415    2.634    0.620
        10 -16.7930     36.3399    234.8046   1.2294139529e+02   2.1348097293e+01     1.941397     1.029205  66.77   0.01188874    1.608    0.378
        11 -15.3591     41.1085    247.5731   1.2290241025e+02   1.8447158982e+01      1.09002    0.2910631  41.86  0.005264754    2.711    0.631
        12 -18.2527     11.2920    239.6756   1.2755604179e+02   2.3098329506e+01     2.745879     1.887633  86.25   0.02106977    1.217    0.178
        13  -9.5554    120.7141    231.4422   1.0629455814e+02   1.0372649679e+01    0.1933381    0.1610849 -89.13  0.001011104    1.366    0.268
        14  -9.5895    112.4732    230.9727   1.0790368751e+02   1.1747706765e+01    0.2919563    0.2012329 -89.26  0.001653014    1.835    0.455
        15 -10.0045    157.0374    230.1283   9.8764030660e+01   4.7012188329e+00    0.4063142    0.2428516  31.58  0.001641541    1.522    0.343
        16  -9.4986    129.9809    229.9941   1.0423009804e+02   9.1506118976e+00    0.2975052    0.1447743  33.92  0.001402404    1.954    0.488
        17  -9.2575     73.8802    227.0982   1.1522614154e+02   1.8137187630e+01    0.2110544    0.1533718  67.12 -0.0006383859    1.195    0.163
        18  -7.3970     77.6596    227.3307   1.1449912855e+02   1.7571711681e+01    0.1333449    0.0760256  64.65 0.0007051596    1.744    0.426
        19  -9.8287    111.8801    224.2270   1.0720713686e+02   1.3086622389e+01     0.480887    0.2093368  41.21  0.001078891    1.944    0.486
        20  -9.9380     72.5512    218.6082   1.1467059958e+02   1.9994552465e+01    0.7001459    0.3867109  68.20  0.003634598    1.934    0.483
        21  -7.5430    217.7018    214.6857   8.4286989652e+01  -2.8809430897e+00    0.1320169   0.08687038   4.68 0.0006025053    1.607    0.378
        22  -8.0100     98.8124    213.9913   1.0868411232e+02   1.7105271987e+01    0.2292137    0.1622281  44.41 0.0004043911    1.252    0.201
        23  -7.7719     95.4874    211.6210   1.0910297646e+02   1.8091399869e+01    0.1955244    0.1333256  61.36  0.000548147    1.406    0.289
        24  -9.1978     90.1615    220.3592   1.1124029187e+02   1.7143064698e+01    0.2363629    0.1758418 -50.12  0.001417159    1.657    0.397
        25  -8.0555     75.6889    213.3280   1.1348354352e+02   2.0632600819e+01    0.2057734    0.1815505  70.25 0.0007383846    1.087    0.080
        26  -7.0147     74.4327    210.4482   1.1344197336e+02   2.1400784192e+01    0.2595108    0.1623164  53.06  0.001457253    1.404    0.288
        27 -10.0971    236.4702    207.5265   7.9523949508e+01  -4.7925980138e+00    0.2414048    0.2083213  -2.61 0.0004140173    1.164    0.141
        28  -7.2173     69.3127    208.9587   1.1436404098e+02   2.2412807744e+01     0.169035    0.1421456  82.43  0.000492189    1.083    0.076
        29  -7.6150    205.3380    208.3010   8.5505233955e+01   9.4788834294e-02    0.1383817   0.09213204   7.63  0.000703638    1.665    0.399
        30  -9.4581    123.9191    205.9808   1.0217611880e+02   1.4652669316e+01    0.2335786    0.1870928  63.74    0.0013322    1.270    0.212
        31  -7.9444     81.0884    205.8276   1.1150963754e+02   2.1423980613e+01    0.1907221    0.1463518  68.13 0.0002763097    1.184    0.156
        32  -8.4175    206.0471    204.0523   8.4588982407e+01   6.4004385680e-01    0.1975097    0.1695514   6.02  0.000335792    1.034    0.033
        33  -8.7646     69.0200    198.8706   1.1334609635e+02   2.4598957223e+01    0.4597889    0.2061899 -75.01  0.002043202    2.468    0.595
        34  -8.6304    193.8422    198.6190   8.6007680922e+01   3.6393973596e+00    0.3726247    0.3589276  79.48   0.00231094    1.376    0.273
        35  -8.2289     90.2144    196.8511   1.0839472955e+02   2.1985210293e+01    0.2044179    0.1606491  72.68  0.000678229    1.227    0.185
        36  -9.1885    174.5154    194.4264   8.9237454262e+01   7.8577161715e+00    0.2512546    0.2330698  26.08 0.0003284334    1.064    0.060
        37  -7.5662    171.4511    191.5041   8.9349548925e+01   8.9587570355e+00    0.1412935     0.128912  23.36 0.0001644961    1.012    0.012
        38  -8.5516    151.9857    195.0320   9.4225701598e+01   1.1869255776e+01    0.2066098    0.1868818  32.46 0.0003345547    1.019    0.018
        39  -8.4907     83.6268    194.1308   1.0952884998e+02   2.3562496095e+01    0.2943971    0.1751777  80.91  0.001097137    2.132    0.531
        40  -7.3093    115.2280    192.0232   1.0201453816e+02   1.8993053949e+01    0.1649104    0.1149711 -57.98            0    1.525    0.344
        41  -8.4635     74.6708    189.9701   1.1104054956e+02   2.5772686107e+01    0.2310651    0.1726779  57.10 0.0007780911    1.226    0.184
        42  -8.5215    118.4813    183.5403   9.9897862585e+01   2.0255535306e+01    0.3197467    0.2368277  16.82  0.000975185    1.730    0.422
        43 -10.0409     63.1519    181.0655   1.1261042882e+02   2.9352719854e+01    0.6433746    0.3109707  33.98  0.002942305    2.169    0.539
        44  -9.6042     74.3999    173.6529   1.0896329656e+02   2.9531219391e+01    0.3579037    0.2359228 -48.33 0.0007664745    1.702    0.412
        45  -9.2259     50.5827    180.9205   1.1550614353e+02   3.0963771122e+01    0.2621518    0.1517415 -57.52  0.001283652    1.756    0.430
        46 -10.2368     39.0711    180.6762   1.1810041851e+02   3.2340077087e+01    0.4260791    0.2363248  46.70  0.001325103    1.710    0.415
        47  -7.7529     84.7100    180.8232   1.0748911598e+02   2.6372444934e+01    0.2029801    0.1587819 -52.03 0.0005413666    1.395    0.283
        48  -8.2936    147.5377    180.0596   9.2515091898e+01   1.5690643463e+01    0.2382439    0.1798234  39.52 0.0008188717    1.247    0.198
        49  -9.9498     69.9148    179.0747   1.1076919586e+02   2.8901569442e+01    0.4456288    0.2639859 -47.38  0.001894727    1.998    0.499
        50  -7.4061    141.6779    177.2904   9.3349743913e+01   1.7374150201e+01      0.14662    0.1129627  71.50 0.0003746285    1.607    0.378
        51  -9.7726    175.5051    172.7798   8.4801795601e+01   1.1745859968e+01    0.3742863    0.3579042 -38.07 0.0009877924    1.136    0.120
        52  -7.6677     87.3055    171.5398   1.0548941221e+02   2.8115496463e+01    0.2403296    0.1221234 -61.47 0.0005698657    1.937    0.484
        53  -8.5438     59.9775    171.1687   1.1213755424e+02   3.2057868380e+01    0.2102861    0.1687875 -79.24 0.0003226863    1.126    0.112
        54  -8.6540     48.0320    171.8217   1.1508775234e+02   3.3365224869e+01    0.2468215    0.1504467  54.50  0.001256633    1.601    0.375
        55  -8.6932     37.1927    170.3962   1.1749597952e+02   3.4903568805e+01    0.2460637    0.1528525 -84.15 0.0006810253    1.440    0.306
        56  -7.2798    111.4820    168.4715   9.8992412053e+01   2.4840011686e+01    0.1450309    0.1367263  70.49  0.000809696    1.012    0.011
        57  -8.2258     99.3325    166.9733   1.0175722059e+02   2.7257030532e+01    0.1927772    0.1769854 -72.17  0.001094318    1.078    0.073
        58  -7.1274    168.7390    167.2829   8.5156407713e+01   1.4168500418e+01    0.1371084    0.1187674  86.12 0.0001614829    1.482    0.325
        59  -8.6709     88.9400    165.0835   1.0405784490e+02   2.9374412054e+01    0.2128483    0.1927033  82.31 0.0003234711    1.036    0.035
        60  -8.4429     82.6649    163.8356   1.0544679019e+02   3.0633270359e+01    0.2465561    0.1725548 -74.77   0.00068107    1.442    0.306
        61  -8.0586     69.1702    161.2374   1.0848411933e+02   3.3194757027e+01    0.1929197    0.1457234  70.28 0.0005588075    1.343    0.255
        62 -10.5049     89.2455    157.2921   1.0266974832e+02   3.1175978348e+01    0.6003487    0.4580731 -28.51  0.001675459    1.707    0.414
        63  -7.5692     78.6966    160.3285   1.0590389338e+02   3.2059259958e+01    0.1467547    0.1013296  74.26 0.0006808479    1.649    0.393
        64  -8.5301     37.2118    159.8706   1.1634634364e+02   3.7371389372e+01    0.1972745    0.1479786  79.22 0.0006404764    1.223    0.183
        65  -7.1827    172.0131    159.2494   8.2706591599e+01   1.5125617290e+01    0.1893822     0.125756  40.96 0.0002282052    1.474    0.321
        66  -8.3103     50.3284    157.7212   1.1279676407e+02   3.6434019177e+01     0.212443    0.1709702  80.90 0.0003588585    1.154    0.134
        67  -9.5246     32.3424    155.2246   1.1702949135e+02   3.8966760028e+01    0.3497828    0.2367091 -36.28   0.00184697    1.987    0.497
        68  -8.5679     30.2689    150.9805   1.1707070405e+02   4.0177977544e+01    0.2138853    0.1832017  46.54 0.0004243556    1.302    0.232
        69  -9.1514     51.7569    152.6789   1.1175008156e+02   3.7480388912e+01    0.4155649    0.2125853  54.03  0.001901104    2.162    0.537
        70  -8.2207     56.8196    151.8283   1.1030359152e+02   3.7074533232e+01    0.2498765    0.1792534  87.58  0.001107883    1.410    0.291
        71  -8.5013     98.6732    153.1169   9.9450817844e+01   3.0632863561e+01    0.2041295    0.1779452 -57.03 0.0003645921    1.136    0.119
        72  -8.2792     68.8138    152.1959   1.0719170871e+02   3.5423288617e+01    0.2436044    0.1771168 -78.75 0.0007435278    1.342    0.255
        73 -11.2426     68.4538    144.5310   1.0603517493e+02   3.7340224556e+01    0.7672175    0.4793641  69.01  0.003521397    2.012    0.503
        74  -9.5394     62.7387    136.7440   1.0629439789e+02   4.0011788927e+01    0.2975914    0.2528709 -64.01 0.0003853622    1.073    0.068
        75  -8.2355     80.1979    151.9680   1.0413189617e+02   3.3848717072e+01    0.2100288    0.1765293  82.71 0.0003303653    1.194    0.162
        76  -7.4902    148.0600    149.9516   8.6228663064e+01   2.2008223670e+01    0.1816272    0.1751758  35.88 0.0004084109    1.023    0.022
        77  -7.6961    126.7746    147.5663   9.1011612950e+01   2.6815150333e+01    0.1972832      0.14412  51.71 0.0003139543    1.415    0.293
        78  -7.5482     24.5093    154.5068   1.1889587691e+02   3.9875442673e+01    0.1274326    0.1016874  88.89 0.0004967679    1.053    0.051
        79  -8.6074     24.6901    146.9973   1.1804375610e+02   4.1640274197e+01    0.2643656    0.1467906  81.08  0.001333011    1.910    0.476
        80  -9.9773     22.4909    142.9850   1.1816226568e+02   4.2788264321e+01    0.3904543    0.2082137 -52.95  0.002048377    1.823    0.451
        81  -8.4099    133.8254    145.7996   8.8829974535e+01   2.5824695906e+01    0.2121155    0.1835383 -82.51 0.0007631636    1.317    0.241
        82  -8.2122     82.1774    142.1498   1.0183742390e+02   3.5935477340e+01    0.2278823    0.2076957 -42.67 0.0005314089    1.172    0.147
        83  -8.1987     90.3897    143.2464   9.9789706719e+01   3.4375673028e+01    0.2793248     0.191657  88.52  0.001249514    1.903    0.474
        84  -8.1648     85.5043    146.4096   1.0171863783e+02   3.4385551437e+01    0.1980856    0.1840234  79.90   0.00112301    1.053    0.051
        85  -8.6710     86.8102    143.1275   1.0074736909e+02   3.4977354129e+01    0.2748944    0.2286286 -67.31 0.0006132793    1.148    0.129
        86  -7.7647     31.1960    146.0809   1.1625786647e+02   4.1262778583e+01     0.223213    0.1233234  77.57  0.001071098    2.071    0.517
        87  -7.1572    112.9797    145.2696   9.4114199895e+01   2.9968667518e+01    0.1788171    0.1315061  41.52 0.0002058869    1.368    0.269
        88  -8.9564    242.1914    144.2042   6.5579357926e+01   4.0048317904e+00    0.3925168    0.1225811  46.09   0.00140438    3.493    0.714
        89  -8.7611     98.4367    143.2019   9.7587506839e+01   3.3047140230e+01    0.2788451    0.2315602  67.88 0.0002584087    1.290    0.225
        90  -9.3901    102.7349    142.2399   9.6225606383e+01   3.2533577043e+01    0.4350919    0.2883206  -5.40   0.00166923    2.847    0.649
        91  -9.8999      7.8648    142.8101   1.2187909302e+02   4.3970602797e+01    0.3266065    0.1794002 -89.79  0.001223642    1.614    0.380
        92  -7.3178     33.3162    143.6390   1.1540056511e+02   4.1647460770e+01    0.1384845   0.08562139  72.70 0.0007042491    1.760    0.432
        93  -7.9252    143.4893    142.4780   8.5658668987e+01   2.4598294969e+01    0.1534324    0.1516941  67.04 -8.120436e-05    1.035    0.034
        94  -8.9749     15.5182    142.2896   1.1988697734e+02   4.3522739924e+01    0.2387814    0.1206889  44.34  0.001180026    2.095    0.523
        95  -7.6801     43.5256    140.3028   1.1220449600e+02   4.1416132275e+01    0.2060142    0.1218781  29.86  0.001047003    1.932    0.482
        96  -8.6396     82.3821    137.3247   1.0085945717e+02   3.7081521517e+01    0.4217861    0.2393818  66.30  0.001137868    2.724    0.633
        97  -8.4149     34.4262    136.9820   1.1423316139e+02   4.3151386168e+01    0.3420457     0.195019 -26.89  0.001282093    2.862    0.651
        98  -8.1735    105.1119    133.7890   9.3768544916e+01   3.4130955479e+01    0.2176704    0.1974437  89.36  0.000451488    1.159    0.137
        99  -7.4774     40.0000    137.0381   1.1270668517e+02   4.2582459790e+01     0.216142   0.06577866 -67.14 0.0004887639    2.823    0.646
       100  -9.4186     24.9808    137.0273   1.1680553060e+02   4.4002542603e+01    0.3075584    0.1335959  42.72    0.0014556    2.452    0.592
       101  -8.3662     67.9410    134.4704   1.0441293182e+02   3.9877786537e+01    0.2043888    0.1048869  56.06 0.0008089612    2.540    0.606
       102  -7.8979      4.4587    134.4961   1.2195762043e+02   4.6150209536e+01    0.1222707   0.09463974 -78.26 3.188056e-05    1.024    0.023
       103  -8.8405    112.0748    132.3349   9.1524431430e+01   3.3191240102e+01    0.3686883    0.3239566 -58.35  0.001909321    1.123    0.109
       104  -8.2992     14.2236    135.0681   1.1945470828e+02   4.5334824176e+01    0.1832369    0.1376112 -78.79   0.00101531    1.067    0.063
       105  -7.2828     10.3487    132.3131   1.2018745228e+02   4.6267993500e+01    0.1260505   0.07642028 -47.81  0.000704646    1.720    0.419
       106  -7.7752    244.3529    131.2998   6.2354334301e+01   5.7275453957e+00     0.141457    0.1017789   4.28 0.0007037204    1.697    0.411
       107  -9.4751    120.1155    129.2219   8.8608628318e+01   3.2369727403e+01    0.4224761    0.2010561 -45.58  0.001581176    2.082    0.520
       108  -8.5203    116.5355    127.9688   8.9284584917e+01   3.3363255753e+01    0.2251732    0.2048548 -51.55 0.0008553296    1.077    0.072
       109  -9.1916     66.8668    130.1201   1.0391561144e+02   4.1092758230e+01    0.2255083     0.185887  83.83   0.00123329    1.288    0.224
       110  -8.7191    125.2457    127.1764   8.6735551582e+01   3.1816207456e+01    0.3225611    0.2496285  72.72 0.0008621117    1.627    0.386
       111 -14.6189     25.5047    235.8036   1.2492631973e+02   2.2353463911e+01    0.4294508    0.2232327 -55.21  0.002499926    2.693    0.629
       112  -8.6303     38.2750    125.7903   1.1151874023e+02   4.5501419636e+01    0.2153455    0.1528967 -87.92  0.001185159    1.415    0.293
       113  -8.3379    199.2030    125.1552   6.8947403133e+01   1.6049062166e+01    0.2163181    0.1954868  -2.27 0.0003589592    1.126    0.112
       114  -7.8321     89.4221    124.4421   9.6152981781e+01   3.9094743772e+01    0.2582851    0.1920656  73.36 0.0006320271    1.704    0.413
       115  -8.8816     12.0872    125.1151   1.1890873961e+02   4.7856115010e+01     0.190423    0.1386662 -60.04 0.0008759821    1.216    0.178
       116  -8.4535     30.0691    121.0536   1.1320211912e+02   4.7422114625e+01    0.2244194    0.1550988  50.04  0.001273335    1.631    0.387
       117  -7.7605    198.1525    120.7905   6.8075839967e+01   1.7105545751e+01    0.2187708    0.1982699 -63.73  0.000379579    1.225    0.184
       118  -7.3683    131.9364    121.5183   8.3547664985e+01   3.1719883562e+01    0.2274189    0.1558054  42.61 0.0005200708    1.478    0.323
       119  -7.5373     64.6966    121.2737   1.0284068115e+02   4.3554478377e+01    0.1376608    0.1054129  74.75 0.0002558664    1.539    0.350
       120  -7.4175     13.4899    121.5037   1.1807910129e+02   4.8619064060e+01    0.1263687   0.09999473 -70.33 9.413596e-05    1.036    0.035
       121  -7.7705    104.2121    120.2157   9.0878103209e+01   3.7522357716e+01    0.2009837    0.1731334 -88.02 0.0003920886    1.325    0.245
       122  -8.4116      5.9788    119.6613   1.1999069867e+02   4.9547269400e+01    0.1632193    0.1366765 -75.82 0.0004401184    1.072    0.067
       123  -7.9830     66.3333    116.8222   1.0142734390e+02   4.4422137112e+01    0.2237984    0.1902633  52.41 0.0005635367    1.292    0.226
       124  -8.3232     77.1851    116.0674   9.7933190069e+01   4.3053427520e+01    0.2121553    0.1934744 -62.35 0.0004008703    1.039    0.038
       125  -7.2597    122.3065    115.6721   8.4639605702e+01   3.5047229335e+01    0.1584095    0.1258532 -89.72 0.0003373631    1.654    0.395
       126  -7.3243    157.3581    114.2089   7.5240116539e+01   2.7701760079e+01    0.1564618    0.1189333  22.56 0.0002097381    1.550    0.355
       127  -8.6075    142.5640    126.5325   8.2065512284e+01   2.8333861337e+01    0.2630629    0.2509898 -33.77 0.0001661814    1.040    0.039
       128  -8.9560    110.0047    112.0209   8.7151638514e+01   3.8340682986e+01    0.3279891    0.2643227  70.59  0.001073658    1.516    0.340
       129  -7.7257     59.4924    111.5171   1.0244037760e+02   4.6607607119e+01    0.1416588    0.1250762 -53.79 0.0001705088    1.028    0.028
       130  -8.5130     42.9181    111.0685   1.0759076626e+02   4.8618987408e+01    0.2116367    0.1791353 -61.49 0.0005803517    1.012    0.012
       131  -7.7905     23.3022    113.6751   1.1411957510e+02   4.9768819826e+01    0.1281033   0.08827183  75.64 0.0003363287    1.638    0.389
       132  -7.3782    196.5017    107.4749   6.5025799939e+01   1.9975835399e+01    0.1528876    0.1454271 -46.40 0.0002756919    1.051    0.049
       133  -8.5163    136.7944    106.0090   7.8151867707e+01   3.4087078439e+01    0.2548898    0.2235416  45.25  0.001261353    1.157    0.136
       134  -8.1036     69.0279    103.7649   9.7641466829e+01   4.7196728707e+01    0.1925559     0.189153  -6.95 0.0006787446    1.103    0.093
       135  -8.8569     35.8360     97.9101   1.0734817463e+02   5.2474432024e+01     0.270984    0.2022641  44.07 0.0008743841    1.583    0.368
       136  -7.7237     88.7149     96.9658   8.9562054131e+01   4.5703018323e+01    0.2046657    0.1762379 -42.59            0    1.088    0.081
       137  -7.1841     90.6784     93.2561   8.7904270412e+01   4.6200392953e+01    0.1413704    0.1181591  76.94 0.0001934695    1.544    0.352
       138  -7.6230    112.5627     88.4353   7.9783546020e+01   4.3054177560e+01    0.1515935    0.1470558 -24.28 0.0001123677    1.031    0.030
       139  -7.7281    104.5603     81.0667   7.9913316232e+01   4.6216638691e+01    0.2240307    0.1442683 -44.56 0.0005358547    1.527    0.345
       140  -7.1362     62.2620     81.7265   9.4207855975e+01   5.3220944928e+01    0.1252409    0.1086707 -88.89 0.0001972183    1.467    0.319
       141  -7.9634    201.4102     78.3127   5.6475932039e+01   2.3980250319e+01    0.2663934    0.1438758 -29.72 0.0006473083    1.943    0.485
       142  -7.5773    108.7836     79.1621   7.8034836718e+01   4.5747630460e+01    0.1986967    0.1696121   2.75 0.0002923782    1.252    0.201
       143  -7.7477     80.3314     78.6340   8.6986629289e+01   5.1169524369e+01    0.2816811     0.185692 -11.36 0.0009454633    2.093    0.522
       144  -7.1371     60.2953     75.6839   9.3172686933e+01   5.4815886517e+01    0.1296477    0.1099336  89.04 0.0004019119    1.605    0.377
       145  -7.7845     86.1436     70.8086   8.2518642195e+01   5.1791535356e+01    0.2013358    0.1955988 -56.09 0.0008614971    1.192    0.161
       146  -7.2408     76.7375     67.3176   8.4602397730e+01   5.4106275949e+01    0.1310448    0.1132734 -74.73 0.0002540517    1.546    0.353
       147  -7.7177    119.2039     66.0864   7.0737572134e+01   4.6006456217e+01     0.196016    0.1748627 -60.41 0.0004461053    1.291    0.225
       148  -7.7324     58.5124     65.0036   9.0534957321e+01   5.7315816082e+01    0.1962861    0.1218252 -45.58 0.0003716674    1.449    0.310
       149  -8.5347     44.6904     57.8295   9.3649018460e+01   6.0508446305e+01    0.2082866    0.1798198  14.29 0.0003731054    1.256    0.204
       150  -7.6814     11.5501     58.4609   1.0766259150e+02   6.3237997630e+01    0.1246373   0.09297371 -44.91 4.971932e-05    1.045    0.043
       151  -7.5685     25.9706     53.0563   1.0001082916e+02   6.3338573965e+01    0.1479049    0.1213195 -31.29 0.0003486782    1.051    0.049
       152 -11.1434    188.3436     44.4786   4.9315992508e+01   3.2372281425e+01    0.5211213    0.4019505  65.04  0.001517984    1.253    0.202
       153  -7.3765    230.7066    243.7151   8.6841018020e+01  -8.6560057993e+00    0.1186714   0.07320607   8.60 0.0002531279    1.540    0.351
       154  -9.1861    247.2722    242.0957   8.3680009397e+01  -1.0719699046e+01    0.1887091    0.1209716  16.69 0.0002205071    1.248    0.198
       155 -10.9598    115.7495    239.3952   1.0823441983e+02   9.7453420397e+00    0.5809608    0.2590389  31.51   0.00262529    2.457    0.593
       156  -7.1914    104.2780     39.7340   6.5538638440e+01   5.3588334914e+01    0.1270621     0.113272 -76.34  0.000187608    1.481    0.325
       157  -7.3278    171.3494     26.3099   4.6633070757e+01   3.8972091442e+01    0.1481293   0.09912291  37.66 0.0002492225    1.714    0.416
       158  -7.7486    130.9930     21.2598   5.2070434942e+01   4.9677767036e+01    0.1890097    0.1643068  51.43 0.0003573646    1.040    0.038
       159  -7.5003     48.5608     18.4819   7.6220168209e+01   6.6787613178e+01    0.1257556    0.1009068  -2.71 5.079136e-05    1.016    0.016
       160  -8.0089     39.3563     40.9255   8.9960042285e+01   6.4373418090e+01    0.1785614    0.1334612 -31.35 0.0003573789    1.117    0.105
       161  -9.2363    135.6594    234.2125   1.0363419394e+02   7.5050367750e+00    0.2223502    0.1457623  33.40  0.001142838    1.387    0.279
       162  -9.6493    100.2117    233.1176   1.1060816679e+02   1.3223570953e+01    0.3952975    0.1931134 -58.39  0.002034972    2.323    0.569
       163  -9.8803     90.0677    233.2901   1.1263679555e+02   1.4682704426e+01    0.2982629    0.2302172 -46.37  0.001289828    1.728    0.421
