#   1 NUMBER                 Running object number                                     
#   2 MAG_AUTO               Kron-like elliptical aperture magnitude                    [mag]
#   3 X_IMAGE                Object position along x                                    [pixel]
#   4 Y_IMAGE                Object position along y                                    [pixel]
#   5 X_WORLD                Barycenter position along world x axis                     [deg]
#   6 Y_WORLD                Barycenter position along world y axis                     [deg]
#   7 A_WORLD                Profile RMS along major axis (world units)                 [deg]
#   8 B_WORLD                Profile RMS along minor axis (world units)                 [deg]
#   9 THETA_WORLD            Position angle (CCW/world-x)                               [deg]
#  10 FWHM_WORLD             FWHM assuming a gaussian core                              [deg]
#  11 ELONGATION             A_IMAGE/B_IMAGE                                           
#  12 ELLIPTICITY            1 - B_IMAGE/A_IMAGE                                       
         1 -11.7033    133.6836    145.9221   3.2681974219e+01   2.5805098396e+01     1.266602    0.3067238 -54.15  0.003089369    5.841    0.829
         2 -13.3511    234.1917     26.5923   3.5004297309e+02   2.6542755248e+01     0.807869     0.604257 -49.88  0.003993285    1.073    0.068
         3  -8.9338    189.4437     15.4615   3.5045245451e+02   3.6537269604e+01    0.1233152   0.09811644 -62.80 0.0001817893    1.010    0.010
         4  -8.8955     96.8022    249.9688   5.6729827996e+01   9.8383186697e+00    0.1514012    0.1422282   7.36 0.0007681156    1.176    0.149
         5 -10.4577    101.2310    249.8677   5.5757850097e+01   9.3638942740e+00    0.2932486    0.2207864 -35.48  0.001890298    1.550    0.355
         6 -10.1394    100.3755    245.2104   5.5487210469e+01   1.0263910065e+01     0.301954    0.2102519 -78.56  0.001824086    2.028    0.507
         7 -11.8562     76.0209    245.0032   6.0892351180e+01   1.3015129762e+01    0.3207692    0.2141313 -54.20 0.0005980826    1.786    0.440
         8 -18.7151     15.6094    214.7903   7.3234381180e+01   2.5309526571e+01     7.366021     4.151614 -83.85    0.0315501    1.824    0.452
         9 -10.0209    210.6279    198.9009   2.6989439123e+01   4.8335287119e+00    0.2269223    0.1649155   5.67 0.0005559127    1.283    0.220
        10  -9.2236     74.2380    194.0819   5.6293960699e+01   2.3796388545e+01    0.1816248    0.1695005  70.89  0.000373414    1.100    0.091
        11 -12.3497    159.7164    223.4771   4.0197010054e+01   6.9893260949e+00    0.5572122    0.2838053  16.00  0.002808116    2.082    0.520
        12  -8.8813    234.4835    191.0456   2.1950455604e+01   3.3110641444e+00    0.1613761   0.08784461 -35.23 0.0004709148    1.494    0.330
        13  -9.8277    147.4984    186.5145   3.7060895334e+01   1.5179675037e+01    0.1344203    0.1195227  -4.44 -5.645711e-06    1.028    0.028
        14  -9.7270     69.9092    184.7191   5.6353136318e+01   2.6552600637e+01    0.2441701    0.1974616 -82.48 0.0006198434    1.324    0.244
        15  -9.1345     84.2942    184.2333   5.2337912707e+01   2.4764999100e+01    0.2016996    0.1536327  56.21 0.0008616911    1.371    0.270
        16 -10.1049    102.8549    238.3197   5.4232889833e+01   1.1201508319e+01    0.3333456    0.1577653 -52.10 0.0009783702    2.384    0.580
        17  -9.9484    174.6551    223.1997   3.7226092858e+01   5.2841475714e+00    0.1640701   0.09444293 -32.20 0.0008168082    1.669    0.401
        18 -10.2407    174.8644    179.6257   3.0165200403e+01   1.2543105531e+01    0.4485347    0.1626993 -40.88  0.001607965    2.581    0.613
        19 -11.0788    179.7537    166.3273   2.6790816890e+01   1.4217076537e+01    0.8829774    0.3838006 -40.44  0.003954205    2.099    0.524
        20 -11.1805    171.6460    175.3519   3.0034798517e+01   1.3773809934e+01    0.3694518    0.3192562  -6.98  0.001217935    1.060    0.057
        21 -10.9722    173.4711    171.4789   2.8966648580e+01   1.4212678729e+01     0.319701    0.2799231  34.28  0.001170663    1.277    0.217
        22  -9.5585    103.9544    233.0833   5.3423487172e+01   1.2024259048e+01    0.1818565    0.1612422  11.77 0.0005737862    1.081    0.075
        23 -11.2815    110.9879    167.6867   4.2613282023e+01   2.4692247794e+01     0.568327    0.3373035 -73.96  0.001979737    2.467    0.595
        24 -11.1841    105.1246    171.9940   4.4889202931e+01   2.4607719914e+01    0.3783722    0.3363949  23.85 0.0008345359    1.096    0.087
        25 -14.6738     71.4656    147.6991   5.0589553177e+01   3.5666968843e+01     2.903082     1.786445  87.60   0.01176634    2.216    0.549
        26 -11.2703     51.8883    156.7187   5.8171899997e+01   3.5906806959e+01    0.3288538    0.2534428  75.50 0.0004116164    1.339    0.253
        27  -8.8679    115.6852    154.7201   3.9010820867e+01   2.6914165053e+01     0.146882    0.1138946 -11.79 0.0001676484    1.572    0.364
        28  -8.7873    139.3231    249.6693   4.7719827182e+01   5.1619031993e+00    0.1113387   0.08173285  46.42 0.0006938953    1.699    0.412
        29 -11.8252     89.1388    144.3367   4.4515330743e+01   3.3813226367e+01    0.6577562    0.4799579 -18.92  0.002972086    1.811    0.448
        30 -10.5875     36.5671    142.9529   6.1487266399e+01   4.1369717942e+01    0.4180219     0.266483 -57.10  0.001954449    1.554    0.356
        31 -10.0900     31.9977    144.5058   6.3243658236e+01   4.1418042029e+01    0.3417318    0.2722008  33.95  0.001450525    1.255    0.203
        32  -9.7739    194.1545    223.7223   3.3702281383e+01   3.0266180715e+00    0.2061793    0.1370382 -28.26 0.0006682171    1.341    0.254
        33 -10.2115    147.0200    143.2979   2.9001098332e+01   2.4018013266e+01    0.2006302    0.1901942  32.11  0.001158769    1.107    0.097
        34  -9.7884     24.8959    137.2287   6.4907640530e+01   4.4095353779e+01    0.3802949    0.1740336  31.58   0.00156595    2.071    0.517
        35 -10.9077    103.3562    132.7728   3.7949861702e+01   3.4255628751e+01    0.5389788    0.3479135 -27.59  0.002213478    2.108    0.526
        36 -11.4949     90.3882    131.4965   4.1564569659e+01   3.6841989165e+01    0.3885986    0.2731276 -49.76 0.0002706743    1.420    0.296
        37 -10.7562     43.6937    130.4099   5.7219762489e+01   4.4010575785e+01    0.4231888    0.3270956 -67.15  0.001162494    1.245    0.197
        38  -9.4040     39.1904    128.3739   5.8560121257e+01   4.5090682409e+01     0.311323    0.1827262  40.42 0.0006616476    1.674    0.403
        39 -11.0475    105.7420    214.0986   5.0788562895e+01   1.5439889900e+01    0.4360111     0.254434 -52.02  0.001703596    1.866    0.464
        40  -9.9474     79.0227    126.0624   4.4057300822e+01   4.0140197711e+01    0.5420988    0.2830039  65.42  0.001691046    3.593    0.722
        41 -10.7522    112.0860    125.9886   3.3951488668e+01   3.4278596682e+01    0.3864964    0.2921803  12.18  0.001043285    1.706    0.414
        42 -10.6861     45.9132    124.3746   5.5428771683e+01   4.5399778740e+01    0.4100957    0.2920971   3.70  0.001887851    1.731    0.422
        43 -10.9207    117.0956    122.2705   3.1707725925e+01   3.4193067419e+01    0.2980558    0.2241703 -57.07 0.0006455334    1.339    0.253
        44 -10.2264    135.1314    120.7666   2.6734230571e+01   3.1026228606e+01    0.3954702   0.09397537 -45.10  0.001086993    4.060    0.754
        45 -10.4461     98.8808    121.2025   3.6675446742e+01   3.7886677383e+01    0.3056514    0.2574255   9.72 0.0008914056    1.403    0.287
        46  -9.5863     76.3252    120.9252   4.3861718843e+01   4.1915999475e+01    0.2222458    0.1957735 -62.70 0.0006254508    1.118    0.106
        47 -10.8059     54.7059    117.8550   5.0954615516e+01   4.6025968974e+01    0.3524034    0.3176653   9.53  0.001764646    1.217    0.178
        48  -9.5106    111.5080    214.4160   4.9468646253e+01   1.4638781593e+01    0.2154391    0.1949497  23.50 0.0001717932    1.048    0.046
        49  -9.9058    107.9275    116.0000   3.2759795432e+01   3.7422979240e+01     0.230004    0.2201245 -79.16 0.0003151654    1.042    0.040
        50  -9.0496    243.4683    114.4746   6.9870140609e+00   1.3295616982e+01    0.1183407   0.08917312 -39.70 9.977856e-05    1.042    0.041
        51  -9.9975     40.2375    113.7089   5.5764246524e+01   4.9012547880e+01    0.2570554    0.2141564  61.03 0.0004002114    1.233    0.189
        52 -11.5747     33.1258    108.7565   5.7780532324e+01   5.1171306188e+01    0.4922121    0.3593986 -64.10   0.00159438    1.287    0.223
        53  -9.2077     96.8587    112.6501   3.5239765716e+01   4.0345433321e+01    0.2082264    0.1904261  59.32 0.0004237532    1.111    0.100
        54 -10.8415     52.8304    111.4695   5.0386133206e+01   4.8009345992e+01    0.4543525    0.2401805  42.94  0.001835364    1.924    0.480
        55 -10.2625    129.9518    142.3505   3.2853341237e+01   2.7253016817e+01    0.2697036    0.2432013 -73.26  0.000433337    1.216    0.178
        56  -9.8427     39.5329    104.4716   5.4325219825e+01   5.1621623661e+01    0.2603763    0.2244106  61.85 0.0007045482    1.202    0.168
        57 -11.7501     33.4293    100.3840   5.6128944492e+01   5.3430789209e+01    0.6276756    0.4019791  52.71  0.001968177    1.717    0.418
        58 -12.0147    115.1770    108.1332   2.8740556801e+01   3.7801925750e+01    0.5996314    0.4204823 -89.84  0.002507706    2.126    0.530
        59  -9.7534     62.4930    101.9879   4.4516898663e+01   4.9086761849e+01    0.2222546    0.1354339 -89.65 0.0008105072    2.562    0.610
        60  -9.5010     62.2842     97.6801   4.3530542676e+01   5.0233044696e+01    0.1556809    0.1180739  74.35 0.0002269911    1.590    0.371
        61  -9.2895     81.0394    214.7989   5.6862485899e+01   1.8385021809e+01    0.1961933    0.1529191  48.01 0.0005097593    1.226    0.185
        62 -11.0114     58.0639     93.5102   4.4148473935e+01   5.1973053591e+01    0.4644621    0.2330908  49.92  0.001741363    2.333    0.571
        63  -9.6542    102.6162     91.9620   2.7948516411e+01   4.4029820377e+01    0.4122592    0.2711855  88.06  0.001560322    2.587    0.613
        64 -10.5056     69.5908    243.0878   6.2189956471e+01   1.4070467757e+01    0.2643409     0.208753 -59.85  0.001748663    1.517    0.341
        65  -9.1534     77.9116     84.0031   3.3775433818e+01   5.0833931565e+01    0.2486674    0.1859181  77.32 0.0007973865    1.733    0.423
        66  -9.4765    125.3020    237.5408   4.9221700628e+01   8.7177378807e+00    0.1792545    0.1098139 -51.36 0.0006295051    1.886    0.470
        67  -9.7166    188.5054    211.9939   3.2947235744e+01   5.4115161512e+00    0.1744817    0.0820621 -23.61 0.0008105484    2.562    0.610
        68  -8.4736    165.0000    210.9537   3.7294202835e+01   8.4160055943e+00    0.1846584   0.06639436 -46.64 0.0005907887    2.837    0.648
        69 -12.2236    186.2554     64.4700   3.0543573596e+00   3.0833014013e+01    0.4564271    0.3858763 -56.35 0.0008629256    1.001    0.001
        70  -8.8818    133.5151     69.5767   1.3312956400e+01   4.1666631922e+01    0.1462631     0.135487 -77.04 8.586768e-05    1.016    0.015
        71  -9.8869     83.5872     64.5900   2.5378351731e+01   5.3935404608e+01    0.3889482    0.2445109  69.90 0.0009369925    2.276    0.561
        72 -12.6223    209.1597     47.9101   3.5657002909e+02   2.8575876083e+01    0.4660532    0.3826506  89.82   0.00125767    1.278    0.218
        73 -13.8548    203.6187     52.5102   3.5817282251e+02   2.9040870363e+01     1.143352    0.9218192  42.58  0.004620002    1.700    0.412
        74  -9.7279     38.4784     53.9533   4.1098010766e+01   6.4515360481e+01    0.2125575    0.1366323 -53.39 0.0006118442    1.551    0.355
        75  -9.8086     71.9650    232.8942   6.0793696881e+01   1.5766222954e+01    0.2417335    0.1728037  32.11  0.000922802    1.163    0.141
        76  -9.2463     51.5774     40.8234   2.8949778077e+01   6.5039650043e+01    0.2120275    0.1827788  61.98 0.0003131712    1.308    0.236
        77  -9.1266    124.6691    207.3091   4.5450872974e+01   1.4305916703e+01      0.13014    0.0973985  55.61 0.0004383316    1.667    0.400
        78 -10.0088     61.0435     21.5523   1.5362909946e+01   6.6254543578e+01    0.2714262     0.218686  63.94  0.001124082    1.268    0.212
        79 -10.6644    193.0877    195.4072   2.9452375612e+01   7.4635161908e+00    0.7757173    0.4231373 -63.44  0.002340381    8.256    0.879
