#   1 NUMBER                 Running object number                                     
#   2 MAG_AUTO               Kron-like elliptical aperture magnitude                    [mag]
#   3 X_IMAGE                Object position along x                                    [pixel]
#   4 Y_IMAGE                Object position along y                                    [pixel]
#   5 X_WORLD                Barycenter position along world x axis                     [deg]
#   6 Y_WORLD                Barycenter position along world y axis                     [deg]
#   7 A_WORLD                Profile RMS along major axis (world units)                 [deg]
#   8 B_WORLD                Profile RMS along minor axis (world units)                 [deg]
#   9 THETA_WORLD            Position angle (CCW/world-x)                               [deg]
#  10 FWHM_WORLD             FWHM assuming a gaussian core                              [deg]
#  11 ELONGATION             A_IMAGE/B_IMAGE                                           
#  12 ELLIPTICITY            1 - B_IMAGE/A_IMAGE                                       
         1 -11.3059     78.7149     35.6745   3.1001729193e+01   6.0191167335e+01     0.802796    0.5083256 -27.72  0.003828005    1.719    0.418
         2 -12.1104    104.2830     13.5351   1.3882201155e+01   5.6851653890e+01    0.5303518    0.3688599  -0.88  0.002698224    1.790    0.441
         3 -12.4560    105.7775     20.5283   1.6427350593e+01   5.5726936396e+01    0.4111251    0.3762053  -7.39 0.0004870737    1.219    0.180
         4 -11.8660     20.3239     21.9985   5.4023464203e+01   7.2403382138e+01    0.5461589    0.3268017 -31.53  0.001668284    1.556    0.357
         5 -12.0089     35.4936     18.4236   4.2482087782e+01   7.1019035594e+01    0.7136164    0.3974048 -19.81  0.003403891    2.172    0.540
         6 -11.6062      6.5998     10.5019   5.8317405129e+01   7.5810316534e+01    0.4934917    0.4006376  36.09  0.003315724    1.598    0.374
         7 -10.6850     12.8545      8.3998   5.2109054773e+01   7.5584424187e+01    0.3300116    0.2357826 -51.54  0.001614467    1.697    0.411
         8 -12.1811     16.7257     12.4003   5.1490877413e+01   7.4493315604e+01    0.7463511    0.3105443 -31.67  0.003326927    2.609    0.617
         9 -12.1368     23.0448     10.9253   4.6105358212e+01   7.3969383262e+01    0.5110831    0.3647504  -3.87  0.002632071    1.324    0.245
        10 -11.1361     68.1810     19.1037   2.7149224349e+01   6.4821205711e+01    0.3593695    0.3200617 -67.04   0.00151514    1.462    0.316
        11 -11.8854    165.1588     17.7557   5.4509564207e+00   4.0581185594e+01    0.5167009     0.290197  46.49  0.002077919    2.069    0.517
        12 -11.4555     86.0205     14.2250   1.8826027384e+01   6.1308712313e+01    0.6840954    0.4218618  19.64  0.003201676    2.044    0.511
        13 -10.7497     89.3935      8.4212   1.5212161530e+01   6.1072128906e+01    0.3264019    0.2287304 -25.57  0.001016289    1.594    0.373
        14 -11.9575    127.0001     16.5397   1.0552769393e+01   5.0660889969e+01     0.631053     0.421877  -2.31  0.002381284    1.999    0.500
        15 -11.1723    132.9978     15.1932   9.0635739767e+00   4.9224074184e+01    0.3940227    0.2951947  45.44  0.001366028    1.384    0.277
        16 -11.0586    137.0182     14.4994   8.1925686983e+00   4.8237849169e+01    0.3727357    0.2349246  61.32  0.001245994    1.410    0.291
        17 -10.3220    225.6900     13.6870   3.5904785120e+02   2.6720053898e+01    0.2100938    0.1501388 -43.66 0.0004486185    1.245    0.197
        18 -11.2399    186.5175     15.0033   2.4354650113e+00   3.5536046939e+01    0.2435637    0.1760065  83.47 0.0003772596    1.256    0.204
        19 -12.2807     48.9827     12.9955   3.2153728787e+01   6.9491851176e+01    0.6105753    0.2727696  47.24  0.002761253    2.112    0.527
        20 -11.7204    191.2357     11.7368   1.1589262702e+00   3.4737000433e+01    0.4567847    0.2321585 -17.32  0.002078738    2.646    0.622
        21 -11.5835    211.9720     10.5078   3.5925150809e+02   3.0052536604e+01    0.3723257    0.2776963 -29.93  0.001496622    1.461    0.315
        22 -10.7812    213.3492      5.6879   3.5803376756e+02   3.0237424448e+01    0.2518911    0.1703403 -74.62  0.000928137    1.269    0.212
        23 -11.0416    120.3811     11.6568   9.9141370161e+00   5.2878766838e+01     0.281976    0.1499116  64.52 0.0007259871    1.613    0.380
        24 -10.1853     64.3760      2.0578   1.9495226821e+01   6.7522438614e+01    0.2012354    0.1579028  10.75 0.0004937018    1.301    0.232
        25 -10.6656     64.4268     10.2313   2.3958408264e+01   6.6686900978e+01      0.28561    0.1859851  54.42 0.0003781035    1.444    0.307
        26 -10.3279     62.7929      6.4124   2.2490174150e+01   6.7447422651e+01    0.3742408    0.2190059  63.52   0.00183805    1.880    0.468
        27 -10.7072    164.5400      4.9627   1.7534591840e+00   4.2007912536e+01    0.3651869    0.2198979  22.93  0.001676241    2.682    0.627
        28 -11.3904    169.0725      9.5943   2.6405160746e+00   4.0419538459e+01    0.4744264     0.192456  62.15  0.001547209    2.210    0.547
        29 -11.4642    152.8664      8.4573   4.0776647929e+00   4.4682011967e+01    0.3560576    0.2627789   2.27  0.001911193    1.830    0.454
        30 -10.7766    145.8060      8.0794   4.8215921832e+00   4.6553756994e+01      0.45948    0.2572102  25.08  0.001616939    2.819    0.645
        31  -9.8428      1.0000      8.4030   6.1917146833e+01   7.6614779311e+01     0.245811   0.05919741 -56.35 0.0009289029    3.888    0.743
        32 -11.9126    184.6334      6.1595   2.5691716822e-01   3.6889478082e+01    0.4063217    0.1957924 -52.23  0.001949432    1.919    0.479
        33 -11.1164    122.0526      5.6538   7.3718414237e+00   5.2987949057e+01     0.250326    0.1773292 -20.16  0.001072957    1.642    0.391
        34  -9.8244     77.9547      7.5113   1.7962820923e+01   6.3907133464e+01    0.2059252    0.1202874  59.30 0.0005686106    1.533    0.348
        35 -11.0195    233.5926      2.6019   3.5617414788e+02   2.6213290204e+01    0.3198164    0.1488035 -55.95  0.001749547    1.739    0.425
        36 -10.7430    176.6169      5.6579   8.1321002473e-01   3.8908114562e+01    0.3011171    0.1668794 -77.83  0.001300706    1.778    0.437
        37 -11.9055    137.8520      4.1816   4.5511801924e+00   4.8979645363e+01    0.6081865    0.2333564  66.93 0.0004488807    2.141    0.533
        38 -11.6499    133.2209      2.4774   4.5793883258e+00   5.0334677462e+01    0.3621335    0.2745815  61.20  0.001265826    1.201    0.167
        39 -10.7617     73.5242      3.5798   1.7309362059e+01   6.5307334629e+01    0.5855801    0.2015612  49.55  0.002375058    2.323    0.569
        40 -10.8487     41.5897      3.8747   3.0380300025e+01   7.1990420445e+01    0.3512098    0.2008964  20.60  0.001759631    1.957    0.489
        41  -9.6472    243.5284      4.4939   3.5606014908e+02   2.4019925977e+01    0.1172244   0.08821266 -60.45  0.000809971    1.004    0.004
        42 -10.4654    218.8762      3.6343   3.5722136974e+02   2.9226005814e+01    0.2258731    0.1838783  77.93  0.000978613    1.302    0.232
        43 -10.3135    223.7699      2.9593   3.5678609381e+02   2.8237277244e+01    0.2491356    0.1489053 -88.79 0.0004268881    1.533    0.348
        44 -10.9355    207.7471      2.7553   3.5770820445e+02   3.1784594564e+01    0.3158711    0.1692408  85.90  0.001690876    1.719    0.418
        45 -10.0941    204.0679      1.4859   3.5764421007e+02   3.2744982280e+01    0.2597115    0.1093372  80.31 0.0008215654    2.198    0.545
        46 -10.4945      2.0557      2.0962   5.7429613699e+01   7.7651036661e+01    0.2479664    0.1437754 -27.48  0.001341658    1.503    0.335
        47 -10.5053    105.2101      1.8470   8.8115426820e+00   5.7664388832e+01    0.2988663    0.1777951  87.34  0.001343813    1.857    0.462
        48  -9.5772     12.9222      2.4813   4.8324069480e+01   7.6525351624e+01    0.1740356     0.104576  24.19 0.0005328722    1.559    0.359
        49  -9.4186    245.7661      1.3376   3.5531158418e+02   2.3898516803e+01    0.1366606   0.09274715  78.65 0.0002734768    1.534    0.348
        50  -9.7493    152.2846      1.4073   1.9427945231e+00   4.5463318083e+01    0.2437889     0.110436  71.21 0.0006366405    1.875    0.467
        51 -11.2769    113.1091      2.5918   7.6859675295e+00   5.5570251657e+01     0.346879     0.247721 -85.08  0.001333783    1.470    0.320
        52 -10.0147     43.3125    115.9979   6.9878493302e+01   4.8082007208e+01     0.270043    0.1904266 -89.21 0.0007633964    1.539    0.350
        53 -10.0904    249.4861    250.0226   4.2988072937e+01  -8.7959722562e+00    0.1456953   0.08293288 -22.59  0.001023632    1.564    0.361
        54  -9.8209     79.0464    115.1181   5.7014978953e+01   4.3163409714e+01    0.2332603    0.2101906 -14.22 0.0009841807    1.240    0.194
        55 -10.7699     35.9284    102.6950   7.0285879793e+01   5.2342207553e+01    0.5524738    0.2955281  -1.97  0.001772953    2.936    0.659
        56 -11.3773     17.1836    100.6941   7.7375337368e+01   5.4515461200e+01    0.3346488    0.2405946  28.17 0.0004536412    1.508    0.337
        57 -12.2161     25.5442    105.9971   7.4898716738e+01   5.2481600341e+01    0.9328673    0.6059016 -63.11  0.004350268    1.380    0.275
        58 -11.6182     21.9728    114.5124   7.7463653977e+01   5.0577965466e+01    0.5042388    0.2685224   4.17  0.002218909    2.506    0.601
        59 -11.4779     28.0197    113.0595   7.5032208669e+01   5.0430270760e+01    0.3363596    0.2983411   5.22 0.0009140427    1.276    0.216
        60 -10.4765      7.4946    114.5101   8.2705280312e+01   5.1613795847e+01    0.2589208     0.194337 -60.11 0.0007913338    1.241    0.194
        61 -12.2061      2.5351    111.6641   8.4206865749e+01   5.2623553006e+01    0.4713384    0.3231587  83.32  0.001370573    1.367    0.268
        62 -11.6116      4.3432    105.5075   8.2934337071e+01   5.4092947222e+01    0.4184808    0.3902766  57.95  0.002211464    1.158    0.137
        63 -10.0101     48.9121    112.1311   6.7115881053e+01   4.8410064613e+01    0.2271867     0.190124  62.45 0.0007349667    1.254    0.203
        64 -11.6495     15.5491    109.6931   7.9216160970e+01   5.2317478095e+01    0.4150473     0.297738  11.22   0.00169756    1.611    0.379
        65 -11.4783     80.0102    108.1300   5.5021112112e+01   4.4731855740e+01    0.3767027    0.3073359  14.83 0.0007725748    1.389    0.280
        66 -11.1596     51.8133     99.7294   6.3434271235e+01   5.1216002411e+01    0.5490723    0.3513576 -30.45 0.0008612591    1.912    0.477
        67 -12.0951    248.2631     95.2678   1.4829312588e+01   1.1739809838e+01    0.4321341    0.2784648 -13.52  0.002310927    1.989    0.497
        68 -12.0321      9.7559     96.7649   7.9799799847e+01   5.6012822736e+01    0.5937781    0.4351915   0.04 0.0008527393    1.593    0.372
        69 -12.0167     67.3461     95.0772   5.6302218536e+01   5.0085654301e+01    0.4770688    0.3685188  32.36  0.001189838    1.316    0.240
        70 -10.1879     31.0895     96.7918   7.1125460951e+01   5.4345280648e+01    0.4019712    0.2366651  60.40  0.001793356    2.144    0.534
        71 -10.3629     78.2506     96.8911   5.2748684610e+01   4.7785644721e+01    0.4570118    0.1794916  44.87   0.00154379    2.685    0.628
        72 -10.7919     79.1477     92.0690   5.1093737816e+01   4.8774770435e+01    0.6220282     0.541599 -88.52  0.003165709    1.322    0.244
        73 -12.0303    126.0293     94.5699   3.6930055009e+01   3.8325864668e+01    0.2673692    0.2594337 -51.65 0.0002065713    1.051    0.049
        74 -10.6073     43.4681     94.3365   6.5562780513e+01   5.3636689253e+01    0.3758328    0.2451688  28.39  0.001605869    1.599    0.374
        75 -11.5631     42.2992     90.7333   6.5234450623e+01   5.4684324323e+01    0.4512067    0.2433727  37.56 0.0008831737    1.919    0.479
        76 -11.0297     26.4062     86.1263   7.1035704619e+01   5.7487644416e+01    0.5919111    0.4645023 -57.26  0.003335317    1.150    0.130
        77 -10.6740     19.1218     86.3342   7.4256622024e+01   5.8031128033e+01    0.5558312    0.3154416 -40.12  0.002691423    1.775    0.437
        78 -11.3012     22.9456     94.5655   7.4074857509e+01   5.5641108765e+01    0.3726049     0.275409  21.68   0.00119083    1.476    0.323
        79  -9.9898     19.3780     91.8301   7.5099858152e+01   5.6619577300e+01    0.2835814    0.1892661 -62.84  0.001498566    1.319    0.242
        80 -10.4264     35.5145     92.6360   6.8479657024e+01   5.4959886147e+01    0.2666882    0.2285932 -88.62 0.0009322247    1.226    0.184
        81 -10.3319     50.4763     91.6499   6.2079155233e+01   5.3427384765e+01    0.2801779    0.1854059  23.58  0.001114061    1.620    0.383
        82 -10.3807     98.1702     91.0039   4.4214699540e+01   4.5277774409e+01    0.2500518    0.2170636  45.30 0.0003097307    1.134    0.118
        83 -11.9148      7.0497     88.3900   7.9785610917e+01   5.8288954479e+01    0.5836312    0.4028812   1.33  0.002733875    1.679    0.404
        84  -9.8831     66.9187     88.4998   5.4691945586e+01   5.1751123934e+01     0.247511    0.2000014 -27.14 0.0006113561    1.345    0.257
        85 -10.0156     90.4295     86.4674   4.5454636806e+01   4.7891744947e+01    0.4293838     0.263998 -46.79   0.00183196    1.648    0.393
        86 -11.5974     45.1414     84.4382   6.2520530834e+01   5.5905374770e+01    0.4728831    0.4154743   1.60  0.001560252    1.204    0.170
        87 -10.7192     37.1935     85.6632   6.6240072446e+01   5.6535293423e+01    0.6021788    0.3255236  -6.88  0.002319159    2.985    0.665
        88 -10.1978     52.0654     87.0629   6.0275806517e+01   5.4347979928e+01    0.2156452    0.2026406 -51.50 0.0003438146    1.031    0.030
        89 -10.0174    143.1606     84.3506   2.9603939278e+01   3.6297308283e+01    0.2338217     0.207416 -28.86 0.0004531334    1.196    0.164
        90 -12.3591     76.0271     79.6623   4.8570945757e+01   5.2222357576e+01    0.7996082     0.566289  73.22  0.003430088    2.116    0.527
        91  -9.7086    110.5043     82.4790   3.7745652510e+01   4.4418398974e+01    0.2457197    0.1500333  58.19 0.0001378824    1.836    0.455
        92 -10.1259     67.3453     81.3306   5.2455613395e+01   5.3376809300e+01    0.3277911    0.2388378 -16.47   0.00150652    1.727    0.421
        93 -11.2756     52.9113     74.6521   5.6461520648e+01   5.7208566919e+01    0.6275113    0.3472278 -61.92  0.002677509    1.994    0.498
        94 -12.1511    247.4218     76.4164   1.0928386126e+01   1.4535472385e+01    0.3950815    0.2723932 -82.02   0.00230908    1.824    0.452
        95 -10.6744     89.2634     77.6801   4.3108600476e+01   5.0065156212e+01    0.4226016    0.2462531  44.03  0.001116191    1.687    0.407
        96 -10.1596     94.5020     76.2261   4.0837345155e+01   4.9271867222e+01    0.2838191    0.2577186  46.45 0.0008616127    1.085    0.078
        97  -9.8422      2.6446     77.7592   8.0206821627e+01   6.1161123046e+01    0.3153477   0.08499844  20.25   0.00118881    3.724    0.731
        98 -10.2213     46.7969     75.8641   5.9505169291e+01   5.7770603166e+01    0.2892596    0.2084047 -41.87 0.0009025585    1.338    0.253
        99 -11.2215     14.1802     74.6114   7.4313925810e+01   6.1302207030e+01    0.3446474    0.2580398  83.51  0.001931484    1.511    0.338
       100  -9.5721    103.1955     74.4247   3.7411334793e+01   4.7729083749e+01    0.2249973    0.1462696  57.94 0.0009476813    1.686    0.407
       101 -10.9726      2.1229     71.3212   7.9470142735e+01   6.2766696035e+01    0.3816204    0.2114669 -61.72    0.0020075    1.483    0.326
       102  -9.7785     80.6854     72.2805   4.4426524641e+01   5.2958453400e+01    0.3313085    0.1845808 -40.11  0.001364878    1.870    0.465
       103 -10.4198     28.8365     71.7677   6.6697428338e+01   6.0809947386e+01    0.2693755    0.1868154   9.68 0.0009950247    1.584    0.369
       104 -11.7621     40.7712     70.0908   6.0596919014e+01   5.9905036185e+01    0.5238149    0.2848945 -56.11 0.0008775989    1.735    0.423
       105 -10.6347     34.8165     71.7625   6.3858435337e+01   6.0196966701e+01    0.4693563    0.2010836  40.26  0.001883972    2.606    0.616
       106 -10.1758     58.1433     77.6655   5.5121585152e+01   5.5720307180e+01    0.2407942    0.2005168 -64.02 0.0005364267    1.277    0.217
       107 -10.4136    123.0756     68.7110   2.9772375620e+01   4.4134739092e+01    0.3831849     0.228707  52.49  0.001614381    1.612    0.380
       108 -10.2389     14.0910     67.4712   7.2898576218e+01   6.3050282596e+01    0.3216249    0.1296538  15.52  0.001361626    2.731    0.634
       109 -10.6119     96.8316     65.8425   3.6543278749e+01   5.0866410173e+01    0.2672797    0.2425401 -30.78 0.0002674894    1.142    0.124
       110 -11.1720     92.3142     62.6001   3.6902029929e+01   5.2498590298e+01    0.4208472    0.3029549  65.51  0.000955988    1.691    0.409
       111 -10.9900     13.7402     56.8183   7.0598493918e+01   6.5605260583e+01    0.4850386    0.1931826 -40.07  0.001196886    2.385    0.581
       112 -12.4692      6.1449     61.9487   7.5787950604e+01   6.4843945796e+01    0.6252532    0.4029792  -5.40   0.00346894    1.709    0.415
       113 -10.7965      9.4927     56.5105   7.2826328698e+01   6.5947021821e+01    0.2519948    0.2406219 -72.38  0.001112419    1.163    0.140
       114 -10.1001    201.9561     64.9302   1.3630366475e+01   2.5480227496e+01    0.2179296    0.1488447 -67.33 0.0003627122    1.595    0.373
       115  -9.7055    159.0015     62.9509   1.9912853242e+01   3.6115934180e+01    0.2235869    0.1729003  32.49 0.0004288484    1.555    0.357
       116  -9.1806    105.3294     63.6691   3.3096058137e+01   4.9331617405e+01    0.1575912    0.1226073 -84.29 0.0002608339    1.716    0.417
       117 -10.0851     51.1278     56.8122   5.1391125627e+01   6.1468258069e+01    0.5111006    0.2301852 -45.53  0.002098915    2.139    0.533
       118 -10.9500     43.3044     61.7620   5.6827569169e+01   6.1499385720e+01    0.3693062    0.2304782 -60.02  0.001763153    1.707    0.414
       119 -11.5327     46.4294     59.3301   5.4510275382e+01   6.1612869806e+01    0.6967021    0.2944823  46.47  0.002534566    3.172    0.685
       120 -10.9530     40.7212     57.0188   5.6506455314e+01   6.2892475550e+01    0.3571879    0.2137559  38.62  0.001716932    1.792    0.442
       121  -9.7294     84.5235     61.9786   3.9412849826e+01   5.4297048973e+01    0.2272284    0.1486225 -43.95 0.0008206116    1.581    0.368
       122  -9.8027     57.6999     62.1172   5.0283475229e+01   5.9296250579e+01    0.2258572    0.1870883 -69.78  0.001183329    1.465    0.318
       123  -9.5894    113.5058     60.9302   2.9753457899e+01   4.7877218911e+01    0.2295227    0.1537773 -36.64 0.0008354035    1.569    0.363
       124  -9.2297     65.2726     61.6428   4.6839081267e+01   5.8108868121e+01    0.1419828    0.1178652 -89.77 0.0007001122    1.646    0.393
       125 -11.3697     31.3263     53.1852   6.0046575800e+01   6.4866826676e+01    0.7032998    0.3244896  13.93  0.002854159    2.757    0.637
       126 -10.6575     25.9902     59.4921   6.4815398386e+01   6.3985690558e+01    0.4096715    0.2598801  18.98  0.001750295    1.662    0.398
       127 -10.8764     25.3470     55.9300   6.4104283985e+01   6.4864310917e+01    0.2252527    0.1988341  10.26 0.0006586298    1.179    0.152
       128 -11.9768     76.3468     52.8850   3.9049450132e+01   5.7739054505e+01    0.6102974    0.4134046 -32.24 0.0008880877    1.562    0.360
       129 -11.0723     72.7696     47.3543   3.8241657186e+01   5.9483614895e+01    0.6832016    0.3125055 -51.95  0.001596999    2.988    0.665
       130  -9.8055     91.7071     57.7060   3.5320537358e+01   5.3559136593e+01    0.2370375     0.177972 -86.11  0.001049685    1.997    0.499
       131 -10.0558     87.8914     56.1926   3.6068765277e+01   5.4682079670e+01    0.5058445    0.1895369 -32.88  0.001593726    3.494    0.714
       132  -9.6270     80.2790     58.0818   3.9540276627e+01   5.5941667621e+01    0.2386641    0.1147914 -24.01 0.0007012119    4.140    0.758
       133  -9.4769    124.5256     56.4745   2.5306917299e+01   4.5913688844e+01     0.152671    0.1442618  53.09 0.0004076803    1.033    0.032
       134  -9.9932    118.4916     56.4814   2.6851204030e+01   4.7422162080e+01    0.2860026    0.1472308  66.82  0.001031024    2.453    0.592
       135 -10.0196     29.5170     60.4771   6.3283513648e+01   6.3410649460e+01     0.291992    0.2013362 -44.44  0.001233246    1.312    0.238
       136  -9.2588    100.5751     55.2594   3.1535017368e+01   5.1972328619e+01    0.1556061    0.1177949  84.17 0.0002089102    1.777    0.437
       137 -10.1550    246.6747     54.6903   6.3699254693e+00   1.7579121988e+01    0.1104715   0.09401704  11.21 0.0002623952    1.655    0.396
       138 -10.8869    154.9419     49.2851   1.6532326628e+01   3.9242324411e+01    0.3268213    0.2180897 -22.32  0.000493476    1.780    0.438
       139 -10.7669     60.5582     51.7627   4.5164930170e+01   6.0956575419e+01    0.4932196    0.1399939 -46.95  0.001563362    3.629    0.724
       140 -10.6222     61.1570     46.7483   4.2880154826e+01   6.1819385118e+01      0.48876    0.3166188  -0.63  0.002109972    2.286    0.563
       141  -9.7810     10.8321     51.5732   7.0859737686e+01   6.7010303622e+01      0.19459    0.1395211 -66.40 0.0002960587    1.350    0.259
       142 -10.0825    243.5350     51.4500   5.9530435640e+00   1.8597339895e+01    0.1242637   0.09965571 -53.04 0.0001215288    1.019    0.019
       143 -10.1687    144.9658     50.5089   1.8789238025e+01   4.1629119891e+01     0.245905    0.2086274  -5.04 0.0003186241    1.435    0.303
       144 -10.0160    122.9255     44.6576   2.1573086900e+01   4.8180076782e+01     0.272781    0.2113459  85.33 0.0006465183    1.445    0.308
       145 -10.6929    110.5842     40.4433   2.3092015591e+01   5.1928795825e+01    0.6604481    0.5847198  -3.08  0.003586383    1.268    0.211
       146 -12.0271    117.1100     45.6252   2.3340974764e+01   4.9512595215e+01    0.8991743    0.5947438  11.69  0.003720385    2.366    0.577
       147 -10.6825    120.2913     40.3809   2.0655213929e+01   4.9477492821e+01    0.2889645    0.1736717  50.86 0.0005701609    1.550    0.355
       148 -11.8812    119.0324     37.0227   1.9719339548e+01   5.0271119753e+01    0.4752088    0.3635811 -72.52  0.001051084    1.545    0.353
       149  -9.4714     55.4773     50.4680   4.6958826743e+01   6.2083532912e+01    0.1421842    0.1297761  -3.32 0.0001161754    1.019    0.018
       150  -9.3051    189.3873     49.5641   1.1328735894e+01   3.0611139212e+01    0.1382409    0.1229367 -65.24 8.885845e-05    1.021    0.021
       151 -10.8621     46.8775     48.8186   5.0433917038e+01   6.3775075000e+01    0.3296843     0.215064  15.00  0.001071273    1.730    0.422
       152 -12.0171     42.6153     44.5465   5.0896160586e+01   6.5262002178e+01    0.6418773    0.4146357  30.33  0.001818483    1.541    0.351
       153  -9.5961      1.8906     48.8176   7.5301319706e+01   6.8121721010e+01    0.1593266    0.1452627  60.42  0.001065091    1.332    0.249
       154  -9.7691     52.0677     48.1717   4.7650194468e+01   6.3099383558e+01    0.2145793    0.1758185  -5.43 0.0004817943    1.240    0.193
       155 -11.0766     21.0134     46.0296   6.3373131367e+01   6.7476389273e+01    0.3929838    0.2340067 -48.66  0.001661653    1.474    0.321
       156  -9.7069     82.5723     46.9194   3.4340040977e+01   5.7505450788e+01    0.1998364    0.1274688  -8.69 0.0008041588    2.393    0.582
       157 -10.0556     13.1712     46.3006   6.8038783163e+01   6.8047995170e+01    0.2332449     0.145936 -46.58 0.0008312907    1.360    0.265
       158  -9.2120    146.6815     46.2611   1.7097884320e+01   4.1810643717e+01    0.1490182    0.1091845 -77.04 0.0001986218    1.546    0.353
       159 -10.7860     31.5585     45.0944   5.7054012710e+01   6.6586810736e+01    0.3817544    0.2178877  18.13   0.00121051    1.870    0.465
       160  -9.4886    233.6833     45.3195   5.4836212159e+00   2.1334203065e+01    0.1347153   0.07740153 -59.68 0.0004069341    1.658    0.397
       161 -10.2661    156.0600     42.0978   1.4124794237e+01   3.9970026119e+01    0.2407768    0.2114026 -39.10  0.000728982    1.199    0.166
       162  -9.4269    139.8964     43.6651   1.7562197825e+01   4.3941770757e+01    0.2192262    0.1329484  73.58 0.0009434019    1.744    0.427
       163 -10.7675     26.1660     42.7967   5.9252131746e+01   6.7668592484e+01    0.2378629    0.2135685 -58.02 0.0007899655    1.257    0.205
       164 -10.6226     23.0805     37.3470   5.9003597681e+01   6.9122846438e+01    0.4754301    0.2131661  39.42  0.001990982    2.688    0.628
       165 -10.6066     98.2115     41.4247   2.6950029324e+01   5.4818553660e+01    0.2636235    0.2356619  72.06 0.0004568391    1.187    0.157
       166  -9.9171     57.0917     42.0055   4.2720763211e+01   6.3429600692e+01    0.2518003    0.1889181  36.05   0.00121287    1.296    0.228
       167  -9.4959     91.2757     41.6037   2.9190525684e+01   5.6427422885e+01    0.1480598    0.1141288 -70.01 0.0006990128    1.746    0.427
       168 -10.6537     50.7862    249.4263   8.1640341342e+01   1.6569448325e+01    0.1628287   0.09782276  25.21 0.0009585642    1.709    0.415
       169 -10.3683     18.0434     40.7060   6.3313088185e+01   6.8890388948e+01    0.2160992    0.1631177 -46.97 0.0005121731    1.193    0.162
       170 -10.7384      9.2007     30.7707   6.5404180031e+01   7.1676921173e+01    0.5525212    0.3060867   1.11   0.00291271    1.934    0.483
       171 -10.1265      3.2341     39.2389   7.2057512011e+01   7.0217092417e+01    0.2877493    0.1556076  39.73  0.001468768    2.346    0.574
       172 -10.7616      4.5378     35.7947   7.0205754880e+01   7.0901738706e+01    0.3275411    0.2260718  16.98  0.001532155    1.557    0.358
       173 -10.9651     60.9780     36.2458   3.8408430126e+01   6.3734934843e+01    0.5139438    0.3396174  -2.32  0.001534765    2.055    0.513
       174 -10.4068     68.0520     32.4535   3.3657136883e+01   6.2955433397e+01    0.4314272    0.2514198  54.37  0.001973303    1.872    0.466
       175  -9.6670    231.3428     37.3223   3.9028738119e+00   2.2812731627e+01    0.1151246   0.09580342  28.10 0.0007050397    1.728    0.421
       176 -10.4714    153.1084     36.0210   1.2718850020e+01   4.1542882076e+01    0.2940558    0.1896591  55.71 0.0003466728    1.493    0.330
       177 -10.6703    175.3391     34.1711   8.9398566107e+00   3.6093971637e+01    0.3296714    0.2074547 -55.02 0.0007477701    1.568    0.362
       178 -10.9343    176.8200     29.4499   7.4224573311e+00   3.6302374659e+01    0.4207416    0.2170632  42.17  0.001294654    2.656    0.623
       179  -9.2718     34.6841    245.3243   8.4710313015e+01   1.9126359655e+01    0.1259806   0.06075663  55.42 0.0007043132    1.667    0.400
       180 -11.0627    126.9259    241.6336   6.4818204385e+01   7.9071507400e+00    0.2354162    0.1696438  46.09  0.001244313    1.329    0.247
       181 -12.4989    104.5254     32.7004   2.1673382185e+01   5.4533638726e+01    0.7357087    0.3344301  44.34  0.002882632    2.191    0.544
       182 -12.3722    114.1752     24.9263   1.6250803601e+01   5.3070967765e+01    0.8666192    0.3177812  55.96  0.002424852    2.296    0.565
       183 -12.3262     58.0788     29.9770   3.6777521933e+01   6.5313612330e+01    0.3960111    0.3051068   2.26  0.001384157    1.376    0.273
       184 -11.6938     49.3223     30.3009   4.1115059669e+01   6.6840832857e+01    0.6467872    0.2907088  35.99  0.002538504    2.171    0.539
       185  -9.5549    217.1486     32.1703   3.9429165186e+00   2.6466707572e+01    0.1809495    0.1231883 -59.19 0.0003060009    1.290    0.225
       186  -9.7708    183.4134     32.1953   7.3943175568e+00   3.4334519618e+01    0.1918135    0.1132208 -45.38 0.0003773957    1.586    0.369
       187  -9.1609     22.6157     32.2416   5.7209574628e+01   7.0202219424e+01    0.1200093   0.09523861  46.69 0.0006931625    1.645    0.392
       188 -11.5939    158.2325     29.2477   9.8266379037e+00   4.1060456993e+01    0.4933316    0.2677546  76.61  0.001127793    1.832    0.454
       189 -11.5649    164.3032     27.6778   8.5059811050e+00   3.9684310681e+01    0.3295772    0.2521524 -70.13 0.0005072024    1.271    0.213
       190 -11.6731     26.5751     28.5810   5.3101630964e+01   7.0467408266e+01    0.4549075    0.3122105 -57.93  0.002097797    1.780    0.438
       191 -10.4603    131.7306    240.9823   6.3724766775e+01   7.3311082428e+00    0.1719571    0.1436636  28.18 0.0008130518    1.066    0.062
       192 -12.5857    125.5234     27.5500   1.4835980969e+01   4.9813876613e+01    0.4632111    0.3621987 -77.02 0.0008259306    1.401    0.286
       193 -11.0458    188.7038     27.4868   5.5334705277e+00   3.3609348331e+01    0.3224741    0.2744382  52.76   0.00134066    1.354    0.261
       194 -10.0839     98.0036     27.8102   2.1442113742e+01   5.6793354261e+01    0.3740844    0.2104898 -32.46  0.001624185    1.911    0.477
       195 -10.3282    229.9908     27.0923   1.7293224961e+00   2.4315385981e+01     0.231285    0.1666211  67.23  0.001226718    1.528    0.345
       196 -11.2201    183.0872     25.5156   5.6106708710e+00   3.5211778695e+01    0.2978624    0.2331586 -64.62  0.001053888    1.164    0.141
       197 -10.8608    144.7142     25.7340   1.0765379026e+01   4.4999163452e+01    0.3987315    0.1668759  79.10  0.001391477    2.948    0.661
       198 -10.8308    154.9071     22.5260   8.2161787360e+00   4.2703919483e+01    0.4208726    0.2409323 -27.97  0.001980553    1.903    0.475
       199 -10.3777     59.9551     22.5715   3.2270758112e+01   6.6063329558e+01    0.3292097    0.1880825 -31.67  0.001537478    1.836    0.455
       200 -10.7311     38.7394     22.0633   4.2576790023e+01   6.9934686000e+01    0.2594869    0.2245212 -16.69 0.0006124004    1.118    0.106
       201 -10.5889     67.4943    240.9908   7.7539666314e+01   1.6073264352e+01    0.2137825    0.1542202  22.40 0.0006976887    1.487    0.328
       202 -11.5918    135.6702     22.2608   1.1084232677e+01   4.7769155566e+01    0.6142398    0.2332708  69.95  0.002257001    2.531    0.605
       203  -9.2166     85.9627     23.7715   2.3227158804e+01   6.0209610586e+01    0.1780019    0.1070884  53.80 0.0002013577    1.498    0.332
       204  -9.6711     13.9531     22.6765   5.8765229713e+01   7.2913562010e+01    0.1694099    0.1381407  -0.26 0.0003670195    1.143    0.125
       205 -10.9241    178.6502     20.9488   4.8392923831e+00   3.6828321170e+01    0.4870877    0.2184513  46.92  0.001967756    2.858    0.650
       206 -10.6709     72.3536    238.1177   7.6257973393e+01   1.5983568656e+01    0.2989758     0.214899  26.50  0.001861213    1.372    0.271
       207 -10.9418    147.1176    238.5262   6.0192164006e+01   5.5265536871e+00    0.3146391    0.2525674  63.93  0.001986866    1.757    0.431
       208  -9.6615      5.5755     22.4642   6.4736157602e+01   7.3616138766e+01    0.2132621    0.1498155 -26.08 0.0001402734    1.222    0.181
       209 -10.8503      8.8819     19.8834   6.1168109597e+01   7.3880454392e+01    0.2373944    0.1579251 -24.57            0    1.330    0.248
       210  -9.2591     15.6606    233.6600   8.8079523559e+01   2.3289461288e+01    0.1002183   0.08613677 -34.81  0.000705012    1.766    0.434
       211  -9.9126    248.6091    224.1612   3.9159756448e+01  -5.8794095002e+00    0.1560313   0.08108681 -19.37 0.0009462657    1.716    0.417
       212  -9.2816    120.6981    223.3416   6.3939671744e+01   1.1932788201e+01       0.1312   0.09084107  57.86 0.0007038317    1.675    0.403
       213 -10.1082    216.6843     20.0070   1.1292015280e+00   2.7980917637e+01    0.1790735    0.1390038 -53.17 0.0004455723    1.108    0.098
       214  -9.4085     44.5454    215.4793   8.0738530512e+01   2.3863006702e+01    0.1254889    0.1026503  54.45 0.0003676895    1.026    0.025
       215  -9.9066     46.5192     20.0245   3.7289348272e+01   6.8958255451e+01    0.2394779    0.1804525  50.94  0.001014244    1.558    0.358
       216  -9.4507    164.4840    211.5387   5.2652567022e+01   7.2632231646e+00    0.1323394    0.1102108  19.68 0.0001724055    1.014    0.013
       217  -9.4888     79.0742    204.7309   7.1491580683e+01   2.1696823527e+01    0.3229604    0.1719017  86.12  0.001115401    2.964    0.663
       218  -9.8554     74.7610     19.2607   2.4816117508e+01   6.3352610742e+01    0.1933378    0.1452827  24.07 0.0007300716    1.353    0.261
       219 -11.4826      5.3840    200.8180   8.8955677594e+01   3.0964982333e+01    0.4937745    0.1104926 -60.83  0.001747903    5.093    0.804
       220  -9.4864    135.2945    196.6758   5.6776262574e+01   1.4609071951e+01    0.1355148     0.104476  62.91 0.0002679794    1.620    0.383
       221  -9.4751     15.3147    189.6452   8.6045083704e+01   3.2561109454e+01    0.1400472   0.07034619  59.52 0.0002013607    1.740    0.425
       222  -9.8698    238.0592     16.4996   3.5886991918e+02   2.3848610848e+01    0.1680659    0.1060779  84.69  0.001025516    1.568    0.362
       223 -11.0135    228.8000     15.8290   3.5931771727e+02   2.5831185998e+01    0.2294807    0.1856607 -66.14 0.0004929998    1.034    0.032
       224 -12.9208      4.5656    183.4506   8.8374207442e+01   3.4894653469e+01    0.7197796    0.3603119  86.89  0.003785624    1.814    0.449
       225  -9.9869    211.0547     16.0566   6.3035453654e-01   2.9669596595e+01    0.1875826    0.1526012 -64.81 0.0003102087    1.019    0.019
       226  -9.5764     28.0213    175.9997   8.1860250084e+01   3.4516552418e+01    0.1617763    0.1357961  75.28  0.000522829    1.048    0.046
       227 -10.7533     16.0069    174.4635   8.4945368499e+01   3.6017873358e+01    0.2651835    0.1508183  75.16  0.001386579    1.639    0.390
       228 -12.4065      8.9910    166.8696   8.6338700831e+01   3.8418784537e+01    0.5324501     0.257094  34.89   0.00246668    1.900    0.474
       229 -13.4703     13.0085    159.8472   8.4771905278e+01   3.9793962937e+01     0.836332    0.5244694 -72.75  0.004618888    1.484    0.326
       230 -12.9458     22.8896    148.6501   8.0967802130e+01   4.1729058386e+01    0.5763635    0.3214507 -43.40  0.001597054    2.196    0.545
       231 -11.1480     16.8079    147.8710   8.2737495028e+01   4.2450586145e+01    0.2752035    0.2162188 -85.46 0.0004206539    1.141    0.123
       232 -10.6021    205.1776    163.4858   3.5750502417e+01   8.6210139577e+00    0.2432159    0.1749259 -31.29 0.0007481276    1.306    0.234
       233 -10.6404     28.3863    161.3997   8.0522301098e+01   3.8024552269e+01    0.2530857    0.2052744 -78.27  0.001287677    1.183    0.155
       234 -10.4352     31.8028    157.2443   7.9135575288e+01   3.8714269353e+01    0.2741994    0.1426281  83.00  0.001206428    2.120    0.528
       235  -9.6613    104.4059    155.2015   5.7512559871e+01   2.8880933976e+01    0.2111428    0.1478845 -71.12 0.0009559723    1.692    0.409
       236 -10.8896      4.2110    153.6550   8.6853262242e+01   4.1980289165e+01    0.2763515    0.1205292  36.86  0.001106826    2.096    0.523
       237  -9.1963     55.6704    152.6975   7.1442913072e+01   3.7094633300e+01    0.1417727    0.1092083 -29.39 0.0007033899    1.649    0.393
       238 -11.2767     46.8005    147.5760   7.3479948424e+01   3.9501087844e+01    0.6790736    0.3837802 -48.05  0.003066951    1.969    0.492
       239 -12.4785      4.5096    143.2357   8.6085820549e+01   4.4532476421e+01    0.7853847    0.3582514  55.16   0.00258396    2.121    0.529
       240  -9.9849    104.0880    147.1524   5.6052374860e+01   3.0840617735e+01    0.2173925    0.1991447   5.28            0    1.197    0.165
       241 -10.8036     33.0529    144.4700   7.7396454145e+01   4.1816320834e+01     0.272109    0.2442143  59.44 0.0007582422    1.077    0.072
       242 -10.4239     40.6957    139.0042   7.4283661663e+01   4.2405196641e+01    0.4156237    0.2283688 -70.13  0.001641577    1.727    0.421
       243 -11.5747     80.4179    138.7314   6.1499221034e+01   3.7002983794e+01    0.2808463    0.2489135  44.98 0.0003283781    1.092    0.084
       244 -11.3498     30.1526    132.7245   7.6940285220e+01   4.5125068207e+01    0.5218632    0.4049107  -6.76  0.001988059    1.617    0.382
       245 -11.6443     23.6602    137.0968   7.9570682289e+01   4.4599989044e+01    0.4266295    0.3811642  27.88  0.001282366    1.235    0.190
       246 -10.1526     20.4892    134.4692   8.0322125682e+01   4.5547548883e+01    0.2710791    0.2093763 -57.95  0.001225107    1.295    0.228
       247 -12.2667     12.2604    135.4532   8.3072345167e+01   4.5944911368e+01    0.6953395    0.3321504 -59.26  0.003264432    1.955    0.488
       248  -9.6851     32.0435    137.5150   7.6902833224e+01   4.3702887598e+01    0.1965772    0.1349047  27.34 0.0004364627    1.534    0.348
       249  -9.7319     73.3180    133.3194   6.2730215064e+01   3.9502095782e+01    0.1530724    0.1167953 -24.31 0.0004812646    1.661    0.398
       250 -11.3207      9.7465    127.0460   8.3134963084e+01   4.8264176024e+01    0.3979632       0.2355 -37.08  0.001985974    2.028    0.507
       251  -9.8370     33.3644    126.1378   7.4990741579e+01   4.6516633229e+01    0.2038928    0.1233965 -86.40 0.0007878455    1.718    0.418
       252 -10.4198      2.0183    125.8306   8.5592968712e+01   4.9059118019e+01    0.2417625    0.1660198 -86.16   0.00122219    1.266    0.210
       253 -11.0361    104.1971    122.5400   5.0674422723e+01   3.6702492800e+01    0.3615378    0.3239244  47.28  0.001113775    1.091    0.083
       254  -9.0349     85.0065    123.2009   5.6856706429e+01   4.0115166255e+01    0.1908593    0.1204342  35.96            0    1.567    0.362
       255  -9.2663     26.5248    127.5037   7.7518258520e+01   4.6816357295e+01    0.1371211    0.1241274 -85.78 -5.878732e-06    1.011    0.011
       256  -9.5532     56.0516    121.7834   6.6370442668e+01   4.4982823255e+01    0.1938587    0.1181428  31.40 0.0006745448    1.665    0.400
       257 -11.7712    245.8568    118.2473   1.9931956597e+01   8.8231268028e+00    0.4158527    0.2101031 -57.32   0.00171797    3.425    0.708
       258  -9.8872     44.5384    120.0238   7.0126396856e+01   4.6892165196e+01    0.2332821    0.1891396  67.08 0.0005766201    1.278    0.218
