#   1 NUMBER                 Running object number                                     
#   2 MAG_AUTO               Kron-like elliptical aperture magnitude                    [mag]
#   3 X_IMAGE                Object position along x                                    [pixel]
#   4 Y_IMAGE                Object position along y                                    [pixel]
#   5 X_WORLD                Barycenter position along world x axis                     [deg]
#   6 Y_WORLD                Barycenter position along world y axis                     [deg]
#   7 A_WORLD                Profile RMS along major axis (world units)                 [deg]
#   8 B_WORLD                Profile RMS along minor axis (world units)                 [deg]
#   9 THETA_WORLD            Position angle (CCW/world-x)                               [deg]
#  10 FWHM_WORLD             FWHM assuming a gaussian core                              [deg]
#  11 ELONGATION             A_IMAGE/B_IMAGE                                           
#  12 ELLIPTICITY            1 - B_IMAGE/A_IMAGE                                       
         1 -10.9408     86.4450     22.2620   3.3540543173e+01   5.8640008011e+01    0.5184019    0.2857338 -57.20  0.002008352    4.680    0.786
         2  -9.6586    138.7302     22.0198   2.1566859018e+01   4.7279148149e+01      0.17257    0.1491765  60.74 0.0003441687    1.030    0.029
         3 -11.4998     20.7543     17.2394   5.6688669499e+01   6.9391845483e+01     0.376164    0.2582774   4.12  0.002353658    1.159    0.137
         4 -10.9684     49.5618     13.6875   4.2465612649e+01   6.6040556486e+01    0.2899058    0.2091429  13.22  0.001217237    1.134    0.118
         5 -10.7242     45.6470     12.0397   4.3295621273e+01   6.6806790274e+01    0.2402009    0.1692934  12.11   0.00071466    1.163    0.140
         6 -10.5462     66.0222     16.1513   3.7533118852e+01   6.3070117544e+01    0.2247916    0.1676105  16.43 0.0002923082    1.167    0.143
         7 -10.8190      6.4039     14.8839   6.2974039060e+01   7.1046324882e+01    0.2292596    0.1597925 -40.21  0.001157639    1.634    0.388
         8 -10.2105    204.1260     13.6959   1.0832917417e+01   3.3085245866e+01     0.186654    0.1600943 -61.94 0.0003172084    1.229    0.186
         9 -10.2877     34.7399     13.4276   4.8500252086e+01   6.8193442050e+01    0.2059701    0.1584917  -4.81 0.0006039132    1.139    0.122
        10 -10.7974     79.5158     12.0234   3.1690672825e+01   6.0971443786e+01    0.2242722    0.2090152 -24.09 0.0007248054    1.363    0.266
        11 -10.6800     74.4958      9.0004   3.1990309453e+01   6.2190091243e+01    0.2885376    0.1732891  11.43  0.001642225    1.860    0.462
        12 -10.1188     77.7070      7.6785   3.0536808578e+01   6.1691684964e+01    0.2556111     0.139043  30.79 0.0007258859    1.709    0.415
        13 -10.3912     32.4820     10.4966   4.8189489238e+01   6.8815761971e+01    0.2954498    0.1509765 -31.09  0.001763851    1.990    0.497
        14  -9.6188     27.8847     11.6306   5.0801479498e+01   6.9267978048e+01    0.1877549    0.1238286  -9.08 0.0007020006    1.285    0.222
        15 -10.6706    104.8174      9.9986   2.4542572711e+01   5.5977524215e+01    0.2432102    0.2374886 -53.08 0.0009044697    1.271    0.213
        16 -11.7158     56.3169      8.9246   3.7904341727e+01   6.5423858931e+01    0.4057476    0.2682755  26.21  0.001568192    1.226    0.184
        17 -10.1997    213.5178      8.2567   8.8561996869e+00   3.1616755670e+01    0.2133083     0.149251  70.53 0.0006105943    1.335    0.251
        18 -11.2973     97.5208      6.7881   2.5094889451e+01   5.7782393794e+01    0.4082776    0.2631331 -53.49  0.001503741    2.328    0.570
        19 -10.3980     69.8934      8.0025   3.2993278660e+01   6.3129749205e+01    0.2715566    0.1632913  -8.06  0.001578454    1.844    0.458
        20 -10.5327      3.5937      8.4672   6.1682978568e+01   7.2130796356e+01    0.1988287    0.1585936 -14.33 0.0008191476    1.304    0.233
        21 -12.0288     86.9817      6.4722   2.7560737286e+01   5.9968612043e+01    0.5018096    0.2490256  34.03  0.001678643    1.915    0.478
        22  -8.9945     40.3103      8.3061   4.3817061544e+01   6.7971623159e+01    0.1188907   0.06947248  12.74 0.0004090761    1.615    0.381
        23 -11.6391    173.9815      3.1078   1.1614090584e+01   4.0912322916e+01    0.4332921    0.2256813 -70.26  0.001495539    2.236    0.553
        24  -9.9295    178.5331      1.5057   1.0749543929e+01   4.0022338653e+01    0.1726912    0.1260099  50.68  0.000604926    1.524    0.344
        25 -11.3477    123.6770      6.3324   1.9604866165e+01   5.2131704054e+01    0.2681673    0.1966078  70.56 0.0004936727    1.229    0.186
        26  -9.0569    129.3359      6.6481   1.8711702072e+01   5.0832131594e+01    0.1252678   0.08714856 -74.85 0.0007045395    1.790    0.441
        27 -10.3795    242.9497      5.4999   6.0742656578e+00   2.5832972105e+01    0.1610364   0.08994615  81.51 0.0006711088    1.520    0.342
        28 -10.0866    203.3084      4.6481   9.0217942592e+00   3.4201479306e+01    0.1959477    0.1478781  76.27 0.0005835078    1.178    0.151
        29  -9.0770    134.7585      3.9927   1.7050763772e+01   4.9815506170e+01     0.159176    0.1321087 -85.67 0.0003783327    1.270    0.212
        30 -10.0361    131.2061      3.2690   1.7410628382e+01   5.0677401012e+01    0.2211517    0.1572768  62.59 0.0005953806    1.126    0.112
        31 -10.5871     20.3582      3.4138   5.0577233024e+01   7.1074208541e+01    0.2242626    0.1510437  -0.75 0.0008269655    1.146    0.128
        32 -10.4691    184.6572      2.3201   1.0300574828e+01   3.8566931049e+01     0.195938    0.1143296 -71.66  0.001101496    1.728    0.421
        33 -11.2980    114.2487      1.8185   1.9933175104e+01   5.4567177412e+01    0.4108956    0.1422327  62.04  0.001153629    2.268    0.559
        34 -10.1428     37.8597      1.7611   4.1839848995e+01   6.8953330464e+01    0.2547073    0.1245785  36.82  0.001148875    1.691    0.409
        35  -9.1006    229.9554      1.7587   6.3138488082e+00   2.8846670546e+01    0.1459031   0.07764284  78.33 0.0007294171    1.575    0.365
        36  -8.9056     79.3332      1.2946   2.7622016543e+01   6.1874417067e+01    0.1267218   0.06850912  33.59 0.0007026447    1.640    0.390
        37  -9.0297    108.6584     89.3201   4.9220142268e+01   4.3979630663e+01    0.1500315    0.1214607  86.50  0.000393867    1.719    0.418
        38  -9.3912     12.4492     85.5195   8.1850361795e+01   5.7864163762e+01    0.1270824    0.0986499 -43.64 0.0001339369    1.025    0.024
        39  -9.3902      6.6339     85.7038   8.4050296826e+01   5.8169206678e+01    0.1338905     0.069284 -35.94 0.0007030816    1.721    0.419
        40  -8.9916     46.6586     81.2526   6.7835243753e+01   5.5719414627e+01    0.1201632     0.103978  57.43 0.0002670308    1.576    0.366
        41 -11.6451     54.7953     78.9313   6.4124567178e+01   5.5188962357e+01    0.2716034    0.2453831 -25.42 0.0004024468    1.092    0.084
        42  -9.8322      5.8902     80.1145   8.3176660410e+01   5.9414720700e+01    0.1676187    0.1456469 -62.94 0.0003368926    1.238    0.192
        43 -10.1022    136.6962     79.0192   3.8657435449e+01   3.9815918653e+01    0.2002749    0.1937379  58.86  0.000494751    1.023    0.023
        44  -9.0378    215.8700     78.3818   2.3530798637e+01   2.1605031136e+01    0.1680682     0.123614  52.78 0.0001152302    1.514    0.339
        45  -9.4470     77.8755     78.1036   5.5617024817e+01   5.1911440490e+01    0.1893226    0.1518121  -9.86  0.001020976    1.257    0.204
        46  -9.5243    125.9971     76.9896   4.0762005299e+01   4.2594855208e+01    0.2356227     0.176447  18.43 0.0005741259    1.628    0.386
        47 -10.4083      2.4622     75.3225   8.3476303330e+01   6.0606517136e+01    0.2546807    0.1534104 -32.80  0.001191344    1.439    0.305
        48  -9.2545     76.8128     71.1845   5.3808629586e+01   5.3392831064e+01    0.1937831    0.1510001  -1.46 0.0006077814    1.318    0.241
        49  -9.6710     63.9501     69.4697   5.7835347764e+01   5.5747818707e+01    0.1913761    0.1633738 -21.57  0.000309715    1.074    0.068
        50  -9.3231     34.2954     69.6601   6.9334188522e+01   5.9403555101e+01    0.1137035     0.102225  82.81 0.0007030721    1.657    0.396
        51 -10.3582      7.9782     68.8538   7.9802468212e+01   6.1642051450e+01    0.1911108    0.1404126 -46.00  0.000313248    1.102    0.092
        52  -9.4882     83.3143     68.0669   5.0599227970e+01   5.2827630528e+01    0.1884741    0.1667585 -17.97 0.0002845805    1.095    0.087
        53  -9.9362    152.0086     66.2609   3.1573744997e+01   3.8391978172e+01    0.2435091    0.2095886 -41.50 0.0005818703    1.232    0.188
        54  -9.1078    192.0470     65.7175   2.4167017261e+01   2.9018401522e+01    0.1856264    0.1599253  80.07 0.0002842538    1.080    0.074
        55  -9.1529    203.6298     65.2727   2.2322221357e+01   2.6432270490e+01    0.1440893   0.09561612 -78.48 0.0007001209    1.676    0.403
        56 -10.1566      4.2254     64.1629   8.0200256052e+01   6.2795841158e+01    0.2196695    0.1444499 -33.04 0.0006534954    1.229    0.186
        57 -10.9262      3.4723     59.3174   7.9298146086e+01   6.3789542430e+01    0.3241176    0.2087577 -28.02   0.00115215    1.298    0.230
        58  -9.0691    126.5025     64.5973   3.6925696852e+01   4.4572892957e+01    0.1434083    0.1316898  47.25 0.0001564007    1.025    0.025
        59 -10.1872     85.4000     62.7755   4.8173675314e+01   5.3360892925e+01     0.349627    0.2075045 -22.55  0.001610568    1.979    0.495
        60  -9.4979     75.1288     64.5341   5.2228793018e+01   5.4865047959e+01     0.196923    0.1273336  36.70 0.0007316176    1.512    0.338
        61 -10.6304     98.9761     61.3081   4.3431608240e+01   5.0992517780e+01    0.3776633    0.2778021 -67.70   0.00182602    2.140    0.533
        62 -10.1020     43.4045     62.4206   6.3464005582e+01   5.9793675414e+01     0.226097    0.2095624  -6.04 0.0008793737    1.219    0.180
        63  -9.8176    115.4104     61.5426   3.8850825395e+01   4.7514227852e+01    0.2998223    0.2197247  80.58  0.001425207    1.988    0.497
        64 -10.0014    231.2908     60.9278   1.7789260889e+01   2.1059970974e+01    0.1862249    0.1506637 -58.02  0.001157249    1.116    0.104
        65 -10.0710     35.2045     60.8638   6.6306695173e+01   6.0994247593e+01    0.2250074    0.1593448   6.55 0.0004437557    1.379    0.275
        66 -10.5009     13.9100     60.6301   7.5194626456e+01   6.2891764088e+01    0.3140844    0.1887617 -37.92   0.00188837    1.316    0.240
        67 -10.4832     58.5005     59.3675   5.6550417711e+01   5.8359956306e+01    0.4439664     0.224397  18.19  0.001918054    2.522    0.603
        68 -10.6254     63.4415     53.0794   5.2525566193e+01   5.8672415793e+01      0.42877    0.2051857 -43.92  0.001979889    2.263    0.558
        69 -10.5639     21.9816     58.4756   7.1128381894e+01   6.2684228718e+01     0.264812    0.1514045 -43.06 0.0004692098    1.445    0.308
        70  -9.9107     78.3739     55.8165   4.8169181087e+01   5.5760381653e+01    0.2436379    0.1757014  34.75 0.0006967594    1.303    0.232
        71  -8.9806    133.2670     55.3463   3.2526152148e+01   4.4443927720e+01    0.1399124    0.1060247  19.40 0.0002341036    1.612    0.380
        72 -10.5625     72.1012     52.4717   4.9177977791e+01   5.7368586683e+01    0.2317545    0.1968676 -23.13 0.0006264169    1.189    0.159
        73 -10.1290     23.0775     51.0093   6.8326178527e+01   6.3954569039e+01    0.2817021    0.1078026 -31.51   0.00122511    2.707    0.631
        74  -8.7975    111.5211     51.4754   3.6683988630e+01   4.9868584379e+01    0.1426001    0.1210192  27.92 0.0001975066    1.127    0.113
        75  -9.3883    145.5031     49.9980   2.8328777617e+01   4.2348008763e+01    0.1885549    0.1394547 -34.29 0.0003587737    1.493    0.330
        76 -11.8766     94.0468     48.5744   4.0656407041e+01   5.3909151180e+01    0.2426951    0.2107662  -1.52 0.0001276937    1.142    0.124
        77  -9.0570    172.3454     48.2948   2.2990367115e+01   3.6213184824e+01    0.1370677    0.1001401  37.80 0.0007031598    1.668    0.400
        78  -9.2418     67.1715     48.1796   4.9414715143e+01   5.8846335878e+01    0.1645066    0.1537392  34.88 0.0007405612    1.331    0.248
        79  -9.7168     34.8593     47.9071   6.2156142880e+01   6.3320355994e+01    0.2468649    0.1530787 -29.82  0.001437852    1.408    0.290
        80 -10.6284     37.8318     43.6914   5.9380297838e+01   6.3671737486e+01     0.325406    0.2358904  27.60  0.002057461    1.445    0.308
        81 -10.2318     32.7788     43.6489   6.1548197830e+01   6.4250866097e+01    0.3415901    0.1433378  35.25  0.001644235    2.622    0.619
        82  -9.8949      6.5845     45.5832   7.4045362766e+01   6.6170080685e+01    0.3003651    0.1488332 -28.57  0.001518744    1.728    0.421
        83 -10.8300    118.8510     42.6527   3.1999239054e+01   4.9458189735e+01    0.3045128    0.2236761 -32.47 0.0004768278    1.510    0.338
        84  -9.1350     20.4277     44.5351   6.7363041062e+01   6.5313821986e+01    0.1194936    0.0924525 -20.14 0.0001538505    1.018    0.017
        85  -9.8153     44.9414     42.5699   5.5978840840e+01   6.2966509488e+01    0.1990365     0.145561 -11.55 0.0007205082    1.199    0.166
        86  -9.1887     71.4705     42.5445   4.5837577234e+01   5.8950936348e+01    0.1306684    0.1101583  13.02 -1.418944e-05    1.004    0.004
        87  -8.9283    151.7812     39.9572   2.4298353298e+01   4.2187687484e+01    0.1566953     0.112818 -31.93 0.0003626415    1.579    0.367
        88  -9.3002    134.4221     40.4589   2.7824135576e+01   4.6193909267e+01    0.1347537    0.1206143  56.92 6.357615e-05    1.011    0.011
        89  -9.0221    109.2570     39.3612   3.3317014520e+01   5.1979688370e+01    0.1349768   0.09517305  19.13 0.0003044141    1.624    0.384
        90  -9.6597     89.9661     38.8785   3.8508994918e+01   5.6027523912e+01    0.2005206      0.15418  20.08 0.0003622418    1.243    0.195
        91 -11.6609     38.1825     37.0782   5.6764381699e+01   6.4651485342e+01    0.5539266    0.2772549  19.19  0.002675657    2.076    0.518
        92  -8.8849     30.2298     39.3628   6.1112022256e+01   6.5211604150e+01      0.12322   0.07272036 -19.81 0.0003077119    1.583    0.368
        93  -9.3699     96.2458     38.0643   3.6390299605e+01   5.4873036859e+01    0.1750964     0.154331  29.25 0.0003807212    1.028    0.028
        94  -9.4640     56.3470     39.0000   5.0073021366e+01   6.1891514869e+01    0.2671665    0.0645633  39.16 0.0009319716    3.912    0.744
        95 -10.4866     20.4786     35.6372   6.4190312695e+01   6.6769936401e+01    0.2511578    0.2214803  13.21  0.001677525    1.426    0.299
        96 -10.1936     17.5984     31.4309   6.3981018328e+01   6.7686773302e+01    0.1981013    0.1463567 -14.74 0.0004779164    1.019    0.019
        97  -9.2088     13.2980     37.3399   6.8188605782e+01   6.7108633474e+01    0.1403059   0.09869887  18.37 0.0005123206    1.498    0.333
        98  -9.6747     13.3143     34.3428   6.7114698577e+01   6.7594001103e+01    0.1928952   0.08341397 -40.58 0.0007588354    1.893    0.472
        99  -8.8653     82.0000     35.8984   3.9893090136e+01   5.7939223711e+01    0.1864671   0.07192476 -31.72 0.0003816392    2.788    0.641
       100  -9.1624    157.8271     35.1453   2.1933564152e+01   4.1348318306e+01    0.1764923    0.1462487  41.91 0.0003817659    1.312    0.238
       101  -9.0380    119.6584     35.2871   2.9469664470e+01   5.0186885149e+01    0.1296213    0.1017106 -87.16 0.0007020177    1.642    0.391
       102 -10.5207     50.3028     32.7248   5.0024819787e+01   6.3653470891e+01    0.3671286     0.210796  38.55  0.001393368    1.743    0.426
       103  -9.1264    174.4304     34.5288   1.9186088441e+01   3.7502618316e+01    0.1328728    0.1128207  88.17 0.0008052173    1.055    0.052
       104  -9.4126     92.5646     33.3153   3.5776174815e+01   5.6197238397e+01    0.1676495     0.120011  -6.37 0.0009393957    1.562    0.360
       105  -9.9793     83.3275     31.4600   3.7853161337e+01   5.8229030499e+01    0.4059907    0.1539412  39.52  0.001402862    2.421    0.587
       106  -9.2348    154.0034     31.6064   2.1616243714e+01   4.2667877363e+01    0.2050022    0.1122601  62.68 0.0006166604    1.577    0.366
       107 -10.2102      3.7946     31.2181   7.0655572538e+01   6.8792085251e+01    0.1862112    0.1312292  17.99 0.0004997927    1.561    0.359
       108  -9.8164    104.1331     28.7455   3.1066150392e+01   5.4322482010e+01    0.2421315    0.1718435 -43.21  0.001057678    1.726    0.421
       109  -9.7075     64.8751     30.0979   4.3468663402e+01   6.1712362476e+01    0.1760911     0.162578  14.64   0.00120927    1.262    0.208
       110  -9.1267     59.4464     29.4837   4.5209263644e+01   6.2679541256e+01    0.1724699    0.1073068 -13.47 0.0004273403    1.678    0.404
       111  -9.8587     60.8273     25.6091   4.3161362079e+01   6.2925261058e+01    0.1978098    0.1435825  -2.58 0.0005782644    1.305    0.234
       112  -9.6274    153.1248     27.7969   2.0725552564e+01   4.3305141816e+01    0.1913768    0.1540115  80.87 0.0002995612    1.162    0.139
       113  -9.8425      6.5104    226.5515   1.0017432733e+02   2.5125616679e+01    0.1196698   0.08945376  78.00 -7.040058e-05    1.019    0.019
       114  -9.3976     42.0910     28.3692   5.1663442297e+01   6.5380483064e+01    0.1659372    0.1271321  11.07 0.0005221204    1.080    0.074
       115  -9.7733    221.9713     27.7391   1.1995898190e+01   2.7578596767e+01    0.1545777   0.09172385  74.56 0.0005335415    1.510    0.338
       116  -9.9048    160.7821     27.0994   1.9323426965e+01   4.1581288961e+01    0.1912149    0.1568485 -84.84 0.0005001533    1.195    0.163
       117  -9.5628    119.9940     26.0142   2.6454073229e+01   5.1145548021e+01    0.2267724    0.1371702  31.33  0.001144854    1.870    0.465
       118  -8.8886     32.3354     26.3158   5.5083910678e+01   6.6889778490e+01    0.1244137   0.07395289  -3.14 0.0005011324    1.693    0.409
       119 -10.1211    110.5708     24.6174   2.8117308355e+01   5.3374448488e+01    0.2443458    0.1779691  58.39  0.001428835    1.247    0.198
       120 -12.3647     96.7007     22.0863   3.0672508454e+01   5.6583256365e+01     0.362774    0.2538182  65.14 0.0005603063    1.581    0.367
       121  -9.6626    239.4778     24.1256   9.7214870363e+00   2.4373631617e+01    0.1720677    0.1267224 -84.20 0.0005035726    1.101    0.092
       122  -9.0153    170.0326     24.0292   1.7186357681e+01   3.9749194124e+01    0.1546413     0.126815  76.71 0.0003497641    1.029    0.029
       123  -9.1613    128.5789     24.4540   2.4193669870e+01   4.9365647687e+01    0.1296481     0.111024  55.56  9.04684e-05    1.010    0.010
       124  -9.2272     49.5101     24.1049   4.6870887805e+01   6.4874961422e+01    0.1573878    0.1059475 -21.21 0.0003307919    1.434    0.303
       125  -9.1678    245.9658     23.0352   8.9942307956e+00   2.3207247270e+01    0.1409565    0.1058093 -73.99  0.000415768    1.007    0.007
       126 -10.6190     38.3714     22.6688   5.0903519187e+01   6.6611487180e+01    0.2164347    0.1529874   5.35  0.000397157    1.170    0.145
       127 -10.1915      2.7742     23.4042   6.8309934720e+01   7.0086145103e+01    0.1872494    0.1119023  -3.14  0.001248273    1.465    0.318
       128  -9.6037      2.7748    196.6774   9.8882851389e+01   3.2183356447e+01    0.1543849   0.09548621  46.49 0.0003054022    1.623    0.384
       129 -10.6545     29.9716     20.5781   5.3762532570e+01   6.7928446168e+01    0.3814648    0.1638913  23.44  0.001949902    2.306    0.566
       130  -9.5269    238.5094    194.5146   4.4431055334e+01  -4.0512324473e+00    0.1336921    0.1141121 -21.17 0.0008101792    1.036    0.034
       131 -11.1293     12.4695     17.9443   6.1122740041e+01   7.0107055508e+01     0.498231    0.1877483  15.99  0.002397706    3.008    0.668
       132  -9.1874     66.4949     20.5790   3.9149112126e+01   6.2529836919e+01    0.1235113   0.09798548  23.15 8.714107e-05    1.013    0.013
       133  -9.0659    109.5134     19.5120   2.6670702815e+01   5.4112911140e+01    0.1282081     0.107559  47.95 0.0004977624    1.014    0.013
       134  -9.8176     48.1010     18.8770   4.5253173336e+01   6.5698324361e+01    0.2122165    0.2003395 -69.67  0.001496222    1.899    0.473
       135  -9.7014    244.0044    179.9512   4.0594287189e+01  -2.3144537517e+00    0.1976856    0.1612529 -67.13 0.0009457874    1.707    0.414
       136  -9.2122     20.9414    175.2185   9.2809030255e+01   3.5719182138e+01    0.1508615    0.1048821  33.23 0.0005083301    1.640    0.390
       137  -9.6136     70.4983     18.3457   3.6925899024e+01   6.2052638417e+01    0.2031047    0.0990657  47.26 0.0006924222    1.807    0.447
       138  -9.6669     16.4939    157.4811   9.1966949761e+01   4.0484139170e+01     0.131415    0.1078663 -78.03 -3.838884e-05    1.015    0.015
       139  -9.6304     72.8867     22.5037   3.7775944788e+01   6.1185843420e+01    0.1808916    0.1054978  44.22  0.000603839    1.497    0.332
       140  -9.5453      3.2157    156.5777   9.5300710029e+01   4.1708568818e+01    0.1456401     0.120167 -17.56  0.000488476    1.585    0.369
       141 -10.3207    183.3325     14.9126   1.3305559474e+01   3.7638515694e+01     0.214796    0.1436096  86.56 0.0005921797    1.321    0.243
       142  -9.7607     85.3040     15.6080   3.1400706833e+01   5.9516817760e+01    0.3120826    0.0940094  51.48  0.001286837    2.649    0.622
       143  -9.4415      8.0278    150.4690   9.3398587873e+01   4.2857499402e+01    0.1699543    0.1280856  23.64  0.001046518    1.637    0.389
       144  -9.9155    127.7186     14.0726   2.1214950420e+01   5.0563822928e+01    0.2608842    0.1468265  54.42 0.0006906228    1.449    0.310
       145  -9.4315     93.6976     14.1528   2.8631174273e+01   5.7956996582e+01    0.2448709    0.1374165  67.64  0.001222439    2.152    0.535
       146  -9.5637     24.7223    146.3998   8.8318475895e+01   4.2538561155e+01    0.2278554    0.1231572  30.64  0.001129379    2.088    0.521
       147 -10.0572      6.8324    142.3934   9.2787173742e+01   4.4909762166e+01     0.245612   0.08146103 -74.05  0.000633097    2.629    0.620
       148  -8.6106     28.3556    138.3037   8.6093909054e+01   4.4232727198e+01    0.1414317   0.08814771 -38.63 0.0007039768    1.713    0.416
       149 -10.0704     11.0424    133.5432   9.0478682400e+01   4.6776880108e+01    0.2075308    0.1436598 -68.34 0.0006512958    1.172    0.147
       150  -9.8721     17.8395    131.6391   8.8212156244e+01   4.6748991464e+01    0.2413637    0.1434592 -57.78  0.001023018    1.369    0.269
       151  -9.0788     39.3498    125.2676   8.0522037576e+01   4.6409039018e+01    0.1404751   0.09413446 -31.82 0.0006988797    1.620    0.383
       152  -9.8939    192.4966     11.5052   1.1531541662e+01   3.5908959826e+01    0.1245253   0.09799187 -88.39 -0.0001608265    1.037    0.036
       153  -9.0572    162.5124     11.5574   1.5069099403e+01   4.2772587325e+01    0.1263994    0.1026851  78.86 5.394466e-05    1.028    0.027
       154  -9.5269      6.6477    121.5831   9.0131625340e+01   4.9942201974e+01    0.1422152     0.118471  39.64 0.0009211233    1.457    0.314
       155  -9.8065    103.0878    119.9529   5.9274602709e+01   3.8397635940e+01    0.2218041    0.2173365 -21.62 0.0002921812    1.015    0.015
       156  -8.9778     53.5422    117.4217   7.4346564611e+01   4.6738863788e+01     0.140661    0.1269568 -46.08 0.0001322541    1.014    0.013
       157  -9.7276     21.0720    116.3146   8.4767611485e+01   5.0212140873e+01    0.3239928    0.1262615 -51.70  0.001429751    2.021    0.505
       158  -9.5577     13.8128    117.4928   8.7286701673e+01   5.0456476244e+01    0.1628809    0.1286007  10.03  0.001009098    1.521    0.342
       159  -9.8934     79.7518    111.6184   6.4397293859e+01   4.4423879481e+01    0.5008628    0.1797012 -57.24  0.001594358    3.262    0.693
       160  -9.0841    152.8522    113.6417   4.4176164857e+01   2.9319984741e+01    0.2148831     0.146108  58.60 0.0003779653    1.605    0.377
       161 -10.8859     18.2388    108.3936   8.4297880915e+01   5.2297908141e+01    0.2298308    0.1814967 -53.41 0.0002817532    1.033    0.032
       162 -10.2480      2.1714    104.5636   8.8990175148e+01   5.4179375886e+01    0.2951016    0.1279854 -48.93  0.001359205    1.802    0.445
       163  -8.7822    108.2636    101.3059   5.2762327474e+01   4.1583464691e+01    0.1502239    0.1177118  -9.15 0.0002136955    1.526    0.345
       164  -9.3471     49.8435    101.1392   7.1859040460e+01   5.1007322101e+01    0.2048914    0.1459368 -31.13 0.0005715491    1.364    0.267
       165 -10.0907     26.5833    100.8263   7.9963751092e+01   5.3407816167e+01    0.3152109    0.1749814 -19.60  0.001117776    2.233    0.552
       166  -8.6806    159.4630     98.4837   3.8687076378e+01   3.0897551023e+01    0.1527759    0.1465052 -86.43 6.464276e-05    1.030    0.029
       167  -9.9274    102.7220     96.6219   5.3103110704e+01   4.3668524442e+01    0.3222565    0.2349451 -11.26 0.0009429691    1.735    0.424
       168 -10.3549     63.9634     96.0098   6.5615799054e+01   5.0337685330e+01    0.3201626    0.2448991 -34.34   0.00142927    1.214    0.176
       169 -11.4323      3.9175     96.2426   8.7007468904e+01   5.5980764943e+01    0.2941148    0.1865457 -36.77 0.0009365422    1.429    0.300
       170 -10.8651     40.9217     95.2250   7.3593185995e+01   5.3335588556e+01    0.3595197    0.1629755  17.51  0.001518936    2.706    0.630
       171 -10.0103     20.0606     95.0477   8.1073270629e+01   5.5233266591e+01    0.1892442     0.150956  72.45  0.001129859    1.692    0.409
       172  -8.9306     89.8183     94.5805   5.6548941891e+01   4.6509916240e+01    0.1881841    0.1398942  45.87 0.0004267043    1.451    0.311
       173 -10.5547    132.4539     92.5275   4.3568427692e+01   3.8246870304e+01     0.319839    0.2766664  43.37 0.0006306953    1.133    0.117
       174  -9.7831     15.4523     93.5052   8.2411239583e+01   5.5905123715e+01     0.236306    0.1233925  16.44  0.001224146    2.213    0.548
