#   1 NUMBER                 Running object number                                     
#   2 MAG_AUTO               Kron-like elliptical aperture magnitude                    [mag]
#   3 X_IMAGE                Object position along x                                    [pixel]
#   4 Y_IMAGE                Object position along y                                    [pixel]
#   5 X_WORLD                Barycenter position along world x axis                     [deg]
#   6 Y_WORLD                Barycenter position along world y axis                     [deg]
#   7 A_WORLD                Profile RMS along major axis (world units)                 [deg]
#   8 B_WORLD                Profile RMS along minor axis (world units)                 [deg]
#   9 THETA_WORLD            Position angle (CCW/world-x)                               [deg]
#  10 FWHM_WORLD             FWHM assuming a gaussian core                              [deg]
#  11 ELONGATION             A_IMAGE/B_IMAGE                                           
#  12 ELLIPTICITY            1 - B_IMAGE/A_IMAGE                                       
         1 -11.0861    171.6890     30.7277   2.9008582546e+02   6.3510033121e+00    0.0391753   0.03333367  43.76  0.003016478    1.185    0.156
         2 -10.3760    175.2399     24.0275   2.9000201770e+02   6.4048403882e+00   0.02353095    0.0180598 -42.79  0.001205232    1.337    0.252
         3  -7.5274    186.3226      1.3360   2.8972915592e+02   6.5929205145e+00  0.007134567  0.004982327 -25.12 0.0003528151    1.712    0.416
         4  -9.5394    159.2264    235.7995   2.9152018494e+02   4.0990209119e+00   0.01449392    0.0104332 -46.58 0.0008836162    1.408    0.290
         5 -11.8169     12.1801    206.5637   2.9305645269e+02   5.3435553534e+00    0.1553977   0.09456989  20.58   0.01363669    1.730    0.422
         6 -13.3236     28.9649    224.7785   2.9297376508e+02   5.0325169529e+00    0.1315365     0.066202  13.27   0.01069135    2.669    0.625
         7 -13.0946     62.0238    223.2967   2.9257793972e+02   4.8446632688e+00   0.05189431   0.03436079  45.46    0.0010837    1.566    0.362
         8 -15.7227     53.8536    246.1035   2.9281582147e+02   4.6358599522e+00    0.3224735    0.2308777   2.98   0.01694993    1.639    0.390
         9  -9.3080    138.0588    229.7276   2.9172943309e+02   4.2996321395e+00   0.01423089    0.0107593 -51.41  0.000937923    1.326    0.246
        10  -9.7729    155.4532    228.4508   2.9151823890e+02   4.2060148829e+00   0.01948534   0.01222561  62.85  0.001808766    2.138    0.532
        11  -8.9070    151.5316    229.4906   2.9157055866e+02   4.2185787099e+00   0.01249497  0.008007484 -10.43 0.0008333355    2.173    0.540
        12  -9.2306    126.9932    227.3979   2.9184414323e+02   4.3948764450e+00     0.016115   0.01089487 -41.69  0.001662436    1.553    0.356
        13  -7.6482    116.2956    226.6684   2.9196458863e+02   4.4696200861e+00  0.006905315  0.005069004  64.52 0.0003286642    1.638    0.390
        14  -8.0037    142.7081    224.0531   2.9163958992e+02   4.3352460678e+00   0.01317051  0.006335534 -69.10  0.001084355    2.495    0.599
        15 -14.4089     30.7079    248.2235   2.9309958063e+02   4.7550218588e+00    0.1302025   0.06827194  52.37   0.01120635    2.379    0.580
        16  -8.8602     14.4712    215.4819   2.9308528634e+02   5.2279277653e+00   0.01941585   0.01149678  -3.63  0.001273066    2.571    0.611
        17  -8.0223      4.5083    250.0013   2.9341689777e+02   4.8967884688e+00  0.009757903  0.009000001  18.62 0.0006122486    1.071    0.066
        18  -7.9085    157.5040    213.4839   2.9140052743e+02   4.3633916109e+00  0.006635823  0.006448819  -2.06 0.0008103794    1.020    0.020
        19  -8.5072    167.5192    211.3981   2.9127045864e+02   4.3247943705e+00    0.0205398   0.01183528  79.30  0.001607262    3.202    0.688
        20  -7.6493    130.4901    207.0481   2.9167587981e+02   4.6045215331e+00  0.009354963  0.006579262 -59.66 0.0003560747    1.441    0.306
        21  -9.8381    123.9975    206.0033   2.9174522632e+02   4.6567489240e+00  0.009330533  0.009109592  23.75            0    1.013    0.013
        22  -9.7456    198.5751    200.4676   2.9083920668e+02   4.2556731388e+00   0.02267795   0.01695616  18.01  0.002458303    1.380    0.276
        23  -8.9858    192.8374    195.6579   2.9087602850e+02   4.3460620067e+00   0.02002703   0.01191365 -89.38  0.001703225    2.657    0.624
        24 -10.1935    191.0274    189.0784   2.9085587809e+02   4.4321004515e+00   0.01317387   0.01163489 -58.38  0.001565331    1.151    0.131
        25  -9.7835     39.7189    195.2796   2.9266380149e+02   5.3015319988e+00   0.02557283   0.01731262  52.03  0.002617966    1.640    0.390
        26 -12.6029     34.4206    243.2800   2.9302536502e+02   4.7882845242e+00   0.03261229   0.02130226 -32.09 0.0009196209    1.788    0.441
        27  -9.4060     32.5923    188.2755   2.9270342704e+02   5.4253293372e+00   0.02152091   0.01371055  68.42   0.00198827    2.215    0.549
        28  -8.9471     39.1522    187.6726   2.9262289601e+02   5.3915745444e+00   0.02288605  0.007082606  30.84  0.001657859    2.968    0.663
        29  -8.3223     61.8725    186.6798   2.9235083637e+02   5.2621014912e+00   0.01177964   0.00889749 -43.95  0.001287457    1.353    0.261
        30  -8.6077     60.5200    182.9589   2.9234338522e+02   5.3128072789e+00    0.0158542  0.009952814  45.35   0.00107243    1.660    0.398
        31  -8.6429     45.0333    187.0948   2.9255046499e+02   5.3617256363e+00  0.009771016   0.00932059   3.08 0.0003479776    1.044    0.042
        32  -7.8970    220.5012    185.4791   2.9048912628e+02   4.2893271900e+00  0.006612215  0.006469581  21.94 8.850192e-05    1.011    0.011
        33  -8.5344    201.5415    183.5128   2.9069814708e+02   4.4298356730e+00   0.01357263   0.01139435  63.23 0.0008115568    1.318    0.241
        34  -8.7139    133.8164    229.2385   2.9177593742e+02   4.3315558313e+00   0.02630372   0.01357341 -81.40  0.002003731    3.252    0.693
        35  -9.6455     26.5841    180.0770   2.9272251212e+02   5.5557783854e+00   0.02486129   0.01546017 -83.69  0.002295218    2.200    0.545
        36  -9.2278     95.3553    179.8178   2.9191616683e+02   5.1324150789e+00   0.01495618   0.01049612 -45.92 0.0009411992    1.450    0.310
        37  -9.7558     97.8218    174.5087   2.9185405888e+02   5.1774735641e+00   0.02239708   0.01181494 -44.38  0.001422286    2.004    0.501
        38  -7.5115    191.4887    174.4184   2.9075846082e+02   4.5958062602e+00  0.006612655  0.006388101  11.25 0.0008048026    1.018    0.017
        39  -7.4830    105.2950    174.3362   2.9176555675e+02   5.1330200114e+00  0.007024752  0.004965701 -27.36 0.0007028587    1.647    0.393
        40  -8.8024     36.8231    170.7088   2.9254409998e+02   5.5989597153e+00    0.0149452   0.01223613  14.97 0.0008563313    1.252    0.201
        41  -8.6176    226.3060    169.8047   2.9032289163e+02   4.4311738156e+00   0.01043982  0.008580803  86.48  0.001154382    1.412    0.292
        42  -8.0136    113.6132    170.1577   2.9164207026e+02   5.1288492324e+00    0.0110132  0.008602051  38.65  0.000445984    1.264    0.209
        43  -8.7712    102.5562    165.3471   2.9174126340e+02   5.2522441201e+00   0.01080117   0.01059098  23.19 0.0002548624    1.013    0.013
        44  -7.2567     60.6479    164.3118   2.9222519890e+02   5.5240986749e+00  0.007145714  0.004952944  59.60 0.0007045137    1.725    0.420
        45  -9.8517     91.4459    160.7608   2.9184251678e+02   5.3733927091e+00   0.01487676   0.01260865   7.98 0.0003495885    1.229    0.186
        46  -7.2571     68.0205    161.7644   2.9212295557e+02   5.5073517527e+00   0.00868402  0.005486214  28.25 0.0004300859    1.549    0.354
        47  -9.2531    105.9360    158.4323   2.9165837419e+02   5.3098688491e+00   0.02490072   0.01054036 -48.07  0.001686163    2.395    0.583
        48 -10.0422     22.7023    158.7593   2.9263468912e+02   5.8222863947e+00   0.03902325   0.01761517  18.80  0.003087426    2.702    0.630
        49  -7.1686     66.2414    158.6674   2.9212438421e+02   5.5536057042e+00  0.006562329  0.005099676  71.91 0.0002509324    1.542    0.352
        50  -7.1822     18.7547    151.3526   2.9263459348e+02   5.9309555421e+00  0.006663034  0.005098234  72.35 0.0002278522    1.586    0.370
        51  -9.2734     50.1287    147.2137   2.9224129419e+02   5.7837540560e+00   0.01797191   0.01219272  83.01  0.001737576    2.036    0.509
        52 -10.9751     68.0607    144.4170   2.9201381727e+02   5.7043714320e+00   0.03517618    0.0207295  57.62  0.003190984    2.202    0.546
        53  -9.2975     84.4408    144.5694   2.9182301591e+02   5.6009885854e+00   0.01443518   0.01269508 -21.63   0.00170678    1.193    0.162
        54  -8.3675    114.2823    142.4715   2.9146060518e+02   5.4394523968e+00   0.01713306  0.008301952 -49.55  0.001513906    2.056    0.514
        55  -9.3295     74.4426    138.7495   2.9190357830e+02   5.7292185219e+00   0.01490207  0.008899608  70.01  0.001261419    2.646    0.622
        56  -8.1907    135.8079    136.8508   2.9117347602e+02   5.3694600952e+00   0.01034644  0.008986493 -22.94 0.0006834345    1.214    0.177
        57  -7.4270     79.8320    135.8602   2.9182236489e+02   5.7286203792e+00  0.009025093  0.007667371  59.30 0.0005542235    1.274    0.215
        58  -8.5688     64.1476    125.6566   2.9194204799e+02   5.9419553808e+00   0.01650955   0.01132021  61.97  0.001289603    1.800    0.445
        59 -10.2800     67.0388    134.0804   2.9196099992e+02   5.8282436233e+00   0.02142111   0.01286308  30.42  0.001259296    1.612    0.380
        60  -9.9225     66.1813    129.9063   2.9194487385e+02   5.8810221843e+00   0.01771374   0.01477219 -15.36  0.001910261    1.308    0.236
        61  -7.9864    119.2854    132.3396   2.9133847069e+02   5.5235151188e+00   0.01243668  0.007443297 -47.04 0.0008668454    1.699    0.411
        62  -8.8850     58.8183    133.3833   2.9205289589e+02   5.8871561978e+00   0.01209369  0.008684518  16.22 0.0008662072    1.471    0.320
        63  -9.2842     74.2813    127.5095   2.9183499142e+02   5.8580134867e+00   0.01533959   0.01252807 -34.08  0.001746355    1.285    0.222
        64  -7.7630    160.0000    126.9585   2.9082836506e+02   5.3312567807e+00   0.01089097  0.003811832 -61.06 0.0007975221    2.908    0.656
        65  -8.4777    199.8730    124.9857   2.9034983396e+02   5.1051124909e+00  0.009653179  0.009305797   2.19 0.0003869594    1.029    0.028
        66  -7.6946    132.3595    121.8162   2.9111939548e+02   5.5617837469e+00  0.009351414  0.005896864 -50.02 0.0002619431    1.585    0.369
        67 -10.4202    245.4736    115.8340   2.8975964082e+02   4.9243587700e+00   0.01461476   0.01198213  28.87 0.0002704038    1.194    0.162
        68  -6.9501     56.2606    110.6768   2.9194049517e+02   6.1611690188e+00  0.006645727  0.005097453  68.02 0.0002368286    1.554    0.357
        69  -7.7953    196.7398    107.7508   2.9027801812e+02   5.3203933221e+00  0.009252093   0.00769595  67.49 0.0009964416    1.358    0.263
        70  -8.9164    248.2632     96.7481   2.8960687210e+02   5.1235422524e+00   0.01429759   0.01065735  83.97   0.00110454    1.687    0.407
        71  -7.2896    195.4910     97.5259   2.9022825986e+02   5.4442920757e+00  0.006615611  0.006461193   8.44  0.000127045    1.005    0.005
        72  -7.5009     96.6497     77.3253   2.9125790121e+02   6.2894145729e+00  0.007187723  0.004964254  60.65 0.0007048601    1.756    0.430
        73  -7.6455    215.2697     75.6137   2.8985908443e+02   5.5695485349e+00  0.008597366  0.006363985  14.68 0.0002387349    1.433    0.302
        74  -8.7559    197.4270     54.4127   2.8993405070e+02   5.9215836758e+00   0.01254077   0.01030399 -27.53 0.0006874907    1.307    0.235
        75 -11.0663    159.5824     48.5993   2.9034016084e+02   6.2237477272e+00   0.03825101   0.02516505 -72.89  0.002825423    1.746    0.427
        76 -10.9290    168.3266     37.6918   2.9016908047e+02   6.2929775916e+00   0.03738832   0.02553861  46.06  0.003902054    1.522    0.343
        77  -7.2625    183.2886    245.3193   2.9129884966e+02   3.8411667936e+00  0.006904689  0.004986975 -26.78 0.0005268703    1.598    0.374
        78  -9.8795    150.6124    237.8953   2.9163391146e+02   4.1287527971e+00   0.02280913   0.01140337   8.98  0.001721173    3.153    0.683
        79  -7.3436    250.6095     39.5276   2.8921870441e+02   5.7579186360e+00  0.006487478  0.006420147 -28.24 -2.817222e-05    1.024    0.023
        80  -7.5456    192.6391     27.8150   2.8982233584e+02   6.2532226196e+00  0.008654521  0.006422926 -74.36 0.0002808592    1.507    0.337
        81  -7.8205    235.4825     22.4564   2.8928766005e+02   6.0461070666e+00  0.006617954  0.006428353  35.84 4.568594e-05    1.030    0.029
        82  -7.8589    164.8214     21.0786   2.9010536217e+02   6.5033191955e+00   0.01730044  0.006786178 -40.96  0.001241078    3.261    0.693
        83  -9.9292    146.0485     21.4605   2.9032757346e+02   6.6160915865e+00   0.01162779   0.00975184 -55.19  0.001344516    1.204    0.169
