#   1 NUMBER                 Running object number                                     
#   2 MAG_AUTO               Kron-like elliptical aperture magnitude                    [mag]
#   3 X_IMAGE                Object position along x                                    [pixel]
#   4 Y_IMAGE                Object position along y                                    [pixel]
#   5 X_WORLD                Barycenter position along world x axis                     [deg]
#   6 Y_WORLD                Barycenter position along world y axis                     [deg]
#   7 A_WORLD                Profile RMS along major axis (world units)                 [deg]
#   8 B_WORLD                Profile RMS along minor axis (world units)                 [deg]
#   9 THETA_WORLD            Position angle (CCW/world-x)                               [deg]
#  10 FWHM_WORLD             FWHM assuming a gaussian core                              [deg]
#  11 ELONGATION             A_IMAGE/B_IMAGE                                           
#  12 ELLIPTICITY            1 - B_IMAGE/A_IMAGE                                       
         1 -13.0998    200.6690     33.3582   6.2030854713e+01   3.1689237916e+01    0.7517654    0.7335665  61.34  0.005117848    1.330    0.248
         2 -13.7574    217.1535     15.3638   5.6411754766e+01   3.0168515683e+01    0.9563287    0.8213778  45.76   0.00653029    1.633    0.388
         3 -11.8553      2.0000     12.5384   1.0974718410e+02   7.1216187230e+01    0.6848767      0.11098 -44.91  0.002631072    5.188    0.807
         4 -11.9648      2.2793      4.9866   1.0639245334e+02   7.2174554152e+01    0.6321531    0.3114429   0.89  0.003887293    2.092    0.522
         5  -9.3437     66.9113    243.9774   1.3491088402e+02   1.4620120458e+01    0.2357261    0.1720227  29.78   0.00092166    1.690    0.408
         6 -11.6410    184.4332    249.0933   1.1138841393e+02  -5.1056561762e+00    0.4126104    0.3043257  14.92  0.002404014    1.361    0.265
         7 -10.7162    176.0216    249.6203   1.1317338142e+02  -3.8489752983e+00    0.3968654    0.2344515   9.26   0.00175136    2.682    0.627
         8 -12.3978    178.7432    243.8889   1.1171664474e+02  -3.3141073708e+00    0.5959027    0.3374988  45.69  0.002518512    1.763    0.433
         9 -11.3942    164.5000    241.9757   1.1435725942e+02  -6.2528580057e-01    0.3980381    0.1966545  51.11  0.001717752    2.337    0.572
        10 -11.0108    169.0758    249.2971   1.1454041314e+02  -2.6693302067e+00    0.3364479    0.2700292  -0.02 0.0002985529    1.397    0.284
        11 -11.7170    170.8734    244.1131   1.1336947075e+02  -2.0632641343e+00    0.4263685    0.2636507  51.61  0.001578535    1.800    0.444
        12 -11.0772    162.3183    250.1374   1.1605272064e+02  -1.7114824905e+00    0.3783305    0.2128748  39.67 0.0009699594    1.548    0.354
        13 -11.7625    150.4150    247.1020   1.1806592426e+02   7.9466488127e-01    0.5523642    0.3435996 -41.82  0.002882979    1.881    0.468
        14 -12.6686    128.7672    234.8665   1.2087953738e+02   6.7908233059e+00    0.6929069    0.6197278 -74.43  0.004209368    1.214    0.176
        15 -10.8973    122.2793    233.7626   1.2212296586e+02   8.1120520693e+00    0.4155218    0.2994514 -79.91  0.002198679    1.656    0.396
        16 -12.2398    143.2301    248.9536   1.1982497005e+02   1.6480967401e+00    0.8771487    0.3988511 -54.35  0.003955204    2.570    0.611
        17 -12.0271    116.8346    238.4500   1.2393486909e+02   8.0648678290e+00    0.6240663    0.4809515 -38.32  0.003496634    1.652    0.395
        18 -12.5336    133.8712    248.9703   1.2177106367e+02   3.1922627505e+00     1.231355    0.3442483  38.15  0.004354033    3.171    0.685
        19 -11.6335    115.8516    249.9923   1.2563483889e+02   5.9415029363e+00    0.9054307    0.3243702  37.24  0.003636541    2.563    0.610
        20 -11.1460    109.5155    247.1964   1.2659585936e+02   7.5063176972e+00    0.5182278    0.3322381 -79.45   0.00253227    1.912    0.477
        21 -12.8031    135.2290    234.5850   1.1944596026e+02   5.7472465107e+00     1.565813    0.6976613 -57.23  0.006594689    2.592    0.614
        22 -11.4305    122.1994    245.5580   1.2374703559e+02   5.7675741862e+00    0.5199511     0.377275 -82.86  0.001659647    1.674    0.403
        23 -11.3402    125.9563    243.0491   1.2262205435e+02   5.6367694807e+00     0.406291    0.3357717 -87.18  0.001164763    1.356    0.263
        24 -10.7805    102.5441    247.4901   1.2806944749e+02   8.5572094272e+00    0.3343983    0.2496379  59.19  0.001973266    1.189    0.159
        25  -9.4719     99.6735    250.6452   1.2902422190e+02   8.3828610299e+00    0.2324899     0.120395  35.24  0.001013941    1.908    0.476
        26 -10.7864     99.0243    247.4873   1.2879175756e+02   9.1108792128e+00    0.3118692    0.2382296  60.07  0.001165084    1.145    0.127
        27  -9.7921     81.5848    247.3429   1.3231767961e+02   1.1802282838e+01    0.2927726    0.1778157 -73.27  0.001597912    1.731    0.422
        28  -9.8913     90.9539    250.3349   1.3075332358e+02   9.7891537954e+00    0.2305111    0.1819226  38.45  0.001383332    1.308    0.236
        29 -11.3244     86.6751    248.1521   1.3137874763e+02   1.0876017655e+01    0.3499265    0.2972721  31.89 0.0007731832    1.394    0.283
        30 -12.9099      4.8169    226.2625   1.4542370849e+02   2.5853913005e+01      1.24515    0.6806177  86.67  0.007511628    1.487    0.328
        31 -12.8565     13.8943    215.1341   1.4293250411e+02   2.7376799432e+01     1.569949    0.6801784  60.28  0.007863739    2.200    0.546
        32 -12.4044     11.2518    206.1278   1.4277494365e+02   2.9657345261e+01     1.227643    0.6978803   7.40  0.005815232    3.834    0.739
        33 -12.8209     41.5110    206.5495   1.3645961025e+02   2.6275851813e+01     1.821583    0.8000286  73.79  0.007009352    3.266    0.694
        34 -13.4898     40.6332    242.6945   1.3990568976e+02   1.8379047672e+01     1.199893    0.8191789  82.49  0.002001655    1.237    0.192
        35 -12.7629     27.4376    226.0893   1.4112183540e+02   2.3505600196e+01    0.4616822    0.3286054 -75.86 0.0007620098    1.298    0.230
        36 -14.0541     33.3356    218.9809   1.3935373416e+02   2.4402158054e+01     1.039762    0.8501579  89.25  0.006939349    1.097    0.088
        37 -10.6257     73.9464    244.0666   1.3351354957e+02   1.3596216056e+01    0.3218007    0.2836095  86.45  0.001978924    1.159    0.137
        38 -11.4894    159.6225    244.2023   1.1571643265e+02  -2.1281637754e-01     0.313659     0.213145  51.79 0.0006664991    1.526    0.345
        39 -10.6107     98.2733    231.0628   1.2694913871e+02   1.2630866184e+01    0.3568689    0.2365248 -76.48  0.001259508    1.646    0.392
        40 -12.1528    103.1407    239.5023   1.2697437540e+02   1.0079326197e+01    0.6140458     0.498632 -45.19 0.0006984986    1.528    0.346
        41 -11.3458     98.8495    223.1316   1.2578736957e+02   1.4261610776e+01    0.8072117    0.3799746  59.96  0.003142937    2.714    0.632
        42 -10.6032     84.4845    229.7964   1.2975478425e+02   1.5061077079e+01    0.2914963    0.2207349 -52.04  0.001125228    1.558    0.358
        43 -10.7669     97.0158    238.9613   1.2819724837e+02   1.1164220863e+01    0.3043398    0.2693891 -64.56  0.001713321    1.279    0.218
        44 -10.2814     85.4886    235.5822   1.3021957794e+02   1.3662694878e+01    0.4703797    0.2452087  73.98   0.00197796    2.708    0.631
        45 -11.3884     92.2812    241.8804   1.2953073584e+02   1.1299289388e+01     0.646705    0.3442599 -82.82  0.002911329    2.535    0.606
        46  -9.8470     90.0169    238.0075   1.2955192364e+02   1.2455349693e+01    0.1881025    0.1843897  -6.16  0.001226048    1.346    0.257
        47 -11.1111    109.6100    232.5261   1.2469231555e+02   1.0479934306e+01    0.4578023    0.2891772  74.08  0.002178014    2.000    0.500
        48 -11.2346    113.3692    230.7907   1.2364178493e+02   1.0222384419e+01     0.380838    0.2659508 -56.94   0.00125353    1.551    0.355
        49 -11.5227    105.6847    228.4125   1.2499355820e+02   1.1998344415e+01    0.4290631    0.3642067  19.01  0.002124735    1.457    0.314
        50 -13.1375     27.4873    247.3109   1.4268610635e+02   1.9010427547e+01     1.117322    0.7746581  58.44  0.007536463    1.202    0.168
        51 -10.9041    244.8146    241.9807   9.8603100958e+01  -1.2854415633e+01    0.1723346     0.144356 -59.41  0.001096655    2.000    0.500
        52 -10.4798     84.1612    240.7849   1.3108472882e+02   1.2767784031e+01    0.3883981    0.2664049  65.80  0.001487095    1.357    0.263
        53 -13.4915      5.7114    245.3724   1.4640703963e+02   2.1792073771e+01     1.170327    0.5664006  68.37  0.006905439    1.710    0.415
        54  -9.5285     66.7798    239.5286   1.3449869991e+02   1.5571431433e+01    0.2766489     0.150552  68.96 0.0009666824    1.941    0.485
        55 -10.3553    172.9168    236.1323   1.1166891986e+02  -9.8067018533e-01    0.1947445    0.1735926  55.48 0.0002606779    1.251    0.201
        56  -9.2109     55.0551    235.7762   1.3649262102e+02   1.7982763361e+01     0.270255   0.09913756  52.72  0.001013178    2.530    0.605
        57  -8.5621     70.7224    235.3082   1.3326195972e+02   1.5909153719e+01    0.1337168   0.08398185  69.79 0.0004718501    1.555    0.357
        58 -10.8047    168.5119    233.6259   1.1218399090e+02   2.2394917746e-01    0.3712116    0.2228651  21.67  0.001326897    1.984    0.496
        59 -10.6085    156.7385    232.1470   1.1444643718e+02   2.5231951760e+00    0.2556531    0.2113809 -39.49 0.0005253126    1.332    0.249
        60  -8.5885     92.2890    232.6800   1.2843498298e+02   1.3231588230e+01    0.1392424   0.09136146  69.83    0.0003237    1.600    0.375
        61 -10.9351    249.7175    230.3019   9.5682884717e+01  -1.1792918572e+01    0.2883187    0.1314505 -37.22  0.001455344    2.023    0.506
        62  -8.7001    149.6752    229.2958   1.1551315603e+02   4.3039440259e+00    0.1395106     0.103589  66.35 0.0005230078    1.624    0.384
        63 -10.3753     79.2403    225.5466   1.3037710645e+02   1.6788226552e+01    0.4855863    0.2371896 -73.61  0.002165249    2.259    0.557
        64  -9.4868     77.2169    220.6092   1.3022818687e+02   1.8194673761e+01    0.1861891     0.159361  58.15 0.0002868795    1.107    0.097
        65  -9.4428     92.4970    226.1290   1.2757361605e+02   1.4618326845e+01    0.2200376    0.1637416  67.13 0.0005398589    1.277    0.217
        66 -10.0322     51.6475    225.2167   1.3617469540e+02   2.0741360362e+01    0.1965525    0.1799167  72.78 0.0003519724    1.218    0.179
        67 -10.2590    117.0185    224.5116   1.2195455118e+02   1.0942589848e+01    0.3141801    0.2589034  15.77 0.0004703103    1.507    0.337
        68  -9.4074     65.0231    224.6205   1.3331259774e+02   1.9059438947e+01    0.2557817    0.1532083 -50.57  0.001292873    2.040    0.510
        69  -9.3891    164.3365    224.0181   1.1147839125e+02   2.7731765224e+00    0.1845316    0.1754131 -39.08 0.0003737983    1.135    0.119
        70 -10.1162     87.6594    223.1626   1.2825585273e+02   1.6031663556e+01    0.2690433    0.2060008 -85.15  0.001513558    1.291    0.225
        71 -10.8922    142.0887    219.9775   1.1568160555e+02   7.5327785466e+00    0.4192208    0.3094027 -59.22  0.001845877    1.486    0.327
        72 -10.5134     70.3069    218.8084   1.3152428763e+02   1.9616054020e+01    0.4833031    0.2471599 -76.74  0.002210468    2.090    0.521
        73 -10.6419    245.6172    220.4227   9.4637759370e+01  -9.7189424523e+00    0.3164233    0.1029048 -36.14  0.001271665    2.917    0.657
        74  -9.7507    109.4870    217.4534   1.2261506457e+02   1.3759697405e+01    0.2257268    0.1376537 -60.88 -2.284918e-05    1.713    0.416
        75 -12.9313     13.3441    239.3319   1.4470386055e+02   2.2230933329e+01    0.7676772    0.6079381  64.01  0.003062401    1.197    0.165
        76  -8.8466     89.2741    218.6298   1.2731752615e+02   1.6794722355e+01    0.1455373   0.09575335  74.89 0.0005954789    1.679    0.404
        77  -8.6124     80.5568    216.5742   1.2899522733e+02   1.8607952200e+01    0.1404504     0.115332  71.80 0.0001064956    1.087    0.080
        78  -9.5064     88.1662    212.8270   1.2679744316e+02   1.8291031140e+01    0.2733814    0.1779038 -82.31 0.0009704154    1.671    0.402
        79 -10.5621     63.2199    209.2581   1.3197052051e+02   2.2821831674e+01    0.4906559    0.3151047 -53.08  0.002386117    1.729    0.421
        80 -10.8697     55.8415    209.0311   1.3358407204e+02   2.3877790524e+01    0.6570104    0.3464222  77.86  0.002725719    2.305    0.566
        81  -9.2503     55.6719    204.6969   1.3312976884e+02   2.4917322495e+01    0.2433886     0.173983  -1.33  0.001185784    2.571    0.611
        82  -8.9577    130.8220    211.2309   1.1679430623e+02   1.1419583952e+01    0.1804036    0.1669404  -7.59 0.0003347528    1.262    0.207
        83  -9.0030     90.5136    208.9636   1.2573181039e+02   1.8812425176e+01    0.1989364    0.1333491 -65.88 0.0003686612    1.484    0.326
        84  -9.5484    156.1295    208.1021   1.1052011030e+02   7.4817444208e+00    0.2063352    0.1982319  42.45 0.0002942701    1.020    0.019
        85  -9.0226    134.3743    207.7299   1.1539758468e+02   1.1550327068e+01    0.1985821    0.1348363 -44.29 0.0009394604    1.613    0.380
        86 -10.5115    111.3192    206.3890   1.2052418699e+02   1.5947727119e+01    0.4189966     0.254475 -77.30   0.00101715    2.088    0.521
        87  -8.8342     74.4102    208.4590   1.2934996507e+02   2.1404949360e+01    0.1383183    0.1187507  80.44 0.0001405228    1.019    0.019
        88  -8.8613     69.9685    208.0385   1.3030480942e+02   2.2151883666e+01    0.1624671    0.1387041  84.11 0.0003393549    1.026    0.026
        89 -10.5883    246.7346    206.0040   9.1772150781e+01  -7.5545643805e+00    0.2988474    0.1570149  22.11  0.001394558    2.420    0.587
        90  -9.9451     91.2827    205.0339   1.2499775291e+02   1.9607210698e+01    0.3739459    0.2025352  32.30   0.00109566    2.054    0.513
        91 -10.5299      4.0639    178.9938   1.4207305266e+02   3.6554024857e+01    0.2937269    0.2065419  30.49  0.001434788    1.754    0.430
        92  -9.1043      8.3947    182.1509   1.4139207378e+02   3.5450950038e+01    0.2211943    0.1257022 -87.59 0.0003344578    1.498    0.333
        93 -10.8142      2.8625    193.4037   1.4351085136e+02   3.3319621995e+01    0.4747311    0.2457836  75.90  0.002519508    1.822    0.451
        94 -10.3999      2.1757    202.1141   1.4430074919e+02   3.1402557899e+01    0.3125733    0.1487074 -78.71  0.001230121    1.677    0.404
        95  -9.8961      3.0860    197.7781   1.4379780833e+02   3.2302837441e+01    0.2893169    0.1286926  56.48 0.0006909833    2.172    0.540
        96 -11.3938      4.4523    186.1438   1.4259448724e+02   3.4856615751e+01    0.3624001    0.2877223  89.27 0.0004196486    1.044    0.042
        97 -10.8791     83.8521    201.5557   1.2624203158e+02   2.1603530219e+01    0.2603894    0.2251724 -78.86 0.0002556669    1.103    0.093
        98 -10.0218     43.5085    200.1715   1.3535006409e+02   2.7532409919e+01    0.3458161    0.2818149 -17.72  0.001717637    1.903    0.475
        99  -9.8838    250.6045    200.2145   9.0002947612e+01  -7.1609167075e+00    0.1873182    0.1041158 -29.87  0.000574385    1.672    0.402
       100 -11.9700     55.9813    194.0966   1.3179308484e+02   2.7407868659e+01    0.5311335    0.2961355 -50.32  0.001024834    2.000    0.500
       101 -11.3235     28.3355    194.3497   1.3812368007e+02   3.0645405074e+01    0.4631168    0.4372323 -61.91  0.001415097    1.333    0.250
       102 -10.8030     21.1048    194.3483   1.3971055779e+02   3.1397866098e+01    0.3715318    0.2066898 -67.06 0.0009905295    1.554    0.357
       103 -10.1960     10.2903    187.4688   1.4144460370e+02   3.4039378723e+01    0.4331287    0.1923729  76.24  0.001939629    2.594    0.615
       104  -9.8996    103.0015    196.0044   1.2084967749e+02   1.9805270766e+01     0.217588      0.20092  81.13 0.0003909781    1.012    0.011
       105  -9.0788     78.2226    194.0162   1.2650785122e+02   2.4277825624e+01    0.1916078    0.1682499 -86.35  0.001093346    1.042    0.040
       106 -10.4036    249.6552    193.7069   8.8927611942e+01  -5.9264234859e+00    0.2874685    0.1943018  -6.28  0.001539608    1.742    0.426
       107  -9.6410    191.4925    191.4691   9.9640885142e+01   4.3424329900e+00    0.2480573    0.2324113 -22.05 0.0006432017    1.034    0.033
       108  -8.5152     15.2702    190.3238   1.4061361326e+02   3.2912002794e+01    0.1193107   0.08151184 -55.70 0.0001999369    1.572    0.364
       109 -10.3667    250.3306    187.8924   8.7691942146e+01  -5.0339980558e+00    0.3297063    0.1382411 -35.36  0.001426629    2.200    0.545
       110  -9.2859     40.7363    189.0046   1.3474090528e+02   3.0534213135e+01    0.1964987     0.160449 -89.18   0.00119479    1.025    0.024
       111  -9.0633     76.9710    188.3603   1.2598973662e+02   2.5844874711e+01    0.1924285    0.1720227  74.46  0.001099719    1.050    0.047
       112 -10.6842     71.6223    186.8213   1.2707340476e+02   2.7014242273e+01     0.343953    0.2929302 -11.54  0.001254358    1.633    0.388
       113  -8.1917    145.5318    187.4544   1.0913748822e+02   1.4018727068e+01    0.1495276    0.1459511  57.07  0.000106849    1.006    0.006
       114 -10.3004     83.6155    186.7281   1.2411179875e+02   2.5225449675e+01     0.245465    0.2131042  82.97 0.0002847803    1.075    0.070
       115 -11.6740     62.6966    186.1843   1.2916093613e+02   2.8432862234e+01    0.3001151    0.2504464 -42.84 0.0004456567    1.434    0.303
       116  -8.5210     65.6684    181.7366   1.2780738579e+02   2.9117590729e+01    0.1313364    0.1084013 -30.72 0.0002182218    1.575    0.365
       117  -9.4513     29.5680    184.1383   1.3679133684e+02   3.2949803621e+01    0.3036841    0.1827744 -43.81  0.001153436    2.121    0.529
       118  -9.3348     24.2313    184.0743   1.3801243780e+02   3.3515400503e+01    0.1830574    0.1810428 -30.50 0.0007807328    1.354    0.261
       119  -8.8971     36.3730    182.8391   1.3505573367e+02   3.2525213605e+01    0.2000659   0.09884915 -60.51 0.0009521706    1.801    0.445
       120  -9.0890     85.6966    180.2989   1.2257358275e+02   2.6482206844e+01    0.1504767    0.1064035  73.77 0.0001542614    1.586    0.369
       121  -9.1180     47.5424    179.7031   1.3199168111e+02   3.1989565187e+01    0.2135685    0.1222137  33.18 0.0007222056    1.943    0.485
       122 -11.9606    248.0476    172.5941   8.5081105683e+01  -1.9881333196e+00    0.5622872    0.3949978 -31.82  0.003137221    1.271    0.213
       123 -12.9127    245.5182    163.5629   8.3698908131e+01   6.1211685740e-02     2.174457    0.7350448 -53.16  0.006097108    5.466    0.817
       124 -10.7512    249.5078    161.0164   8.2528350490e+01  -1.4360312677e-01    0.3269967     0.217098 -45.24  0.001757606    1.342    0.255
       125 -10.7795    247.9956    157.6157   8.2090465955e+01   7.2787892813e-01    0.4017251     0.255085  57.18  0.002033991    2.068    0.516
       126  -8.8969    102.9749    176.0294   1.1745883930e+02   2.4657102777e+01    0.1769661    0.1648738 -85.91            0    1.014    0.014
       127 -10.8135     65.2710    175.4707   1.2698760622e+02   3.0728710263e+01    0.2886757    0.2454358  51.65 -2.03727e-05    1.213    0.175
       128 -10.8378     73.6359    174.1332   1.2464837183e+02   2.9864430741e+01      0.26476    0.2293951 -55.81 0.0003846279    1.187    0.157
       129 -11.0949     19.3745    174.5074   1.3814621343e+02   3.6280263046e+01     0.330399    0.2071411  86.39  0.001833569    1.482    0.325
       130 -11.8288     59.6506    172.6715   1.2800071259e+02   3.2190881099e+01    0.3851411    0.2747987 -40.83 0.0007615373    1.668    0.401
       131 -10.5294     12.2562    172.8130   1.3963893020e+02   3.7325247903e+01    0.3189013    0.1831456 -67.99  0.001785921    1.421    0.296
       132 -11.2400      2.1176    171.0376   1.4180584810e+02   3.8572960682e+01    0.5469393    0.2211299 -84.72  0.002272235    2.317    0.568
       133 -11.1426     14.2720    167.2955   1.3859841517e+02   3.8470118543e+01    0.2946197    0.2770837  30.38  0.001554294    1.364    0.267
       134 -11.6287      7.9893    166.2626   1.3998884442e+02   3.9239881561e+01    0.3917089    0.3134734  -0.20  0.001736192    1.787    0.440
       135  -9.9237     27.6793    171.5825   1.3583712545e+02   3.6183625438e+01    0.3362695    0.1775658 -47.99  0.001254547    2.098    0.523
       136  -8.6953    124.6092    171.4938   1.1111788868e+02   2.1804945449e+01    0.1533961    0.1452358 -81.45 -0.0001441134    1.031    0.030
       137  -9.2828     51.8347    170.9626   1.2974365957e+02   3.3623361753e+01    0.1963573    0.1749727 -58.83 0.0005650427    1.181    0.153
       138  -9.5287    166.9259    170.1195   1.0064840074e+02   1.3690553106e+01    0.2189484    0.2147479 -36.92 0.0004019995    1.014    0.014
       139  -8.5197     95.7325    169.2473   1.1809293434e+02   2.7582934480e+01     0.143521    0.1104162  74.27            0    1.437    0.304
       140 -11.7877     81.5415    166.1200   1.2125601010e+02   3.0673381418e+01    0.5633504    0.4719409  25.37   0.00299781    1.389    0.280
       141 -10.8731     81.8978    158.5174   1.1979902138e+02   3.2526568918e+01    0.5347573    0.3361436 -43.22  0.002411756    1.730    0.422
       142 -10.8240     68.3570    166.3043   1.2476096166e+02   3.2588580925e+01    0.2585873    0.2250674  86.82 0.0003347674    1.094    0.086
       143  -9.5787     64.7081    167.2746   1.2587238912e+02   3.2855434979e+01    0.2642047    0.2088294  47.96 0.0004088873    1.316    0.240
       144  -9.4855     43.2617    161.0557   1.3054698350e+02   3.7109505394e+01    0.2013773    0.1728711 -85.08 0.0002213719    1.050    0.047
       145 -10.7388     44.8153    165.0789   1.3071241853e+02   3.5931547106e+01    0.4425862    0.2443094 -39.31  0.001971805    2.392    0.582
       146 -10.4063     31.3304    163.1408   1.3390338959e+02   3.7878897047e+01     0.247637    0.2165178 -86.22 0.0002759522    1.064    0.060
       147  -9.3751     37.5752    163.0099   1.3229149440e+02   3.7256238170e+01    0.2826756    0.1320239  50.58  0.001241162    2.412    0.585
       148  -9.2176     24.1294    161.8810   1.3556586075e+02   3.8891408818e+01    0.1713034    0.1333337 -53.51 0.0004050612    1.308    0.236
       149 -11.8015     10.9100    157.7204   1.3838682107e+02   4.1045376196e+01    0.3626744    0.2203225  73.81  0.001773219    1.746    0.427
       150 -11.1960     12.1958    154.2137   1.3767166812e+02   4.1783724163e+01    0.3444785    0.1682606 -85.42  0.001052215    2.040    0.510
       151 -11.3631     25.9203    155.2443   1.3427840818e+02   4.0342614572e+01    0.4629568    0.2413448  33.68  0.002343352    2.144    0.534
       152  -9.3825     32.8435    153.8463   1.3227440451e+02   4.0011286711e+01    0.1994833    0.1589427 -55.83 0.0004956205    1.203    0.169
       153  -8.8658    228.3503    155.2627   8.4947428805e+01   4.6510134171e+00    0.2000009    0.1198017 -48.85 0.0005019215    1.589    0.371
       154 -13.2164    248.0064    100.8948   7.0478911135e+01   1.0987293502e+01     1.525219    0.7064222 -35.11  0.006535285    2.351    0.575
       155 -13.2813    248.1924    133.8529   7.7219472296e+01   5.0430171210e+00     1.644371     0.684753 -42.23  0.006969755    2.059    0.514
       156 -10.1084    249.7105    117.9331   7.3732778162e+01   7.6500966554e+00    0.3458147    0.2612639 -30.58 0.0006894927    1.429    0.300
       157 -11.7438    248.3803    113.0153   7.2913076961e+01   8.7789678784e+00    0.5165817    0.3922687  51.83  0.002976251    1.543    0.352
       158 -12.6285      3.5080    143.9762   1.3872667160e+02   4.4866783276e+01    0.6893759    0.3090243 -61.54  0.003547855    1.719    0.418
       159 -12.2849      9.4180    143.2582   1.3709680886e+02   4.4619293589e+01    0.5095763    0.2186223 -61.61  0.002509417    1.792    0.442
       160 -10.2827     83.1453    149.5020   1.1774584413e+02   3.4590024002e+01    0.2695988    0.2195551 -51.33 0.0003608632    1.186    0.157
       161 -11.3608     21.2022    148.8619   1.3468701883e+02   4.2324505301e+01    0.4840972     0.190964  39.12  0.002182115    2.735    0.634
       162 -12.2285     68.4128    144.2014   1.2086626564e+02   3.8124032912e+01    0.7145724    0.5304876 -88.27  0.002287914    1.525    0.344
       163 -10.6110     57.3783    147.4670   1.2457459780e+02   3.8794490348e+01     0.412278    0.2553451  22.17  0.001954438    2.016    0.504
       164  -9.8457    235.8947    145.9158   8.1686505622e+01   5.0423767538e+00    0.2099531    0.1780547 -16.47 0.0004992674    1.303    0.232
       165  -9.1290     98.5036    146.4696   1.1286962423e+02   3.2775874833e+01    0.1523807    0.1449498 -52.64   2.0051e-05    1.058    0.055
       166  -9.6231     41.1151    147.3890   1.2908713794e+02   4.0738523803e+01    0.2259547    0.1647593 -57.74 0.0005740026    1.216    0.177
       167  -9.8679    133.2811    141.1579   1.0236939122e+02   2.7367012064e+01    0.5181299    0.2132898 -56.95  0.001637936    2.932    0.659
       168 -10.4775     38.6686    141.6578   1.2886560092e+02   4.2413196154e+01    0.2773639    0.2082418  83.85  0.001540452    1.433    0.302
       169 -12.1853     16.3940    139.6204   1.3475745514e+02   4.4956896218e+01    0.5407188    0.2356454  51.24  0.002380456    2.960    0.662
       170 -10.6578     31.4535    139.1443   1.3050525582e+02   4.3753150835e+01    0.2485828    0.1736009  85.28  0.001345167    1.572    0.364
       171  -9.7863    107.8042    136.1531   1.0801994471e+02   3.3609408488e+01    0.3950142    0.2440224 -22.67  0.001429486    2.710    0.631
       172 -10.2917     59.8294    136.3187   1.2183977192e+02   4.1245040128e+01    0.3208745     0.224863 -65.91 0.0003148475    1.330    0.248
       173  -9.6108     55.9463    135.7344   1.2286485138e+02   4.1885566492e+01    0.2045668     0.177906 -39.83 0.0004604625    1.183    0.154
       174 -10.4808     47.4957    135.9174   1.2536648900e+02   4.2855192107e+01    0.3147138    0.1984995 -36.93  0.001539451    1.787    0.440
       175 -10.3937     95.4240    150.3659   1.1452684025e+02   3.2344889110e+01    0.3280314    0.2799655  60.14 0.0009337949    1.222    0.182
       176 -12.3992      2.1589    122.7604   1.3647404754e+02   4.9926897119e+01    0.9359463    0.2662286 -78.54  0.002874282    5.205    0.808
       177  -8.8440     94.5484    133.2120   1.1108502237e+02   3.6718347541e+01    0.2142528    0.1349263 -42.40 0.0009288182    1.620    0.383
       178 -10.3188     45.0159    130.3703   1.2509667448e+02   4.4490466487e+01    0.2873592    0.1939488  76.50 0.0009453484    1.946    0.486
       179 -12.5209     14.0375    126.6804   1.3360534602e+02   4.8220112768e+01    0.6420685    0.1977667 -50.51  0.001103459    2.662    0.624
       180 -12.3923     16.7775    117.3674   1.3135370500e+02   5.0203614864e+01    0.5542416    0.2733877 -25.88  0.002400901    2.873    0.652
       181  -9.6538     24.3075    127.0219   1.3065989531e+02   4.7325785495e+01     0.228718   0.04281987 -49.95 0.0007038897    4.190    0.761
       182  -9.0337     48.2328    126.3627   1.2337984184e+02   4.5098448215e+01    0.1749699    0.1249213  42.10 0.0003480115    1.577    0.366
       183  -9.8691     29.5284    126.4974   1.2902806357e+02   4.6990823079e+01    0.1326721    0.1113049 -62.31  3.56565e-05    1.005    0.005
       184 -10.3982    238.9308    121.3028   7.6025076413e+01   9.0809327693e+00    0.3352212    0.1840052 -27.76    0.0013972    2.466    0.594
       185 -10.6269    231.7773    116.3970   7.6087759861e+01   1.1397345118e+01    0.2430193    0.2087652 -56.84  0.000804339    1.032    0.031
       186 -12.9373      9.1744    113.4582   1.3304653009e+02   5.1637449299e+01    0.5394641    0.3298422 -84.89  0.002581086    1.775    0.437
       187 -11.0595    249.5279    151.0180   8.0509914783e+01   1.6698169797e+00    0.4776863    0.2887622 -43.44  0.002219345    1.421    0.296
       188  -8.9826    203.4610    111.4973   7.9742719204e+01   1.8300162256e+01    0.1475749    0.1375315 -59.96 5.265136e-05    1.037    0.036
       189 -10.0910    167.7683    112.9394   8.7191119127e+01   2.6075563612e+01    0.3313549    0.2558079  87.27 0.0008625078    1.578    0.366
       190  -9.1636     34.9680    107.4280   1.2378266171e+02   5.0962260881e+01    0.1723795     0.129419  21.16 0.0003437499    1.530    0.347
       191 -12.7718     14.5061    102.5851   1.2952274536e+02   5.3752516344e+01    0.5231987    0.4141928  48.03  0.003379841    1.579    0.367
       192  -8.7172     71.7445    100.0254   1.0999105155e+02   4.8131996176e+01    0.1731817    0.1146155 -50.22 0.0002538966    1.421    0.296
       193 -10.3127     20.8557     93.8512   1.2569374855e+02   5.5227811687e+01    0.1987407    0.1399347 -39.05 0.0005229844    1.248    0.199
       194 -10.9871     13.8265     93.9868   1.2812411356e+02   5.5706386497e+01    0.1975127    0.1724642 -13.62 0.0009007875    1.255    0.203
       195 -11.6909      2.2440     91.0013   1.3149503684e+02   5.7055810987e+01    0.5313799   0.08215663 -65.51  0.001623669    5.214    0.808
       196 -11.8795    247.9817    142.2767   7.8976145851e+01   3.5378349812e+00    0.6136686    0.5386263  30.72  0.003752074    1.353    0.261
       197 -10.9990      2.1900     82.5591   1.2992357189e+02   5.8856695045e+01    0.2804067    0.1178733 -66.44  0.001383236    2.142    0.533
       198  -9.6992    238.3324    249.6675   1.0108840861e+02  -1.3093286321e+01    0.1028134    0.0973417  60.80  0.000499928    1.728    0.421
       199 -12.6238    200.9922    246.3511   1.0764021719e+02  -7.2467754561e+00    0.7398758    0.2816625  34.62  0.003176781    2.421    0.587
       200  -9.7263     20.5310     27.4458   1.0676660148e+02   6.7561751791e+01    0.1125693    0.0857733 -11.39 5.546544e-05    1.016    0.016
       201 -11.5772     59.8685    245.7683   1.3646707279e+02   1.5226099562e+01    0.4421419    0.2776543  52.15  0.001813017    1.348    0.258
