#   1 NUMBER                 Running object number                                     
#   2 MAG_AUTO               Kron-like elliptical aperture magnitude                    [mag]
#   3 X_IMAGE                Object position along x                                    [pixel]
#   4 Y_IMAGE                Object position along y                                    [pixel]
#   5 X_WORLD                Barycenter position along world x axis                     [deg]
#   6 Y_WORLD                Barycenter position along world y axis                     [deg]
#   7 A_WORLD                Profile RMS along major axis (world units)                 [deg]
#   8 B_WORLD                Profile RMS along minor axis (world units)                 [deg]
#   9 THETA_WORLD            Position angle (CCW/world-x)                               [deg]
#  10 FWHM_WORLD             FWHM assuming a gaussian core                              [deg]
#  11 ELONGATION             A_IMAGE/B_IMAGE                                           
#  12 ELLIPTICITY            1 - B_IMAGE/A_IMAGE                                       
         1 -15.1215      7.4251    146.8560   1.4334816630e+02   4.3787680286e+01     10.13968     4.492018  72.24   0.04526306    3.084    0.676
         2 -13.3601    196.5774     29.9894   6.6437154935e+01   3.2524743954e+01     1.208933     1.199022 -44.91  0.006664162    1.250    0.200
         3 -13.5785    212.3651     12.0118   6.0341952112e+01   3.0793241233e+01     1.162243    0.9191987  40.06  0.007067705    1.689    0.408
         4 -11.5570      2.2303      4.5164   1.1400886595e+02   7.2167134084e+01    0.5701421      0.16527 -46.51  0.002773725    3.425    0.708
         5 -10.3234    230.7784    249.6008   1.0887763815e+02  -1.1910399675e+01    0.1713466     0.100042  41.16 0.0009557749    1.678    0.404
         6 -11.7827    139.9746    249.9887   1.2669170835e+02   3.1509991443e+00    0.5563095    0.2023077  39.67  0.002321121    2.336    0.572
         7 -11.4005    125.0696    249.8467   1.2962164270e+02   5.7102815657e+00     0.605876    0.1206548  38.92  0.001766138    4.937    0.797
         8 -10.2155     65.7035    249.2239   1.4086137766e+02   1.5068701029e+01    0.2440231    0.1662023  73.93   0.00057171    1.235    0.190
         9 -10.9621     46.5383    248.7739   1.4424339211e+02   1.7723802365e+01    0.3273138     0.186077  73.41  0.001295101    1.513    0.339
        10 -12.6398      7.3770    227.5827   1.4961800047e+02   2.6329272737e+01    0.7216994    0.5217173  73.14  0.005431284    1.071    0.067
        11 -12.7914     20.0215    240.6017   1.4824704480e+02   2.2453953897e+01    0.8561264      0.44933 -77.58  0.004877084    1.675    0.403
        12 -12.5337      7.1255    247.5277   1.5073916449e+02   2.2514551024e+01      1.12986    0.5338262  54.44  0.003445826    1.634    0.388
        13 -12.2255     11.2170    239.3267   1.4964053384e+02   2.3643451787e+01    0.5843066    0.2900772  63.01  0.002308918    1.575    0.365
        14 -10.8048     28.8245    248.9585   1.4728548258e+02   1.9858156891e+01    0.3005429    0.2168611 -89.17  0.001388653    1.234    0.189
        15 -12.6124     35.1368    245.4843   1.4598789418e+02   1.9769894840e+01    0.6771309     0.550835  85.74  0.005118688    1.240    0.194
        16  -9.2691     85.2991    246.3289   1.3694793656e+02   1.2759129786e+01    0.1052447   0.09961741  -7.47 0.0006682956    1.640    0.390
        17  -9.2624    186.2843    239.6350   1.1587682886e+02  -3.2063813790e+00    0.1241835    0.1009305  70.62 0.0007019032    1.690    0.408
        18 -11.4340     50.6915    235.6732   1.4247610894e+02   1.9742192692e+01    0.4014041    0.2045022  72.10  0.002139907    1.921    0.480
        19 -13.4507      9.2797    207.4374   1.4802477259e+02   3.0257651412e+01     1.029473    0.7189289  82.39  0.004232432    1.067    0.063
        20 -10.9844    239.0027    248.8001   1.0722027701e+02  -1.3026660208e+01    0.2069903    0.1625089 -13.95  0.001018483    1.254    0.203
        21 -14.3200     38.6047    222.7630   1.4367798697e+02   2.3889882159e+01     1.650453     1.324841  -2.25  0.008261709    2.430    0.588
        22 -11.7170     66.2700    188.8067   1.3444941395e+02   2.7778905194e+01    0.2873805    0.2426152 -55.60 0.0004215217    1.355    0.262
        23 -10.7354     76.5560    176.3536   1.3032683430e+02   2.9213717536e+01    0.2508066    0.2245729  88.22 0.0003959951    1.029    0.028
        24 -13.1156     63.2353    174.0806   1.3321340304e+02   3.1644315056e+01    0.5291049    0.2801883 -45.92  0.001930135    2.315    0.568
        25 -12.6550     32.7714    230.1986   1.4532767926e+02   2.3060279349e+01     0.317262    0.2471813 -68.17 0.0007601723    1.500    0.333
        26 -11.6976     84.3080    167.1249   1.2697102342e+02   3.0231954805e+01    0.6415574    0.6119159 -77.78  0.003814094    1.114    0.102
        27  -8.8871    152.6954    212.9989   1.1855530823e+02   7.6766753181e+00    0.1848461    0.1760432  61.68 0.0003441875    1.088    0.081
        28 -12.0250     85.6805    150.5363   1.2370835253e+02   3.4022887690e+01    0.3082268    0.2556973 -44.42   0.00056418    1.284    0.221
        29  -8.9230    100.1047    147.6447   1.1928285774e+02   3.2306613962e+01    0.2000967    0.1897624  39.96 0.0004309222    1.124    0.110
        30 -12.2482     67.4876    143.7036   1.2737519758e+02   3.8370847404e+01    0.7538813     0.485746  65.62  0.002721965    1.905    0.475
        31  -8.3968    192.2915    144.2643   9.5812102340e+01   1.3608222829e+01    0.1501307    0.1218493   8.80 0.0001941238    1.501    0.334
        32  -9.4971    109.2361    136.7809   1.1449718876e+02   3.3247662668e+01    0.3956943    0.2601339 -16.10  0.001324542    2.695    0.629
        33 -10.3121     96.2669    133.9622   1.1746466896e+02   3.6264075081e+01    0.2576717    0.2288917 -25.40 0.0004343234    1.259    0.206
        34  -9.8153     97.2560    151.5430   1.2081691888e+02   3.1861966805e+01    0.2827917    0.2630807 -77.57 0.0007648533    1.020    0.020
        35 -11.4756     59.9220    196.8389   1.3683290001e+02   2.6811506155e+01    0.3161002    0.2323222 -53.58 0.0005378104    1.575    0.365
        36  -9.4605    191.9756    192.9536   1.0635578188e+02   3.9200536768e+00    0.4136406    0.2207024 -67.93  0.001044231    7.058    0.858
        37  -8.9016    106.5022    123.5107   1.1218953002e+02   3.6886397973e+01    0.1507213    0.1469916 -55.54 6.666665e-05    1.006    0.006
        38  -9.4623     53.6206    119.1966   1.2676354184e+02   4.5981426982e+01      0.20883    0.1046681 -51.24 0.0009577358    1.742    0.426
        39 -10.2953    167.8986    112.9334   9.3548098993e+01   2.5815552848e+01    0.3575835    0.2897973 -83.20  0.000697964    1.483    0.326
        40  -8.9221    203.4903    111.5543   8.5693612404e+01   1.7586373806e+01    0.1508603    0.1481069 -72.63  8.89834e-05    1.028    0.027
        41 -10.9568    242.1118     93.7550   7.5010882267e+01   1.2053378954e+01    0.2717328    0.1777818  55.62  0.001359916    1.636    0.389
        42  -8.8017    184.7035     77.6346   8.0674058463e+01   2.8427728137e+01    0.1529499    0.1204702  17.17  0.000703132    1.720    0.419
        43  -9.1505    158.5102     77.4748   8.6065560317e+01   3.4973250286e+01    0.1535175    0.1458859  55.61 8.600248e-05    1.016    0.016
        44 -11.0450      2.3930     69.8884   1.3360555129e+02   6.0930926402e+01    0.3432119    0.0999765 -66.84  0.001405584    3.371    0.703
        45  -9.9850     82.2385    249.4180   1.3782704267e+02   1.2636601640e+01    0.1826645   0.08895667  51.43 0.0009527808    1.658    0.397
        46 -11.6394    244.6857    244.5597   1.0545905686e+02  -1.3307874875e+01    0.2987079    0.1783607 -10.44  0.001680813    1.819    0.450
