#   1 NUMBER                 Running object number                                     
#   2 MAG_AUTO               Kron-like elliptical aperture magnitude                    [mag]
#   3 X_IMAGE                Object position along x                                    [pixel]
#   4 Y_IMAGE                Object position along y                                    [pixel]
#   5 X_WORLD                Barycenter position along world x axis                     [deg]
#   6 Y_WORLD                Barycenter position along world y axis                     [deg]
#   7 A_WORLD                Profile RMS along major axis (world units)                 [deg]
#   8 B_WORLD                Profile RMS along minor axis (world units)                 [deg]
#   9 THETA_WORLD            Position angle (CCW/world-x)                               [deg]
#  10 FWHM_WORLD             FWHM assuming a gaussian core                              [deg]
#  11 ELONGATION             A_IMAGE/B_IMAGE                                           
#  12 ELLIPTICITY            1 - B_IMAGE/A_IMAGE                                       
         1  -8.4804     97.1044     14.7240   3.7758522673e+01   5.7160328018e+01    0.2090789    0.1666321 -44.18  0.000752516    1.442    0.307
         2  -7.6576    119.7812     11.0178   3.2337859567e+01   5.2210867134e+01    0.1449558    0.1040374 -28.71 0.0005160565    1.628    0.386
         3  -8.4175     55.8646      9.7896   4.7095343288e+01   6.6619045350e+01     0.199447    0.1544898 -60.07 0.0006970111    1.912    0.477
         4  -7.8842     47.5957      9.7984   5.0229428526e+01   6.8240845288e+01    0.1535319    0.1122085 -36.04 0.0009407873    1.675    0.403
         5  -8.5291     90.8766      8.7302   3.6865315120e+01   5.9123804558e+01    0.2251026    0.1435415 -57.78 0.0008641772    2.029    0.507
         6  -8.5638     33.5405      5.0389   5.3905012487e+01   7.1288118906e+01    0.2682457    0.1761435 -50.00  0.001393235    2.576    0.612
         7  -8.4249     79.1927      3.7306   3.7546995431e+01   6.2165230892e+01    0.1947642    0.1580514 -40.66 0.0009487852    1.483    0.326
         8  -7.7426     44.6092      2.7948   4.7831276777e+01   6.9474057390e+01    0.1467016    0.1089355 -32.71 0.0005215417    1.648    0.393
         9  -8.0256     15.6639      3.2956   6.2776641089e+01   7.4311009739e+01    0.1009813   0.08983007  44.68 0.0003897347    1.648    0.393
        10  -8.2719     62.5167      1.4480   4.0993321964e+01   6.5965555151e+01    0.1955934    0.1081825  70.31 0.0001929476    2.010    0.503
        11  -9.2798    146.8638    245.8649   8.2054380686e+01   2.4330426294e+00    0.2957912    0.2181954  48.72  0.001321205    1.720    0.419
        12 -10.1206    248.7355    242.2992   6.2164253069e+01  -8.4177617660e+00    0.4920911     0.183886 -41.40  0.002281867    2.536    0.606
        13  -9.4359    233.1420    246.5991   6.5388962247e+01  -7.5410897723e+00    0.4783103    0.1845564 -32.00  0.002106632    2.210    0.547
        14  -9.3230    211.4085    247.2648   6.9309792014e+01  -5.4408805059e+00    0.3642454     0.211436 -54.23  0.001622451    3.117    0.679
        15  -8.5128    148.2568    250.5718   8.2409096774e+01   1.4371039899e+00    0.2160905    0.1082973  22.80 0.0001888503    1.819    0.450
        16  -8.5385     94.2362    249.4003   9.4344029989e+01   8.6107053430e+00    0.2725814    0.1564326  61.64  0.001262929    2.449    0.592
        17  -7.5205     86.4765    250.4584   9.6236084680e+01   9.3875365589e+00    0.1304235    0.1090429  38.17 0.0001466189    1.051    0.048
        18  -8.7264    146.5954    239.8208   8.1250614713e+01   3.5470339059e+00    0.3183076    0.2219126 -85.97   0.00147933    3.145    0.682
        19  -9.0506    120.2502    245.1482   8.7883169609e+01   6.0424066537e+00    0.3368004    0.2240086  64.29  0.001674766    2.338    0.572
        20  -8.7138     67.7956    244.8179   9.9987320752e+01   1.2845368682e+01     0.317869    0.1909417  79.13  0.001577799    2.203    0.546
        21  -8.6480      9.9974    244.0063   1.1296471319e+02   1.9272406236e+01     0.327587   0.09630394  79.16  0.001019937    5.771    0.827
        22  -8.2130    139.4729    244.2149   8.3444386292e+01   3.6868514300e+00    0.1572176    0.1297991 -69.25 0.0009387815    1.688    0.407
        23  -7.9656     58.4771    243.9807   1.0207280176e+02   1.4137299771e+01    0.1844357   0.09600087  72.71 0.0008102213    2.639    0.621
        24  -8.2535    201.8432    243.0893   7.0437937869e+01  -3.7808405980e+00    0.1653888    0.1470195 -14.72  0.000644282    1.343    0.256
        25  -8.6561    169.1213    242.9769   7.6901760882e+01   1.0788691972e-01    0.2115872    0.1921795  16.60 0.0008208084    1.276    0.216
        26  -8.8941     77.6360    242.6817   9.7479797526e+01   1.2070399602e+01    0.2390085    0.1452365  76.46 0.0009843133    2.312    0.567
        27  -9.0933    194.2036    239.9859   7.1412946015e+01  -2.4296837243e+00    0.2794605    0.1661319 -50.86  0.001405883    2.238    0.553
        28  -9.2510    182.9763    240.0037   7.3624655115e+01  -1.1004962171e+00    0.3381051    0.2547796  59.36  0.001499418    2.556    0.609
        29  -9.3864    160.0233    240.1618   7.8393676272e+01   1.7385493306e+00      0.32065    0.2497732 -80.38  0.001353675    2.359    0.576
        30  -8.3865    153.6804    242.1064   8.0040018666e+01   2.2152937125e+00    0.1778276    0.1683417 -79.91  0.001166695    1.508    0.337
        31  -7.9666     88.3584    242.1686   9.4908674225e+01   1.0809949821e+01    0.1694427    0.1240267 -86.33  0.000584594    1.733    0.423
        32  -7.8921     49.4900    242.0135   1.0398697014e+02   1.5597212481e+01    0.1875093   0.09271083  72.22 0.0008099762    2.685    0.627
        33  -8.6888    240.5143    240.0209   6.3139469725e+01  -7.3447037259e+00    0.1673061   0.08765737 -34.23 0.0009894999    1.585    0.369
        34  -9.0539    242.9941    236.2311   6.2139702908e+01  -7.0589527164e+00    0.2871981    0.1373255 -10.16  0.001461967    2.602    0.616
        35  -8.7164    135.9633    238.8530   8.3476968443e+01   5.1375241553e+00    0.2602289    0.1749777  56.73  0.001310173    2.162    0.538
        36 -10.0067    115.9112    237.4734   8.7881196206e+01   8.1047038310e+00    0.2368525    0.2299878 -82.09 -5.717741e-07    1.233    0.189
        37  -8.8069    108.9091    234.2894   8.9107442078e+01   9.6920922118e+00    0.5059141    0.2168973  45.19  0.001710736    2.513    0.602
        38  -9.5112    231.1124    236.8829   6.4215975235e+01  -5.9820415015e+00    0.2595066    0.2275804 -60.40   0.00136874    2.182    0.542
        39  -8.1547    209.1877    238.1853   6.8302299774e+01  -3.8527428130e+00    0.1496408    0.1302655 -25.52 0.0004497255    1.384    0.277
        40  -8.0378    128.6385    238.1862   8.5043310660e+01   6.2474649713e+00    0.1761086    0.1167361 -38.79 0.0009400026    1.619    0.382
        41  -8.0697     25.7962    237.1922   1.0907973213e+02   1.9200465853e+01    0.2334767   0.08536658  57.21 0.0009498086    2.829    0.646
        42 -10.0429    214.9044    233.0415   6.6440453975e+01  -3.7034578442e+00    0.4541837     0.362727 -87.25  0.002356328    3.780    0.735
        43  -8.8562    203.0322    234.4919   6.8860497115e+01  -2.5886422065e+00    0.2611537    0.1677542 -52.96 0.0009267011    2.265    0.559
        44  -9.8716    175.7497    233.1862   7.4027291345e+01   9.3273962545e-01    0.4586228    0.2327148 -54.72  0.002097636    2.806    0.644
        45  -8.4444    170.4270    235.5141   7.5493416701e+01   1.2108404525e+00    0.1890618    0.1233276 -55.75 0.0005131285    2.088    0.521
        46  -8.8006    247.6946    233.9601   6.1026100848e+01  -7.1922894033e+00    0.2481465    0.1274817 -29.42  0.001010878    1.514    0.340
        47  -9.6753    246.5765    228.4638   6.0329250325e+01  -6.3207511743e+00    0.4276972    0.1697832 -38.64  0.001632029    2.089    0.521
        48  -8.7013     78.7048    233.8160   9.6284583876e+01   1.3803513090e+01    0.2902313    0.1814491 -88.29 0.0009438838    2.148    0.534
        49  -8.3120    122.8950    233.8111   8.5761111593e+01   7.8779584641e+00     0.235956    0.1740733  75.96  0.000966863    2.116    0.527
        50  -8.5810    194.6297    232.4618   7.0139702429e+01  -1.2782124208e+00    0.2160287    0.1432566 -50.82 0.0007332712    1.962    0.490
        51  -9.0095    140.1262    230.0510   8.1258728816e+01   6.2404206558e+00    0.2459429    0.1657531  43.95 0.0007672036    1.640    0.390
        52  -8.6301    132.7714    232.6575   8.3318088114e+01   6.7490923137e+00    0.2287541    0.1767588  79.13 0.0009554892    2.055    0.513
        53  -8.5859     92.9139    231.8205   9.2622453589e+01   1.2364692960e+01    0.4307457     0.209223  59.22  0.001228458    3.394    0.705
        54  -9.2481     68.4065    232.0166   9.8583823152e+01   1.5499048840e+01    0.4318255    0.2154101  65.90  0.001733509    2.967    0.663
        55  -9.5528    186.4952    230.5096   7.1424542414e+01   3.5646208520e-02    0.3241674    0.2629083 -76.18  0.001548283    2.361    0.576
        56  -8.1566    157.6086    231.7574   7.7638476457e+01   3.5486340225e+00    0.1623646    0.1256895 -52.19 0.0005169495    1.566    0.361
        57  -9.3161    235.9815    230.3601   6.2356626145e+01  -5.5389923712e+00    0.2453338    0.1327126 -34.65  0.000823131    1.536    0.349
        58  -9.2545    151.4801    228.9813   7.8552479983e+01   4.8863264287e+00    0.2928734    0.2325304 -89.42  0.001570794    2.166    0.538
        59  -9.3891    148.5422    224.2195   7.8466398117e+01   6.1930389283e+00    0.3212374    0.2528891  64.49  0.001609563    1.912    0.477
        60  -8.7046     10.3400    230.6882   1.1220490292e+02   2.2129933434e+01    0.1375561   0.07091769  56.31 0.0007045885    1.695    0.410
        61  -8.4321      1.5696    230.3191   1.1415233707e+02   2.2990659432e+01    0.2004551    0.1066823  60.67  0.001087864    1.628    0.386
        62  -8.1838    229.5467    228.0974   6.3073565135e+01  -4.5427242746e+00     0.172832    0.0944761 -36.04 0.0009977324    1.566    0.362
        63  -8.5479    162.2767    227.8107   7.6013402054e+01   3.6411027505e+00    0.2956584    0.2130503  56.25   0.00154174    2.171    0.539
        64  -8.7248    127.7564    227.0373   8.3663421232e+01   8.5529283781e+00    0.2999367    0.2095172  55.31  0.001525071    1.848    0.459
        65  -8.1862    223.2295    226.4657   6.3896368924e+01  -3.6195094966e+00    0.2257931    0.1114943 -30.55 0.0007396371    1.734    0.423
        66  -8.9957    180.4592    224.0599   7.1593775873e+01   1.9049320872e+00    0.2538075    0.2273401  36.30 0.0007376919    1.432    0.302
        67  -8.2456     99.8022    234.0148   9.1237850555e+01   1.0980353510e+01    0.2241162    0.1463773  66.85  0.001073422    2.146    0.534
        68  -8.2431     49.6080    226.4987   1.0262840082e+02   1.8998648494e+01    0.2536123    0.1347047  68.22  0.001132285    2.273    0.560
        69  -8.7242    206.1267    225.7926   6.6869740500e+01  -1.5706469579e+00    0.2213683    0.1889196 -64.32  0.001118092    1.989    0.497
        70  -8.2259    200.1915    226.2013   6.8054469186e+01  -9.2925305053e-01    0.1533218    0.1393485 -25.46 0.0004498789    1.358    0.263
        71  -9.1930    140.1958    225.0344   8.0484258554e+01   7.2033511447e+00    0.3519534    0.2024687 -46.75   0.00108482    1.815    0.449
        72  -8.9772     94.3785    224.2466   9.1319545062e+01   1.3795427372e+01    0.4553676    0.2479334  64.77  0.001739335    3.092    0.677
        73  -9.0481    216.4270    223.1788   6.4557095456e+01  -2.3524788760e+00    0.2827992     0.185766 -42.19  0.001221814    1.590    0.371
        74  -8.8128    104.7354    223.4313   8.8667420767e+01   1.2537340225e+01    0.3325768    0.2230925  70.57  0.001556168    2.194    0.544
        75  -7.7537     38.4319    224.4847   1.0518045961e+02   2.0717344972e+01    0.1343591    0.1109456  58.81 0.0001763288    1.076    0.070
        76  -8.6482    173.1435    222.9327   7.2920634346e+01   3.0676795263e+00    0.2181854    0.2077556 -27.03 0.0007428339    1.310    0.236
        77  -8.3958    163.3383    222.6710   7.4961490401e+01   4.4396587032e+00    0.2756523    0.2019612  50.38  0.001140641    1.856    0.461
        78  -8.5823    159.2328    220.3931   7.5483775527e+01   5.4312502657e+00    0.2406803    0.1895395  48.91 0.0009560108    1.623    0.384
        79  -7.7346    113.8456    223.6053   8.6477188290e+01   1.1218932053e+01    0.1935629    0.1142969  39.83 0.0003201743    1.609    0.379
        80  -9.1926    238.9775    221.3716   6.0402904505e+01  -4.5376276857e+00    0.2581695    0.1584916 -43.11 0.0008597268    1.724    0.420
        81  -9.3314    225.6840    221.3302   6.2624997021e+01  -3.1066424437e+00    0.2966397    0.1954698 -32.80  0.001248215    1.299    0.230
        82  -8.6269    202.5130    220.3471   6.6642751850e+01  -2.5097533818e-01    0.2884477    0.1421859 -29.13  0.001263342    1.956    0.489
        83  -9.4072    192.3810    221.0719   6.8713295391e+01   8.8928557391e-01    0.3005802     0.232269 -54.36 0.0008940627    1.766    0.434
        84  -8.4891     27.2559    221.1075   1.0763314575e+02   2.2677078652e+01    0.2913749    0.1421312 -54.04  0.001357834    2.314    0.568
        85  -9.1536    120.5822    219.1252   8.4200954121e+01   1.1200716887e+01    0.4848017    0.2610661  56.33  0.001893744    2.975    0.664
        86  -8.6408     82.9658    220.4039   9.3678490487e+01   1.6197415462e+01    0.2915059    0.1791247  55.29  0.001333917    1.809    0.447
        87  -8.4689     73.2066    220.5601   9.6152774466e+01   1.7451141569e+01    0.2524739    0.1518718  78.15 0.0009350699    2.309    0.567
        88  -8.2157      5.5738    219.7520   1.1271036454e+02   2.5033569546e+01    0.1864705    0.1006216  79.87 0.0009572949    1.766    0.434
        89  -8.4168    210.1759    218.7821   6.4954920320e+01  -9.2180086047e-01    0.2023104    0.1457654 -39.11 0.0006571952    1.403    0.287
        90  -9.4931    248.4411    217.4916   5.8256072837e+01  -4.9398689338e+00    0.2826461    0.2220129  69.22  0.001566155    3.883    0.742
        91  -9.3557    133.0617    215.8969   8.0724388736e+01   1.0063101425e+01    0.4931646    0.3228753  75.00  0.001984571    3.276    0.695
        92  -8.6077     62.1387    217.2372   9.8584926476e+01   1.9627502263e+01    0.3514423    0.1908481  61.75  0.001255561    2.215    0.549
        93  -8.9614     51.7758    217.2987   1.0122154527e+02   2.0871377414e+01    0.3048076    0.1715391  82.84  0.001134165    2.219    0.549
        94  -8.4639    142.9960    216.3973   7.8484899460e+01   8.5164975471e+00    0.2832879    0.2112107  74.23  0.001374074    2.283    0.562
        95  -8.2154    111.8331    217.1959   8.6048347870e+01   1.2873973159e+01    0.2397443    0.1393749  62.75 0.0009429291    2.885    0.653
        96  -8.9545    169.5552    216.4214   7.2598358668e+01   4.7420473100e+00    0.3216988    0.2238551 -65.51  0.001537496    2.298    0.565
        97  -8.9498    232.3274    214.5273   6.0363398795e+01  -2.7982713178e+00    0.2160759    0.1828111 -40.12 0.0009537647    1.503    0.335
        98  -9.3989    214.0999    212.1812   6.3122166626e+01  -3.1985341105e-01    0.3380551      0.25197  49.81  0.001665828    2.162    0.538
        99  -8.3589    185.6686    214.1493   6.8876823171e+01   2.9646348081e+00    0.1862893    0.1598771 -50.21  0.001122105    1.475    0.322
       100  -8.8173     93.5832    213.9946   9.0163724835e+01   1.6188679492e+01    0.4328389    0.1763227  45.85  0.001575705    2.635    0.621
       101  -9.4558     73.5030    211.8560   9.5046828916e+01   1.9431062535e+01     0.741429    0.2805283  54.19  0.002297732    4.136    0.758
       102  -8.1217    154.4057    215.1886   7.5697592073e+01   7.1111737474e+00    0.1768293     0.131679 -57.53 0.0009396521    1.654    0.395
       103  -8.4469    161.8086    212.1885   7.3557221095e+01   6.6319488831e+00    0.1965553    0.1840835  53.35  0.001131576    1.387    0.279
       104  -7.6703    106.4894    212.5263   8.6694913315e+01   1.4672546846e+01    0.1422716    0.1303432  36.60 0.0008090297    1.070    0.066
       105  -8.9964    204.1577    210.6091   6.4675675219e+01   1.1725348444e+00    0.2433604    0.1872714 -42.18  0.000757931    1.405    0.288
       106  -9.3449    175.4070    209.7414   7.0224787298e+01   5.1686929300e+00    0.3861056    0.2757352  64.34  0.001600403    2.703    0.630
       107  -8.6486    148.0856    210.5073   7.6348770539e+01   8.9582050684e+00    0.2697011    0.2196678  83.92  0.001381566    1.910    0.476
       108  -8.7887    116.3075    210.1714   8.3890601875e+01   1.3752495689e+01    0.3088072    0.2180649  72.56 0.0008912965    2.137    0.532
       109  -9.2245      6.6945    209.2699   1.1185007275e+02   2.7397571282e+01     0.509576    0.1533163  68.27  0.001540986    5.089    0.804
       110  -8.4810    192.3651    210.2631   6.6876494421e+01   2.7613835504e+00    0.1854229    0.1602001  46.91 0.0007494834    1.604    0.377
       111  -9.0409    236.5046    208.1714   5.8602192966e+01  -2.2847733129e+00    0.2301688    0.1824406 -44.94 0.0009055939    1.564    0.361
       112  -8.1819     41.3910    215.1729   1.0364818464e+02   2.2566488014e+01    0.1948915    0.1187401  86.40  0.000950061    1.794    0.443
       113  -8.2294     85.4481    209.2969   9.1618790194e+01   1.8410633323e+01    0.2526225    0.1538438  50.28  0.001027508    1.726    0.421
       114  -8.1885     46.3910    209.2618   1.0180899106e+02   2.3418147144e+01    0.1886493    0.1241425  88.81 0.0006048061    1.634    0.388
       115  -9.5382    246.3605    206.9568   5.6830116300e+01  -3.1729483799e+00    0.2735793    0.1614215 -39.94 0.0006889108    1.502    0.334
       116  -8.0415    156.5545    207.7445   7.3962841501e+01   8.2634336857e+00    0.1772445    0.1338826 -57.70 0.0009336225    1.613    0.380
       117  -8.4236    139.2229    207.7776   7.7953108239e+01   1.0837181341e+01    0.2472376    0.2123049  71.90  0.001240778    1.566    0.361
       118  -7.9872    126.4104    208.2253   8.1099348910e+01   1.2667977812e+01    0.1881154    0.1400482 -68.69 0.0007349577    1.698    0.411
       119  -9.1332     99.3891    205.6820   8.7496724735e+01   1.7261229973e+01    0.4431325    0.2867445  81.81  0.001265313    2.474    0.596
       120  -8.7038     11.8530    206.8259   1.1042584691e+02   2.7536292014e+01    0.1893377    0.1299337  60.70 0.0006707474    1.310    0.237
       121  -8.5140     56.6410    205.3932   9.8711691440e+01   2.3139007298e+01    0.3801112    0.1983936  63.13  0.001245696    2.410    0.585
       122  -9.4496    194.9999    202.9846   6.5084447070e+01   3.6971805711e+00    0.4173717    0.2892224 -42.18  0.001325161    1.414    0.293
       123  -9.3504    192.3897    196.9193   6.4504303498e+01   5.1504828980e+00     0.343007    0.2161575 -46.75 0.0008839027    1.620    0.383
       124  -9.0674    183.8203    203.6489   6.7421469427e+01   5.1181477014e+00    0.2968886    0.2405273  64.84  0.001196947    2.018    0.504
       125  -7.9853    108.8498    205.0403   8.4973291654e+01   1.6009346267e+01     0.227373    0.1656268  78.47  0.001052046    1.954    0.488
       126  -9.6017    163.9347    202.9076   7.1486451122e+01   8.1296063915e+00     0.440296    0.2856318  51.74  0.001197627    2.157    0.536
       127  -8.4213    131.2349    203.7177   7.9186905252e+01   1.2910013372e+01    0.2839491    0.2210844  76.36  0.001117475    1.884    0.469
       128  -9.4532    250.2009    201.7000   5.5354508377e+01  -2.7945767904e+00    0.4400458    0.1380794 -41.09  0.001508401    2.581    0.613
       129  -9.5809    245.7698    193.4324   5.4614156374e+01  -1.0470128110e+00    0.3397634    0.2349343 -60.43  0.001935935    2.521    0.603
       130  -9.1214    243.1453    200.5970   5.6251906480e+01  -1.8579403037e+00    0.3129469    0.1383464 -40.46 0.0009679118    1.868    0.465
       131  -8.8071    140.7118    201.1380   7.6474752079e+01   1.2007762847e+01     0.325089    0.2510999  66.75  0.001619504    1.862    0.463
       132  -7.6911     72.7782    201.9902   9.3996329731e+01   2.1891633008e+01    0.1787869    0.1171641 -65.03 0.0003154303    1.586    0.369
       133  -7.7059     41.2881    202.6465   1.0249467244e+02   2.5617065973e+01    0.1488475   0.09253041  62.97 0.0007024673    1.671    0.402
       134  -8.1776    222.2021    201.2167   5.9794983274e+01   4.8911148874e-01    0.1595783    0.1318267 -40.67 0.0004930418    1.370    0.270
       135  -8.4348     80.0163    200.9137   9.1914179855e+01   2.1162800254e+01    0.3174582    0.1854928  61.42  0.001324268    2.208    0.547
       136  -9.3763    149.6131    198.4398   7.3918128151e+01   1.1201863360e+01    0.4140818    0.3114574  85.52  0.001505611    2.329    0.571
       137  -8.6169    124.1130    199.1848   8.0179109299e+01   1.5002190233e+01    0.3338602    0.2378182  75.05  0.001289166    2.226    0.551
       138  -9.3530    112.8926    198.1117   8.2839677521e+01   1.6980176078e+01    0.4454107    0.3013062  71.44  0.001595146    2.287    0.563
       139  -9.1221    237.0500    198.0590   5.6778332653e+01  -7.7139412095e-01    0.3073201    0.1408843 -43.72  0.001013751    1.985    0.496
       140  -8.3553    176.8687    198.5721   6.7943630839e+01   7.0663869961e+00    0.2463375    0.1743338 -58.78 0.0006236602    1.854    0.461
       141  -9.0096     88.8459    198.4539   8.9202827491e+01   2.0503237988e+01    0.3662447    0.2574365  69.33  0.001404175    1.792    0.442
       142  -8.3174    202.6706    197.8232   6.2699168296e+01   3.5752388186e+00    0.1997067     0.167658  63.01 0.0007312308    1.931    0.482
       143  -9.1834     61.2757    196.6203   9.6430393273e+01   2.4726877535e+01     0.521236    0.2821368  72.27  0.001820534    2.682    0.627
       144  -8.0505     53.8638    196.5716   9.8452891187e+01   2.5664575028e+01    0.2900873     0.155506  62.50  0.001188679    2.278    0.561
       145  -8.1862     29.4891    197.5179   1.0515174071e+02   2.8154961706e+01    0.1371371    0.1220494  70.09 8.395946e-05    1.013    0.013
       146  -8.5109     12.5555    196.9904   1.0957317486e+02   2.9886043652e+01    0.2853197    0.1410361  75.56  0.001270679    2.142    0.533
       147  -8.6312    215.8551    195.2663   5.9845165107e+01   2.2788652049e+00    0.2629752    0.1585411 -51.05 0.0008262655    1.969    0.492
       148  -7.9262    133.0463    195.9467   7.7418589316e+01   1.4322385293e+01    0.2136482    0.1764994  72.51 0.0006878512    1.620    0.383
       149  -7.7744     36.3093    196.6094   1.0323457202e+02   2.7670169306e+01    0.1554476   0.09042058  62.78  0.000701199    1.824    0.452
       150  -8.9310    185.2706    194.4723   6.5472516951e+01   6.6192664373e+00     0.272321    0.2070379 -51.35 0.0008293831    1.503    0.334
       151  -8.9685    160.9059    194.1667   7.0585390772e+01   1.0336161618e+01    0.2940439    0.2408433 -87.05   0.00104111    1.888    0.470
       152  -8.0798    230.9652    193.9687   5.7047712913e+01   6.0313839637e-01    0.1539159    0.1151615 -26.73 0.0004813387    1.053    0.050
       153  -8.7870    224.6578    193.6095   5.8032210747e+01   1.4384874754e+00    0.2780054    0.1431662 -46.40  0.001021657    1.938    0.484
       154  -8.8428     77.1457    193.8688   9.1711503363e+01   2.3289761123e+01     0.272482    0.2220313  52.89  0.000563558    1.230    0.187
       155  -8.9735     43.6761    193.1699   1.0086869043e+02   2.7725994420e+01    0.4060385     0.213648  65.40  0.001674334    2.311    0.567
       156  -8.2587    199.0493    191.6476   6.2258786175e+01   5.1738721547e+00    0.2152692    0.1650716 -44.06 0.0006085123    1.339    0.253
       157  -8.3583    172.2747    191.5609   6.7629147472e+01   9.1131357205e+00    0.2429448    0.1624313 -54.19 0.0007773379    1.726    0.421
       158  -8.3717    211.2395    201.9326   6.1855125383e+01   1.7411327106e+00    0.2201121    0.1831888 -62.02   0.00112039    1.811    0.448
       159  -7.2974    205.2740    191.6205   6.1090770637e+01   4.3168785616e+00    0.1204918    0.1003558 -62.63 0.0003327804    1.700    0.412
       160  -7.9874    179.1893    191.2454   6.6119322056e+01   8.1301231365e+00    0.1765565    0.1588621 -55.21  0.000687806    1.358    0.263
       161  -9.0624    139.5337    190.4476   7.4863351061e+01   1.4495916375e+01    0.3365324    0.2442651  65.74  0.001185899    2.048    0.512
       162 -10.3722     92.5156    188.7719   8.6731449830e+01   2.2315934728e+01     1.092132    0.2820238  42.57  0.003094223    4.047    0.753
       163  -8.6916     21.1519    190.9975   1.0682432278e+02   3.0616303686e+01     0.351703    0.1494635  56.81  0.001402491    2.550    0.608
       164  -8.4956    148.4184    188.7855   7.2446547388e+01   1.3427214403e+01    0.2621907    0.1402942 -53.99   0.00102869    2.050    0.512
       165  -8.7908    129.3669    188.3617   7.6982895798e+01   1.6600527076e+01    0.3030588    0.2346829  67.55 0.0008916451    1.743    0.426
       166  -9.6209    120.7352    186.2201   7.8788818635e+01   1.8490634131e+01    0.5291644    0.3132203 -74.13  0.002016636    2.754    0.637
       167  -8.8511     34.1830    188.0822   1.0296701533e+02   3.0067714387e+01     0.357045    0.1990976  77.56  0.001553329    2.085    0.520
       168  -8.5281    237.3237    187.7995   5.4935958745e+01   8.2944725739e-01    0.2417364    0.1179627 -37.79  0.001170601    1.640    0.390
       169  -8.6879    216.5968    187.5642   5.8322474545e+01   3.4973408207e+00    0.2372192    0.1752865 -49.84 0.0008231265    1.540    0.350
       170  -8.6870    191.5602    187.3608   6.2905746362e+01   7.0342850458e+00    0.2558537    0.2072326 -74.60  0.000911182    1.945    0.486
       171  -9.2643    155.9105    187.2084   7.0422077432e+01   1.2558560576e+01    0.3298924    0.2383319 -59.15 0.0008060011    1.650    0.394
       172  -9.0845     54.6824    186.6205   9.7018315180e+01   2.8095486408e+01    0.4564572    0.2543358  68.78  0.001627171    2.360    0.576
       173  -8.3732    230.3501    186.9102   5.5892051098e+01   1.8320346565e+00    0.1899906    0.1311182 -44.91 0.0007311566    1.448    0.310
       174  -8.7635    164.9183    186.5851   6.8289304690e+01   1.1253232336e+01    0.2773962    0.2319507  79.91  0.001225389    1.793    0.442
       175  -9.1912    109.4612    185.8530   8.1673934302e+01   2.0391502273e+01    0.4164781    0.2901908  72.98  0.001095709    2.109    0.526
       176  -9.5438    248.6877    185.4225   5.2784047152e+01  -1.3632145772e-01    0.2786358    0.2243829   7.04  0.001352803    1.343    0.256
       177  -9.0929    210.1375    184.1907   5.8839874735e+01   4.9614920548e+00    0.2572955    0.1579689 -42.87 0.0004851671    1.481    0.325
       178  -8.7242    202.8632    184.4571   6.0211876583e+01   5.9352094664e+00    0.2310584    0.1700727 -51.93 0.0007328641    1.556    0.357
       179  -8.7359    183.0056    184.5494   6.4080465034e+01   8.8463949891e+00    0.2464408    0.1817766 -55.34 0.0005943273    1.599    0.374
       180  -9.0704     66.8667    184.4314   9.3254708832e+01   2.7083139691e+01    0.4198595    0.2347293  49.42  0.001100373    1.886    0.470
       181  -8.6276    224.1452    183.5782   5.6310244441e+01   3.1818516106e+00    0.2152444    0.1439334 -42.64 0.0006200362    1.376    0.273
       182  -8.8203    197.2735    183.4372   6.1068004454e+01   6.9273122731e+00    0.2169535    0.1545698 -57.11  0.000661887    1.778    0.438
       183  -8.8316    174.2906    183.5043   6.5685427771e+01   1.0398233263e+01    0.2605193    0.2259441 -66.37 0.0005143698    1.481    0.325
       184  -9.0154     44.4591    182.2837   9.9411324052e+01   3.0440734732e+01    0.4057612    0.2232249  60.19  0.001007222    2.092    0.522
       185  -8.2890      2.1148    183.5474   1.1139966055e+02   3.4113648508e+01     0.237724     0.113241  29.84  0.001119554    2.065    0.516
       186  -9.2006    147.6399    180.6067   7.1087827789e+01   1.5318984683e+01    0.3594509    0.2854018 -80.52  0.001111969    1.786    0.440
       187  -8.1760    235.3311    180.9588   5.4027079659e+01   2.1844378981e+00    0.2422991   0.09349451 -46.07   0.00107929    2.456    0.593
       188  -7.7702     90.4795    181.4524   8.6107633783e+01   2.4438703762e+01    0.1493998    0.1439666  -6.10 0.0004677717    1.061    0.058
       189  -9.4626     25.4469    178.4461   1.0447223229e+02   3.3449482625e+01    0.7523749    0.2957461  75.13  0.002241505    4.568    0.781
       190  -8.2510    240.5024    179.9877   5.3053322004e+01   1.6999517513e+00    0.1653554   0.09294418 -55.24  0.000810402    2.567    0.610
       191  -8.6050    137.8118    179.2791   7.3201020065e+01   1.7254702387e+01    0.2779157    0.2236825  68.04  0.001184183    1.645    0.392
       192  -9.4298    191.5962    178.2351   6.1167430333e+01   8.7467925933e+00    0.2946509    0.2526297  88.24 0.0006227756    1.785    0.440
       193  -8.8555    250.5126    172.4849   5.0241326447e+01   1.6776491783e+00     0.236726    0.1515438 -35.62 0.0006033222    1.194    0.162
       194  -9.2880    248.9251    177.3064   5.1323502808e+01   1.1077101191e+00    0.2767597     0.218663 -60.76  0.001132074    1.819    0.450
       195  -8.7179    247.2950    173.6628   5.0913178762e+01   1.8813550044e+00    0.2323884    0.1034346 -40.64 0.0005357739    1.766    0.434
       196  -8.6050    217.4281    177.0155   5.6230768975e+01   5.2120486668e+00    0.2541677     0.168007 -51.54  0.000878944    1.686    0.407
       197  -8.7846    205.0204    177.4144   5.8489240830e+01   6.9014930791e+00    0.2432455    0.1659152 -50.14 0.0005802316    1.560    0.359
       198  -7.6201    169.4753    178.5028   6.5747566123e+01   1.2172826443e+01    0.1401239    0.1308981 -24.80 0.0001226205    1.087    0.080
       199  -8.5118    129.3922    177.3237   7.4929520867e+01   1.9117610635e+01    0.3352886    0.2291642  74.06  0.001130369    2.504    0.601
       200  -9.0561     35.8644    176.3948   1.0122451934e+02   3.2936441597e+01    0.5464823    0.2433793  74.03  0.001775343    3.718    0.731
       201  -8.6276    231.1999    176.6235   5.3892185445e+01   3.4291236521e+00    0.2403865    0.1396212 -39.57 0.0007057358    1.413    0.292
       202  -7.9097     97.3925    177.2729   8.3464605205e+01   2.4405887857e+01    0.1585255    0.1165268 -11.62 0.0006990196    1.729    0.422
       203  -8.6557     89.0777    176.6248   8.5694892609e+01   2.5867783396e+01    0.2896785    0.2267648  70.95  0.000723011    1.508    0.337
       204  -9.3006     59.1350    175.6578   9.4257278158e+01   3.0383467228e+01    0.6086888    0.2779534  60.18  0.001800848    3.461    0.711
       205  -9.1646     55.7800    170.3878   9.4504729080e+01   3.2204837921e+01    0.4549304    0.2503435  70.91  0.001699244    2.653    0.623
       206  -9.0842     12.8918    176.2595   1.0786433333e+02   3.5142283178e+01    0.3178634    0.1703216  80.09  0.001419643    1.964    0.491
       207  -8.0632    211.5421    176.4691   5.7146111908e+01   6.1338341010e+00    0.1305127    0.1095993 -28.80 0.0002265278    1.050    0.048
       208  -9.0983    183.0681    175.6805   6.2360642833e+01   1.0561478944e+01    0.2962712    0.2110533 -52.13 0.0007248292    1.514    0.340
       209  -9.4198    158.6439    174.4384   6.7339611799e+01   1.4805437344e+01    0.4731371    0.3348524 -81.09  0.001538471    2.527    0.604
       210  -9.2127    104.3273    174.4741   8.1040091490e+01   2.3982064252e+01     0.589036    0.3369915  62.89  0.001884648    2.889    0.654
       211  -8.9414    224.7094    174.2650   5.4502860581e+01   4.6898768219e+00    0.2843928    0.1445798 -50.95 0.0007841838    2.212    0.548
       212  -9.7461     81.8265    154.6748   8.3890888867e+01   3.2650774010e+01    0.5607708    0.4920525 -73.73  0.001947464    1.183    0.154
       213 -10.6198     76.0695    170.9677   8.8520783384e+01   2.9273648629e+01     1.112874    0.5199834 -81.06  0.003224958    4.317    0.768
       214  -9.5329     74.7280    159.8515   8.7023312522e+01   3.2380761605e+01    0.4984548    0.2912098   0.26  0.001767365    2.924    0.658
       215  -9.3553    175.8549    172.0159   6.3118791031e+01   1.2448870800e+01    0.3285353     0.210103 -48.37 0.0009753242    1.543    0.352
       216  -8.2941    151.2091    173.0242   6.8767479650e+01   1.6368363854e+01     0.230139    0.1897608 -20.40 0.0004063651    1.222    0.182
       217  -8.5337    149.7088    169.1674   6.8346341221e+01   1.7469219429e+01    0.2889864    0.2140403 -68.12  0.000774934    1.748    0.428
       218  -8.0793    143.0195    172.6889   7.0647621158e+01   1.7845346809e+01    0.2654058    0.1885699 -61.76 0.0006699476    1.655    0.396
       219  -8.3139    134.9473    171.6317   7.2423534044e+01   1.9476150086e+01     0.257689    0.2138607  88.42  0.000894749    1.597    0.374
       220  -9.5861    121.4394    170.3664   7.5643018102e+01   2.2102250339e+01    0.4100379    0.2937091 -77.77  0.001013633    1.922    0.480
       221  -9.2026     45.2456    170.8472   9.7750343251e+01   3.3364307072e+01    0.4223562    0.2289224  78.18  0.001269454    2.553    0.608
       222  -8.8247    230.3954    169.1675   5.2645316865e+01   4.7872234086e+00      0.46021     0.165532 -49.09  0.001820566    3.114    0.679
       223  -8.5524    205.8804    170.1263   5.6937872632e+01   8.1024067505e+00    0.2616144    0.1717221 -55.93  0.000756485    1.844    0.458
       224  -8.5359    237.2551    169.3578   5.1623146926e+01   3.8459388083e+00    0.2127337    0.1431506 -39.76 0.0007031343    1.226    0.185
       225  -8.6677    198.7536    170.1048   5.8232098224e+01   9.1847692256e+00    0.2014233    0.1717737 -50.77 0.0007977301    1.292    0.226
       226  -8.3080    244.4774    168.9842   5.0483070896e+01   2.9807477580e+00    0.1858718   0.09503674 -40.23 0.0004607509    1.542    0.352
       227  -8.7188    218.8544    168.2818   5.4344694467e+01   6.5396070010e+00    0.2127048     0.154528 -44.81 0.0005527063    1.295    0.228
       228  -9.3608    167.0090    168.4129   6.4279211334e+01   1.4659524949e+01    0.3344361    0.2471367  67.00  0.001151151    2.050    0.512
       229  -8.1038     89.0057    168.7909   8.4352224482e+01   2.7871179904e+01    0.2581477    0.1583966  55.80 0.0009907394    1.983    0.496
       230  -8.0962    211.4684    167.9810   5.5540985568e+01   7.6627889925e+00    0.1798684     0.106031 -59.27 0.0008091117    2.497    0.599
       231  -8.8148    111.5890    167.3369   7.7698121744e+01   2.4520362430e+01    0.3239194    0.2384499  80.33  0.001163136    1.939    0.484
       232  -9.0342    192.0862    166.5551   5.8788613312e+01   1.0899276813e+01    0.2868598    0.2186802 -51.41 0.0008411178    1.380    0.275
       233  -9.0203    185.0584    166.4752   6.0140599827e+01   1.2047188468e+01      0.26126    0.1810408 -55.15 0.0006877276    1.618    0.382
       234  -8.2369     13.3063    167.6463   1.0698154943e+02   3.7368698094e+01    0.1503503   0.09070636  63.23 0.0007041864    1.715    0.417
       235  -9.7214    137.2372    164.4314   7.0401394162e+01   2.0721789251e+01    0.7082351    0.3290686  54.03  0.002217162    3.511    0.715
       236 -10.0805     94.9015    163.0063   8.1573089689e+01   2.8398860730e+01    0.8521003    0.5131614  73.35  0.002967754    3.059    0.673
       237  -9.0674     20.1821    165.9094   1.0475544891e+02   3.7246953149e+01    0.3938147    0.1575959  48.20  0.001510639    2.646    0.622
       238  -8.2915    233.9720    164.7839   5.1278178247e+01   5.0419878115e+00    0.2173778    0.1330695 -48.50 0.0006651306    1.591    0.372
       239  -9.5617     33.5451    163.2434   1.0035931148e+02   3.6682495782e+01    0.6421614    0.2727401  51.84  0.002353709    2.773    0.639
       240  -8.2413    240.0466    163.9666   5.0217722966e+01   4.3686537472e+00    0.1783972    0.1367646 -59.43 0.0005659604    1.670    0.401
       241  -8.6667    212.9022    163.5002   5.4429287308e+01   8.2552007012e+00    0.2431338    0.1638311 -44.10 0.0004769366    1.330    0.248
       242  -8.7258    159.4867    163.9024   6.5020466203e+01   1.6905649779e+01    0.2600039     0.227486  86.65 0.0007865338    1.489    0.328
       243  -9.0450    246.0555    162.8166   4.9139275095e+01   3.7758056158e+00    0.2121692    0.1365251 -38.11 0.0004300189    1.209    0.173
       244  -8.4140    205.0544    162.6564   5.5628039235e+01   9.5984102729e+00    0.2229703    0.1620333 -46.29  0.000501043    1.304    0.233
       245  -8.4007     57.4252    163.3653   9.2952626321e+01   3.3862490606e+01    0.2918403    0.1440935   7.80 0.0009553205    3.420    0.708
       246  -9.3157      3.3597    162.1965   1.0945885062e+02   3.9554147741e+01    0.4602429    0.1992191  53.70  0.001895236    2.472    0.595
       247  -9.1215    177.3882    160.3658   6.0444619573e+01   1.4543465747e+01    0.3002243    0.2248013 -58.80  0.000785124    1.535    0.348
       248  -8.8666    151.5527    160.7115   6.6175283531e+01   1.9000198912e+01    0.2812917    0.2385345 -69.50  0.000848451    1.399    0.285
       249  -8.9071     60.9561    160.2394   9.1358351979e+01   3.4230224862e+01    0.4002486    0.2471667  68.74  0.001272605    2.159    0.537
       250  -9.6686    250.2121    157.5510   4.7605482179e+01   4.0889706851e+00    0.3220066    0.1450839 -43.30 0.0008654129    1.769    0.435
       251  -8.8011    246.7520    155.3507   4.7680751270e+01   4.8921786068e+00    0.1700466    0.1204643 -41.40 0.0004495352    1.157    0.136
       252  -7.5352    242.2909    159.7026   4.9107950033e+01   4.7722849464e+00    0.1125221    0.0856589 -56.66 0.0002815687    1.559    0.358
       253  -8.4311    237.0147    158.9935   4.9744992064e+01   5.5969154533e+00    0.1849324    0.1374374 -59.88 0.0005380135    1.697    0.411
       254  -8.6074    227.2179    158.6800   5.1171059192e+01   7.0144136864e+00    0.2486373    0.1689586 -57.07  0.001061135    1.768    0.435
       255  -8.4237    128.0801    158.4900   7.1499328825e+01   2.3741480953e+01    0.2470314    0.2169387 -81.89  0.000668455    1.340    0.254
       256  -9.6202    105.7629    157.6729   7.7403431361e+01   2.7906960449e+01    0.4956754    0.3428499  76.19  0.001240192    2.195    0.544
       257  -8.7083    196.7808    157.5810   5.6109471264e+01   1.1856884069e+01    0.2564613    0.1640529 -55.85  0.000924485    1.794    0.442
       258  -8.3492    188.1576    157.6508   5.7746541061e+01   1.3263560997e+01    0.2441306    0.1717089 -49.95 0.0006545575    1.408    0.290
       259  -9.1979    167.5517    157.0035   6.1809074275e+01   1.6943705580e+01    0.3427432    0.2545497 -79.05  0.001063983    2.071    0.517
       260  -8.6183    217.9895    156.4467   5.2211168155e+01   8.7529986972e+00    0.2499321     0.157055 -51.49 0.0009316863    1.634    0.388
       261  -8.8428    157.6580    155.6123   6.3695863067e+01   1.9009904425e+01     0.360463    0.1740582 -48.76  0.001415791    2.017    0.504
       262  -9.2600    119.5367    154.5794   7.2941086308e+01   2.6218762057e+01    0.5120009    0.3230217 -74.22  0.001422965    2.413    0.586
       263  -9.4253     49.8163    155.1280   9.4077639698e+01   3.7036147932e+01    0.4584717    0.2356194  55.94  0.001490475    2.466    0.594
       264  -8.4674     23.1587    155.6538   1.0270457872e+02   3.9729678300e+01    0.2995982    0.1566166 -22.33  0.001152182    2.914    0.657
       265  -9.6152    241.8018    154.0678   4.8137480297e+01   5.7620597363e+00    0.3344134    0.2461828  87.46  0.001706956    2.656    0.624
       266  -9.0649    243.3163    149.9707   4.7165175189e+01   6.2282208973e+00    0.3421794    0.1373289 -40.55  0.001418815    1.951    0.487
       267  -7.9385    204.7138    155.2109   5.4209631728e+01   1.1026527314e+01    0.2048455    0.1468719 -50.72 0.0005681849    1.395    0.283
       268  -8.4794    144.3854    154.3206   6.6521710557e+01   2.1719465943e+01     0.307988    0.2159975  74.44 0.0008348346    2.330    0.571
       269  -9.5772     68.0375    153.3611   8.7952527309e+01   3.5077919147e+01     0.573238    0.3341163  72.36  0.001871288    2.790    0.642
       270  -9.6990    132.6761    152.5356   6.9046348915e+01   2.4291500688e+01     0.453748    0.3465607  75.36  0.001170865    1.825    0.452
       271  -9.1040    133.5980    148.1856   6.7860627978e+01   2.5126374937e+01     0.405784    0.2203177 -43.98  0.001640989    1.801    0.445
       272  -8.4766    151.8043    152.3487   6.4337816968e+01   2.0788855797e+01    0.2120246    0.1852919 -52.37 0.0005529305    1.160    0.138
       273  -9.5326     29.3403    150.6258   1.0008276004e+02   4.0509303425e+01    0.4742029     0.244898  64.82  0.001673617    2.552    0.608
       274  -8.5414     20.0230    152.0547   1.0328767828e+02   4.0975311791e+01    0.2382541    0.1514207  64.05 0.0008514703    1.723    0.419
       275  -8.8659      8.9705    153.0000   1.0691202595e+02   4.1596322707e+01    0.3356746   0.07985197  17.38  0.001026336    4.710    0.788
       276  -8.6499      3.1177    150.7651   1.0854252445e+02   4.2595347800e+01    0.4193847    0.1417432 -86.50  0.001417389    3.331    0.700
       277  -9.4693    248.9167    149.1828   4.6256497433e+01   5.6009826902e+00    0.3098253    0.1366464 -40.08 0.0008159823    1.749    0.428
       278  -8.9914    189.4787    149.9662   5.5907451084e+01   1.4536888485e+01    0.3145629    0.2135367 -62.54 0.0008736285    1.886    0.470
       279  -8.0417    182.4138    151.1509   5.7517182723e+01   1.5524313787e+01    0.2006627    0.1244429 -53.84 0.0005907306    1.719    0.418
       280  -8.7367     98.3480    150.5154   7.8079690595e+01   3.0987360368e+01    0.3343651    0.2345814  67.61  0.000787309    1.921    0.479
       281  -8.3692    212.9785    149.5136   5.1667332491e+01   1.0760380509e+01    0.2005572    0.1541162 -39.59 0.0003991055    1.102    0.093
       282  -8.2242    162.6352    150.3456   6.1457726836e+01   1.9228719565e+01    0.2217972    0.1781597 -84.28 0.0007626743    1.710    0.415
       283  -9.6358     40.1181    147.7593   9.6116553232e+01   4.0163805491e+01     0.620863    0.2966831  58.66  0.001963807    2.968    0.663
       284  -8.5233    198.8290    148.6295   5.3914855400e+01   1.3213292273e+01     0.252501    0.1606721 -55.44 0.0007069596    1.735    0.424
       285  -9.9374     89.3208    146.1506   7.9888613878e+01   3.3639403601e+01    0.7409148    0.4435347  88.81  0.002434699    3.375    0.704
       286 -10.0849    233.9823    146.1525   4.7767953336e+01   8.1749679849e+00    0.5455245    0.1960007 -32.81  0.002094021    3.181    0.686
       287 -10.4153     55.1942    144.8063   9.0604728591e+01   3.9136450485e+01    0.8760319    0.4520083  67.77  0.002815105    3.585    0.721
       288  -9.6918     57.2885    134.7815   8.8035847863e+01   4.1541576502e+01    0.4416852    0.2348558  15.12 0.0008582511    2.415    0.586
       289  -8.5019    223.2463    146.5721   4.9450696014e+01   9.6953759093e+00     0.239323    0.1462751 -41.27 0.0005841675    1.348    0.258
       290 -10.3268    148.9783    144.9047   6.3364658997e+01   2.2953718146e+01    0.5856334    0.4151054 -87.20   0.00157194    2.362    0.577
       291 -10.3181    106.3931    143.7290   7.4273000315e+01   3.1257342523e+01    0.8353661    0.5444853  87.88  0.002348014    2.810    0.644
       292  -9.0808     78.0536    146.7547   8.3526844317e+01   3.5315209463e+01    0.3323524    0.2322924  81.10  0.001050422    1.969    0.492
       293  -9.1882     13.1416    145.7710   1.0481008480e+02   4.3224062685e+01    0.4037984    0.2260932  70.20  0.001437475    2.076    0.518
       294  -7.9501    206.5363    146.0862   5.2054594075e+01   1.2415489290e+01    0.2022915     0.115476 -42.56 0.0007537834    1.504    0.335
       295  -8.3593    175.6584    146.1092   5.7794740872e+01   1.7735803967e+01    0.2271583    0.1705054 -58.86 0.0008423652    1.469    0.319
       296  -9.9012    139.1413    144.9266   6.5743487598e+01   2.4821887695e+01     0.428327    0.3016456 -77.73  0.001283459    2.119    0.528
       297 -10.6665    241.7269    142.9347   4.6070444801e+01   7.6034835921e+00    0.5899832    0.2860045 -31.14  0.002915217    2.051    0.512
       298  -8.2507    250.4859    140.5353   4.4462389938e+01   6.7777419730e+00     0.191343    0.1245084 -36.00 0.0001188668    1.220    0.181
       299  -8.7604    165.8133    143.7824   5.9338806714e+01   2.0022118664e+01    0.2940903    0.2530209  81.44  0.001032632    1.458    0.314
       300  -9.7229    124.9986    142.4906   6.8826482448e+01   2.8083533478e+01    0.5065776    0.3672772 -85.39  0.001439795    2.052    0.513
       301 -10.9185     69.5161    139.3263   8.4805376768e+01   3.8582190647e+01    0.9839358    0.5293292 -65.07  0.003172307    1.975    0.494
       302  -7.6810    194.3329    143.6856   5.3697621037e+01   1.4912450563e+01    0.1354738      0.10664 -74.42 0.0007045988    1.684    0.406
       303  -9.2404      2.6220    141.4902   1.0782276255e+02   4.5095311303e+01    0.4027029    0.2017111  66.96  0.001210288    2.350    0.574
       304  -8.3095    181.9010    141.2033   5.5499007537e+01   1.7590386058e+01    0.2149395    0.1818237 -62.67 0.0005660692    1.296    0.229
       305  -8.7557    247.1014    143.6960   4.5488245885e+01   6.7317660918e+00    0.2298118    0.1386257 -36.58   0.00061494    1.316    0.240
       306  -9.8077     23.7422    138.0665   1.0026464819e+02   4.4430691239e+01    0.6014488    0.2727372  55.86  0.002068035    2.948    0.661
       307  -8.7819    172.4493    138.2460   5.6731678486e+01   1.9923524986e+01    0.2950817    0.2172304 -74.69 0.0007794821    1.880    0.468
       308  -9.0115    139.5446    137.5855   6.3975212803e+01   2.6400488875e+01    0.4136329    0.2418201 -19.89  0.001176201    3.084    0.676
       309  -8.1166    218.4522    138.2489   4.8543239150e+01   1.1901086044e+01    0.1821864    0.1063194 -49.34 0.0009308864    1.578    0.366
       310  -8.3588    207.4827    137.5279   5.0146021352e+01   1.3825152601e+01    0.2346165    0.1099835 -50.24 0.0006704163    2.106    0.525
       311  -8.6208    197.3803    137.2240   5.1797225689e+01   1.5608119352e+01    0.2060022    0.1931019 -60.05 0.0007231236    1.150    0.130
       312  -9.2572    151.1846    135.9179   6.0816899253e+01   2.4490641369e+01    0.5381083    0.2710923  30.06  0.001962576    2.724    0.633
       313 -10.4830     83.3148    133.1766   7.8984103972e+01   3.7980085103e+01    0.6772103    0.4342759 -57.41  0.001472515    1.558    0.358
       314  -9.1656    248.4846    134.6479   4.3630326804e+01   7.9986646798e+00    0.2671966    0.1624159 -41.22 0.0009970753    1.268    0.211
       315  -8.7981    250.7937    129.8354   4.2448433325e+01   8.4425446529e+00    0.4173603   0.09320019 -37.66  0.001393967    4.263    0.765
       316  -8.2089    187.8337    135.7910   5.3207541571e+01   1.7576597313e+01    0.1922116    0.1560626 -61.19 0.0004744267    1.326    0.246
       317  -8.2286    162.6584    136.1848   5.8322073917e+01   2.2207351560e+01    0.2302794    0.1783422 -63.42 0.0007118913    1.453    0.312
       318  -9.4199     39.0747    135.7961   9.4566388172e+01   4.3517342935e+01    0.3258156    0.2354991  57.05 0.0008064127    1.554    0.356
       319  -7.9888    231.4783    133.9647   4.5776827535e+01   1.0604466742e+01    0.1917545    0.1026196 -41.29 0.0003949023    1.505    0.335
       320  -8.7217    179.4767    133.6914   5.4328947950e+01   1.9523129590e+01    0.2910272    0.2050404 -67.61 0.0008300522    1.828    0.453
       321  -8.9481    112.8868    133.1247   6.9991248021e+01   3.2626807099e+01    0.3817229    0.2696039  72.01 0.0009572242    2.040    0.510
       322  -8.1135    237.4917    133.0820   4.4777222986e+01   9.8448261937e+00    0.1946214   0.09935462 -41.99  0.001007892    1.552    0.356
       323 -10.0006    131.9137    130.6870   6.4274103162e+01   2.9463783443e+01    0.4956971    0.3164905 -69.92  0.001223853    2.273    0.560
       324  -9.2852    143.1083    131.4696   6.1681541451e+01   2.7055714250e+01    0.3354444    0.2590154 -65.43 0.0007750978    1.474    0.322
       325 -10.0511     97.8567    129.5022   7.3564654965e+01   3.6336801755e+01    0.7074736    0.2583338 -49.76  0.002315098    2.645    0.622
       326 -10.5542     60.5263    125.4101   8.4989315297e+01   4.3564130872e+01    0.8821872    0.5178921  77.52  0.003012286    3.276    0.695
       327 -10.1969     12.8336    128.7413   1.0284675836e+02   4.7820852283e+01    0.6271866    0.3409638  78.61  0.002426439    2.306    0.566
       328  -8.4554    246.9977    129.9784   4.2948112305e+01   8.9602527274e+00    0.1898051    0.1394356 -44.48 0.0006119369    1.087    0.080
       329  -7.9629    204.5288    129.9812   4.9062847040e+01   1.5704956417e+01    0.2090976    0.1162767 -43.91 0.0007320585    1.549    0.355
       330  -8.0315    192.7291    129.9857   5.1069639806e+01   1.7799491645e+01    0.1989635    0.1585167 -44.24 0.0003656235    1.111    0.100
       331  -9.1154    168.3346    129.4245   5.5592044688e+01   2.2502889359e+01    0.2925891     0.231383 -70.97 0.0007784524    1.501    0.334
       332  -9.4825    152.8473    128.8716   5.8800674710e+01   2.5673328490e+01    0.4275714    0.2533043 -56.95 0.0009573693    1.894    0.472
       333 -10.0906     73.1656    128.7777   8.1354736129e+01   4.0774680354e+01    0.5323504     0.372339 -84.10  0.001601637    1.899    0.473
       334  -7.9253      1.5016    130.0043   1.0701435783e+02   4.8217851248e+01    0.1919507   0.09932265  72.92  0.000681536    2.319    0.569
       335  -7.5645    220.5076    129.5618   4.6488122262e+01   1.3089813578e+01    0.1300491     0.108342 -43.40  0.000104475    1.023    0.022
       336  -8.0933    211.7486    128.9693   4.7698326274e+01   1.4648854294e+01    0.2149556    0.1317425 -60.34 0.0009074082    1.963    0.491
       337  -9.0427    162.0488    127.8365   5.6541056048e+01   2.4060886683e+01     0.407063    0.2443436 -41.06  0.001822838    1.582    0.368
       338 -10.7667     45.1126    123.4565   9.0152371573e+01   4.6121867262e+01      1.23677    0.6558054  74.80  0.003879513    4.040    0.752
       339  -9.9254    117.8525    125.0537   6.6655162880e+01   3.3561211379e+01    0.5637707    0.3771102  77.23  0.001565826    2.536    0.606
       340  -7.8333    228.4521    124.9433   4.4428795986e+01   1.2600046772e+01    0.1776136   0.09040304 -56.92  0.000805529    2.349    0.574
       341  -8.9923    179.1802    124.4612   5.2325812478e+01   2.1391965908e+01     0.284289    0.2323916 -77.51 0.0005693218    1.454    0.312
       342 -10.4360     28.7373    122.1722   9.6004400659e+01   4.8242723326e+01    0.8741276    0.4358129  65.41   0.00303751    3.410    0.707
       343  -7.3575    244.0000    124.0137   4.2201816712e+01   1.0358676797e+01    0.1978426   0.05554947 -41.00 0.0005776379    2.782    0.640
       344  -7.9049    188.4559    123.9421   5.0507175541e+01   1.9730516044e+01    0.1930134    0.1103446 -61.40 0.0005233677    2.303    0.566
       345  -9.0361     85.4142    122.2767   7.5771511384e+01   4.0371140695e+01    0.5142813      0.28021  14.02   0.00168517    3.210    0.688
       346  -7.8838    203.3291    122.1234   4.7596778154e+01   1.7342838896e+01    0.2014419    0.1059761 -49.08 0.0006677712    1.743    0.426
       347  -8.6243    171.9473    121.3379   5.3008770458e+01   2.3415061939e+01    0.2472184    0.1819152 -52.18 0.0004592069    1.308    0.235
       348  -9.1333    158.5863    121.3308   5.5753880767e+01   2.6093766197e+01      0.33634    0.2550608 -79.96 0.0009959062    1.731    0.422
       349 -10.4746    131.1219    118.2130   6.1422782279e+01   3.2410466921e+01    0.6352966    0.4334211 -73.17  0.002102432    2.078    0.519
       350  -9.9393    141.5078    117.7722   5.8753133726e+01   3.0350678489e+01    0.6345953    0.3173514 -57.07  0.001401089    2.468    0.595
       351  -8.6356    100.1267    119.8024   7.0506380743e+01   3.8267427865e+01    0.5115318    0.2673043  12.99  0.001197234    6.476    0.846
       352  -9.7392     70.9600    119.0315   7.9879146546e+01   4.3622618821e+01    0.5178431    0.2601911 -63.07  0.001560079    2.256    0.557
       353  -9.6272      2.9718    117.0838   1.0496015244e+02   5.1549713853e+01    0.5435937     0.259148  67.09  0.002125605    2.962    0.662
       354  -7.7987    231.5121    117.4988   4.2545009967e+01   1.3353992864e+01    0.1275395    0.1014983 -48.43 0.0008099247    1.057    0.054
       355 -10.2013    109.3596    113.9742   6.6263678791e+01   3.7819487102e+01    0.5583189    0.3607006 -67.84  0.001511734    2.077    0.518
       356  -8.4817    192.9946    115.3190   4.7816803352e+01   2.0482916896e+01    0.2335768    0.1691217 -52.04 0.0004931095    1.277    0.217
       357  -8.0095    185.6338    115.7979   4.9190458263e+01   2.1802348612e+01    0.2002581    0.1173082 -50.59 0.0004565938    1.621    0.383
       358  -8.7998     58.8557    115.4123   8.3367273729e+01   4.6392562624e+01    0.2965254    0.1788808 -27.19  0.001183595    2.137    0.532
       359 -10.2412     92.9586    111.5594   7.0631242471e+01   4.1593224377e+01    0.9246733    0.4269411 -49.37  0.002241947    2.138    0.532
       360  -9.9512     79.0252    112.2233   7.5414533916e+01   4.3970014443e+01     0.612501    0.4224793  89.14  0.001851855    2.330    0.571
       361  -8.6376     79.1224    104.3624   7.3322025759e+01   4.5844283602e+01    0.3277543    0.2102414  13.41  0.001321814    2.126    0.530
       362  -8.4663    250.0513    114.5299   3.9689457991e+01   1.0966740273e+01    0.1473666    0.1198228  58.21  0.001028257    1.582    0.368
       363  -8.1709    167.3385    114.1641   5.2240991585e+01   2.5752885182e+01    0.2270772    0.1766585 -31.66 0.0007940439    1.336    0.252
       364 -10.2243    133.7210    109.1916   5.8469707929e+01   3.3809399878e+01    0.6948296     0.318065 -51.26  0.002551036    2.318    0.569
       365  -9.8998    121.9164    112.3269   6.2326413288e+01   3.5617492883e+01    0.3583006    0.3015995 -84.39 0.0007942443    1.408    0.290
       366  -8.3362    174.8397    111.4026   5.0142798060e+01   2.4766276353e+01    0.2502926    0.1762154 -52.25 0.0005804244    1.356    0.263
       367  -8.8656    159.2437    111.4894   5.3246103129e+01   2.7948521416e+01    0.2832344     0.217605 -58.34 0.0005737513    1.326    0.246
       368 -10.3673     66.3303    109.6533   7.9247604855e+01   4.6713128872e+01    0.6284309    0.3615781 -60.17  0.002228279    1.831    0.454
       369  -9.8823     14.4309    111.0492   9.9657247854e+01   5.2393415306e+01     0.401917    0.2536715  70.25  0.001684362    2.029    0.507
       370  -8.6985     42.9572    109.2843   8.8012709546e+01   5.0082034091e+01    0.3713086     0.141893  14.13  0.001089381    4.278    0.766
       371 -10.0933    248.5566    107.5820   3.8558025110e+01   1.2274985186e+01    0.2938824    0.1990733 -51.32  0.001889029    1.216    0.178
       372  -9.8650    249.3267    102.4648   3.7512038010e+01   1.2947214873e+01    0.3052834     0.176788 -35.03  0.001779001    1.577    0.366
       373  -7.9509    189.3625    107.7226   4.6727196929e+01   2.2566188245e+01    0.1849191    0.1202793 -37.32 0.0004321132    1.465    0.317
       374 -10.8901    108.9801     98.5500   6.2211310247e+01   4.1321742912e+01     1.252809    0.7176736  74.37  0.001363157    4.692    0.787
       375  -8.9287    107.7386     92.3967   6.0822521263e+01   4.2881658850e+01    0.5759552    0.2707091  34.60  0.002039953    2.627    0.619
       376  -9.6517    140.0189    103.9746   5.5601187575e+01   3.3542091395e+01    0.5289369    0.2915687 -47.92  0.001430438    1.792    0.442
       377 -10.6678     22.9036    102.3145   9.4649248237e+01   5.3973362517e+01    0.8204539    0.4647263  70.05  0.002447194    2.888    0.654
       378  -9.5716    150.6590    102.9318   5.2939944678e+01   3.1459434088e+01    0.4778882    0.2830736 -63.82  0.001641799    2.272    0.560
       379 -10.4927     45.6794    102.0583   8.5266833354e+01   5.1572778229e+01    0.7790371    0.4532441  66.02  0.002851803    3.153    0.683
       380  -8.7884    166.7853    103.8654   4.9877364007e+01   2.7855244112e+01    0.2797396    0.1841661 -52.49 0.0006628035    1.484    0.326
       381  -9.0875      6.6970    102.3749   1.0138781711e+02   5.5158456032e+01    0.3107967    0.1931775  83.33  0.001073761    1.960    0.490
       382  -7.8887    175.6285    101.8654   4.7750076714e+01   2.6392704356e+01    0.2063435    0.1185305 -51.64  0.000481999    1.698    0.411
       383  -9.9533    128.3823    101.4526   5.7764868508e+01   3.6571488831e+01    0.3883023    0.2658119 -48.36  0.001300073    1.454    0.312
       384  -8.2258    159.8050    100.7789   5.0492458747e+01   2.9917331477e+01    0.2029884     0.162118 -67.75 0.0005730115    1.333    0.250
       385  -9.4781     82.2277     99.8992   7.1030072232e+01   4.6324081075e+01    0.3893982    0.2800676 -73.90  0.001026439    1.872    0.466
       386 -10.2087     64.0980     95.9070   7.6462512893e+01   5.0395946189e+01    0.6068997    0.4112802 -82.39  0.001784653    2.361    0.576
       387  -9.2780     95.0316     96.8312   6.5943035485e+01   4.4553139507e+01    0.3574837    0.2420673 -56.93 0.0008465329    1.628    0.386
       388  -8.4465    151.0441     95.4520   5.0941503780e+01   3.2823435081e+01     0.283145    0.1855168  -2.06  0.001026815    3.354    0.702
       389  -8.2959    164.9091     93.9399   4.7797933804e+01   3.0101472076e+01    0.2246723    0.1631732 -72.37 0.0004645091    1.610    0.379
       390  -9.3388     46.1686     92.4826   8.2650723040e+01   5.3854989732e+01    0.5743991    0.2852029   6.69  0.001945825    3.448    0.710
       391  -7.7523    188.8031     93.5999   4.3599745555e+01   2.5178835389e+01    0.1819348    0.1271121  76.27 0.0009364379    1.695    0.410
       392  -8.1577    176.4717     92.9467   4.5474928180e+01   2.7828520240e+01    0.2131323    0.1263526 -45.03 0.0005894518    1.550    0.355
       393  -9.4293    139.1912     91.6161   5.2520081627e+01   3.6164768217e+01    0.5230274    0.3069098 -47.71  0.002007002    1.696    0.411
       394  -9.9970    124.5619     90.7396   5.5792065621e+01   3.9572202251e+01    0.4438068    0.3363805 -60.13 0.0008638051    1.440    0.305
       395  -9.4821    120.5187     92.5160   5.7334984352e+01   4.0104632341e+01    0.3470241    0.2458039  39.02   0.00162326    1.476    0.323
       396  -9.7084      5.2049     91.8265   1.0025263781e+02   5.7919405665e+01    0.3518617    0.2355044  70.63  0.001075559    1.941    0.485
       397  -9.0262    247.5246     92.5075   3.5831536914e+01   1.4743074912e+01    0.1785809    0.1063991  45.27  0.001034266    2.395    0.582
       398  -9.5799     35.0168     89.7915   8.6678920245e+01   5.5878785348e+01    0.4971357    0.3149512 -89.87  0.001456428    2.615    0.618
       399  -8.9333     22.9904     89.7437   9.1947342675e+01   5.7119376297e+01    0.3445591    0.2163363   4.52  0.001163939    1.766    0.434
       400  -8.1506    150.8324     88.8298   4.9262762824e+01   3.4107996738e+01    0.2022467    0.1635727 -70.83 0.0003992895    1.317    0.241
       401 -10.2923     86.6894     85.8042   6.5410138141e+01   4.8582216128e+01    0.6766757    0.4681115 -60.81  0.001548818    1.743    0.426
       402  -8.9531     65.1088     87.4231   7.3649014965e+01   5.2180600786e+01    0.3938921    0.2354999   1.79  0.001437674    2.933    0.659
       403  -9.7390     48.5186     84.1025   7.9352632919e+01   5.5499058692e+01    0.5174907     0.343755  70.91   0.00178876    2.725    0.633
       404  -7.6255    179.2980     85.6434   4.3254521774e+01   2.8503412952e+01    0.1461592   0.09763921 -68.17 0.0007035144    1.702    0.412
       405  -9.9012    104.9836     83.0015   5.8852040773e+01   4.5372007920e+01    0.4659278    0.3432726 -85.02 0.0009241304    1.982    0.496
       406  -8.7334    105.4004     76.8283   5.6849885821e+01   4.6471408321e+01    0.3182847    0.2204772  -0.87  0.001332111    2.342    0.573
       407  -8.4754    158.0021     83.8263   4.6544180549e+01   3.3421795338e+01    0.2460752    0.1917858 -49.42 0.0004302061    1.228    0.186
       408  -9.0628    140.9034     82.5484   4.9675331266e+01   3.7471875974e+01    0.3174057    0.1987591 -47.31  0.000851236    1.589    0.371
       409  -8.4392    157.5572     91.0620   4.8488183249e+01   3.2219803608e+01    0.2214342    0.1356899 -42.54 0.0005326022    1.571    0.363
       410  -7.5801    185.3304     82.2957   4.1513219972e+01   2.7802987299e+01    0.1261787    0.1078776  14.39 0.0002361977    1.636    0.389
       411  -8.1595     63.9986     82.3710   7.2555270945e+01   5.3485191267e+01      0.20357    0.1856169  24.45 0.0005195618    1.084    0.078
       412  -9.5509     24.8001     80.3609   8.8857700702e+01   5.9207259170e+01    0.4734751    0.3185913  86.05   0.00140306    2.329    0.571
       413  -9.3351      9.8364     80.7802   9.5978316045e+01   6.0341051627e+01    0.3502289    0.2145978  45.67  0.001728759    2.065    0.516
       414  -8.4628    150.1716     80.0933   4.7086751956e+01   3.5822694999e+01    0.3114768     0.168362 -54.57  0.001195145    2.050    0.512
       415  -8.7858     74.8828     80.3458   6.7831773002e+01   5.1989178579e+01    0.3040714    0.2119809 -64.18 0.0008962103    1.859    0.462
       416  -8.6204    119.1538     79.7686   5.4017035924e+01   4.2879185480e+01    0.2576491    0.1976294 -58.06 0.0008541708    1.415    0.293
       417  -8.2231    166.9159     79.3303   4.3781756763e+01   3.2234214535e+01    0.1859895    0.1727776  89.49 0.0004375867    1.061    0.058
       418  -7.9994    184.1985     78.0767   4.0691572910e+01   2.8731117070e+01    0.1832204     0.098785 -39.42 0.0007534646    1.754    0.430
       419  -9.4997    128.1070     74.9214   5.0403966779e+01   4.1736734341e+01    0.4898589    0.2645838 -50.12  0.001819079    1.993    0.498
       420  -8.3891     50.3412     77.4249   7.6586395609e+01   5.6732170396e+01    0.2891776     0.133462  16.34 0.0009602944    3.469    0.712
       421  -7.8136    157.1374     76.1738   4.4717873264e+01   3.4932850414e+01    0.1947953    0.1535748 -70.03 0.0004254525    1.309    0.236
       422  -8.6535    140.3607     74.9559   4.7694411706e+01   3.8936578314e+01    0.2685761    0.1982588 -66.28 0.0007164988    1.511    0.338
       423 -10.0624     63.0848     73.2764   7.0027439392e+01   5.5568963679e+01    0.5154888    0.3127494 -58.46  0.001072444    2.062    0.515
       424  -8.8281     64.4397     62.9873   6.5989447703e+01   5.7358120309e+01     0.493899    0.2949442 -10.43    0.0019117    2.922    0.658
       425  -8.3634    163.5398     73.2880   4.2831274111e+01   3.3983523257e+01    0.2533925    0.1228563 -44.66 0.0007821078    1.958    0.489
       426  -9.8811     82.4120     71.6263   6.2363723277e+01   5.2286364976e+01    0.6674441    0.3296066 -48.46  0.001614377    2.218    0.549
       427  -8.6589    115.7208     72.8566   5.2831718296e+01   4.4910068821e+01    0.2617185    0.1932554 -58.98 0.0004756545    1.527    0.345
       428  -8.1113     42.7960     72.7900   7.8436311374e+01   5.8818119417e+01      0.18259    0.1681498  58.41 0.0007383692    1.337    0.252
       429  -7.4341    175.4518     72.4771   4.0680646445e+01   3.1499409980e+01    0.1350126    0.1220189 -68.76 0.0002841861    1.025    0.024
       430  -9.0774    105.9089     71.6672   5.5099856906e+01   4.7312159019e+01    0.2680542    0.2127594 -52.86 0.0005496576    1.355    0.262
       431  -9.5891     95.1530     70.3790   5.7835259713e+01   4.9883342379e+01     0.602945    0.2532339 -46.46  0.002251077    2.589    0.614
       432  -9.6559     51.4509     69.4708   7.3564903818e+01   5.8259305063e+01    0.4585173     0.281022 -65.95  0.001779947    2.465    0.594
       433  -9.1516     29.6443     69.8469   8.3640297464e+01   6.1100552432e+01    0.5061942     0.234229  -9.36  0.001513016    5.025    0.801
       434  -8.9127     16.7708     69.8956   8.9973007863e+01   6.2360230795e+01    0.2750652    0.2079731 -89.11 0.0009374334    1.825    0.452
       435  -8.9075    147.2908     67.9786   4.4372856695e+01   3.8519138670e+01    0.2871293    0.1900383 -58.73 0.0005251196    1.625    0.385
       436  -7.9633    210.4278     67.5588   3.4876441509e+01   2.5048375123e+01    0.1264408    0.1026515 -61.66  4.30523e-05    1.022    0.021
       437  -9.1719    138.8488     66.1879   4.5541943663e+01   4.0749906577e+01    0.3038267    0.1810517 -53.81 0.0008686111    1.823    0.451
       438  -8.8777    121.7770     65.7685   4.9178451485e+01   4.4754234387e+01     0.270625    0.2131782 -75.53 0.0006661939    1.482    0.325
       439  -9.2244     37.4732     63.9748   7.8037536628e+01   6.1404130218e+01    0.3049754    0.2413779  88.27   0.00122222    2.010    0.502
       440  -9.0821    110.2288     63.5642   5.1369677317e+01   4.7755393430e+01     0.284615     0.220585 -77.47 0.0006264871    1.620    0.383
       441  -8.0620    158.1954     61.6119   4.0704657849e+01   3.7031710326e+01    0.1785036    0.1219017  54.27 0.0003914031    1.495    0.331
       442  -9.3782     97.8187     60.3596   5.3737581143e+01   5.1061458779e+01    0.3275193    0.2433743  67.43 0.0008521628    1.523    0.343
       443  -9.6766     73.3571     59.2156   6.1281940144e+01   5.6367539629e+01     0.392156    0.2527653 -52.71  0.001144094    1.885    0.470
       444  -7.9123    147.1485     59.1062   4.1955259559e+01   3.9943278440e+01    0.1966424    0.1529798 -69.68 0.0005527567    1.327    0.246
       445  -8.0765     89.3683     59.2718   5.5909655316e+01   5.3075796394e+01    0.1952772    0.1323631 -49.08 0.0005942817    1.662    0.398
       446  -8.2309    130.7596     57.3693   4.4651070197e+01   4.4013472346e+01    0.2447689    0.1582523 -50.39 0.0005430976    1.631    0.387
       447  -7.9432     38.6686     58.6891   7.5654713498e+01   6.2316809062e+01    0.1440641   0.09694268 -12.48 0.0003423151    1.672    0.402
       448  -9.6611     23.4451     56.2064   8.2417671008e+01   6.4685513255e+01    0.4346162    0.3071575  81.07  0.002044007    2.824    0.646
       449  -9.5845      7.5033     56.8872   9.1215297325e+01   6.5965031044e+01    0.3186719    0.2476993  88.08  0.001402566    1.841    0.457
       450  -8.0786    140.0397     55.7640   4.2334862637e+01   4.2093168761e+01    0.2496855    0.1596915 -53.17 0.0006549309    1.642    0.391
       451  -8.8338    119.3024     55.7041   4.6658882173e+01   4.6931720213e+01    0.2850976    0.2114237 -75.55 0.0007208677    1.654    0.395
       452  -8.9557     44.1455     54.9753   7.1735978136e+01   6.2245344627e+01    0.3248453    0.2160729 -54.43  0.001220874    1.809    0.447
       453  -9.4054     62.6756     53.0956   6.3074958110e+01   5.9466779755e+01    0.6051482    0.2113915 -46.72  0.001828775    3.366    0.703
       454  -9.1688     53.9955     52.9422   6.6587375223e+01   6.1033671655e+01    0.5885802    0.1980717 -48.58  0.002046973    3.609    0.723
       455  -8.6054    106.0061     53.0115   4.9041079440e+01   5.0399823561e+01    0.2201633    0.1681595 -81.67 0.0005776435    1.677    0.404
       456  -9.5255     92.5168     50.4823   5.1890962203e+01   5.3806983193e+01    0.3949428    0.2346113 -47.66  0.001047278    1.942    0.485
       457  -8.4298    144.6226     48.7818   3.9521572834e+01   4.2030240932e+01    0.1885546    0.1166741 -48.46  0.000517908    1.636    0.389
       458  -7.9518    129.8331     48.8473   4.2290547206e+01   4.5480853998e+01     0.190216    0.1525917 -72.08  0.000487781    1.326    0.246
       459  -8.6840    120.8624     47.2781   4.3668771519e+01   4.7802856555e+01    0.2247426    0.1799633 -52.37  0.000641778    1.325    0.245
       460  -8.4027    112.4348     46.7499   4.5393275759e+01   4.9840433916e+01     0.235002    0.1295409 -41.08 0.0007584778    1.932    0.483
       461  -9.0494     82.1959     46.1987   5.3499473612e+01   5.6687168007e+01    0.3036605    0.2276073 -57.26 0.0006418012    1.691    0.409
       462  -9.2186     16.7941     44.5739   8.1951191135e+01   6.7691946520e+01    0.2207558    0.2056534 -52.84 0.0007315687    1.361    0.265
       463  -8.5098     44.9128     44.2032   6.7192488619e+01   6.4054994826e+01    0.1896436    0.1782367  33.66 0.0007293333    1.254    0.202
       464  -8.3965     31.8569     44.3767   7.3666167661e+01   6.5954312923e+01    0.1945918    0.1123458  17.10 0.0009514117    1.811    0.448
       465  -8.3569    132.8202     43.0627   3.9981152941e+01   4.5571673482e+01    0.2076692    0.1701295 -73.00 0.0004431808    1.251    0.201
       466  -9.3917     69.7023     41.3973   5.5887485840e+01   5.9985200752e+01    0.3647104    0.2660349 -62.30  0.001229574    2.016    0.504
       467  -9.0303     58.2953     42.2861   6.0597760982e+01   6.2051982741e+01    0.3171456    0.2198588 -60.83  0.001047019    2.267    0.559
       468  -9.6566      5.3253     41.7279   8.7697365306e+01   6.9258537085e+01     0.349149     0.233478 -78.73   0.00139463    2.421    0.587
       469  -8.8014     93.0357     42.2561   4.8812362642e+01   5.4892780931e+01    0.2743769    0.1734749   4.98  0.001178137    2.664    0.625
       470  -8.6557    105.9142     41.0884   4.5056196669e+01   5.2126591889e+01    0.2086934    0.1754382 -78.86 0.0006242749    1.345    0.257
       471  -8.5776     36.9044     40.6377   6.9571779586e+01   6.5894567347e+01    0.1989044    0.1885499  84.41  0.000743036    1.529    0.346
       472  -8.6380     95.5768     37.8280   4.6528616354e+01   5.4919682399e+01    0.2429618    0.1898403 -67.24 0.0006705719    1.591    0.371
       473  -8.1170     80.8504     36.5868   5.0282605872e+01   5.8337837351e+01    0.2062013    0.1577253 -37.67 0.0004887917    1.458    0.314
       474  -9.3554     26.2422     35.2799   7.2887572551e+01   6.8285125867e+01     0.254954     0.217701 -60.21 0.0009246618    1.676    0.403
       475  -7.5770    133.3747     35.7124   3.7689709199e+01   4.6381663067e+01    0.1404827   0.09416504 -77.79 0.0007018975    1.721    0.419
       476  -8.0878    125.9967     35.2870   3.8891314249e+01   4.8171948874e+01     0.186637     0.156403  68.32  0.000337466    1.069    0.064
       477  -8.6067    111.9714     34.5048   4.1456937020e+01   5.1563052219e+01    0.2467793    0.1722532 -54.22 0.0006896263    1.629    0.386
       478  -8.7192    119.3076     32.8243   3.9397812786e+01   5.0045635732e+01    0.2583431    0.1873465 -66.07 0.0008753727    1.568    0.362
       479  -8.8589     60.6870     32.3436   5.5509254199e+01   6.3050709643e+01    0.2383543    0.2092544  87.94 0.0007595867    1.592    0.372
       480  -9.0019     48.5660     32.9635   6.0767507628e+01   6.5210300670e+01    0.2165187    0.1963129  59.04 0.0006902049    1.426    0.299
       481  -8.8839     72.0754     30.6368   5.0729991218e+01   6.0974184363e+01    0.2318623    0.1807271 -50.30 0.0006729455    1.599    0.374
       482  -9.2799     12.9307     29.8828   7.8351716203e+01   7.0770747206e+01    0.3301081    0.1754192 -56.35  0.001417184    2.502    0.600
       483  -8.0959     42.2190     29.9431   6.2305860383e+01   6.6736521814e+01    0.1586242    0.1015382 -34.31 0.0006072985    1.655    0.396
       484  -8.3154    101.6471     29.1547   4.1930914938e+01   5.4600489470e+01     0.195263     0.157368 -59.31 0.0005322698    1.424    0.298
       485  -8.8738     81.6300     27.1941   4.6382593130e+01   5.9345171082e+01    0.2652364    0.2033201 -63.36 0.0008648884    1.724    0.420
       486  -9.0392      3.8964     27.3803   8.3114023852e+01   7.2060949125e+01    0.2300527    0.1777244 -68.70  0.001194076    1.956    0.489
       487  -8.8899     91.9080     26.2720   4.3244457002e+01   5.7158320262e+01    0.2636793     0.173443 -49.63 0.0008478679    1.840    0.457
       488  -8.1279     34.9099     22.9314   6.2568014007e+01   6.8919462226e+01    0.1763581    0.1564584  66.79  0.001120177    1.726    0.420
       489  -8.3324    104.4901     22.5263   3.8973921399e+01   5.4673612291e+01    0.1309195    0.1141701  67.80 0.0002649877    1.036    0.035
       490  -9.0560     63.6511     20.9021   4.9454184036e+01   6.3881689992e+01    0.2589698    0.2014413 -48.09 0.0008400299    1.647    0.393
       491  -8.9965     48.3883     21.3649   5.5542973509e+01   6.6799507817e+01    0.2490465    0.2075789 -47.48 0.0009927041    1.597    0.374
       492  -8.0895    120.8579     20.8512   3.5286856196e+01   5.1011459767e+01    0.1780991    0.1386474 -77.69 0.0005061906    1.336    0.251
       493  -8.2592     19.4988     21.0561   7.0173603335e+01   7.1423238792e+01    0.1714221    0.1124366 -36.43 0.0006045385    1.571    0.364
       494  -8.9122     74.0676     19.1554   4.5342992823e+01   6.1882301844e+01    0.2587579    0.1773343 -39.57 0.0007205842    1.723    0.420
       495  -7.8529     11.6813     20.3198   7.4712803813e+01   7.2478334589e+01    0.1058381   0.09397559  43.63 0.0004450956    1.663    0.399
       496  -7.9933     39.1351     18.1681   5.8143095172e+01   6.8840726436e+01    0.1514324    0.1461811  24.05 0.0004902094    1.333    0.250
       497  -8.2833     87.7459     17.1935   4.0835807443e+01   5.9059129339e+01     0.186376    0.1525215 -57.60   0.00055404    1.464    0.317
       498  -7.6588    112.5776     16.5357   3.5346694365e+01   5.3387413401e+01    0.1274789    0.1101414  70.70 8.789894e-05    1.012    0.011
       499  -8.4972     29.9953     15.9253   6.1583094242e+01   7.0626443860e+01    0.1664192    0.1538007  71.27 0.0005778241    1.716    0.417
       500  -8.8984    218.6097    247.0756   6.7983821191e+01  -6.1634501949e+00    0.3364896    0.1196079 -42.79  0.001610322    2.816    0.645
       501  -8.3674      7.4638     14.9687   7.4834428823e+01   7.3762970926e+01    0.1386159    0.1087039 -70.67  0.000809523    2.586    0.613
       502  -8.1772     17.1775     14.1284   6.8007962872e+01   7.2721366442e+01    0.1489069    0.1332762  15.44 0.0004314086    1.321    0.243
       503  -7.7969    191.5184    249.4997   7.3389815598e+01  -3.5964057075e+00    0.1191994   0.09687113   0.54 7.388077e-05    1.101    0.092
       504  -9.0595    175.6466    247.4576   7.6231507906e+01  -1.4254294216e+00    0.2646394    0.2245449  82.78   0.00108579    2.292    0.564
       505  -8.9298    132.3353    247.8719   8.5523647920e+01   3.9553305018e+00    0.2490932    0.1954067  64.04 0.0009332857    1.820    0.451
       506  -8.1138    113.4093    248.4262   8.9849847996e+01   6.3195606658e+00    0.2004288     0.129628 -75.43  0.001003345    2.326    0.570
       507  -9.2660    103.9424    246.9482   9.1835295645e+01   7.8360301357e+00    0.4164343     0.246271 -85.20  0.001863628    3.064    0.674
       508  -9.2549    243.0797    246.1657   6.3671989906e+01  -8.4168310152e+00    0.3969896    0.1347712 -35.29  0.002050275    2.402    0.584
       509  -9.0096    156.2379    247.8593   8.0322288110e+01   8.9502836845e-01     0.204991    0.1887128  52.85 0.0007875604    1.506    0.336
       510 -10.0536    223.9398    243.9248   6.6556904854e+01  -6.2590287779e+00     0.424032      0.21253 -46.03  0.002319883    2.416    0.586
