#   1 NUMBER                 Running object number                                     
#   2 MAG_AUTO               Kron-like elliptical aperture magnitude                    [mag]
#   3 X_IMAGE                Object position along x                                    [pixel]
#   4 Y_IMAGE                Object position along y                                    [pixel]
#   5 X_WORLD                Barycenter position along world x axis                     [deg]
#   6 Y_WORLD                Barycenter position along world y axis                     [deg]
#   7 A_WORLD                Profile RMS along major axis (world units)                 [deg]
#   8 B_WORLD                Profile RMS along minor axis (world units)                 [deg]
#   9 THETA_WORLD            Position angle (CCW/world-x)                               [deg]
#  10 FWHM_WORLD             FWHM assuming a gaussian core                              [deg]
#  11 ELONGATION             A_IMAGE/B_IMAGE                                           
#  12 ELLIPTICITY            1 - B_IMAGE/A_IMAGE                                       
         1 -13.6834    217.1587    160.7746   8.1156402028e+01   5.9015804485e+00     8.531298     2.434401 -30.56   0.02403245    4.890    0.796
         2 -14.2796    227.8397    192.4940   8.5652540241e+01  -9.0767842853e-01     5.064747      1.78592 -24.09   0.01599806    5.042    0.802
         3 -15.2459    246.6593     18.6294   4.1922047644e+01   2.1175861731e+01     6.196686     3.297467 -20.95   0.02924303    2.207    0.547
         4 -14.3025    245.9340    136.0234   7.0502475847e+01   4.2209456202e+00     4.258027     1.115096 -27.55   0.01050338    6.192    0.839
         5 -14.9711    247.6004     83.8805   5.7760730801e+01   1.2039823189e+01     5.567213      2.00707 -26.04   0.01853132    3.270    0.694
         6  -9.2703    137.3480      6.7859   5.2080301453e+01   4.9872860054e+01    0.1812807    0.1279299  -0.54 0.0004005255    1.580    0.367
         7  -9.8753    156.6868    246.9153   1.0734853155e+02   3.4233786494e+00     0.225609    0.2002064 -25.30  0.001030362    1.454    0.312
         8 -10.6833    224.5647    249.4164   9.5886651269e+01  -7.4337634990e+00    0.2175125     0.196754 -15.49  0.001329912    1.463    0.317
         9 -11.1965    225.1801    242.1899   9.4689781761e+01  -6.7368148987e+00    0.3540375    0.2517479 -21.90  0.002386791    1.558    0.358
        10 -11.2344    209.8499    248.7278   9.8288294319e+01  -5.1506538108e+00    0.3457999    0.2883577  13.01  0.002030291    1.166    0.142
        11 -11.0222    191.4608    246.9245   1.0121893911e+02  -2.0890223999e+00    0.3753112    0.3263106 -18.42   0.00191839    1.381    0.276
        12  -9.1359    166.4990    250.5589   1.0607238864e+02   1.3793980176e+00    0.2484214   0.09017121  41.37 0.0009400821    2.127    0.530
        13 -10.8567    140.6955    248.0228   1.1030508204e+02   5.7822481170e+00    0.3856209    0.3105335   7.35  0.002624889    1.746    0.427
        14 -10.4097    124.6359    248.3676   1.1316122798e+02   8.2059725991e+00    0.2698284    0.2372185 -54.56  0.002043433    1.488    0.328
        15 -10.0450     87.9282    249.8715   1.1960542192e+02   1.3314064849e+01    0.2534294    0.1570874  36.89  0.001637266    1.697    0.411
        16 -10.1360     72.9970    250.1719   1.2211219901e+02   1.5276579678e+01    0.2419937    0.1685083  34.09   0.00158765    1.779    0.438
        17  -9.8447     75.4867    246.5163   1.2142261081e+02   1.5544183048e+01     0.164948    0.1324801  31.90 0.0008782283    1.692    0.409
        18 -10.5307     61.7799    249.2014   1.2387555893e+02   1.6876123154e+01    0.2602093    0.2031716  40.46  0.001994349    1.547    0.353
        19  -9.7713     47.8534    250.3686   1.2617729802e+02   1.8386261694e+01    0.1860606    0.1227421  34.23  0.001303595    1.953    0.488
        20 -12.4183    238.3609    218.9867   8.8629596904e+01  -6.0771189295e+00    0.8533323    0.5028207 -28.38  0.004872296    1.780    0.438
        21 -10.9678    203.0211    231.5892   9.6924375965e+01  -2.0050281437e+00    0.8854173    0.6376262 -75.51  0.004537172    3.371    0.703
        22  -9.8517    163.5002    245.8953   1.0601318058e+02   2.4811022890e+00    0.2247652    0.2025623 -69.80  0.001073432    1.456    0.313
        23  -9.9966    132.8331    245.9239   1.1145674824e+02   7.3137045306e+00    0.2633246    0.2245341   4.28  0.001228077    1.658    0.397
        24 -10.1314    135.1384    239.7649   1.1034496605e+02   7.8850128522e+00    0.2822526    0.2490183   7.95  0.001292623    1.496    0.332
        25 -10.2055    139.3878    235.3316   1.0904427631e+02   7.8914957327e+00    0.2817877    0.2232431 -30.61  0.001244071    1.753    0.429
        26 -10.3756    113.2779    244.9675   1.1480025549e+02   1.0441808169e+01    0.2918967    0.2425502 -33.87  0.001524872    1.838    0.456
        27 -10.4416    118.1095    239.8942   1.1341964735e+02   1.0513218790e+01    0.3061764    0.2341688 -44.99  0.002070202    1.789    0.441
        28 -10.7278     94.0602    245.0005   1.1814364933e+02   1.3238784645e+01     0.349797    0.2369052  34.43  0.001837285    1.673    0.402
        29  -8.4403    186.3070    246.3172   1.0203859145e+02  -1.2010144279e+00    0.1166655   0.07832739  17.40 0.0003356751    1.631    0.387
        30  -9.4694    151.3425    245.1970   1.0808735683e+02   4.5129537659e+00    0.1818854    0.1613598  -2.72 0.0008074036    1.445    0.308
        31  -9.0649    154.5906    241.6704   1.0707104333e+02   4.4993890229e+00    0.1796331    0.1422466 -26.78 0.0006996563    1.697    0.411
        32 -11.0132     81.2135    244.7013   1.2031385595e+02   1.5072902895e+01    0.2956037    0.2213591  31.83  0.002057185    1.730    0.422
        33 -10.9520    104.4836    242.2388   1.1607408469e+02   1.2180170982e+01    0.3593198    0.2976479  -6.84  0.002319021    2.146    0.534
        34  -9.5576     41.1067    245.1239   1.2693531843e+02   2.0047142653e+01    0.1483621    0.1229145  71.47  0.001235842    1.285    0.222
        35 -10.2425    201.7881    241.4016   9.8620717985e+01  -3.0365179623e+00    0.2571377    0.2189579 -25.66  0.001281065    1.426    0.299
        36 -11.1075     69.1286    240.6500   1.2204107283e+02   1.7361515984e+01    0.2862001    0.2702446 -35.87  0.002268717    1.760    0.432
        37 -10.2088    169.3945    241.1955   1.0434982493e+02   2.1799373917e+00    0.2701427    0.2163407  12.28  0.001194585    1.417    0.294
        38 -10.3153    125.4868    240.6099   1.1217633397e+02   9.2647342176e+00    0.2933577    0.2712292   2.47   0.00177244    1.482    0.325
        39  -9.6368    129.3356    235.5564   1.1090824709e+02   9.4583982717e+00    0.2258914    0.1906477  -3.65 0.0009922378    1.752    0.429
        40  -9.9778    133.5230    231.1477   1.0961419600e+02   9.4951450726e+00     0.296911    0.2252534 -17.97  0.001387515    2.147    0.534
        41 -10.8195     52.1166    241.4829   1.2493471280e+02   1.9361779639e+01    0.2277424      0.16511  59.06   0.00173958    1.128    0.113
        42  -9.9964     24.8925    240.9250   1.2925666364e+02   2.2556726336e+01    0.2260257    0.1149683 -68.82   0.00153408    2.087    0.521
        43 -10.1335    214.0885    240.3726   9.6320075579e+01  -4.8361485131e+00    0.2074586    0.1629945 -22.25 0.0007381969    1.459    0.315
        44 -10.4554    183.5057    238.5604   1.0145539909e+02   2.5141956265e-01    0.3251862    0.2417586 -29.58   0.00152763    1.642    0.391
        45 -10.5030    159.5783    236.8818   1.0555287662e+02   4.3839927383e+00     0.347144    0.2981411 -22.03  0.002063245    1.473    0.321
        46  -9.9725    148.4862    238.8411   1.0781935696e+02   5.8946342309e+00    0.2371806    0.2159643 -18.46  0.001208026    1.413    0.292
        47  -9.9133     62.0096    239.6724   1.2316796875e+02   1.8443961325e+01    0.1688333    0.1488573 -63.66  0.001328216    1.625    0.385
        48  -9.0090     16.4812    249.5051   1.3093478100e+02   2.1996267502e+01    0.0995166   0.06722377  69.68 5.752286e-05    1.031    0.030
        49  -9.4617    101.0339    238.9862   1.1636712050e+02   1.3217087902e+01    0.1576822    0.1388412  15.92 0.0007285837    1.670    0.401
        50 -10.4277    193.0079    208.8249   9.5082354678e+01   2.8386038603e+00    0.3229578    0.2497797 -27.95  0.001075105    1.438    0.305
        51  -9.7717    205.1987    189.9662   8.9371987702e+01   3.5138377317e+00    0.3432973    0.1836623 -27.56 0.0007478545    2.156    0.536
        52 -10.7875    197.9824    202.6185   9.3064640456e+01   2.8873775571e+00    0.4405145    0.2727279 -17.34  0.001393989    2.091    0.522
        53 -10.4908    202.3190    196.1953   9.1083337935e+01   3.0817483980e+00    0.3730303    0.2680385 -17.24  0.001268752    1.535    0.349
        54 -11.1814    190.8517    233.8551   9.9452750616e+01  -3.1960675789e-01    0.4747984     0.358618 -37.87  0.002159971    1.621    0.383
        55 -10.0824    190.5165    225.0198   9.8174340073e+01   9.3505077440e-01     0.312601    0.2081829 -26.76  0.001277845    1.801    0.445
        56 -10.8807    193.4780    217.5959   9.6448937713e+01   1.4782675420e+00    0.4832014     0.333858 -22.91  0.002082735    1.699    0.411
        57 -10.6780    176.8994    234.5628   1.0208210130e+02   1.8729364015e+00    0.4177971    0.2388145 -29.97  0.001948676    2.382    0.580
        58  -9.5803    112.2874    237.7375   1.1423523021e+02   1.1746153183e+01    0.2078447    0.1643027   9.73  0.001280095    2.058    0.514
        59 -10.7232     91.0335    236.4426   1.1789572751e+02   1.5086383218e+01    0.2920583    0.2717132 -16.54  0.002039455    1.711    0.416
        60 -10.7261     78.4613    236.6288   1.2011711630e+02   1.6804357732e+01    0.2213683    0.1971998 -72.16  0.001485341    1.452    0.311
        61  -9.4157     41.4924    236.9975   1.2638897036e+02   2.1392731844e+01    0.1299638   0.07586686 -54.60  0.000810442    2.564    0.610
        62  -9.8295    170.6469    233.7874   1.0311325300e+02   3.0120988935e+00    0.2476624    0.1933829 -19.45 0.0009932222    1.624    0.384
        63  -9.5364    152.8505    233.3372   1.0631956319e+02   6.0095597813e+00    0.2027988    0.1794169 -23.79  0.000967583    1.432    0.302
        64 -10.2778    123.2421    231.3706   1.1154132970e+02   1.1095949442e+01    0.3453986     0.278523  -3.83  0.002075355    2.009    0.502
        65  -9.5190    108.1659    233.4971   1.1453530957e+02   1.3069308900e+01    0.1961171    0.1838102  13.93 0.0009193856    1.488    0.328
        66  -9.4171    165.3776    232.9093   1.0395742551e+02   4.0088721033e+00    0.2119966    0.1485176  23.14 0.0008349777    1.543    0.352
        67 -10.2121    145.1191    231.6451   1.0752830412e+02   7.5351155061e+00    0.3075842    0.2485794  27.75  0.001369021    1.314    0.239
        68  -9.3279    143.7433    226.3957   1.0710470151e+02   8.5902697943e+00    0.2249603     0.197082  30.62   0.00115454    1.206    0.171
        69 -10.1952    100.5385    231.3737   1.1570146845e+02   1.4569357111e+01    0.2913772    0.2308631 -38.54  0.001925495    1.926    0.481
        70  -9.7631    184.6049    226.9047   9.9550494206e+01   1.6631331572e+00    0.4149981    0.2219723  31.62  0.002163061    1.743    0.426
        71 -10.3113    185.9501    220.2445   9.8274771679e+01   2.3851671858e+00    0.3689789    0.1921586 -39.28  0.001660432    2.262    0.558
        72  -9.4118    185.5966    214.2490   9.7384573745e+01   3.3266656352e+00    0.2184731    0.1756269   1.81 0.0008486342    1.368    0.269
        73  -9.7582    186.3654    209.9638   9.6535677870e+01   3.8367362709e+00    0.2895594    0.2089196  -4.50 0.0008922031    1.737    0.424
        74 -10.6624    113.7506    229.4879   1.1308019468e+02   1.2890827928e+01    0.3455874    0.2621608 -56.21  0.002294021    1.601    0.375
        75 -10.1034     85.2653    231.4142   1.1845884252e+02   1.6766318735e+01    0.2093287    0.1909188  -0.05  0.001511229    1.777    0.437
        76  -9.6367    158.0373    229.9926   1.0491393721e+02   5.6582978455e+00    0.2361735    0.1780629 -33.06 0.0009332203    1.693    0.409
        77  -9.8097    174.2229    227.9120   1.0161755123e+02   3.2611239800e+00    0.2689316    0.1962579  -1.83  0.001361696    1.833    0.454
        78  -9.7453    174.5852    221.5495   1.0060575522e+02   4.1363907170e+00     0.273941    0.2163474  14.31  0.001065829    1.372    0.271
        79  -9.0932    169.3976    228.4691   1.0259237841e+02   3.9889482273e+00    0.1821422    0.1147851 -28.78 0.0006045458    2.153    0.536
        80  -9.4080    170.4298    224.2203   1.0178393681e+02   4.4447102899e+00    0.1964579    0.1634082 -12.23 0.0007783674    1.448    0.309
        81  -9.4875    152.1881    228.3431   1.0578020255e+02   6.8828071599e+00    0.2671789    0.2115607  21.49  0.001100629    1.414    0.293
        82  -9.6636    155.4224    224.1730   1.0460171387e+02   6.9917636987e+00    0.2318765    0.1929994  -4.10  0.000910027    1.543    0.352
        83  -8.7414    130.0033    229.0151   1.1000889592e+02   1.0406834736e+01    0.1447574    0.1236305  56.34 0.0005790336    1.061    0.057
        84  -9.5571     92.8484    228.2717   1.1679103280e+02   1.6234121220e+01     0.191951    0.1508995 -35.47  0.001230035    2.074    0.518
        85  -9.8758     79.3213    228.3567   1.1924644151e+02   1.8131373920e+01     0.207774    0.1928933  -5.18  0.001521074    1.752    0.429
        86 -10.0903     35.4958    231.7450   1.2705455495e+02   2.2998155302e+01    0.2698439    0.1454756 -46.77  0.001396698    4.156    0.759
        87 -11.1271     69.4947    227.3585   1.2091480094e+02   1.9635799980e+01    0.3329791    0.1998025  25.01  0.001795889    2.804    0.643
        88  -9.8530    163.3386    225.9784   1.0336679683e+02   5.3789701512e+00    0.3629327    0.3280595  61.19  0.002506027    1.216    0.177
        89  -9.5980    165.6712    220.8401   1.0218341060e+02   5.7693402626e+00    0.2338086    0.1968538 -12.58 0.0008971166    1.442    0.306
        90  -9.7367    120.5917    225.2020   1.1131350202e+02   1.2546573974e+01    0.2089477    0.1839374  -4.99  0.001324988    1.643    0.391
        91  -9.9356    129.5334    224.1422   1.0949773404e+02   1.1290459312e+01    0.2710334    0.1949914  21.41  0.001367952    1.847    0.459
        92  -9.9317    180.4732    221.9240   9.9558673530e+01   3.0757245224e+00    0.2852781    0.2036401 -28.34  0.001081967    1.685    0.406
        93 -10.4858    148.3309    221.6587   1.0559892599e+02   8.5877071115e+00    0.3679155    0.2793825 -24.42  0.001712155    1.827    0.453
        94  -9.3431    135.5567    223.1336   1.0822760379e+02   1.0474255110e+01    0.2035818    0.1861281   6.72  0.001255649    1.379    0.275
        95  -9.0793    104.3904    223.8075   1.1419516607e+02   1.5306013029e+01    0.1503448    0.1096967 -53.64  0.000947969    1.691    0.409
        96 -10.7262     56.0956    230.8588   1.2353004041e+02   2.0725268247e+01    0.2787391    0.2229374  14.32  0.001894021    2.279    0.561
        97  -9.5686     97.8120    222.4565   1.1528086161e+02   1.6535423397e+01    0.1919409    0.1572846 -15.83  0.001188959    2.144    0.534
        98 -10.4562    205.9984    224.3845   9.5252113472e+01  -1.5559260549e+00    0.3169723    0.2280333 -25.14  0.001320885    1.556    0.357
        99  -9.5097    140.8062    220.6771   1.0690297498e+02   1.0011639957e+01    0.2341436    0.1889366  -8.71  0.001423082    1.789    0.441
       100  -9.5194    138.6541    227.6853   1.0822695653e+02   9.2202142603e+00    0.2320374    0.1870992   9.28  0.001086313    1.691    0.409
       101  -9.1164    185.5549    231.9355   1.0012781050e+02   8.0833771722e-01    0.1884154    0.1226813 -46.46 0.0006538386    1.965    0.491
       102  -9.9264    159.1305    217.8925   1.0299748356e+02   7.3549158093e+00    0.2818938    0.2134587 -14.60  0.001514424    1.821    0.451
       103  -9.1218    154.1648    218.8186   1.0408434209e+02   8.0573218543e+00    0.1678333    0.1399917  17.94 0.0006637638    1.348    0.258
       104  -9.3684    128.9568    219.0081   1.0895778806e+02   1.2257205726e+01    0.1843976    0.1509033   8.77  0.001127093    1.715    0.417
       105  -9.0245    109.9243    218.8822   1.1259348928e+02   1.5328360554e+01    0.1894835    0.1411093  16.50  0.001080895    2.072    0.517
       106  -9.1700    135.9948    218.0432   1.0747517809e+02   1.1257841609e+01    0.1920257    0.1498792  11.50  0.001125303    1.780    0.438
       107  -9.6305    119.9887    217.4929   1.1049395894e+02   1.3979639084e+01    0.2147032    0.1745322 -38.21  0.001358617    1.655    0.396
       108  -9.9610    179.3042    216.0365   9.8862603001e+01   4.1520809951e+00    0.2582349    0.2017593  10.19 0.0007634246    1.418    0.295
       109 -10.3976    170.9929    215.1521   1.0030904767e+02   5.7335592682e+00    0.3644902    0.2383243 -26.83  0.001508243    2.010    0.503
       110  -9.1610    167.4962    207.9692   9.9856852704e+01   7.4954680737e+00    0.2204881    0.1315246 -50.20 0.0008791997    2.010    0.502
       111  -9.6197    165.2586    215.1405   1.0140858087e+02   6.7336369494e+00    0.2648773    0.2003937 -20.38  0.001014896    1.704    0.413
       112  -9.8562    154.6393    212.7948   1.0311343164e+02   8.9619112711e+00    0.2642257    0.2138473 -14.75  0.001012972    1.614    0.381
       113 -10.2437    143.6471    214.7053   1.0553307207e+02   1.0534136390e+01    0.3236271     0.237894  12.85  0.001794134    1.915    0.478
       114  -9.3412    124.3216    215.3342   1.0938207771e+02   1.3657798585e+01    0.2095964    0.1857721  32.07 0.0009568762    1.273    0.215
       115  -9.5597    125.0240    211.0148   1.0868037463e+02   1.4312905389e+01    0.2179112    0.1673909 -21.18  0.001025604    2.048    0.512
       116  -8.5918    115.6065    216.6992   1.1124202525e+02   1.4822652564e+01    0.1183999   0.09583942  12.01 0.0007008221    1.807    0.447
       117  -8.5931     90.6553    215.6884   1.1591631854e+02   1.8827302708e+01    0.1067797    0.0965296  -0.48 0.0007046047    1.706    0.414
       118  -9.8959     50.8887    222.2309   1.2379979767e+02   2.2929067232e+01    0.1857278    0.1328386 -51.72    0.0012397    2.056    0.514
       119  -9.1892     31.5003    214.9937   1.2669191566e+02   2.6509338160e+01    0.1422676   0.07270488 -56.04 0.0008106661    2.610    0.617
       120  -9.1210    138.3496    213.7934   1.0643953904e+02   1.1590255908e+01      0.16133    0.1180589 -41.57 0.0008692466    1.693    0.409
       121  -9.6974    132.1295    213.7769   1.0765385590e+02   1.2640009762e+01    0.2344139    0.1658202  28.61  0.001261087    1.600    0.375
       122  -8.7757    189.5775    213.2280   9.6465987084e+01   2.7854353861e+00    0.1513654    0.1194779 -16.09 0.0005837996    1.426    0.299
       123  -9.0189    117.6321    212.6671   1.1034766422e+02   1.5223390158e+01    0.1783584    0.1514522   3.86  0.001100293    1.710    0.415
       124  -9.0661     96.7874    212.8221   1.1442733495e+02   1.8451656735e+01    0.1831656    0.1360041 -13.84 0.0009519897    2.854    0.650
       125  -9.3484    114.8351    221.8934   1.1201052928e+02   1.4026856167e+01    0.1762737    0.1603227  25.90  0.001212387    1.377    0.274
       126 -10.4128    177.0060    209.3586   9.8232265414e+01   5.5845495126e+00     0.332764    0.2582272 -13.12  0.001269227    1.557    0.358
       127 -10.1134    161.1505    209.5471   1.0134742422e+02   8.3598920559e+00    0.3303514    0.2461321 -11.17  0.001294004    1.873    0.466
       128  -9.5297    145.9780    208.0030   1.0410626083e+02   1.1283000692e+01    0.2671569    0.2010281  -6.35 0.0008127778    2.033    0.508
       129 -10.8005    149.9669    205.0560   1.0286791185e+02   1.1096407366e+01    0.4442328    0.2271223 -49.67  0.002144446    2.248    0.555
       130  -9.1719    140.3196    209.9914   1.0551686043e+02   1.1914595458e+01    0.1703021    0.1630472  75.47 0.0007526448    1.142    0.124
       131  -9.1963    131.3644    208.8520   1.0713159627e+02   1.3641380626e+01    0.1699522    0.1175432 -41.71 0.0009439728    1.820    0.451
       132  -9.8325    114.8324    207.2035   1.1020274677e+02   1.6681330503e+01    0.2197119    0.1648816 -29.10  0.001230791    2.064    0.516
       133  -9.4037    183.1296    206.1576   9.6520463032e+01   4.9968365465e+00    0.2652949    0.1887906  -8.80 0.0008952544    1.820    0.450
       134 -10.2152    186.6861    202.2507   9.5166645322e+01   4.9705244037e+00    0.3030909     0.247911 -25.27   0.00104919    1.348    0.258
       135  -9.1627    171.4012    206.7578   9.8898178372e+01   6.9967866041e+00    0.1966677    0.1857649 -68.34  0.000757546    1.279    0.218
       136  -9.6503    172.9255    202.8386   9.7953845235e+01   7.3622583860e+00    0.2875857    0.1980861 -34.99 0.0008504578    1.679    0.404
       137  -9.5725    156.4644    205.5525   1.0165026257e+02   9.8601870291e+00    0.2573163    0.2130246 -22.95  0.001022007    1.481    0.325
       138  -9.2486    120.3995    206.7886   1.0903679229e+02   1.5848476161e+01    0.1661565    0.1188717 -46.43 0.0009502966    1.706    0.414
       139  -9.1702    126.4710    205.9807   1.0771134716e+02   1.4986714695e+01    0.1799255     0.127024 -57.82 0.0009616959    1.590    0.371
       140 -10.5941    139.7559    203.7718   1.0472322351e+02   1.3114556198e+01    0.3438233     0.226966 -42.83  0.001862977    1.818    0.450
       141  -9.8355    179.0860    202.8951   9.6755046008e+01   6.2400830303e+00    0.2781207    0.2090366 -18.76  0.001040631    1.592    0.372
       142 -10.1426    164.6763    201.1666   9.9311751245e+01   9.1338032049e+00    0.4284139    0.2857681  -8.68  0.002014089    2.506    0.601
       143  -9.4263    193.0085    201.3032   9.3782425473e+01   3.9787491637e+00    0.2145898    0.1821515 -16.96 0.0008966064    1.257    0.204
       144 -10.0245    131.9352    200.9840   1.0589705715e+02   1.4978534006e+01     0.254667    0.2090864   6.23  0.001472315    1.674    0.402
       145  -9.0923    162.3599    197.7642   9.9213040806e+01   1.0138724238e+01    0.2222532    0.1645231   8.39 0.0008569232    1.788    0.441
       146  -9.1870    155.0071    200.5045   1.0114340824e+02   1.0993463401e+01    0.2372337    0.1754524 -13.79 0.0008665713    1.939    0.484
       147  -9.1338    156.5750    196.5255   1.0017930187e+02   1.1411036137e+01    0.2019148    0.1752751 -22.79  0.000737977    1.351    0.260
       148  -8.8784    157.4056    192.7513   9.9379605633e+01   1.1932634612e+01    0.2626291    0.1246084 -39.57  0.001095791    2.553    0.608
       149  -9.1849    144.3252    201.0751   1.0339256450e+02   1.2797868652e+01    0.1928859    0.1623096 -26.53 0.0008435331    1.482    0.325
       150 -10.0347    184.5048    195.0290   9.4322133666e+01   6.5252017148e+00    0.4439795    0.3542113  -5.06  0.002549128    1.415    0.293
       151  -9.3379    185.6312    189.3639   9.3069941066e+01   7.2495011655e+00    0.3035222     0.281749 -26.04  0.001873205    1.179    0.152
       152  -9.7104    176.2950    196.4807   9.6203049923e+01   7.7998837399e+00    0.2848753    0.2268685 -23.46   0.00103989    1.429    0.300
       153  -9.6769    149.6005    197.1015   1.0169490791e+02   1.2571956436e+01    0.2368402    0.2060274   1.41  0.001414383    1.391    0.281
       154 -10.2224    199.0397    189.8870   9.0539779862e+01   4.6620488836e+00    0.3395922     0.242145   6.45  0.001115819    1.627    0.385
       155  -9.5290    191.3852    196.7924   9.3293338495e+01   4.9776575974e+00    0.2867216     0.199699  -2.68 0.0008424003    1.839    0.456
       156 -10.0338    194.2274    193.4552   9.2135558367e+01   4.9850960320e+00    0.2778732    0.2129327 -13.02  0.001006514    1.446    0.308
       157  -9.5666    170.0476    196.5378   9.7460049408e+01   8.9404068413e+00    0.2431148     0.186176 -16.84  0.001010043    1.615    0.381
       158  -9.8053    140.9603    195.9766   1.0328960863e+02   1.4325670396e+01    0.2059578    0.1638227   5.70  0.001129748    1.720    0.419
       159  -9.4238    125.2013    196.6050   1.0663968013e+02   1.6959110965e+01     0.184582    0.1171096  34.04 0.0008875332    1.661    0.398
       160  -9.8768    133.0195    194.0114   1.0462935182e+02   1.6099078380e+01    0.2031789    0.1666112   0.75  0.001059849    1.701    0.412
       161  -7.9499    199.4380    185.4538   8.9618854749e+01   5.2954796982e+00     0.191259    0.1262823 -24.89 0.0001607827    1.676    0.403
       162  -9.6553    161.9755    190.9478   9.8133503502e+01   1.1409424559e+01    0.2920658    0.1988334 -34.80  0.001047669    1.722    0.419
       163  -9.7802    146.4044    191.7499   1.0148531819e+02   1.4130689119e+01    0.2263646    0.1644951  21.66 0.0009830579    1.678    0.404
       164  -8.7095    124.6774    192.6433   1.0616393651e+02   1.7813240703e+01       0.1288    0.1060841  -4.81 0.0007045405    1.766    0.434
       165  -9.3060    190.3711    190.7566   9.2391261690e+01   6.1334978555e+00    0.2286171    0.1270555 -26.61 0.0005434355    2.271    0.560
       166  -9.6650    193.3235    186.8714   9.1084192718e+01   6.2147339541e+00    0.3342339     0.222381  -0.08  0.001136051    2.073    0.518
       167  -9.7576    172.4790    189.6932   9.5769912280e+01   9.6656342713e+00    0.2836905    0.2300016 -15.99 0.0009653065    1.430    0.301
       168  -9.8529    179.0143    188.8736   9.4301980466e+01   8.5769136345e+00    0.2957592    0.1971719 -30.90   0.00109271    1.716    0.417
       169  -9.4652    156.9471    186.7213   9.8437643262e+01   1.3114973353e+01    0.2387095    0.1915973  -5.31 0.0009724916    1.599    0.375
       170  -9.7621    166.7007    184.7981   9.6069745340e+01   1.1624237339e+01    0.3013662    0.2107279 -18.57  0.001146688    1.932    0.482
       171  -9.4055    128.9413    185.9977   1.0423707159e+02   1.8372833205e+01    0.2094752    0.1706748  -2.82  0.001134853    1.756    0.430
       172  -9.1240    173.4342    184.2736   9.4588347145e+01   1.0434647629e+01    0.2340934    0.1352006 -37.15 0.0008156099    1.943    0.485
       173  -9.2823    189.8361    183.9263   9.1212749283e+01   7.3624815158e+00    0.2452059    0.1788381  -3.96 0.0008875068    1.673    0.402
       174 -10.0807    190.8908    177.9485   8.9841557064e+01   8.1704710071e+00    0.3687698    0.2561493 -31.81  0.001262784    1.534    0.348
       175  -9.6033    192.8371    171.9935   8.8258446467e+01   8.8126231134e+00    0.3191616    0.1901639 -26.42  0.001067714    1.960    0.490
       176 -10.6005    140.2906    183.6318   1.0142300769e+02   1.6791871435e+01    0.3078656     0.191917 -36.54  0.001464831    2.030    0.507
       177  -9.9583    183.8259    181.6267   9.1976509069e+01   8.9040688999e+00    0.3287801    0.2314959 -21.81  0.001424179    1.669    0.401
       178  -9.3416    154.8572    182.2490   9.8085932778e+01   1.4341477144e+01    0.2541988    0.1812601 -15.66  0.001094409    2.046    0.511
       179  -8.7154    134.4976    183.4676   1.0263643571e+02   1.7878831690e+01    0.1361411    0.1257239  46.97 0.0003350445    1.067    0.063
       180  -9.6495    197.5156    181.3970   8.9207011697e+01   6.3192431093e+00    0.2613393    0.1919965 -16.60 0.0008843759    1.507    0.336
       181  -9.4717    150.6989    185.8749   9.9598967181e+01   1.4439175485e+01    0.2067858    0.1735946 -20.23  0.001162486    1.448    0.309
       182  -9.7897    176.8569    179.9400   9.3072498402e+01   1.0544682564e+01    0.3244535    0.1947434 -29.88  0.001294391    2.006    0.501
       183  -9.9099    145.6451    178.8882   9.9453523501e+01   1.6723059022e+01    0.2129939    0.1763729 -25.08  0.001084777    1.462    0.316
       184  -9.8630    169.2710    176.6570   9.4017612837e+01   1.2612797199e+01     0.281764    0.2172416  -7.31 0.0009251502    1.636    0.389
       185 -10.6089    150.4897    176.3836   9.7958998421e+01   1.6294088311e+01    0.2733922    0.2396115 -15.28   0.00148217    1.340    0.254
       186  -9.9572    182.4607    174.6586   9.0896922583e+01   1.0389437697e+01    0.3074591    0.2419313 -10.29  0.001102089    1.457    0.314
       187 -10.2005    139.8616    175.4324   1.0009601053e+02   1.8490291008e+01    0.2732135    0.1862583 -31.53  0.001313081    1.911    0.477
       188 -10.3178    101.0008    175.9938   1.0878554627e+02   2.5185019580e+01    0.1911611    0.1680985  74.44            0    1.016    0.016
       189 -10.1997    162.1737    173.8907   9.4987698439e+01   1.4515667698e+01    0.2768384    0.1830145  18.30  0.001233949    2.079    0.519
       190  -9.2313    187.6192    171.4679   8.9205149920e+01   9.9357025134e+00    0.2570627    0.1709374 -32.93  0.000870568    1.602    0.376
       191 -10.1823    178.8752    167.6713   9.0232538866e+01   1.2364222849e+01    0.4287951     0.298987 -21.25  0.002058184    1.731    0.422
       192  -9.7220    158.2912    169.5680   9.4988863647e+01   1.6107757655e+01    0.2406099    0.1757289 -21.42 0.0009835412    1.758    0.431
       193  -9.8251    143.4041    169.7911   9.8290742707e+01   1.8955531243e+01    0.1950776    0.1343674 -37.46 0.0009433849    1.673    0.402
       194  -8.8823    197.1973    168.8038   8.6731785291e+01   8.5005487860e+00    0.1970789    0.1563148   2.02 0.0006218239    1.358    0.264
       195  -9.7731    199.4783    163.4722   8.5157542246e+01   8.9653347831e+00    0.3964267    0.2517318 -32.26  0.001334279    1.625    0.385
       196  -9.3636    170.0141    167.2087   9.2004935113e+01   1.4229655094e+01    0.2554757    0.1876843 -21.54    0.0012519    1.637    0.389
       197 -10.2406    150.4492    167.3551   9.6273382444e+01   1.8082882352e+01    0.3108887    0.2011643 -25.63  0.001319693    2.188    0.543
       198  -9.3248    134.6762    168.6787   1.0002941668e+02   2.0835605871e+01    0.1399354    0.1138576  -1.97 0.0007046381    1.679    0.404
       199  -9.2940    164.8455    166.7503   9.3018476780e+01   1.5352282998e+01    0.2381727    0.1559756   1.84 0.0008569786    2.745    0.636
       200 -10.1668    191.6691    164.1731   8.6873550564e+01   1.0416491740e+01     0.419803    0.2624113 -21.16  0.001479247    1.983    0.496
       201 -12.3563    225.1223    176.5385   8.2990722688e+01   1.9057700907e+00     1.977855    0.4921883 -31.07  0.005571087    5.473    0.817
       202  -9.4336    184.7912    164.2664   8.8300739598e+01   1.1792334176e+01    0.2818512    0.1961333 -23.40  0.001069346    1.644    0.392
       203  -8.8416    172.4249    162.7823   9.0586143945e+01   1.4582039001e+01    0.2011845    0.1382933 -28.43 0.0009423229    1.664    0.399
       204  -8.9596    159.5067    163.4980   9.3523075214e+01   1.7055030712e+01     0.145042    0.1373596  33.80 0.0002242956    1.022    0.022
       205  -8.7940    146.6855    161.6466   9.5996175704e+01   1.9976830504e+01    0.1476546    0.1159067  -3.05  0.000704578    1.735    0.424
       206  -8.6431    163.5359    160.4939   9.2029225982e+01   1.6832590427e+01    0.1466267    0.1377737  21.71 0.0008052276    1.060    0.056
       207  -9.6041    176.7963    158.1158   8.8673184856e+01   1.4571825540e+01     0.318581    0.1962882 -32.03  0.001042095    1.802    0.445
       208  -8.9892    158.8171    158.7510   9.2705018400e+01   1.8136488109e+01    0.2394347    0.1592813   2.25 0.0009371772    2.686    0.628
       209  -8.5618    168.2976    158.3157   9.0538688050e+01   1.6285154302e+01    0.1476928    0.1149211   3.68 0.0004296531    1.608    0.378
       210  -9.9192    197.2061    155.7942   8.3949686283e+01   1.0776566328e+01     0.360417    0.2371918 -17.44  0.001278971    1.841    0.457
       211  -9.6468    187.6982    154.5305   8.5609650513e+01   1.2978354979e+01    0.3702309    0.1881667 -31.04  0.001462743    2.266    0.559
       212  -9.6210    205.9573    153.2012   8.1641088058e+01   9.4306021057e+00    0.3127463    0.1880706 -17.07 0.0009318393    2.137    0.532
       213  -8.7778    192.5813    153.2212   8.4317261079e+01   1.2199311341e+01     0.199267    0.1383598 -24.68 0.0009335291    1.563    0.360
       214  -8.2287    184.2772    153.3430   8.6059397127e+01   1.3914063145e+01    0.1504375    0.1137358   0.98 0.0003199404    1.625    0.384
       215  -9.4383    157.4018    151.7685   9.1548435538e+01   1.9835098407e+01    0.2119164    0.1408779 -33.54 0.0009512755    1.691    0.409
       216  -9.7477    145.4060    151.7735   9.4278596394e+01   2.2280682995e+01    0.2084828    0.1395254 -36.14 0.0006586608    1.680    0.405
       217  -9.3190    196.9050    148.6660   8.2418093598e+01   1.2118856423e+01    0.2820494    0.1960344 -17.14  0.001049368    1.665    0.399
       218  -8.9651    181.9764    148.8339   8.5538332534e+01   1.5249777683e+01    0.2174905    0.1583251 -19.14 0.0007688159    1.595    0.373
       219 -12.2580    246.9099    241.0358   9.0860099509e+01  -9.7938020993e+00     1.260636     1.090841 -72.57  0.008320406    2.741    0.635
       220  -9.5745    208.3324    143.6133   7.9001218542e+01   1.0610466842e+01    0.3648781    0.2450813 -23.70  0.001159558    1.559    0.358
       221  -8.9309    191.1890    146.9121   8.3182539173e+01   1.3650583486e+01    0.2090102    0.1702707  -5.22  0.001051833    1.341    0.254
       222  -9.2358    202.4415    150.2861   8.1678869314e+01   1.0668845105e+01    0.2590257    0.1398598 -30.08 0.0008266533    1.977    0.494
       223  -8.7860    176.4182    144.8060   8.5811242252e+01   1.7211885121e+01    0.2118577    0.1423693 -26.98 0.0005977114    1.686    0.407
       224  -9.1887    200.4985    143.9701   8.0622324958e+01   1.2205496379e+01    0.2244606    0.1434989 -33.02  0.001017542    1.565    0.361
       225  -8.6590    171.4763    143.5015   8.6586611933e+01   1.8529509306e+01    0.1526759    0.1431561  10.26 4.743184e-05    1.072    0.067
       226  -9.5023    214.1296    141.2998   7.7354819820e+01   9.7949877722e+00    0.2583729    0.1870524 -20.50 0.0008248519    1.409    0.290
       227  -8.8519    194.5112    142.5126   8.1489478802e+01   1.3752003812e+01    0.1511669    0.1401006   5.95 0.0008101899    1.036    0.035
       228  -9.3736    155.6024    142.1836   8.9844790717e+01   2.2182517294e+01    0.2203639    0.1424467 -33.12 0.0009517744    1.742    0.426
       229 -10.1711    139.4892    141.4862   9.3457257823e+01   2.5669767454e+01      0.33993    0.2374931  -4.64  0.001384043    2.436    0.590
       230  -8.9812    181.5981    140.2090   8.3638199695e+01   1.6982888693e+01    0.2148361    0.1427992 -27.23 0.0008863832    1.666    0.400
       231  -8.5218    203.4933    140.4564   7.9211099663e+01   1.2197464206e+01    0.1521199    0.1362244   5.26 0.0002317826    1.087    0.080
       232 -10.0629    218.5593    137.1056   7.5543994845e+01   9.5853997614e+00    0.3650241    0.2588465  -4.92   0.00133764    1.656    0.396
       233  -9.5500    208.8227    136.4785   7.7235040971e+01   1.1762704221e+01    0.2936773    0.2057276 -22.69  0.001067674    1.479    0.324
       234  -9.3259    198.8399    135.5549   7.8974512313e+01   1.4091608977e+01    0.3013417    0.1939765 -18.55  0.001286921    1.876    0.467
       235  -8.8326    192.5614    135.9221   8.0333383725e+01   1.5398643796e+01     0.230915    0.1461612 -33.45  0.001013593    1.593    0.372
       236  -8.9395    172.5991    136.1733   8.4630812734e+01   1.9741148459e+01    0.2258442    0.1442142 -28.84 0.0009540133    1.771    0.435
       237  -8.9777    187.6168    134.2282   8.0949038720e+01   1.6807365621e+01    0.2177208    0.1424714 -27.01 0.0009441734    1.664    0.399
       238  -9.0379    163.5019    133.9768   8.6136293846e+01   2.2177690461e+01    0.2215427    0.1354817 -18.55 0.0008102056    2.569    0.611
       239  -9.3965    179.6187    130.9390   8.1844492267e+01   1.9219267520e+01    0.3432668    0.1876676 -28.93  0.001319334    2.148    0.534
       240  -9.4299    205.7531    129.6580   7.6189234433e+01   1.3645509974e+01    0.2757567     0.178651 -24.01 0.0008346161    1.651    0.394
       241 -12.3692    227.9788    221.8846   9.0927961641e+01  -4.7977187432e+00     1.933039    0.8123987 -44.30   0.00861874    3.582    0.721
       242  -8.8243    166.5970    139.2033   8.6672695507e+01   2.0441700641e+01     0.216612    0.1444074 -30.56 0.0009461242    1.665    0.399
       243  -9.2882    211.7955    127.6172   7.4536354617e+01   1.2682992874e+01    0.3414757    0.2463005 -52.43  0.001609421    1.611    0.379
       244  -9.1563    192.6845    127.6740   7.8303795904e+01   1.6916469393e+01    0.2819471    0.1835097 -25.18  0.001110737    1.684    0.406
       245  -8.6967    186.4823    128.0045   7.9667889813e+01   1.8248023692e+01    0.2167255    0.1350283 -12.43 0.0008088449    2.435    0.589
       246  -8.7170    172.3136    128.0043   8.2714328885e+01   2.1434333941e+01    0.2512233    0.1261293 -20.93 0.0007036848    4.178    0.761
       247  -9.0531    200.0075    125.0510   7.6181973280e+01   1.5758682715e+01    0.2461434    0.1822422   2.61 0.0006833702    1.676    0.403
       248  -9.3873    179.8312    122.8447   7.9787746837e+01   2.0753335313e+01    0.4030274    0.2098012 -28.61   0.00148208    2.299    0.565
       249  -9.4721    212.6238    121.3470   7.2838382713e+01   1.3605012737e+01    0.2957137    0.2227922 -22.73  0.001012985    1.325    0.245
       250  -8.9770    188.1671    121.8738   7.7783497505e+01   1.9036510304e+01    0.2218134    0.1799465 -10.04  0.001063983    1.363    0.266
       251  -9.2267    152.3108    125.3408   8.6629220860e+01   2.6423626017e+01     0.159605    0.1240503  -0.92  0.000704538    1.694    0.410
       252  -8.8796    194.3569    119.8257   7.5998374785e+01   1.8006598922e+01    0.2272877    0.1418522 -25.65 0.0009440926    1.758    0.431
       253  -8.5591    212.0000    114.8872   7.1335224288e+01   1.4882445574e+01    0.2417678   0.08293417 -35.48  0.000587036    2.782    0.640
       254  -8.3742    203.2731    114.3982   7.2856159919e+01   1.6958779958e+01    0.1610198    0.1174102   1.16 0.0005210224    1.744    0.427
       255  -8.7977    185.7799    113.9745   7.6249197401e+01   2.1094077260e+01    0.2146331    0.1257404 -36.79 0.0008728575    1.677    0.404
       256  -9.0298    194.6933    112.5194   7.4052294006e+01   1.9288705536e+01    0.2740362    0.1377173 -36.79  0.001025197    1.932    0.482
       257  -8.3540    201.2686    108.3652   7.1680123665e+01   1.8515270934e+01    0.1585111     0.118966   2.02 0.0005202361    1.656    0.396
       258  -8.4866    208.2893    112.3623   7.1382765317e+01   1.6173536449e+01    0.1588244    0.1172199   4.42 0.0007025445    1.695    0.410
       259 -12.0309    206.2405    205.1494   9.1958068317e+01   1.0562529825e+00     2.589214     1.204584 -22.55   0.01049064    3.335    0.700
       260  -8.9706    205.5983    104.2334   6.9777425460e+01   1.8242857000e+01    0.2175674    0.1439546 -22.89 0.0009405126    1.626    0.385
       261  -8.7745    209.4599     99.0681   6.7708333495e+01   1.8244249863e+01    0.2347309    0.1453736 -33.02 0.0009442837    1.547    0.354
       262 -14.2298    244.4165    190.5212   8.2345288328e+01  -3.4524736778e+00     2.434422    0.7806224 -37.86  0.009671436    3.301    0.697
       263  -8.7524    195.4661     96.4735   6.9623171493e+01   2.2043430836e+01    0.1556248    0.1488473 -11.39 0.0001246511    1.033    0.032
       264  -8.4885    188.6378     91.6810   6.9634747208e+01   2.4569117211e+01    0.1665329    0.1215535  16.72 0.0007041869    1.771    0.435
       265  -9.0409    210.1081     90.1500   6.5217849674e+01   1.9627265320e+01     0.233008    0.2023964   5.22 0.0006358082    1.263    0.208
       266  -9.6233    218.1289     89.0887   6.3565750372e+01   1.7900171889e+01    0.2320113    0.1972623   1.70 0.0005785775    1.304    0.233
       267  -8.4282    203.4537     89.5020   6.6227126321e+01   2.1341468656e+01    0.1542491    0.1461749 -10.63 0.0001700208    1.058    0.055
       268 -10.3860    217.5696     83.5426   6.2186668037e+01   1.8949467280e+01     0.499655    0.2857385  35.15  0.002009149    2.253    0.556
       269  -8.9426    206.1414     83.8349   6.4199374551e+01   2.1656948227e+01    0.2125157    0.1786359  -1.54 0.0008057331    1.335    0.251
       270  -9.3232    215.1699     79.2454   6.1426711308e+01   2.0227343367e+01    0.2639765    0.1987998 -16.45 0.0008585441    1.452    0.311
       271 -12.8099    248.7359    179.6968   7.9458939900e+01  -2.7142623341e+00      1.19102    0.3208355 -36.57  0.004316245    3.640    0.725
       272  -8.9979    211.5454     75.2588   6.0936206440e+01   2.1754616725e+01    0.2044791     0.144722 -18.08  0.000871969    1.570    0.363
       273 -13.3567    247.3773    159.3559   7.5447446475e+01   4.1286608666e-01     1.961633    0.6080288 -27.10  0.006307408    4.030    0.752
       274  -8.2222    206.3343     73.2930   6.1256696038e+01   2.3355233935e+01    0.1548457    0.1169903  22.13 0.0004939902    1.639    0.390
       275  -9.5712    222.0716     70.0156   5.7872602826e+01   2.0031121818e+01    0.2269582    0.1752845  11.64  0.000607328    1.646    0.392
       276  -9.2171    107.8915    249.6499   1.1619153944e+02   1.0508724168e+01    0.1731323    0.1204032  37.10 0.0007509267    1.461    0.315
       277 -10.1196     32.0079    248.1602   1.2852383177e+02   2.0566247178e+01    0.2116015    0.1128793 -61.81  0.001419672    2.411    0.585
       278  -8.4475    214.3013     69.3025   5.8868328090e+01   2.2028580184e+01    0.1486474    0.1158904  18.69 0.0005004813    1.589    0.371
       279  -9.7017    116.5159     67.5234   7.9261177280e+01   4.6215213393e+01    0.2557816    0.2367809 -20.05  0.001381716    1.025    0.024
       280  -8.7818    218.4478     67.4651   5.7732877234e+01   2.1302097266e+01    0.2089888    0.1441448 -17.13 0.0006299444    1.648    0.393
       281 -10.8114    233.1324    246.2076   9.3962480541e+01  -8.3490844595e+00    0.3088993    0.2307239   7.66  0.001161476    1.178    0.151
       282 -10.7229    176.3002    245.5388   1.0369800433e+02   4.8806105335e-01    0.3509152    0.2692299  -7.03  0.001577621    1.666    0.400
       283  -8.3808    208.3094     63.3290   5.8160672476e+01   2.4440271841e+01    0.1529676    0.1162162  19.78 0.0005888524    1.663    0.399
       284  -8.6551    207.2946     57.3264   5.6638927797e+01   2.5605877168e+01    0.1499075    0.1154565  20.36 0.0003151514    1.625    0.385
       285 -13.9407    247.5965    213.5319   8.6092079082e+01  -6.8540370720e+00     2.315775    0.4262898 -34.04  0.007720934    5.541    0.820
       286 -13.2003    236.8850    193.9858   8.4326845519e+01  -2.6585517320e+00     2.368365    0.4718286 -31.93  0.006816408    6.100    0.836
       287 -13.0450    234.7314    147.6656   7.5055817428e+01   4.5708239186e+00     2.810042    0.8904578 -26.45  0.007878316    4.894    0.796
