#   1 NUMBER                 Running object number                                     
#   2 MAG_AUTO               Kron-like elliptical aperture magnitude                    [mag]
#   3 X_IMAGE                Object position along x                                    [pixel]
#   4 Y_IMAGE                Object position along y                                    [pixel]
#   5 X_WORLD                Barycenter position along world x axis                     [deg]
#   6 Y_WORLD                Barycenter position along world y axis                     [deg]
#   7 A_WORLD                Profile RMS along major axis (world units)                 [deg]
#   8 B_WORLD                Profile RMS along minor axis (world units)                 [deg]
#   9 THETA_WORLD            Position angle (CCW/world-x)                               [deg]
#  10 FWHM_WORLD             FWHM assuming a gaussian core                              [deg]
#  11 ELONGATION             A_IMAGE/B_IMAGE                                           
#  12 ELLIPTICITY            1 - B_IMAGE/A_IMAGE                                       
         1 -11.3285     60.2002     46.4882   7.3939692230e+01   6.0679681786e+01     1.116844    0.8525056   0.10  0.006433651    1.255    0.203
         2 -11.7933     26.0130     57.9073   9.2953171720e+01   6.2846411872e+01    0.8603598    0.7414621 -10.48  0.005654399    1.120    0.107
         3 -13.1362     42.8773     45.1951   8.0850453326e+01   6.3407081415e+01    0.8503163    0.6208659  47.20 0.0009616592    1.916    0.478
         4 -12.5177    119.6950     57.8039   5.8511910833e+01   4.7090639574e+01     2.374605     1.315508 -66.00  0.007563076    4.481    0.777
         5 -10.9145    105.9692     20.4152   4.9113395788e+01   5.5086434633e+01    0.4606066    0.4392628  82.78    0.0020776    1.203    0.168
         6 -12.7644    119.3769     37.8976   5.2011708598e+01   5.0008622665e+01    0.8678142    0.6235569 -70.48  0.002817993    1.955    0.488
         7 -12.4216    114.4751     24.9634   4.8740110606e+01   5.2669089896e+01     1.146571    0.2760555  52.65   0.00244609    3.155    0.683
         8 -12.5402    125.0843     27.5980   4.7319553238e+01   4.9910994903e+01    0.7621953    0.4841238  56.19  0.002502482    1.372    0.271
         9 -11.3091    145.6873     46.8315   4.9155018634e+01   4.2609704958e+01     1.044725     0.396882 -27.31  0.003674066    3.337    0.700
        10 -11.5308    165.4321     17.8053   3.7670429911e+01   4.1348445609e+01    0.6861848    0.3911806  28.29  0.003089665    2.938    0.660
        11 -10.8883     79.8092     35.3585   6.2309605289e+01   5.8864478696e+01    0.8716596    0.5532386 -28.32   0.00459754    1.654    0.395
        12 -10.7743    125.2819     20.8331   4.5059516783e+01   5.0589012435e+01      1.05429     0.586269  89.73  0.004361671    2.936    0.659
        13 -10.4884    139.0102     31.4543   4.5784161458e+01   4.6167054972e+01    0.8145716    0.3394841 -19.16  0.002999976    3.675    0.728
        14 -10.9193    145.3643     24.1236   4.2437162383e+01   4.5470566731e+01    0.8972008    0.3142897  48.85   0.00348374    2.763    0.638
        15 -10.6614    147.7126     16.3885   3.9785770468e+01   4.5706335544e+01    0.8601509     0.290378  43.02  0.002950947    4.068    0.754
        16 -12.1256    134.6127     15.0901   4.1510178585e+01   4.8949996470e+01        1.634    0.5977455  75.81  0.005491933    3.938    0.746
        17 -10.3543     47.0270     19.5349   6.8206936996e+01   6.6706943703e+01     0.310616    0.2265627 -14.30  0.001956906    1.282    0.220
        18 -11.5246     26.3773     28.0502   8.1945227883e+01   6.8244625621e+01    0.4767287    0.3112384 -38.23    0.0022866    1.478    0.323
        19 -12.5054     36.1416     17.1305   7.2113343330e+01   6.8619564987e+01    0.5835299    0.3601228 -30.93  0.003506945    1.605    0.377
        20 -11.8147     20.0739     21.5922   8.2487861481e+01   6.9925716146e+01    0.7375314    0.2366982 -40.47  0.003213272    2.764    0.638
        21 -12.5205     17.1335     12.5808   7.9944991606e+01   7.1559048286e+01     1.064655    0.5720822  -7.45  0.005859578    2.006    0.501
        22 -12.0459     23.1298     11.4590   7.6050898177e+01   7.1041639714e+01    0.4836141    0.2841384   9.66  0.002117275    1.599    0.375
        23 -11.9685     48.4972     12.9236   6.4479569821e+01   6.7267856977e+01    0.6466153     0.284627  42.99  0.002495952    2.084    0.520
        24 -11.1874     90.7494     20.7109   5.3173052742e+01   5.8394849229e+01    0.5915204    0.3398392 -23.39  0.002624856    1.935    0.483
        25 -11.3376     85.7934     14.5781   5.2146062428e+01   6.0067183539e+01    0.7810464    0.3693841 -22.95  0.003651082    2.379    0.580
        26  -9.6976     78.2579      7.4460   5.1382984607e+01   6.2289301804e+01    0.2789199    0.1688282  55.51  0.000982457    1.510    0.338
        27 -11.0403     76.5761      3.6793   5.0273353709e+01   6.2952313898e+01      0.62653    0.2847552  55.47  0.003112451    1.898    0.473
        28 -10.7333     88.5397      7.5053   4.8563973692e+01   6.0129689268e+01    0.3066188    0.2018769   9.94  0.001167306    1.735    0.424
        29 -10.7145     84.7632      8.4292   4.9945352378e+01   6.0852098309e+01    0.3153789     0.282136  74.15   0.00209683    1.349    0.259
        30 -10.9916    178.8029     21.0355   3.6822817018e+01   3.7863159267e+01    0.5500495    0.2349835  48.75  0.002209713    2.687    0.628
        31 -11.9409     68.2279     18.0813   5.9182994949e+01   6.3214225651e+01    0.5263791    0.4271238  40.85  0.003360654    1.198    0.165
        32 -10.4892    211.1447     17.3905   3.2590208192e+01   3.0971017609e+01    0.3207081    0.1662942 -32.58  0.001715318    2.063    0.515
        33 -11.3474    211.7431      9.9001   3.0925585139e+01   3.1645292855e+01    0.4673272    0.3322439   7.32  0.002310093    2.611    0.617
        34 -11.9541    247.0092      6.4183   2.7714568972e+01   2.4845087150e+01    0.6571963    0.4410436 -14.78  0.004012092    2.589    0.614
        35 -11.6432    232.7830      6.0632   2.8567533701e+01   2.7671560042e+01     0.503741    0.3750468 -84.44  0.003583561    1.120    0.107
        36 -11.0301    242.0343      3.5772   2.7496295694e+01   2.6103819674e+01    0.4109333    0.2045089  68.98   0.00247047    1.967    0.492
        37 -12.2393    237.6156     16.0582   3.0169162898e+01   2.5620696427e+01     1.009041    0.3416889  73.86   0.00475193    2.842    0.648
        38 -11.4544    227.6919     15.3758   3.0782509054e+01   2.7702404301e+01    0.4848489    0.2857225  86.84  0.001589824    1.557    0.358
        39 -10.8581    218.8483      2.8711   2.8909162384e+01   3.0856271996e+01    0.2929882    0.2182931 -41.23 0.0009254423    1.420    0.296
        40 -11.2416    224.8194      2.3333   2.8379484291e+01   2.9672460070e+01     0.504734    0.2348858  89.01  0.001577436    2.037    0.509
        41 -11.8049    192.0326      8.4219   3.2345107874e+01   3.6135592485e+01    0.6374636     0.452102 -11.11   0.00186258    2.051    0.512
        42 -12.1807    104.6971     12.5172   4.6543475855e+01   5.6136676913e+01    0.5186333    0.4369489 -28.78  0.001934593    1.377    0.274
        43  -9.2674    108.5462      5.9890   4.3362010215e+01   5.5824791193e+01     0.200579    0.1603223 -30.98 0.0007969593    1.471    0.320
        44 -10.8678    113.7283      2.3337   4.1070668872e+01   5.4926093311e+01    0.7492428    0.2297714  67.77  0.002828839    3.097    0.677
        45 -10.8071    105.2347      1.7935   4.2536669871e+01   5.6902822830e+01    0.5547264    0.1685104  66.61  0.002076354    3.197    0.687
        46  -9.9907      5.2637     12.6314   8.7007809776e+01   7.2650024388e+01     0.270835    0.1586239  15.71   0.00174101    1.597    0.374
        47  -9.2201      5.3380      9.3184   8.5403947671e+01   7.3140523396e+01    0.1182783   0.08583334 -12.50 0.0006173441    1.001    0.001
        48  -9.9591     65.8024     10.4516   5.6669348599e+01   6.4468878902e+01    0.2573125    0.1838594  51.80 0.0009821359    1.429    0.300
        49  -9.5496     62.5890      7.0490   5.6249687738e+01   6.5399778073e+01    0.3067999    0.1755756  26.24  0.001683144    1.663    0.399
        50  -9.7852    168.7819      9.7373   3.5128121235e+01   4.1357473740e+01    0.3170284    0.1465261  52.98   0.00152077    2.116    0.527
        51  -9.7919    163.3293      8.9330   3.5571055272e+01   4.2713216571e+01    0.3639302    0.1959736 -23.21  0.001871032    2.274    0.560
        52  -9.6543      1.2089      7.5390   8.7161655019e+01   7.3731661201e+01    0.2523271   0.07027784 -46.35 0.0009706668    3.258    0.693
        53 -11.1438      2.4276      1.9998   8.3596611712e+01   7.4426643589e+01    0.2791823    0.1547095   2.26  0.001470752    1.623    0.384
        54  -9.6941     12.3708      1.5318   7.7077724097e+01   7.3536228260e+01    0.4819043    0.1182971  32.38  0.002040352    3.795    0.737
        55 -10.8148    183.9071      4.9815   3.2319415707e+01   3.8308458123e+01    0.3667976    0.3377864 -15.48  0.002349013    1.418    0.295
        56 -11.0534    177.1389      5.9179   3.3232650771e+01   3.9773197792e+01    0.4507316    0.1971648  82.46 0.0008915947    2.294    0.564
        57  -9.1875    157.6296      7.0988   3.5786020059e+01   4.4223683657e+01    0.2105253    0.1227956  -9.22 0.0005822913    2.513    0.602
        58  -9.7352    158.1241      2.6241   3.4511811940e+01   4.4497501175e+01    0.3149243    0.1552444  50.86  0.001580737    1.997    0.499
        59 -10.3147     41.3757      4.4198   6.3403980388e+01   6.9331548452e+01    0.3330856    0.1889678   7.38  0.001411862    1.927    0.481
        60 -11.8455    134.6142      2.8175   3.7725095572e+01   5.0020635593e+01    0.4971865      0.26738  81.61  0.001951506    1.928    0.481
        61  -9.8463    143.0689      3.6955   3.6760680338e+01   4.7955867017e+01    0.3672231    0.1759897  71.48   0.00179474    1.807    0.447
        62 -10.0389    122.3055      5.1550   4.0466926800e+01   5.2718987372e+01    0.2173203     0.138635  57.12  0.000591488    1.292    0.226
        63  -9.4054    151.6314      1.4189   3.4977317567e+01   4.6124075092e+01    0.2734195    0.1031626  70.17  0.001207462    2.210    0.548
        64 -10.6811    205.3195      2.3260   2.9823020109e+01   3.3793443052e+01     0.441652    0.1849564  83.49  0.001475385    2.282    0.562
        65 -10.7242     82.2169      1.3249   4.7715859812e+01   6.1969781020e+01    0.2002284   0.09413704  55.25 0.0003297895    1.737    0.424
        66  -8.8024     33.5340      1.5230   6.5544149801e+01   7.0830406234e+01    0.1194511   0.08824739  12.58 0.0008089993    1.035    0.034
        67 -12.0040      2.6302    141.9255   1.1685676603e+02   4.4625415577e+01    0.7522776    0.4365886  67.70  0.001565248    1.878    0.467
        68 -10.2204    142.9697    249.7321   9.5309070127e+01   2.4525453344e+00    0.1912513    0.1469754  30.80  0.001164915    1.092    0.085
        69 -12.1828     22.7178    148.9566   1.1189856572e+02   4.1417086298e+01    0.6398988    0.3325966 -38.01  0.002910339    2.355    0.575
        70 -11.3266     15.9913    148.0333   1.1371034179e+02   4.2189082167e+01    0.3633471    0.2869925  80.70  0.001102164    1.222    0.182
        71 -11.8344     12.9386    138.8875   1.1356081009e+02   4.4706655542e+01    0.7593364    0.4716777 -83.54  0.004057243    1.485    0.326
        72 -10.6347     63.1589    150.6602   1.0027216460e+02   3.6633281020e+01    0.4164472    0.2924967   2.56  0.001223133    1.898    0.473
        73  -9.6412    234.3524    150.1834   5.8603641925e+01   5.7640805389e+00     0.254178    0.1754283  10.16  0.001297999    1.919    0.479
        74  -9.5371     41.6363    149.0621   1.0640242127e+02   3.9597580912e+01    0.2147399     0.190624  -9.48  0.000957497    1.321    0.243
        75 -11.0655     46.7722    146.3715   1.0447147102e+02   3.9728817321e+01    0.6124892    0.3917116 -48.36   0.00301495    1.525    0.344
        76 -11.0334    249.6513    143.2623   5.4770969283e+01   4.4654225189e+00    0.6625891    0.2083344 -39.43  0.002590711    2.639    0.621
        77 -10.2327    239.6601    146.6270   5.7005540701e+01   5.5056379431e+00    0.2357951    0.1851904 -28.42  0.000666992    1.109    0.098
        78 -10.9376     33.4801    144.3651   1.0815806360e+02   4.1618775918e+01    0.4283071    0.2796806  52.29  0.001635508    1.689    0.408
        79  -9.7366     73.7124    146.4523   9.6369911529e+01   3.6254004914e+01    0.2774726     0.164674 -41.38  0.001187177    1.816    0.449
        80  -9.0188    104.6539    142.7833   8.6463451842e+01   3.2156272845e+01    0.2128869    0.1454705 -62.83 0.0003577551    1.587    0.370
        81  -9.5230    132.9793    140.5636   7.8094741916e+01   2.7300578870e+01    0.2627095    0.2112829 -45.99 0.0009256625    1.231    0.188
        82 -10.4489     69.9905    139.3369   9.6151927168e+01   3.8602539760e+01    0.2801667    0.1889636 -37.75 0.0008076716    1.601    0.375
        83 -10.4792    216.9909    138.3574   5.9066322174e+01   1.0939490813e+01    0.3385203    0.2447259 -48.60  0.001148068    1.358    0.263
        84  -9.9447     79.8541    137.4434   9.2731099930e+01   3.7630002669e+01    0.3471677    0.2558117 -30.42  0.001636901    1.530    0.347
        85 -10.2470     47.0706    135.1181   1.0255291117e+02   4.2581479608e+01    0.4366384    0.2093518 -65.22  0.001838681    1.924    0.480
        86 -10.1931     39.1026    137.5520   1.0544366699e+02   4.2806856098e+01    0.3821381    0.2099625  45.05 0.0008773473    2.022    0.505
        87 -11.1810     22.7463    127.0928   1.0902032920e+02   4.6942177242e+01    0.2374506    0.2295152  16.14 0.0003135396    1.200    0.167
        88  -9.4526     32.8213    137.7967   1.0742144129e+02   4.3356695659e+01      0.27116    0.2267486  79.41 0.0008360672    1.241    0.194
        89 -11.6231     23.8485    135.6506   1.0987487666e+02   4.4690652676e+01    0.6572449    0.4256833  39.82  0.003508918    1.701    0.412
        90 -11.6165     30.0192    132.8508   1.0756298428e+02   4.4872043369e+01     0.456944    0.3653973  88.17 0.0003890496    1.278    0.218
        91  -9.9518    245.0202    134.6980   5.3723264596e+01   6.6639457639e+00    0.1779663    0.1596667 -29.90 0.0004421949    1.078    0.072
        92 -10.3958     74.1557    132.5269   9.3485986327e+01   3.9732409965e+01    0.3398106    0.2181499 -28.14  0.001451839    1.960    0.490
        93 -10.1162     61.3650    132.4346   9.7524625616e+01   4.1536432731e+01    0.4538733    0.2882896  12.20  0.002031845    1.994    0.499
        94  -9.3277     38.4477    133.2776   1.0497264191e+02   4.3964955999e+01    0.2316972    0.1565346  54.98 0.0009194576    1.711    0.415
        95  -9.5801    103.8067    130.9135   8.4022303804e+01   3.5216516171e+01    0.2284993    0.2048865 -19.19 0.0003054883    1.168    0.143
        96 -10.1997     93.0719    129.5189   8.6935406138e+01   3.7461162750e+01    0.3449852    0.2380605 -76.07   0.00146697    1.909    0.476
        97 -10.9061      9.5051    128.3623   1.1334933404e+02   4.7567024616e+01    0.4868306      0.28549 -56.91  0.002618904    1.436    0.304
        98  -9.5130     40.9762    126.5378   1.0302996503e+02   4.5424295574e+01    0.2228857    0.1664318 -62.69 0.0003126472    1.196    0.164
        99 -10.0775      2.2448    126.0521   1.1531095977e+02   4.8568934461e+01    0.2675528    0.1839074  77.15  0.001274504    1.531    0.347
       100 -10.5151     55.2639    123.5246   9.7754575617e+01   4.4572535446e+01    0.5514621    0.3078494 -29.52  0.002053912    2.346    0.574
       101  -9.8677     49.5022    123.0623   9.9577474687e+01   4.5375621697e+01    0.3000445    0.2409693 -25.73  0.001057514    1.337    0.252
       102 -11.0280     44.6437    118.6989   1.0036766745e+02   4.7017746179e+01    0.5892504    0.3626882 -83.12  0.001976536    2.057    0.514
       103 -12.8155    103.7334    122.3642   8.1984782175e+01   3.7290906763e+01    0.4187146    0.3755736  -5.10 0.0005766993    1.182    0.154
       104  -9.8759     81.9866    125.0677   8.9377969583e+01   4.0399604379e+01    0.3393646    0.2095689  12.14  0.001361461    2.250    0.556
       105 -10.2092     18.9108    122.8257   1.0963716317e+02   4.8307040560e+01    0.3172853    0.1603435 -63.91   0.00083194    1.621    0.383
       106  -9.2470     71.3360    120.9181   9.1884872649e+01   4.3060410904e+01    0.2134217    0.1809077 -47.33 0.0005204479    1.106    0.096
       107  -8.9646    221.4479    120.5008   5.4387153968e+01   1.3351804677e+01    0.1399348    0.1228957 -42.93 0.0001371987    1.026    0.026
       108 -10.4995     15.5506    109.4107   1.0873352664e+02   5.1872942796e+01    0.3607081     0.256196  48.22  0.002038084    1.684    0.406
       109 -11.9459     49.4520     98.8203   9.4381539048e+01   5.1354308574e+01     2.244107    0.7112979 -42.96  0.007501353    3.200    0.688
       110 -11.9387      7.3823     88.8921   1.0826431680e+02   5.7296449387e+01    0.5858893    0.4092439  11.68  0.002016967    1.656    0.396
       111 -11.8482      9.7733     97.2167   1.0880555306e+02   5.5190925026e+01    0.6094775    0.4617417 -15.47 0.0004983659    1.443    0.307
       112 -10.9049     18.6930    106.0321   1.0707686580e+02   5.2485385671e+01    0.2342464    0.2140975 -49.51  0.000189479    1.087    0.080
       113 -12.2847     34.6953     93.6353   9.8717030015e+01   5.4158812222e+01     1.420326    0.8066581 -53.11  0.005760233    1.500    0.333
       114 -11.3263     26.6218     86.1269   1.0016137262e+02   5.6636753134e+01    0.7389057    0.4955185  18.90  0.003901007    1.642    0.391
       115 -11.9044     42.3406     85.6827   9.3825894024e+01   5.5227696387e+01    0.9424356    0.4343384  19.75  0.003057405    2.483    0.597
       116 -11.9301     17.6131    100.7892   1.0655368364e+02   5.3836448499e+01    0.5359748    0.3187375  10.93 0.0006856713    1.969    0.492
       117 -12.1120     24.9858    108.1272   1.0521367764e+02   5.1497837355e+01    0.9212692    0.5366185 -36.25  0.004591697    1.737    0.424
       118 -11.6491     22.8286     94.8073   1.0348642721e+02   5.4896238761e+01    0.4089866    0.2768367 -11.57 0.0008160618    1.662    0.398
       119 -11.5023     18.4673     90.5677   1.0430754874e+02   5.6220382020e+01    0.4204091      0.29121 -62.48  0.000802259    1.279    0.218
       120 -11.4306     22.0522    114.2825   1.0728189475e+02   5.0203983844e+01    0.5248078    0.2906527  -8.83  0.002112875    2.460    0.594
       121 -11.7055     29.4335    112.9463   1.0451668940e+02   4.9936308337e+01      0.66979     0.414554  18.93   0.00294167    1.843    0.457
       122  -9.5528    113.8137    116.0909   7.7403804724e+01   3.6822713915e+01    0.2957094    0.2108871 -41.31  0.001335408    1.392    0.281
       123 -10.5723      6.9955    114.4826   1.1237321244e+02   5.1154402358e+01    0.2819178    0.2362141 -51.70  0.001002136    1.107    0.096
       124 -12.5309      2.2101    111.3468   1.1354377603e+02   5.2178494308e+01    0.4316496    0.2348974 -71.15 0.0004429255    1.514    0.340
       125 -11.2934      4.3727    105.0728   1.1195260580e+02   5.3592344620e+01    0.4465011    0.3395626  60.21  0.002716385    1.575    0.365
       126  -9.3689     79.1430    114.3118   8.7764245460e+01   4.3492113351e+01    0.2831848    0.1915418 -42.39  0.001305104    1.430    0.301
       127  -9.5304     67.0130    114.4867   9.1862871589e+01   4.5273621967e+01    0.3251642    0.2154992  53.85  0.001467085    1.892    0.471
       128  -9.8373     67.1799    109.9519   9.0738715400e+01   4.6357960597e+01     0.468391    0.2948897 -38.18  0.002134957    1.600    0.375
       129  -8.9710    126.5421    113.5414   7.3126850754e+01   3.4798482733e+01    0.1561514    0.1519555  -9.86 0.0002505398    1.010    0.010
       130 -10.5116    108.3284    112.0970   7.7979321530e+01   3.8820999500e+01    0.5659424    0.4576722 -82.89  0.002652779    1.614    0.380
       131  -9.7159    103.3653    105.8225   7.7804840136e+01   4.1213875646e+01     0.349839    0.2379542  40.19 0.0008355099    1.488    0.328
       132 -10.2323    104.0031    112.7294   7.9452169265e+01   3.9509133138e+01    0.3116231    0.2755413  64.15  0.001574812    1.289    0.224
       133 -10.5619    101.7850    109.3870   7.9250596293e+01   4.0702569187e+01     0.597171    0.3220165  24.11  0.002179555    2.503    0.600
       134 -10.0129     48.9765    112.4112   9.7607116568e+01   4.8103325847e+01    0.2694314     0.249335 -56.16 0.0009076847    1.058    0.055
       135 -10.4269    170.4093    110.5225   6.1599550506e+01   2.5855565027e+01    0.4053448    0.3042972 -39.13   0.00142377    1.300    0.231
       136 -10.0742    147.4744    111.4755   6.7126169131e+01   3.0734138013e+01    0.3415151    0.1522572 -42.61  0.001224604    2.220    0.549
       137 -10.2846    131.3244    110.3592   7.0982069619e+01   3.4484779158e+01    0.4659868    0.3333531  81.09  0.001897789    2.199    0.545
       138  -9.9169    120.2669    109.2379   7.3732946601e+01   3.7062024579e+01    0.2980491     0.233124 -17.18 0.0008116666    1.493    0.330
       139 -11.5159     79.4720    108.1615   8.6121154812e+01   4.4916222995e+01    0.6398823    0.3447271  26.49 0.0009638662    2.097    0.523
       140 -10.3696    175.3944    107.8743   5.9879866187e+01   2.5274973563e+01    0.3046569    0.2351543  -8.01  0.001431073    1.678    0.404
       141  -9.4820    157.7337    106.1123   6.3279331056e+01   2.9560279422e+01    0.3016743     0.200614  22.29 0.0009494261    2.122    0.529
       142 -10.5255    143.4630    105.9988   6.6668287864e+01   3.2765941624e+01    0.3103432    0.3024817 -46.67  0.001092038    1.033    0.032
       143 -11.3227    145.4494    100.1841   6.4605234644e+01   3.3514768508e+01    0.4321552    0.3142043 -33.31 0.0005650359    1.433    0.302
       144  -9.6919    181.4927    103.9609   5.7666726684e+01   2.4678795247e+01    0.2326128    0.1414456 -41.34 0.0006502164    1.574    0.365
       145  -9.8731     57.2459    102.4393   9.2416737897e+01   4.9524648213e+01    0.2784607    0.1897895 -51.41  0.000875599    1.342    0.255
       146  -9.6051    120.6368    101.6535   7.1549899181e+01   3.8639186248e+01    0.2466077    0.1885682  -1.54  0.000869788    1.676    0.403
       147 -11.1922     67.7826     95.9489   8.6972886433e+01   4.9587762311e+01    0.6075963    0.4782266 -11.46  0.003137011    1.370    0.270
       148 -11.0994     79.3922     93.0201   8.2071042474e+01   4.8421894013e+01    0.7925097    0.3642237  37.16  0.003118841    2.216    0.549
       149 -10.4970     80.3471     84.0276   7.9104734727e+01   5.0215720523e+01    0.5575227    0.3219188 -37.23  0.002451706    1.738    0.425
       150 -11.8288     75.2703     79.2433   7.9443807572e+01   5.2079737489e+01    0.7229886    0.6155053 -75.49   0.00166564    1.574    0.365
       151 -10.0528     80.5154     98.4813   8.3207951666e+01   4.7002186418e+01    0.2995487    0.2458529 -14.55 0.0009238981    1.287    0.223
       152  -9.8539     77.6725     96.7060   8.3696868829e+01   4.7875137342e+01    0.2455321    0.1995209  11.79 0.0004843516    1.300    0.231
       153  -9.7464    210.1393     98.0082   5.1128433211e+01   1.9592926040e+01    0.2645585    0.2102422  44.12  0.001168013    1.424    0.298
       154  -9.2744     98.7120     97.8619   7.7046860092e+01   4.3883832921e+01    0.2944647    0.2047683  66.47  0.001237712    2.122    0.529
       155  -9.4210     57.6529     97.4955   9.1043463543e+01   5.0644597079e+01    0.2496963    0.1260681 -54.00 0.0008677559    1.839    0.456
       156 -11.2077     89.5272     89.9559   7.7742467297e+01   4.7320959285e+01    0.5908195    0.3423295 -34.22  0.002497453    1.848    0.459
       157 -11.8122     88.7368    104.3765   8.2059544674e+01   4.4241842320e+01    0.5002873    0.3579504  31.82 0.0001986523    1.436    0.304
       158 -10.3953     43.0984     94.6672   9.5761916297e+01   5.3059238883e+01    0.3571399    0.3168078   0.97  0.001828357    1.176    0.150
       159  -8.7618    183.3258     95.6282   5.5224247148e+01   2.5821052849e+01    0.1578768    0.1114139 -71.88 6.070689e-05    1.818    0.450
       160 -11.6930    124.0233     93.0912   6.8177450649e+01   3.9705317983e+01     1.042701    0.7172855 -70.05  0.004328093    2.160    0.537
       161  -9.7263    116.9648     94.3094   7.0514301722e+01   4.0966857043e+01    0.3722827    0.2625529 -16.47  0.001615898    1.824    0.452
       162  -9.4711    160.6215     93.8870   5.9390050892e+01   3.1298811480e+01    0.3116526    0.2036189  70.57  0.001312994    1.989    0.497
       163 -10.6668    152.7666     91.9600   6.0623673331e+01   3.3467334714e+01    0.4327923    0.3275313  30.08  0.002051307    1.512    0.339
       164  -8.7189    137.9942     93.3266   6.4557909458e+01   3.6564108677e+01    0.2571971    0.1156684  30.52 0.0007047422    4.278    0.766
       165 -10.9854     98.5729     91.0481   7.5123689984e+01   4.5385013872e+01    0.3169169    0.2693964  37.09  0.001636107    1.181    0.153
       166 -10.5483    183.3099     85.2677   5.2607248881e+01   2.7672356555e+01    0.8031682    0.2586991 -47.17    0.0025814    3.336    0.700
       167 -10.0946     66.5630     88.7778   8.5439775736e+01   5.1395993288e+01    0.3391199    0.2294845  -7.41  0.001114841    1.861    0.463
       168 -10.5680    105.0727     86.7758   7.1823948673e+01   4.4986461928e+01    0.5769688    0.3151452 -23.45  0.002061287    2.805    0.643
       169 -10.9638    113.9470     84.0176   6.8347030028e+01   4.3693789113e+01    0.5074458    0.3292938 -55.10  0.002211333    1.837    0.456
       170 -10.5630    109.2937     80.9100   6.8765043089e+01   4.5286518671e+01    0.3813233    0.3493435 -60.71  0.001357016    1.231    0.188
       171  -9.4730    136.5762     86.2023   6.2883517430e+01   3.8270579697e+01     0.557537    0.1727808  47.34  0.001730843    3.148    0.682
       172 -10.8765    143.1293     84.2620   6.0721671363e+01   3.7136363351e+01    0.3252961    0.3031906  62.54 0.0007830412    1.084    0.077
       173 -10.1385    165.6010     83.7860   5.5625004708e+01   3.2007291067e+01    0.3565289    0.2593467 -59.22  0.001231148    1.515    0.340
       174 -10.2988     67.1307     82.2344   8.3332449726e+01   5.2745606449e+01    0.4063581    0.2749333 -37.28  0.002008492    1.405    0.288
       175  -9.3822     46.6168     76.0528   8.9481422687e+01   5.6878403278e+01    0.2915475    0.1697279 -34.01  0.001396485    1.663    0.399
       176 -10.5027     60.5406     83.6136   8.6210204846e+01   5.3412387185e+01    0.2942533     0.240975 -45.05  0.000229258    1.177    0.150
       177 -11.5994     53.4379     76.1303   8.6769185454e+01   5.6002442803e+01    0.6165314    0.3943056 -49.66  0.002606513    1.502    0.334
       178 -10.9290     58.3559     77.7102   8.5312081209e+01   5.4997267526e+01    0.3436067    0.2683047 -44.63 0.0007680164    1.231    0.188
       179  -9.6295    127.3974     82.9529   6.4299117811e+01   4.0960053984e+01    0.2673891     0.208603  57.79 0.0009283273    1.353    0.261
       180  -9.9291      1.4757     80.4794   1.0906699843e+02   5.9535273725e+01    0.3714872    0.1386518 -68.90  0.001028994    2.354    0.575
       181 -11.5079      2.1004     71.3649   1.0705631150e+02   6.1565037385e+01    0.6091619    0.2103892 -65.74  0.002655925    2.471    0.595
       182 -11.9744      9.7523     62.0947   1.0158222295e+02   6.3187030874e+01    0.5435202     0.330135 -40.22  0.001251738    1.322    0.243
       183 -13.0477      4.2909     61.6778   1.0396266725e+02   6.3575769422e+01    0.3323463    0.2664754 -50.74 0.0005042561    1.118    0.106
       184 -10.8731    103.2357     75.4365   6.8885359248e+01   4.7599039769e+01     0.648008    0.3569828 -48.92  0.002704249    2.037    0.509
       185  -8.7931     30.0860     80.1842   9.7348448262e+01   5.7697400804e+01    0.1605471    0.1481659 -71.50 0.0002861264    1.270    0.213
       186 -10.0398    233.2099     77.6522   4.3304784944e+01   1.8246604808e+01    0.2892236    0.2127619 -43.88  0.001233162    1.202    0.168
       187 -11.7440     13.9214     74.2372   1.0266098363e+02   6.0277566537e+01    0.5416932    0.3880692 -69.63  0.002195725    1.460    0.315
       188  -9.7770     13.7786     67.6266   1.0115700677e+02   6.1744975177e+01    0.4519251    0.2269947   7.70  0.002273012    2.244    0.554
       189 -10.4182     84.1810     61.3095   7.0396236049e+01   5.3956936688e+01     0.739418    0.5761529  85.90  0.003555723    2.214    0.548
       190 -10.0013     94.1531     75.2910   7.1710370319e+01   4.9448886645e+01    0.6373649     0.534365 -69.49  0.003244844    1.557    0.358
       191 -11.6146     85.4061     73.2965   7.3989507460e+01   5.1497140733e+01    0.9898946    0.7021232  67.91  0.004418507    2.280    0.561
       192 -11.3990     91.5001     62.7957   6.8451005451e+01   5.2281912141e+01    0.9311505    0.4024413  46.53   0.00364972    2.321    0.569
       193 -10.4749     87.6513     56.7030   6.7612145282e+01   5.4086650033e+01    0.9650081    0.4101153 -48.73  0.003531971    3.163    0.684
       194 -10.3728     91.9485     57.5004   6.6480552249e+01   5.3102705095e+01    0.3292942    0.2604712  52.11 0.0008830343    1.373    0.272
       195 -11.0221     76.0457     63.6696   7.4085498011e+01   5.5010120212e+01    0.5428979    0.3352414 -49.79  0.001345789    1.861    0.463
       196 -12.4254     74.9642     53.7199   7.0969689959e+01   5.6966310621e+01    0.8381237    0.6149666 -10.63  0.001417052    1.446    0.309
       197 -10.9421     72.6973     47.2759   6.9416792504e+01   5.8434079211e+01    0.3487578    0.2415237 -42.48  0.001679949    1.614    0.380
       198 -10.0714    126.8047     77.0047   6.2672350284e+01   4.2203199317e+01    0.2682294    0.2182479  32.12 0.0006227859    1.258    0.205
       199 -12.2191    186.3632     70.7450   4.8389543951e+01   2.9400545641e+01       0.8606    0.5602527 -41.47  0.003184921    1.490    0.329
       200  -9.8270     62.4080     73.9896   8.2603040723e+01   5.5195541302e+01     0.478466    0.3110786  55.36  0.001960417    2.327    0.570
       201  -9.5533     24.8199     74.6592   9.8150497908e+01   5.9387195113e+01    0.2222663     0.143089 -45.15 0.0004428464    1.291    0.225
       202  -9.0975    197.6342     74.6798   4.7562054027e+01   2.6218143490e+01    0.1393392    0.1092924  21.68 0.0007039016    1.784    0.440
       203  -9.4832    216.5477    249.5157   8.0376844003e+01  -7.7882431879e+00     0.120629   0.09486147   4.69 0.0001042292    1.055    0.052
       204 -11.4180     26.6819     47.4825   8.9244567235e+01   6.4825538922e+01    0.4736304    0.2451681 -18.19  0.001007296    2.249    0.555
       205 -10.9934     20.8519     46.3469   9.1691337459e+01   6.5575313187e+01    0.4965571    0.2849668 -27.42  0.002000483    1.573    0.364
       206  -8.7564     23.9795     37.8764   8.7107604756e+01   6.6843093538e+01     1.138853    0.6144922  50.01  0.004626069    4.557    0.781
       207  -9.8314    174.9367    247.2784   8.8262357625e+01  -1.8047953865e+00    0.2344791    0.2150578  15.43  0.001588603    1.209    0.173
       208 -10.4779     55.0872     50.9653   7.7715727654e+01   6.0699134273e+01    0.2665281    0.2055135  25.53 0.0005152175    1.259    0.206
       209  -9.2307    163.7952    243.8330   9.0065691123e+01   3.7957522129e-01    0.1676458    0.1450154  44.58 0.0005441987    1.334    0.250
       210 -11.1467     40.8020     57.0233   8.5998407476e+01   6.1479168099e+01     0.427388     0.260368  29.64  0.001222574    1.701    0.412
       211 -11.4497     40.7955     71.6794   9.0603769564e+01   5.8491121779e+01    0.5551711    0.2810383 -52.01  0.001608709    1.824    0.452
       212 -11.6361     35.0892     71.9786   9.3089025352e+01   5.9033237835e+01    0.6367281    0.2581875  25.18  0.002471726    2.588    0.614
       213 -11.5346     52.0607     61.8193   8.2795797171e+01   5.9112138162e+01    0.3961852    0.3325629 -53.02  0.002320151    1.406    0.289
       214 -11.5385     43.5042     62.0117   8.6472168597e+01   6.0174225695e+01    0.2883796    0.2241076 -39.71 0.0003535986    1.202    0.168
       215 -11.7318     46.5287     58.8065   8.4111840113e+01   6.0428210852e+01    0.4366131    0.3489849 -47.43 0.0005928014    1.351    0.260
       216 -10.0489    153.6516     72.5328   5.5004221708e+01   3.6762581026e+01    0.3641524    0.2094554  39.66  0.001210022    1.970    0.492
       217 -11.7914    122.9423     69.0838   6.1252527366e+01   4.4485895569e+01    0.5247605    0.4479317  33.70  0.001458222    1.153    0.133
       218  -9.3333    162.0086     71.0026   5.2862926529e+01   3.5045446694e+01    0.2335407    0.1733803 -76.29 0.0008086601    1.645    0.392
       219  -8.8991     19.6391     71.7190   9.9620473120e+01   6.0441788478e+01    0.1386349   0.07903476 -29.81 0.0007015129    1.673    0.402
       220  -9.7597    171.9300     68.8444   5.0394233580e+01   3.3059486634e+01    0.3202733    0.2365958 -47.40  0.001177275    1.347    0.258
       221 -10.3702    170.4016     63.7575   4.9305861007e+01   3.4224060094e+01    0.4808563     0.305983 -89.50  0.001753671    2.178    0.541
       222 -11.3606    219.8320     66.5066   4.2534226155e+01   2.2676985568e+01    0.6549781    0.3341917  57.74  0.003172989    2.065    0.516
       223 -11.3841    234.3306     61.2130   3.9668212146e+01   2.0483226206e+01    0.5913638    0.3832234  70.87  0.002771613    1.636    0.389
       224  -8.9480     69.6203     67.1906   7.7652496317e+01   5.5432692504e+01    0.1948372    0.1227918 -32.28 0.0003069169    1.578    0.366
       225 -10.5389     58.9007     62.9369   8.0384695819e+01   5.7923673358e+01    0.4947552    0.3333694 -46.64  0.002575149    1.526    0.345
       226  -9.6478    192.3067     65.6591   4.6168979682e+01   2.8840547025e+01    0.2386355    0.1922577 -74.33 0.0007422332    1.249    0.199
       227  -9.3528    201.2464     64.6132   4.4591880891e+01   2.6987603776e+01    0.3037944    0.1827076  60.41 0.0009672106    1.680    0.405
       228  -9.5108    198.4728     62.4822   4.4475605293e+01   2.7929702870e+01    0.2353579     0.196037 -89.78 0.0008726987    1.172    0.147
       229 -11.2575    105.7594     58.2656   6.2502386238e+01   5.0102249858e+01    0.5660825    0.3741677  70.13   0.00248078    2.233    0.552
       230 -10.7982     34.5555     52.9231   8.7416668532e+01   6.2980083405e+01    0.3315102    0.2596013  22.42 0.0008277854    1.350    0.259
       231 -10.1026    158.7228     62.6384   5.1176994045e+01   3.7168983621e+01    0.5258148    0.1886708  47.04  0.001825996    2.926    0.658
       232 -11.5508    127.6793    241.9158   9.7552397575e+01   6.1178107714e+00    0.4132978    0.3505945  26.20  0.002172818    1.069    0.065
       233  -9.7035     68.0169    240.6842   1.1035975486e+02   1.4811270256e+01    0.1833863     0.144494  45.45  0.001161556    1.112    0.100
       234 -12.2666    117.8991     44.0262   5.4424166464e+01   4.9536084791e+01    0.8421283    0.5029103  64.89  0.003273139    1.859    0.462
       235  -8.3288    221.3301    239.6720   7.7871386406e+01  -7.0035325636e+00    0.1046564   0.09775282  42.13 0.0007051287    1.710    0.415
       236 -11.6394    113.9843     38.1669   5.3410321932e+01   5.1211605025e+01    0.5146544    0.3244855  51.03 0.0003884401    1.417    0.295
       237 -12.1113    106.5505     32.3608   5.3261912718e+01   5.3617275207e+01    0.6871881    0.3790409  19.34  0.002806133    2.860    0.650
       238 -11.2303    147.3245    237.3423   9.2632621288e+01   3.9805425683e+00    0.6119819    0.2677784  39.89  0.002719854    2.042    0.510
       239  -9.5577     64.9919     61.0187   7.7324714807e+01   5.7352781711e+01    0.2999942    0.1620858 -48.35  0.001102382    2.012    0.503
       240  -9.7048    150.9701     60.7620   5.2189350764e+01   3.9307252029e+01    0.2224367    0.1919707  36.23 0.0006101844    1.230    0.187
       241  -9.1794    147.0110     61.0000   5.3083329088e+01   4.0212139605e+01    0.2805432    0.1648055  61.78 0.0009506997    1.721    0.419
       242 -10.1403    167.5244    237.9987   8.8393880193e+01   8.0988715261e-01    0.1828188    0.1275669 -41.27 0.0007721162    1.587    0.370
       243 -10.2813    137.9839     49.5171   5.1555212894e+01   4.4071703888e+01    0.7311047    0.2726726  39.88  0.002318982    3.804    0.737
       244 -10.3757    136.5816     56.7481   5.4085157379e+01   4.3338792609e+01    0.6459898    0.4148995   3.10  0.002649123    2.658    0.624
       245 -10.6258    198.4182    232.7671   8.1170577803e+01  -2.8528671243e+00    0.3784451    0.3034163 -34.38  0.002377345    1.378    0.274
       246 -10.6158    156.9628     52.8728   4.8749673705e+01   3.9056760297e+01     1.117191    0.8034649 -28.63  0.005765873    1.546    0.353
       247  -9.4613     15.3456    233.6269   1.2065662727e+02   2.2289484216e+01    0.2117257    0.1250894 -78.03  0.001227516    1.581    0.367
       248 -10.9942    155.6263     42.4462   4.6016470373e+01   4.0815153111e+01    0.3951136    0.3627923  76.16   0.00114851    1.008    0.008
       249 -12.8287    153.0208     35.7955   4.4557825265e+01   4.2286868746e+01    0.4238388     0.336491  75.91 0.0004750488    1.194    0.162
       250 -11.9138    159.3836     30.5174   4.2016636203e+01   4.1393807613e+01    0.5366968    0.4172972 -79.17  0.003075944    1.334    0.250
       251 -11.3582    164.3836     27.5896   4.0456447417e+01   4.0537294060e+01    0.3130206    0.2408454  65.28 0.0007277316    1.174    0.148
       252  -9.9766    238.0942     55.8457   3.8142393204e+01   2.0497647109e+01    0.1990165    0.1507566 -50.42 0.0002701526    1.139    0.122
       253 -10.0493     66.8278     54.4031   7.4269163698e+01   5.8251676166e+01    0.3681546    0.2066698 -49.19  0.001691616    2.126    0.530
       254  -9.1844    188.2931     55.0005   4.4113868232e+01   3.1350840053e+01    0.1872572     0.174428 -77.25 0.0006306536    1.046    0.044
       255  -9.8032    211.6015     52.7087   4.0435516172e+01   2.6444901195e+01    0.2629066    0.1871679 -54.96  0.001382505    1.280    0.219
       256  -9.8835    201.6403     53.0579   4.1778697493e+01   2.8593510134e+01    0.3951702    0.1994076  55.13  0.001821069    2.036    0.509
       257  -9.9697    201.7084     48.9594   4.0797480925e+01   2.9150110261e+01    0.2834576    0.2232985 -32.64 0.0008771661    1.396    0.284
       258 -11.0138    201.0013     45.2150   4.0000407831e+01   2.9817642716e+01    0.5538145    0.2277246  71.76  0.002281853    2.664    0.625
       259 -10.7782    244.8907     51.1884   3.6516429408e+01   1.9813161003e+01     0.248781    0.1648566  80.63 0.0009823885    1.569    0.363
       260 -10.5442    240.4833     50.5173   3.6806124095e+01   2.0762980692e+01    0.2452503    0.2207831  83.35 0.0009732029    1.237    0.191
       261 -10.8588    175.7794     48.3957   4.4312355301e+01   3.5206258767e+01    0.4564916    0.3127209  71.32 0.0009113504    1.415    0.293
       262  -9.6636    171.6746     47.6804   4.4770097076e+01   3.6276375502e+01     0.220874    0.1456745 -21.40 0.0008079278    1.905    0.475
       263 -10.2039     91.6428     48.6220   6.3427493103e+01   5.4588100526e+01    0.2698506    0.2279771 -58.37 0.0001270407    1.534    0.348
       264 -10.7461     12.5976     48.2454   9.6374614715e+01   6.5850226035e+01    0.3659895    0.1749246 -33.07  0.001571658    1.829    0.453
       265  -9.6742     17.2459     42.1489   9.2061120409e+01   6.6670615241e+01    0.2955388    0.1520566 -18.81  0.001021914    2.059    0.514
       266  -9.7688      2.0814     48.6890   1.0170855174e+02   6.6389479488e+01    0.2130057    0.1887355 -45.02  0.001233189    1.223    0.183
       267 -10.6466    134.9665     45.7389   5.1033238574e+01   4.5315331961e+01     0.357439    0.2041929  60.91 0.0004318273    1.678    0.404
       268 -10.3612    139.0204     43.8293   4.9589144258e+01   4.4610534215e+01    0.3771279    0.2280407  35.03  0.001721662    1.967    0.492
       269  -9.3153      6.4639     42.4753   9.7682551387e+01   6.7375991184e+01    0.3080502    0.1377428 -43.41  0.001634865    1.711    0.416
       270 -10.0345     11.0837     30.3782   9.1049980341e+01   6.9288204706e+01    0.2822259    0.1902917 -30.43  0.001329244    1.174    0.148
       271  -9.6506      5.8322     31.1495   9.4227170751e+01   6.9527322477e+01    0.4144856    0.1799968 -19.73  0.001994876    2.515    0.602
       272  -9.0488      3.6765     39.3051   9.8140497470e+01   6.8148807002e+01    0.1822778    0.1725516  23.54 0.0007844117    1.452    0.311
       273 -10.3067      5.6901     36.1381   9.6039365191e+01   6.8625216176e+01    0.3181903    0.2275592  23.79  0.001856084    1.637    0.389
       274  -9.4013    176.6156     43.3611   4.2863951120e+01   3.5689399178e+01    0.2110297    0.1451057 -72.66   0.00108145    1.605    0.377
       275 -10.4412    247.2330    231.4784   7.1791749690e+01  -9.0505346838e+00    0.2144017    0.1378997 -26.52 0.0007427071    1.337    0.252
       276  -9.4386     86.1354     30.8337   5.8488169711e+01   5.8188926175e+01    0.2381708    0.1879952 -11.39  0.001035664    1.323    0.244
       277 -10.3174    189.0585     40.1644   4.0308082342e+01   3.3202732071e+01    0.5491685    0.1758187 -28.12  0.001872424    4.155    0.759
       278 -10.7425     94.1965     41.1716   5.9920155084e+01   5.5150371546e+01    0.6339158    0.2584452  48.70  0.002586294    2.235    0.553
       279 -10.1417    231.6311     39.3812   3.5366187472e+01   2.4014401237e+01    0.2625416    0.1647845 -59.01  0.001031734    1.401    0.286
       280  -9.3990    217.3529     39.5175   3.6823867164e+01   2.6980972317e+01     0.213688    0.1097097 -36.71  0.001079559    1.896    0.472
       281  -9.4934    193.9356     38.6172   3.9304316889e+01   3.2282372820e+01    0.1804884    0.1473748  74.89 0.0004911365    1.152    0.132
       282 -11.1122     60.9801     35.9793   6.9479363982e+01   6.2198900717e+01    0.4247922    0.2698764 -18.16  0.001244895    1.652    0.395
       283 -10.0517     67.7535     32.2987   6.5359550797e+01   6.1543911807e+01    0.3784365    0.2892457  26.52  0.001521463    1.146    0.128
       284  -9.7781     65.3293     29.3081   6.5031436223e+01   6.2380727361e+01    0.2067935    0.1608308  13.32 0.0008857556    1.150    0.131
       285  -9.4085    183.8324     38.1385   4.0498050027e+01   3.4674151863e+01    0.2007952     0.156806 -77.04 0.0009587173    1.240    0.193
       286 -10.9584    183.5202     25.3770   3.7339324717e+01   3.6282852524e+01    0.5966997    0.2677568  51.84  0.002708066    2.350    0.574
       287 -10.8719    176.6973     36.5038   4.1063899178e+01   3.6552244615e+01    0.3519463    0.2796033 -40.96  0.002069444    1.318    0.241
       288 -10.9394    174.6691     31.5360   4.0052936759e+01   3.7637162390e+01    0.6180109    0.2386518  48.49  0.001677621    2.939    0.660
       289  -9.9024    133.1741     36.9782   4.8660041886e+01   4.6888932303e+01    0.3846031    0.2469724 -76.71  0.001723041    2.353    0.575
       290  -9.2132    206.5005     37.0798   3.7455686142e+01   2.9654568306e+01    0.1775557    0.1187294 -38.92 0.0005433683    1.495    0.331
       291  -9.2751     94.1221     35.8961   5.7990120039e+01   5.5879246573e+01    0.1927863    0.1794839  80.56   0.00056919    1.330    0.248
       292 -10.2267    242.7594    231.6400   7.2604032316e+01  -8.5380768191e+00    0.2254319    0.1748846  17.85  0.001545524    1.300    0.231
       293 -10.1692    157.4508     20.2119   3.9428914216e+01   4.2995519131e+01    0.3579205    0.1781179  63.46  0.001569821    1.726    0.421
       294  -9.4174     23.4921    231.5570   1.1890795698e+02   2.1901940095e+01    0.1197305   0.09390109  67.58 0.0002384466    1.018    0.018
       295  -9.0706    108.6727    229.3454   1.0013062946e+02   1.1411114400e+01    0.1413526   0.09488332  62.64 0.0007050411    1.748    0.428
       296  -9.2609    181.3073    228.3203   8.3936756924e+01   3.8879277217e-01    0.1368517   0.09268388  -2.75 0.0007032632    1.639    0.390
       297 -10.2927    134.5281     25.0878   4.4648239188e+01   4.7953575042e+01    0.3316852     0.223474 -42.58 0.0009991506    1.651    0.394
       298 -10.8551    137.7876     22.6124   4.3285456187e+01   4.7441687218e+01    0.4619304    0.3298491  70.20  0.001932125    1.285    0.222
       299  -9.6406    233.8261    223.3918   7.2776336930e+01  -6.2334423157e+00    0.1720601    0.1002146  17.41 0.0009454715    1.685    0.406
       300  -9.9657    126.9954     16.5239   4.3326334475e+01   5.0613712560e+01    0.2654396    0.1662587  48.09 0.0007486017    1.442    0.307
       301  -9.5722    249.0064     33.7072   3.2713660044e+01   2.1303566546e+01    0.1675329    0.1300276 -73.64  0.001040459    1.085    0.078
       302 -10.5367    239.9994     32.6366   3.3244826810e+01   2.3187274294e+01    0.3423223    0.2771887 -54.80  0.001614805    1.142    0.124
       303 -10.1657    240.7944     26.1425   3.1897157467e+01   2.3821665729e+01    0.2586203    0.1787384 -61.89 0.0009953881    1.179    0.152
       304 -10.0141     59.7987     23.8725   6.4842199177e+01   6.4055839747e+01    0.2752271    0.1734571  -0.26  0.001267764    1.796    0.443
       305  -9.2426     60.4168     19.8771   6.2846762444e+01   6.4436194588e+01    0.1784047    0.1652735  15.07 0.0005594942    1.253    0.202
       306 -12.2855     58.2267     29.8050   6.8018950864e+01   6.3539749399e+01    0.3702821    0.2564834   7.75 0.0009068336    1.439    0.305
       307 -11.7511     49.6550     30.6145   7.1960770787e+01   6.4792824203e+01    0.6562205    0.2510025  36.50    0.0028855    2.458    0.593
       308 -10.7635    198.8966     29.0385   3.6441848894e+01   3.2340413518e+01     0.424201    0.3645193 -41.09  0.002623676    1.278    0.218
       309  -9.1361     35.8529     31.6204   7.8724545631e+01   6.6560860214e+01    0.1647212    0.1060716  36.00 0.0009352672    1.724    0.420
       310  -8.9033    209.3030    223.7038   7.7464067499e+01  -2.9547209571e+00    0.1100216    0.1037643  50.20 0.0001895603    1.580    0.367
       311  -9.2022     13.8970     23.3802   8.6682098400e+01   7.0234209153e+01    0.3095828    0.3009037  17.16   0.00106929    1.615    0.381
       312 -10.3737    164.6400    212.3681   8.4825672866e+01   5.8903885585e+00    0.2510339    0.2123199  41.09 0.0006682915    1.254    0.202
       313 -10.3119     31.1688     27.2909   7.9183237426e+01   6.7811529463e+01    0.2515309    0.2193355  -8.42  0.001016213    1.230    0.187
       314  -8.6080      3.3192    213.2675   1.2193197062e+02   2.7729860006e+01    0.1031999   0.08437893 -52.16 0.0002456587    1.558    0.358
       315  -9.8342    153.1662    207.5707   8.6582466391e+01   8.7241678053e+00    0.2793409    0.2263982  84.46 0.0009042096    1.810    0.448
       316  -9.3809     61.1345    206.6552   1.0847755466e+02   2.3078697473e+01    0.1831582    0.1616546  48.34 0.0008929567    1.111    0.100
       317  -9.8571    123.9915    205.9737   9.3171553432e+01   1.3908036437e+01    0.2022056    0.1882232  21.89 -0.003769674    1.045    0.043
       318 -10.7375    189.1173     27.6582   3.7230900561e+01   3.4727366193e+01    0.3254269    0.2896135  10.76  0.001687183    1.520    0.342
       319 -10.2782    230.2895     27.5203   3.3040531047e+01   2.5766467807e+01    0.3523726    0.1632911 -42.76  0.001867535    1.874    0.466
       320 -10.3472    238.2185    204.5025   6.8588160949e+01  -3.9320450597e+00    0.2456598    0.1546727 -31.75  0.001406171    1.385    0.278
       321 -10.0456    250.2105     27.1214   3.1361958336e+01   2.1881442192e+01    0.1617589    0.1447644 -70.80 0.0005810072    1.240    0.194
       322  -9.6425     97.3130     26.4700   5.3556759590e+01   5.6348257334e+01    0.2343708    0.1919661 -59.85 0.0009234019    1.617    0.381
       323  -9.9876    213.8993     24.2333   3.3824338828e+01   2.9600523843e+01    0.2826759    0.2214139  86.64  0.001623988    1.143    0.125
       324  -9.2418    216.5299     20.5164   3.2781601725e+01   2.9463678714e+01    0.1512854    0.1181668 -24.73 0.0006240334    1.636    0.389
       325  -9.1390    196.3924    205.1510   7.6722748628e+01   2.1094042294e+00    0.1792853    0.1259689 -48.56 0.0008937824    1.666    0.400
       326 -10.2833     16.8870    203.7231   1.1843137012e+02   2.8648230288e+01    0.2995273    0.1301448 -66.87  0.001478084    2.078    0.519
       327 -11.3206      6.2087    197.7952   1.2039040283e+02   3.0945004329e+01    0.9539731    0.1107534 -66.95  0.003117498    4.834    0.793
       328 -12.0366      4.7377    184.2598   1.1981275258e+02   3.4206188326e+01    0.6415912    0.4420688  73.47  0.003959881    1.278    0.218
       329 -10.8154    245.6201    200.9325   6.6636415760e+01  -4.3688446212e+00    0.2074959    0.1526283   5.52 0.0006476377    1.279    0.218
       330 -10.3918    234.0112    196.9397   6.7929727473e+01  -2.1437906593e+00    0.3341502     0.227287 -26.65  0.001072649    1.264    0.209
       331  -9.3607    168.8679     23.8653   3.8826313547e+01   3.9889201524e+01    0.2011497    0.1604248  52.35 0.0007020807    1.299    0.230
       332  -9.5307     82.5742    196.2190   1.0192673622e+02   2.2592768308e+01    0.3490203    0.2053072  19.47  0.001528324    2.157    0.536
       333  -9.2665    223.7092     21.9543   3.2457350397e+01   2.7783145414e+01    0.2012373    0.1405966  72.03 0.0009204816    1.397    0.284
       334  -9.6209     75.7479     13.9054   5.4880991171e+01   6.2192053300e+01    0.2671507    0.1525919  51.28 0.0005860318    1.573    0.364
       335 -10.7534    246.4936    193.4867   6.5100905606e+01  -3.3234038289e+00    0.2669461    0.1058535 -37.95  0.001214321    2.176    0.541
       336  -9.7204     74.7401     19.4641   5.7551859016e+01   6.1808836658e+01    0.2561791    0.1689557  33.26 0.0008295709    1.325    0.245
       337  -9.9364    169.8948    191.1770   7.9782842396e+01   9.1644859510e+00     0.397995    0.1851097  25.12  0.001442204    2.787    0.641
       338  -8.8858    162.6495    191.2833   8.1448099791e+01   1.0409315099e+01    0.1422161    0.1153687  66.12 0.0006971582    1.654    0.395
       339  -9.3719     16.5268    191.3703   1.1759275964e+02   3.1543535956e+01    0.1741783    0.1457514 -29.54 0.0009953924    1.598    0.374
       340  -9.9705    239.9975    184.5642   6.4516945084e+01  -9.7830323665e-01    0.2412914    0.1670091 -31.41 0.0005525057    1.231    0.188
       341  -9.7706    213.2463    184.2571   6.9344652975e+01   3.1599219007e+00    0.2067502    0.1108992  48.62 0.0009031618    2.464    0.594
       342 -10.0250    250.4733    178.2286   6.1539388422e+01  -1.4390996991e+00    0.3747556    0.1011099 -34.71   0.00130697    3.564    0.719
       343 -10.4821     52.0072    173.5113   1.0682900642e+02   3.2218397866e+01    0.5527702    0.2661847 -87.08  0.002086367    2.868    0.651
       344  -9.7836     27.7292    175.9124   1.1348441737e+02   3.4228984851e+01    0.2520758    0.1780433  45.03  0.001435426    1.426    0.299
       345 -10.0743    247.5548    174.0707   6.1213065142e+01  -3.4707850707e-01    0.4287016    0.1923294  22.00  0.001586434    4.224    0.763
       346 -11.0325    153.0138     25.5493   4.1609402106e+01   4.3483356039e+01    0.6978953    0.3526023  49.12  0.003269977    1.941    0.485
       347  -8.6458      1.2764     20.6879   9.2880980833e+01   7.1641891799e+01   0.09139393   0.08902419  -6.49 0.0003654518    1.560    0.359
       348  -9.3640     79.9656     19.2793   5.5795926192e+01   6.0787801904e+01    0.1878857    0.1476881  34.39 0.0009573222    1.071    0.066
       349  -9.2891    191.4441     17.0465   3.4424430013e+01   3.5381483463e+01    0.2589752    0.1886453  16.00  0.001321226    2.236    0.553
       350  -9.6138    230.3113    175.4462   6.4429471583e+01   2.0083616978e+00    0.2102408    0.1267577  32.21  0.000381654    1.803    0.445
       351  -9.2405    205.4721     17.3686   3.3106905043e+01   3.2210502239e+01    0.2017335    0.1028134  73.65  0.001055942    1.782    0.439
       352 -10.3570    186.3611     15.1983   3.4521237986e+01   3.6736210409e+01    0.2389202    0.1843801  87.46 0.0004840766    1.117    0.105
       353 -10.5497    160.0690     43.4542   4.5530896758e+01   3.9616452094e+01    0.4799744    0.2183729  68.05 0.0003398522    2.292    0.564
       354 -10.3965     38.0087    172.9995   1.1049836979e+02   3.3918035710e+01    0.4706115    0.2197713  48.68  0.002076142    2.219    0.549
       355 -10.2706     35.4906    169.4709   1.1076242679e+02   3.5060024353e+01    0.2418375    0.2074661  68.33 0.0007908728    1.130    0.115
       356  -8.8304    170.7348    171.9756   7.5756556081e+01   1.2955759674e+01    0.1904848    0.1264181 -41.94 0.0007298382    1.482    0.325
       357 -10.0085      9.4238    155.7156   1.1631006002e+02   4.0762710658e+01    0.2606057    0.1798777 -61.73  0.001201179    1.301    0.231
       358 -11.7015      9.5772    166.9451   1.1728511369e+02   3.7989861061e+01    0.4742566    0.3455324 -82.50  0.001576519    1.151    0.131
       359  -9.3136    198.1342    167.9238   6.9013711257e+01   8.7651672864e+00    0.2082868    0.1952555 -48.89 0.0006691971    1.224    0.183
       360  -8.7440     94.6156     12.2924   4.8878128810e+01   5.8393427516e+01    0.1241061   0.09734801 -84.05 0.0007015685    1.758    0.431
       361  -9.4210    156.3466    166.1143   7.7880122818e+01   1.6919213736e+01    0.2147122    0.1835933 -42.71 0.0004893052    1.171    0.146
       362  -9.0655    152.4485    166.5308   7.8906465158e+01   1.7569452777e+01     0.152351    0.1450046  -4.90 0.0001252419    1.009    0.009
       363 -10.2705     18.8236    165.0132   1.1470975608e+02   3.7723676297e+01    0.3177566    0.2480504 -45.25  0.001670327    1.424    0.298
       364 -11.3096     13.3641    159.7468   1.1564138615e+02   3.9470055207e+01    0.5957978    0.2060543 -63.47  0.002543146    2.304    0.566
       365 -10.0861     39.4033    161.9949   1.0879329569e+02   3.6537362800e+01     0.475023    0.2430544  64.94  0.001961896    2.551    0.608
       366 -10.6368     28.1361    162.2547   1.1192402488e+02   3.7586586488e+01     0.442826    0.2250457 -57.30  0.002113839    1.786    0.440
       367  -9.8940    204.9799    162.9560   6.6602098493e+01   8.4977335000e+00    0.2543654    0.2025925  21.60 0.0005928542    1.316    0.240
       368  -9.7043    208.4669    160.5024   6.5406312624e+01   8.3430657825e+00      0.26756    0.1690846 -39.60  0.001224511    1.452    0.312
       369  -9.2050    188.9916    163.5022   6.9970297075e+01   1.1296596297e+01    0.2028559    0.1244173  14.18 0.0008083304    2.388    0.581
       370 -10.4542    246.8489    159.4608   5.8452389496e+01   2.1818223928e+00    0.3995188    0.1640767 -39.49  0.001780375    2.047    0.512
       371  -9.4540    224.3487    157.7453   6.1890473938e+01   6.0985609949e+00    0.3260158    0.1584095 -50.63  0.001350349    2.406    0.584
       372  -9.4174    215.3950    157.7693   6.3520253344e+01   7.6335327952e+00     0.207605     0.119659 -30.69 0.0009500085    1.691    0.409
       373 -10.4616    104.8569    154.1826   8.8811043347e+01   2.9307529974e+01    0.4110956    0.3320513 -31.86  0.002007271    1.340    0.254
       374  -9.6374     33.5037    154.5017   1.0949968731e+02   3.9034823385e+01    0.3028995    0.2292466  16.73 0.0008540874    1.569    0.363
       375 -10.4442     31.2055    151.6053   1.0978816756e+02   3.9990419755e+01    0.2695552    0.2518618 -27.19   0.00118473    1.230    0.187
       376  -9.9797     74.7135    153.9753   9.7444025172e+01   3.4189399279e+01    0.2864612     0.215206  83.13 0.0007776762    1.572    0.364
       377 -10.5276      3.3227    152.9380   1.1769106454e+02   4.1867302279e+01    0.4339841     0.240168  83.60  0.002236887    1.768    0.434
       378 -10.5140      3.3653    146.9748   1.1713427303e+02   4.3333235531e+01     0.249291    0.1774075 -77.85 0.0008430029    1.157    0.136
