#   1 NUMBER                 Running object number                                     
#   2 MAG_AUTO               Kron-like elliptical aperture magnitude                    [mag]
#   3 X_IMAGE                Object position along x                                    [pixel]
#   4 Y_IMAGE                Object position along y                                    [pixel]
#   5 X_WORLD                Barycenter position along world x axis                     [deg]
#   6 Y_WORLD                Barycenter position along world y axis                     [deg]
#   7 A_WORLD                Profile RMS along major axis (world units)                 [deg]
#   8 B_WORLD                Profile RMS along minor axis (world units)                 [deg]
#   9 THETA_WORLD            Position angle (CCW/world-x)                               [deg]
#  10 FWHM_WORLD             FWHM assuming a gaussian core                              [deg]
#  11 ELONGATION             A_IMAGE/B_IMAGE                                           
#  12 ELLIPTICITY            1 - B_IMAGE/A_IMAGE                                       
         1 -13.4000    213.5528     15.3347   3.5474423564e+02   2.9415427221e+01    0.6829724    0.3862507  84.04  0.003783154    1.770    0.435
         2 -12.5231     65.3721     11.6724   1.7108914605e+01   6.7331483578e+01    0.2449358    0.2238028  52.81 0.0003686931    1.074    0.069
         3 -10.8629     76.4115     10.2950   1.2506522450e+01   6.4804898904e+01    0.2966585    0.1793013  35.95  0.001387442    1.750    0.429
         4 -14.1025    189.6900      7.5263   3.5437423607e+02   3.5615791736e+01    0.7910108    0.3534663 -62.32  0.003609921    2.139    0.532
         5 -12.1369    183.9380      8.3757   3.5501856446e+02   3.6903669302e+01    0.2198782    0.1737603 -45.90 0.0004631064    1.186    0.157
         6 -11.3365     11.3574      9.7894   5.0802914837e+01   7.7333523297e+01    0.1807973    0.0997476 -41.05 0.0003919278    1.663    0.399
         7  -9.9246    241.6714      9.2816   3.5184282778e+02   2.4327002247e+01    0.1233955   0.06169955 -57.14 0.0003542508    1.603    0.376
         8 -12.2165    154.7015      8.9707   3.5775865819e+02   4.4190352770e+01    0.1995111    0.1715203 -67.96  0.001177905    1.064    0.060
         9 -11.2938    145.3571      8.2787   3.5853716493e+02   4.6710752135e+01    0.1424162   0.09491421  48.74 0.0006152005    1.659    0.397
        10 -11.1745     82.0680      6.9477   9.0793778673e+00   6.3714245453e+01    0.2054402     0.182658  59.27 0.0003134143    1.009    0.009
        11 -10.2615    223.1068      5.2019   3.5183619895e+02   2.8430379599e+01    0.1682582    0.1035682 -55.52  0.000381215    1.278    0.218
        12 -12.5968    178.7899      3.7099   3.5410713852e+02   3.8602385581e+01    0.2528436    0.2124479  88.60 0.0002556595    1.135    0.119
        13 -10.2919     58.3259      4.6528   1.5610324862e+01   6.9761145697e+01    0.1346128    0.1043283 -69.49  0.000704982    1.749    0.428
        14 -10.3391     16.5576      1.5136   3.9807606967e+01   7.8168778955e+01    0.1259236    0.1060685  -0.00 0.0001145903    1.006    0.006
        15 -12.3604    101.6343    229.9196   6.2152903813e+01   1.3820286937e+01    0.4607478    0.2140098  27.62  0.001566294    1.821    0.451
        16 -14.8810    224.5412    242.0565   3.9422891286e+01  -3.1708969731e+00      1.74201    0.7284986  17.26  0.009543639    2.368    0.578
        17 -12.3046    146.7001    229.0531   5.2171899026e+01   7.9188251616e+00     0.351321    0.1963093  30.57   0.00146932    1.431    0.301
        18 -11.9368    134.7375    229.7313   5.4801645451e+01   9.4204230150e+00    0.3335443    0.1781263  31.67    0.0011337    1.482    0.325
        19 -14.7476    132.5141    234.1831   5.5823465405e+01   9.0120867034e+00     2.219751    0.3774146  38.35  0.007114857    4.527    0.779
        20 -12.9950     94.6496    235.6625   6.4300790343e+01   1.3725220881e+01    0.5798889    0.1948728  36.14  0.002332001    2.159    0.537
        21 -10.9759    209.6485    229.5813   4.0135062831e+01  -9.8291932442e-02     0.209981   0.08753191  25.76  0.001121424    2.096    0.523
        22 -11.0936    213.1171    226.1301   3.9022238653e+01  -7.9046637530e-02    0.2626579    0.1401083  -2.87  0.001472643    2.090    0.521
        23 -11.0423    159.5734    229.3578   4.9553750303e+01   6.1615891918e+00    0.2482572    0.1221795  27.88  0.001232511    1.661    0.398
        24 -11.3955     39.4927    229.0654   7.6380464279e+01   2.1489120476e+01    0.3383346    0.1184999  34.88  0.001610561    2.011    0.503
        25 -11.7501    176.8382    227.5658   4.5875066501e+01   4.1710488760e+00    0.4418093    0.1364514  29.29  0.001855569    2.881    0.653
        26 -12.5561    109.6105    227.2366   6.0056949430e+01   1.3227599504e+01    0.3801602    0.1857646  36.61   0.00121608    1.612    0.380
        27 -11.1372     63.1480    228.1819   7.0860598936e+01   1.8992633230e+01     0.239725    0.1407443  41.94 0.0009436697    1.318    0.241
        28 -11.3689     58.5385    226.8625   7.1836364285e+01   1.9788150918e+01     0.331788    0.1259816  37.19  0.001031486    1.903    0.474
        29 -14.8029    177.4228    236.9835   4.7076068370e+01   2.8187901544e+00     1.967111     0.660296  24.14  0.008223452    3.142    0.682
        30 -11.3089    140.4307    226.7171   5.3196315713e+01   9.1301427853e+00    0.3008874    0.1438986  23.67  0.001348102    1.934    0.483
        31 -11.6713    153.5985    228.0138   5.0596544454e+01   7.1541129792e+00    0.3241255    0.1474757  33.51  0.001254146    1.786    0.440
        32 -11.7582     86.5687    224.1344   6.5040431861e+01   1.6840205642e+01    0.4763013    0.1461098  30.87  0.001897268    2.579    0.612
        33 -11.9409     75.0888    224.6003   6.7777082132e+01   1.8216832226e+01    0.4183349    0.1914966  36.71  0.001883536    1.658    0.397
        34 -11.0649     80.0221    223.2419   6.6493550898e+01   1.7851094224e+01    0.2951044    0.1606934  27.53  0.001125241    1.583    0.368
        35 -11.1182     67.7750    225.5161   6.9572026333e+01   1.8944904054e+01    0.3069635    0.1212732  37.18  0.001272087    1.866    0.464
        36 -14.2640    155.6760    237.0537   5.1362323066e+01   5.5515812919e+00     1.660964    0.4902932  24.76  0.005765663    4.220    0.763
        37 -11.0569    169.1192    224.6122   4.6971284662e+01   5.5944252011e+00    0.2478207    0.1255459  20.03  0.001271203    1.887    0.470
        38 -11.6322    129.0354    224.6768   5.5411317699e+01   1.1019804180e+01    0.3205957    0.1728535  35.40  0.001366513    1.506    0.336
        39 -11.5902     33.2276    224.4947   7.7581287411e+01   2.3039316321e+01    0.3037903     0.154499  41.11  0.001125679    1.458    0.314
        40 -11.1985    201.3344    223.5551   4.0707278521e+01   1.6413910613e+00    0.2366873    0.1500811   7.94  0.001180551    1.376    0.273
        41 -11.3003    121.4946    224.2571   5.7034427078e+01   1.2126237502e+01    0.2490775    0.1445116  31.82 0.0008776663    1.376    0.273
        42 -10.7390    207.0343    222.9852   3.9607344237e+01   1.0263539213e+00    0.1902751    0.1112649  -0.37  0.001131303    1.708    0.414
        43 -12.0863     20.0264    221.9512   8.0512080027e+01   2.4852262990e+01    0.4460948    0.1391129  51.16   0.00204041    2.399    0.583
        44 -11.7312     14.3917    221.4385   8.1783741307e+01   2.5478949806e+01    0.3667344    0.1610172  39.95  0.001288575    1.636    0.389
        45 -11.0510    136.2021    222.4285   5.3551119402e+01   1.0403188729e+01    0.3039035   0.09884618  34.09  0.001047696    2.443    0.591
        46 -11.9998     52.6225    222.0934   7.2889653810e+01   2.1403851543e+01    0.3818986    0.1610903  27.63  0.001794885    2.040    0.510
        47 -12.4267     98.3244    220.1795   6.1877550589e+01   1.6017779707e+01    0.4608059    0.2586167  17.14  0.001842325    1.992    0.498
        48 -11.4495    109.9799    219.5051   5.9085914294e+01   1.4547345694e+01     0.249915    0.1796166  37.65  0.001070559    1.165    0.142
        49 -11.6882    105.9652    216.8458   5.9708619073e+01   1.5588317902e+01    0.4527926    0.1884771  27.72  0.001694768    2.155    0.536
        50 -11.3187     62.1505    220.6069   7.0511703337e+01   2.0579164621e+01    0.3525459    0.1277249  37.62  0.001391509    2.016    0.504
        51 -11.9468     43.2765    220.5834   7.5006718213e+01   2.2752042087e+01    0.3714487    0.1882693  30.13  0.001767259    1.637    0.389
        52 -10.8808    184.0911    219.6174   4.3313512812e+01   4.3415320793e+00    0.2449218     0.124622  18.34   0.00111724    1.948    0.487
        53 -10.8637    141.9255    219.7868   5.1954160129e+01   1.0040178299e+01    0.2026718    0.1489702  11.83  0.001220643    1.268    0.211
        54 -10.6698    125.1232    219.7166   5.5656065936e+01   1.2402519051e+01    0.2113382    0.1308549  39.84 0.0008299885    1.421    0.296
        55 -11.2438    116.0850    220.4102   5.7791002847e+01   1.3540609715e+01    0.3287736    0.1275711  32.09  0.001441691    2.072    0.517
        56 -10.9120     69.6529    220.5001   6.8710486634e+01   1.9684516282e+01    0.2639001    0.1026089  31.00  0.001154004    2.048    0.512
        57 -10.7190    175.1652    219.3291   4.5004153964e+01   5.5578855529e+00    0.2444482   0.09391261  25.74  0.001063825    2.554    0.608
        58 -11.3198    150.4584    218.7485   4.9980580818e+01   9.0180428059e+00    0.2698571    0.1659482   8.90  0.001429049    1.800    0.445
        59 -10.7766    130.7944    219.3727   5.4342989570e+01   1.1667071067e+01    0.1859871    0.1032097  23.25 0.0009203836    1.646    0.392
        60 -11.4989    162.8323    217.0551   4.7151737204e+01   7.5681800393e+00    0.4039801    0.1553175  30.64  0.001819666    2.233    0.552
        61 -10.3969     51.1774    217.4100   7.2907232164e+01   2.2507008084e+01    0.1942248   0.08490722  39.84 0.0009416515    1.722    0.419
        62 -10.7872     38.0366    216.6955   7.6022478111e+01   2.4105756553e+01    0.1823335     0.132446  41.30 0.0007571211    1.098    0.089
        63 -11.4926     24.0562    216.3732   7.9335717482e+01   2.5596601262e+01    0.3031565    0.1546967  42.87 0.0007667651    1.470    0.320
        64 -11.6960      8.9396    216.7608   8.2879968990e+01   2.6911167193e+01    0.3033581    0.1837631  30.37  0.001156988    1.447    0.309
        65 -11.4176     14.1379    215.8440   8.1643975513e+01   2.6636863620e+01    0.2240452    0.1197576  40.65 0.0007561863    1.411    0.291
        66 -11.7018     18.7698    214.9719   8.0523726435e+01   2.6389713966e+01    0.3114095    0.1260282  43.92 0.0009484327    1.788    0.441
        67 -11.4661     85.7660    215.3253   6.4351328702e+01   1.8625016846e+01    0.4534191     0.166665  36.42  0.001957936    2.078    0.519
        68 -10.9264    137.3767    215.3875   5.2348913081e+01   1.1412015980e+01    0.2523457    0.1051332  20.78  0.000948938    3.123    0.680
        69 -10.9432    120.3477    215.0517   5.6146869026e+01   1.3894656432e+01    0.2726621    0.1556086  35.89   0.00123118    1.442    0.307
        70 -11.0999     55.6523    213.7230   7.1547669557e+01   2.2738103979e+01    0.3374928    0.1396174  57.51  0.001442021    2.621    0.618
        71 -11.7350     31.9453    214.3951   7.7356396546e+01   2.5216222688e+01     0.347939    0.1725713  38.03  0.001343668    1.539    0.350
        72 -10.6176    113.6758    213.4028   5.7485302509e+01   1.5140654218e+01    0.2557412    0.1014613  35.50 0.0008829249    2.016    0.504
        73 -11.4120     64.9837    212.9954   6.9197969576e+01   2.1760000094e+01    0.3589518    0.1094482  39.70  0.001457254    2.397    0.583
        74 -11.0313    155.5632    211.9371   4.7915271836e+01   9.3897904867e+00    0.2578746     0.150531  19.22  0.001049229    1.646    0.392
        75 -10.7560    144.8271    212.6204   5.0323916749e+01   1.0812060709e+01    0.1923145   0.09978536  38.91 0.0009532099    1.730    0.422
        76 -10.6244     70.1349    211.8481   6.7827853535e+01   2.1348961296e+01    0.2109049    0.1469642  48.41 0.0008956981    1.235    0.190
        77 -11.0689     45.1246    211.9077   7.3999863502e+01   2.4322030697e+01    0.3316776    0.1191237  38.55  0.001401665    2.031    0.508
        78 -11.6012      3.9955    211.7829   8.3879098517e+01   2.8356197197e+01    0.2724592    0.1843796  33.01  0.001203715    1.312    0.238
        79 -10.4846    126.0272    211.4547   5.4370545983e+01   1.3723878938e+01    0.2104415    0.1101301  30.95  0.001029451    1.596    0.373
        80 -12.2444     10.6426    209.7613   8.2252507532e+01   2.8211217404e+01    0.3319083     0.178872  37.77  0.001259326    1.450    0.310
        81 -11.7140    219.6010    207.3529   3.4990395520e+01   1.4966053538e+00     0.459301    0.2417001   1.42  0.002401875    2.336    0.572
        82 -10.9634     75.3777    216.3916   6.6966969515e+01   1.9770932448e+01    0.3767786   0.09997092  36.16  0.001445957    2.648    0.622
        83 -10.2950    199.6661    212.6684   3.9334475360e+01   3.2870334621e+00    0.1261586     0.075906  -0.24 0.0007052197    1.729    0.422
        84 -10.8788     27.1976    209.0771   7.8228836387e+01   2.6809461718e+01    0.2693505   0.09565762  46.85  0.001227771    2.121    0.529
        85 -11.1350     21.4410    208.9402   7.9624735028e+01   2.7398254851e+01    0.2914076    0.1162178  41.05 0.0009447932    1.833    0.454
        86 -11.5823     16.7500    205.5441   8.0619256530e+01   2.8559564051e+01    0.2591836    0.1519201  48.82 0.0009121354    1.330    0.248
        87 -10.5098    133.7474    208.2243   5.2163580287e+01   1.3173944879e+01    0.2156684   0.09499003  23.93 0.0008824427    2.417    0.586
        88 -10.7718     35.0959    206.6817   7.6146104915e+01   2.6512548903e+01    0.2209627    0.1185646  43.90  0.001146987    1.463    0.316
        89 -12.0025      2.4919    206.0247   8.4074689130e+01   2.9686803918e+01    0.3255742    0.1972538  83.05  0.001770622    1.551    0.355
        90 -12.8604     10.0900    202.2685   8.2121910263e+01   2.9856134072e+01    0.7371061    0.2303989  21.86  0.003030723    3.149    0.682
        91 -10.5980    118.3925    205.3819   5.5331190292e+01   1.5948734885e+01    0.2645834    0.1141989  20.22 0.0009535658    3.185    0.686
        92 -10.7461     50.2170    205.5753   7.2275046321e+01   2.5078938926e+01    0.2578598   0.09899773  32.75  0.001132293    2.047    0.512
        93 -10.0894     40.6665    205.2921   7.4663218432e+01   2.6213972102e+01    0.1406241   0.07371189  52.46 0.0007023194    1.635    0.388
        94 -11.4208    238.2936    201.7613   3.1052938112e+01  -2.1656802343e-02      0.29981   0.08292106 -33.78  0.001222996    3.238    0.691
        95  -9.8557    133.3045    199.2993   5.0967751849e+01   1.4846969392e+01    0.1336869   0.09689377  -0.46 0.0002370444    1.589    0.371
        96 -10.8146    107.4849    209.8236   5.8503068379e+01   1.6689484823e+01     0.254534    0.1632159  -4.10  0.001200768    2.337    0.572
        97 -11.9715    227.2754    204.7889   3.3301751881e+01   8.9651071053e-01    0.4154055    0.1337597  27.11  0.001779129    3.549    0.718
        98 -10.4856     51.9882    198.0000   7.1216629838e+01   2.6513908133e+01    0.2217812   0.06613959  27.77 0.0008010783    2.933    0.659
        99 -11.9562      4.9154    193.9010   8.3117956228e+01   3.2121644702e+01    0.4337125    0.1455984  38.98  0.002021873    2.133    0.531
       100 -12.0880     15.8523    192.1212   8.0257239542e+01   3.1592619845e+01    0.3482585    0.2595852  30.88   0.00142161    1.287    0.223
       101 -11.4601     10.5216    187.8392   8.1456599229e+01   3.3025313444e+01    0.2799568    0.1099088  41.99  0.001324096    1.939    0.484
       102 -11.2080      2.6866    187.1419   8.3465350980e+01   3.3814809544e+01    0.2270644    0.1355659  41.15 0.0009834842    1.375    0.273
       103 -11.0784     61.7656    184.3645   6.7320467669e+01   2.8380227879e+01     0.289847    0.1965674 -84.38  0.001505351    1.638    0.390
       104 -11.1842     15.6554    181.5568   7.9803889921e+01   3.4037259258e+01    0.3710343    0.1472902  61.48   0.00160703    2.355    0.575
       105 -10.6468    166.3500    182.3743   4.0821751121e+01   1.2706455205e+01    0.2569987    0.1162847  31.66  0.001114206    2.113    0.527
       106 -11.4540      3.0061    178.6894   8.3096348007e+01   3.5735512136e+01    0.2600503    0.1316306  60.60  0.001339735    1.666    0.400
       107 -11.9175     18.2268    172.1746   7.8583616104e+01   3.6042920083e+01    0.3339003    0.1562501  80.42  0.001501259    2.173    0.540
       108 -12.8248      6.6487    167.3517   8.1639538066e+01   3.8158623000e+01    0.4894579     0.198402  39.32  0.002270788    2.002    0.500
       109 -13.0868      3.1184    155.8704   8.2166998291e+01   4.1232970888e+01    0.5116256    0.2400503 -83.91  0.001778911    1.969    0.492
       110 -11.6749     51.1975    160.0130   6.7728970344e+01   3.5585264361e+01    0.4313238    0.2528957  69.60  0.001925824    1.915    0.478
       111 -10.4991    117.6687    158.7889   4.8121796747e+01   2.5625231540e+01    0.2019119    0.1415072 -63.03 0.0009453687    1.680    0.405
       112 -11.3112     26.6638    155.3394   7.4896941779e+01   3.9452031146e+01    0.4071052    0.1734809  62.14  0.001606006    2.518    0.603
       113 -12.4208     12.2204    153.3129   7.9255689074e+01   4.1211937596e+01    0.2910091     0.167565  79.84  0.001447838    1.631    0.387
       114 -11.1791     13.6771    148.0880   7.8469373163e+01   4.2429508696e+01    0.1872962    0.1574484  85.55 0.0003435746    1.094    0.086
       115 -10.9901    234.3668    146.7950   2.1794327929e+01   7.7417470560e+00    0.1766597   0.09567703 -25.54 0.0007856514    1.666    0.400
       116 -13.1869     17.5060    159.6528   7.8030545333e+01   3.9186163441e+01    0.4664246     0.309249 -49.14  0.002452901    1.786    0.440
       117 -11.4816    249.0000    134.9673   1.7481777783e+01   7.2618648272e+00    0.2011758   0.05465549 -34.43 0.0008065141    2.971    0.663
       118  -9.8289     37.6630    135.2841   6.9232944576e+01   4.3566630127e+01    0.1558405   0.09595532  56.71  0.000287613    1.626    0.385
       119 -10.2944     36.2400    130.9664   6.9201808698e+01   4.4869427362e+01    0.1890367    0.1171945 -75.88 0.0008710293    1.573    0.364
       120 -12.9210      5.0054    129.6859   8.0184548990e+01   4.7811146846e+01    0.4186549    0.2218242 -70.49 0.0003787258    1.736    0.424
       121 -10.1288     43.0572    128.0211   6.6352723702e+01   4.4897900054e+01     0.172867    0.1612836  60.10 0.0009623335    1.033    0.032
       122 -10.3832     35.4515    121.4818   6.8245887996e+01   4.7499572123e+01    0.1452361    0.1343441  78.79 5.327702e-05    1.009    0.009
       123 -13.2880    248.7483     85.6833   7.5569771992e+00   1.3938953021e+01    0.4530203     0.208853 -53.99  0.002142567    2.624    0.619
       124 -14.8378    247.9362    102.3399   1.1091467178e+01   1.1841790982e+01    0.9638504    0.3904328 -38.43  0.004771694    1.949    0.487
       125 -12.0036      8.4842    109.1338   7.7345727130e+01   5.3056393735e+01    0.3609512    0.1115109  59.36  0.001099887    4.287    0.767
       126 -11.5336      2.6614     96.0689   7.8609667523e+01   5.6853680472e+01    0.2012946    0.1613761 -77.34  0.001159249    1.114    0.103
       127 -11.1597     57.0809     91.0931   5.3675372259e+01   5.2863673589e+01    0.2252167    0.2205544 -66.26 0.0004368203    1.014    0.014
       128  -9.8575     35.2781     90.3279   6.3107447554e+01   5.5917321070e+01    0.1523518    0.1032853 -38.01  0.000286502    1.595    0.373
       129 -10.1916    184.9377     85.2674   1.5722302467e+01   2.6341373564e+01    0.1551499    0.1249667  64.87 0.0002478441    1.340    0.254
       130  -9.7376    102.6832     69.3271   2.9678095392e+01   4.8908959225e+01    0.1620661    0.1248207 -86.09 0.0003894813    1.676    0.403
       131 -11.1580     15.9130     67.0194   6.8055968566e+01   6.3785634485e+01    0.2334146    0.1921738  45.69 0.0007379209    1.326    0.246
       132 -10.7160      6.5061     67.4987   7.3341693337e+01   6.4213482403e+01    0.1357878     0.120298 -58.31 0.0008105786    1.020    0.020
       133 -14.0371    235.6824     59.3064   3.1549151066e+00   1.9700700149e+01    0.9786596    0.5445681 -67.70  0.005061796    2.203    0.546
       134 -11.9845    122.8904     63.6699   2.1981142025e+01   4.5043717594e+01    0.2850168    0.2368246 -39.30 0.0002615903    1.247    0.198
       135 -12.0785     28.7654     60.6297   5.9266040515e+01   6.4290727454e+01    0.6012989    0.2674843  13.66  0.002024443    2.766    0.639
       136 -11.2640    115.2654     54.9471   2.0914800656e+01   4.8522890551e+01    0.2464066    0.2088456  61.08 0.0003281959    1.128    0.114
       137 -10.0287     59.6828     54.6824   4.0898376860e+01   6.1186785997e+01    0.1528248    0.1158871  -7.26 0.0007039579    1.655    0.396
       138 -11.4335    168.4654     59.7514   1.1456029824e+01   3.4239072030e+01    0.2841184    0.2172826 -81.02 0.0009286515    1.405    0.288
       139 -11.3346      3.0005     52.9801   7.2935626944e+01   6.8068915213e+01    0.2315908    0.1260793 -41.18  0.001052633    1.691    0.409
       140 -13.0316    149.6010     51.1697   1.2076384422e+01   4.0279534500e+01    0.3083796    0.2862062 -71.82 0.0005899647    1.026    0.025
       141 -10.0832    105.4267     52.5088   2.2747370768e+01   5.1432711128e+01    0.1532007    0.1467825  69.56 8.171504e-05    1.013    0.013
       142 -11.9610     12.6749     47.9961   6.5570929883e+01   6.8790973820e+01    0.2231088    0.1901829   4.55 0.0002145154    1.215    0.177
       143 -11.5372     43.9642     43.7308   4.4507423054e+01   6.6233001224e+01    0.1966804    0.1753289  25.00 0.0002114662    1.103    0.094
       144 -10.1766    143.9462     42.0229   1.0119894298e+01   4.3089418414e+01    0.1753428    0.1613485 -85.19 0.0003017155    1.004    0.004
       145 -10.9256     89.0234     41.3518   2.3378268470e+01   5.7399009061e+01    0.2113108    0.1800265  54.22 0.0004150189    1.109    0.098
       146 -11.4528     10.8226     43.8710   6.5691129537e+01   6.9912758143e+01    0.2097197    0.1580585 -37.52  0.000402068    1.210    0.174
       147 -10.1709     27.5921     37.5454   5.1956131206e+01   6.9849507719e+01    0.1349906    0.1235159 -22.05 3.383118e-05    1.020    0.020
       148 -10.0316     87.2626     33.9865   2.0724099046e+01   5.9009932524e+01    0.1739811    0.1312211 -33.61 0.0002618447    1.419    0.295
       149 -10.1308     57.4966     30.4813   3.0998602835e+01   6.6337194833e+01    0.1428349    0.1324869  23.48 0.0001502631    1.009    0.009
       150 -10.6807    231.4958     26.1897   3.5609162310e+02   2.4509325691e+01    0.1706616   0.09997839 -35.36 0.0004480621    1.450    0.310
       151 -11.0731     55.0085     24.9882   2.9301133717e+01   6.7761099469e+01    0.2021537      0.18713  23.11  0.001183884    1.021    0.020
       152 -11.1151      9.0469     24.9753   6.0669123805e+01   7.4397795405e+01    0.1986563     0.167748 -29.24 0.0003715814    1.028    0.027
       153 -11.6672     28.8812     20.0887   4.2337167566e+01   7.3229868439e+01    0.2079839    0.1856734   1.05 0.0002936561    1.023    0.023
       154 -10.5489     40.9005     19.5374   3.3953182175e+01   7.1369090429e+01    0.2065551    0.1252351  38.40  0.001017506    1.557    0.358
       155 -11.5013     14.3165     18.7141   5.3217690356e+01   7.5279401003e+01    0.2331312    0.1840889 -20.35 0.0002279327    1.144    0.126
       156 -13.7468    106.1260    236.0234   6.1780201738e+01   1.2184307636e+01    0.9964334    0.5403871   6.15  0.004409783    3.037    0.671
       157 -11.1040      3.1459     15.7887   6.2078731221e+01   7.6776138706e+01    0.2691488   0.07211984  23.52  0.001041934    3.415    0.707
       158 -15.1051     75.1036    240.9708   6.9126750912e+01   1.5224364876e+01     1.743335    0.9204099  26.83  0.009588437    1.598    0.374
       159 -16.2086     22.6078    240.1123   8.0632711345e+01   2.1109791128e+01     3.718291     1.020791  32.64   0.01743231    2.385    0.581
       160 -11.3629    195.9933    237.2901   4.3666994674e+01   5.4477395248e-01    0.1677175    0.1155642  15.96  0.001164393    1.110    0.099
       161 -16.2503    120.6661    246.8530   5.9767244482e+01   8.5791974356e+00     6.724613    0.6502891  31.23   0.01643166    7.841    0.872
       162 -13.8739     69.3164    249.1457   7.0997587992e+01   1.4496189807e+01     1.599262    0.2524199  29.32  0.005124081    4.722    0.788
       163 -12.0653    154.7266    233.1007   5.1040985322e+01   6.2482469860e+00    0.3194924    0.1576005  33.74  0.001129195    1.650    0.394
       164 -12.0429     55.2893    232.3248   7.2965232810e+01   1.9124246862e+01    0.3537447     0.143187  38.22  0.001360681    1.774    0.436
       165 -12.1494     87.0101    230.9633   6.5587103726e+01   1.5531013271e+01    0.3201731    0.1865373  28.60  0.001234295    1.414    0.293
       166 -14.7585    190.8176    247.4267   4.5990024420e+01  -9.3693665397e-02     1.668321    0.5340936  24.65  0.007504372    2.979    0.664
       167 -12.4373    195.9415    229.7448   4.2598006334e+01   1.5005270461e+00    0.3995903    0.2067585   6.48  0.002098157    2.265    0.559
       168 -11.8046     94.2959    228.0600   6.3636657648e+01   1.5113789094e+01    0.4535527    0.1420396  33.43  0.001728134    2.375    0.579
       169 -11.8311     46.9480    229.9217   7.4721589970e+01   2.0516806939e+01     0.342029    0.1596223  44.12  0.001229678    1.613    0.380
