#   1 NUMBER                 Running object number                                     
#   2 MAG_AUTO               Kron-like elliptical aperture magnitude                    [mag]
#   3 X_IMAGE                Object position along x                                    [pixel]
#   4 Y_IMAGE                Object position along y                                    [pixel]
#   5 X_WORLD                Barycenter position along world x axis                     [deg]
#   6 Y_WORLD                Barycenter position along world y axis                     [deg]
#   7 A_WORLD                Profile RMS along major axis (world units)                 [deg]
#   8 B_WORLD                Profile RMS along minor axis (world units)                 [deg]
#   9 THETA_WORLD            Position angle (CCW/world-x)                               [deg]
#  10 FWHM_WORLD             FWHM assuming a gaussian core                              [deg]
#  11 ELONGATION             A_IMAGE/B_IMAGE                                           
#  12 ELLIPTICITY            1 - B_IMAGE/A_IMAGE                                       
         1 -14.0835     80.2797     58.8698   9.2746792521e+01   5.4883584074e+01     2.761002     1.049904 -32.37   0.00909517    3.546    0.718
         2 -15.6832      6.7880     68.3151   1.2261130311e+02   6.0921843038e+01     1.812473    0.7332358 -68.86  0.008379108    2.037    0.509
         3 -15.0197     42.0415      6.7730   8.5554207273e+01   6.9281804864e+01       1.8564      1.06069 -20.34   0.01054868    1.601    0.375
         4 -13.3181      8.7682      3.1746   1.0094848580e+02   7.3504267181e+01    0.5643552    0.4143699  23.47  0.003552735    1.633    0.387
         5 -16.0959     11.4507     23.4128   1.0839012172e+02   6.9850405751e+01     1.761346      1.07741 -30.87  0.007399628    1.357    0.263
         6 -14.4122     22.5290     13.7693   9.8592429518e+01   7.0585925819e+01    0.8078967    0.3617651  34.05  0.003741523    2.622    0.619
         7 -13.1958    119.5540     27.5690   6.9257979394e+01   5.1864685530e+01     1.994763    0.6274538  39.55  0.005929142    4.205    0.762
         8 -15.1932    119.4204     54.7846   7.9361466141e+01   4.7884976012e+01      1.66376    0.9795466  34.60  0.001896582    1.884    0.469
         9 -14.4488    101.5774     50.1477   8.2765024058e+01   5.2482189823e+01     0.882804     0.860152  82.08  0.002437513    1.227    0.185
        10 -13.3297    131.8134     33.0903   6.8471493844e+01   4.8244556118e+01    0.8698877    0.4748507 -26.52  0.003264383    1.889    0.471
        11 -14.5673    122.1184     37.0634   7.2230511296e+01   5.0006143975e+01     1.065275    0.5745928  30.74  0.002662487    2.303    0.566
        12 -12.6856    187.1691     12.9445   5.2533944288e+01   3.6548532994e+01    0.7402577    0.6004294 -30.42  0.003444934    1.291    0.225
        13 -13.8244    189.6161     26.6096   5.6211845690e+01   3.4439723775e+01     1.554271    0.6147062 -53.52  0.005083404    3.467    0.712
        14 -12.4297    194.9355     23.6641   5.4672166423e+01   3.3434372219e+01    0.8416985    0.3082768 -36.70  0.003276705    2.512    0.602
        15 -14.6606    166.7491     30.3979   6.0783969574e+01   3.9828920297e+01     1.071112    0.7973834  70.08  0.003212234    1.336    0.251
        16 -14.8582    147.0984     30.5018   6.4350155117e+01   4.4804905491e+01      1.44328     0.774736  65.54  0.004660271    1.924    0.480
        17 -15.1039     57.1610     73.8066   1.0552331597e+02   5.5216421689e+01     1.509052     1.300542 -63.77  0.005589353    1.214    0.176
        18 -12.5841    222.4454      6.1526   4.7133348276e+01   2.8560834853e+01    0.8877042    0.2821926 -22.16  0.003249663    3.667    0.727
        19 -13.3203    215.1311     21.1393   5.1662223794e+01   2.8724502259e+01    0.6018578    0.4357058 -10.40  0.002383792    1.678    0.404
        20 -13.1139    218.8918     15.2426   4.9753196279e+01   2.8465152626e+01    0.4353786    0.3838966 -63.24   0.00156407    1.037    0.035
        21 -12.9245    214.9798      9.9056   4.8750590131e+01   2.9963769456e+01    0.4231942    0.3470451  73.39 0.0005906667    1.185    0.156
        22 -15.6751     98.6615     12.8981   6.8576245970e+01   5.8281557361e+01     1.671675    0.7502174  50.96  0.004134497    2.010    0.502
        23 -12.2062     61.0160     17.7271   8.3074557535e+01   6.4931220672e+01    0.2837025    0.1754329 -30.04 0.0004437866    1.501    0.334
        24 -11.2954    153.0731      8.3295   5.5701408769e+01   4.5682544111e+01    0.2378372    0.2009247 -39.76 0.0006796712    1.271    0.213
        25 -11.9643    232.2181      2.4033   4.5437956488e+01   2.6657685080e+01    0.4009131     0.252969  43.57  0.001887344    2.029    0.507
        26 -11.4686    227.1792      2.1800   4.5771581794e+01   2.7843263470e+01    0.2276835    0.1555428 -50.89 0.0008237474    1.329    0.248
        27 -11.8726    119.8068      3.4656   5.9734174884e+01   5.4339454086e+01    0.4373455    0.2694802 -75.78  0.001940141    2.611    0.617
        28 -11.0364     67.8331      3.5290   7.3567812239e+01   6.5464190782e+01    0.2611678    0.1708701  14.01  0.001474496    1.485    0.326
        29 -11.9368     26.8446      3.0113   9.0891316816e+01   7.1740288527e+01    0.3287973    0.1924781 -10.78  0.001927846    1.705    0.413
        30 -10.6532    192.8580      3.1217   4.9093738572e+01   3.6064003571e+01    0.1738853    0.1511766  41.05 0.0003631794    1.275    0.216
        31 -11.9447     80.8699      1.7443   6.8497751979e+01   6.3124897428e+01    0.5717493    0.1128368  50.69  0.001968603    3.761    0.734
        32 -11.9052     60.8158      1.6969   7.5135391316e+01   6.6913747879e+01    0.3869936     0.156036  48.94  0.001789306    2.490    0.598
        33 -13.3036     40.5322    195.0440   1.2902211264e+02   2.9756219903e+01    0.5376975    0.3006058  79.45  0.003141433    1.701    0.412
        34 -12.8780     58.0254    246.2270   1.2958124442e+02   1.8276014167e+01    0.7025989    0.4337694  22.87  0.004199078    2.711    0.631
        35 -13.2774     28.3123    246.3929   1.3447381838e+02   2.1604978484e+01    0.4541214    0.2793206  76.21  0.003218122    1.296    0.228
        36 -12.9093     25.8705    238.5734   1.3447694836e+02   2.3182652963e+01    0.3860742     0.206874 -61.80  0.002577689    2.306    0.566
        37 -11.8952      2.8081    249.9303   1.3857009570e+02   2.3546831191e+01     0.288323    0.1398609  50.88  0.001886497    1.498    0.332
        38 -13.9225      8.9405    245.5836   1.3747876018e+02   2.3684341722e+01    0.6653804    0.3206134  58.80  0.003134749    1.471    0.320
        39 -12.5524    201.2754    191.5852   9.5426555054e+01   5.0992752045e+00    0.3948213    0.2885898  18.13  0.001930512    1.334    0.250
        40 -10.8041     80.8451    193.3121   1.2056512149e+02   2.5064872704e+01    0.2668262   0.08585204  43.68  0.001106824    2.673    0.626
        41 -10.2493    107.6613    192.6804   1.1479342563e+02   2.1190249184e+01    0.1230448    0.1030261  -5.80  0.000704975    1.711    0.415
        42 -11.2212     98.9950    187.0050   1.1588491148e+02   2.3679948951e+01    0.2460038    0.1573324 -17.07 0.0009568306    4.115    0.757
        43 -11.3483    122.0821    181.5757   1.1002992592e+02   2.1032267366e+01    0.4595003    0.2468163  76.93  0.001367252    5.672    0.824
        44 -11.9685     48.9674    181.5962   1.2608588754e+02   3.1589343518e+01    0.3742208    0.2378813 -53.94  0.002200872    1.813    0.449
        45 -12.0363    198.7142    182.2562   9.4164584492e+01   7.0135424944e+00    0.2452418    0.1854661  33.08   0.00138185    1.205    0.170
        46 -13.2235    123.9981    166.8475   1.0713843454e+02   2.3706920971e+01    0.6238951    0.4216773 -78.21   0.00296826    1.964    0.491
        47 -11.2739    177.4937    167.5059   9.5514321717e+01   1.3508968155e+01     0.141492    0.1304018  21.00 0.0006354249    1.003    0.003
        48 -12.4524     77.3433    157.1420   1.1661433757e+02   3.3322587177e+01    0.4421344    0.2946612  36.24  0.001508929    1.593    0.372
        49 -13.3234     73.4628    153.6717   1.1704621203e+02   3.4649029897e+01    0.6466471    0.4613186  32.34  0.002897038    1.577    0.366
        50 -12.4265    110.9824    155.4121   1.0815843089e+02   2.8424017106e+01    0.5375501    0.3227351  82.21  0.002067788    3.038    0.671
        51 -11.5320    188.3825    156.1600   9.0921269205e+01   1.3396947053e+01    0.2020963    0.1330274 -48.44 0.0009504469    1.716    0.417
        52 -11.7058     56.3492    155.0665   1.2142112001e+02   3.6544718271e+01    0.3313202    0.1726859 -48.01  0.001590083    2.234    0.552
        53 -11.9187     85.3045    153.3117   1.1407144825e+02   3.3029384388e+01    0.3925643    0.2646296 -47.94  0.002041794    1.598    0.374
        54 -11.8464    103.4867    150.0648   1.0901780688e+02   3.0877446405e+01     0.380008    0.2901559 -31.94  0.001965079    1.633    0.388
        55 -12.3213      6.2976    147.9232   1.3254587813e+02   4.2986170634e+01    0.3948492    0.2533311  73.39  0.002569222    1.384    0.277
        56 -11.6630    245.5960    148.6967   7.8796894845e+01   3.6235063005e+00    0.2428992    0.2067691  -2.55  0.001483442    1.033    0.032
        57 -11.1176     63.2874    147.3667   1.1864924161e+02   3.7442267753e+01    0.1317387   0.09427065 -40.99 0.0007022272    1.701    0.412
        58 -11.4577     38.1240    146.0860   1.2476612931e+02   4.0622862749e+01    0.1860666    0.1523668 -60.24 0.0005736332    1.260    0.206
        59 -10.2461     44.4835    145.5043   1.2311556263e+02   4.0088124731e+01    0.1264376    0.1073112 -81.94 0.0008101952    1.035    0.034
        60 -11.8992    149.1988    141.1387   9.6152399156e+01   2.4257430345e+01    0.3894712    0.2701307  75.74  0.001658345    2.197    0.545
        61 -11.4440     88.9156    140.8634   1.1102621105e+02   3.5315838512e+01    0.2169752    0.1939949 -29.68  0.001249622    1.317    0.241
        62 -13.2474     43.3630    136.3267   1.2219857724e+02   4.2328796375e+01    0.6201761     0.509294 -34.24  0.003887276    1.527    0.345
        63 -11.8528    246.6967    135.9862   7.5834165562e+01   5.3084613579e+00    0.2535407    0.1840824  86.17  0.001187092    2.738    0.635
        64 -11.5266     63.1021    134.4820   1.1671012603e+02   4.0456406521e+01    0.3552803    0.1987751  53.26  0.001707476    1.981    0.495
        65 -11.3421     11.3161    133.9787   1.3012438199e+02   4.5731431559e+01    0.1786046    0.1682287 -62.52 0.0005414541    1.296    0.228
        66 -11.3696    138.2948    132.9191   9.6886320993e+01   2.8188431998e+01    0.2073986    0.1973682 -31.91 0.0005278677    1.071    0.066
        67 -12.5711    132.3521    131.3336   9.7978895649e+01   2.9718319805e+01    0.3692507    0.2696517 -80.47  0.001663635    1.887    0.470
        68 -13.6591    134.6508    103.2135   9.0374831776e+01   3.5242268858e+01     2.211698    0.3982399  48.36  0.004893262    6.404    0.844
        69 -14.5854    105.2455    122.5432   1.0297873671e+02   3.6793647194e+01     1.594497     1.214919  42.06  0.008159711    1.356    0.262
        70 -15.0928     88.6596    112.4365   1.0528961561e+02   4.1925744901e+01     2.563542      1.63754 -12.26   0.01009324    3.004    0.667
        71 -14.7345    106.9493    106.9949   9.8788995122e+01   3.9985541507e+01      1.09154    0.7012321 -47.53  0.004279968    1.491    0.329
        72 -13.8244    112.0276    100.8599   9.5770902467e+01   4.0374576654e+01    0.6878842    0.4910676  61.95  0.002578622    1.721    0.419
        73 -14.6609     30.2394    118.8710   1.2332992308e+02   4.7679722258e+01     2.054094    0.7204187 -57.46  0.009133539    2.292    0.564
        74 -12.5316      4.3128    119.9260   1.3053808826e+02   4.9393344728e+01    0.4884464     0.282087  24.12  0.002253844    2.173    0.540
        75 -14.9199     17.8649    110.9829   1.2576125122e+02   5.0520348569e+01     1.070918    0.9147071  -4.85  0.005830608    1.537    0.349
        76 -14.1744      2.4392     97.3190   1.2853354236e+02   5.4639948871e+01      1.19371    0.3633056 -75.57  0.003449467    2.787    0.641
        77 -15.6648     26.0878     94.6778   1.2078550081e+02   5.3662949963e+01     2.049961     1.359165  -7.38   0.01162702    2.102    0.524
        78 -11.5439     59.6835    125.4410   1.1612544241e+02   4.3007308637e+01    0.3376294    0.2483415 -20.48  0.001621723    1.922    0.480
        79 -11.5277    184.9932    124.3008   8.4291439934e+01   1.9936516073e+01    0.2113478    0.1947706  38.42 0.0004477671    1.096    0.088
        80 -12.3767    180.8204    121.1984   8.4390561109e+01   2.1437522629e+01    0.4161614    0.3340861  58.01  0.001351114    1.365    0.267
        81 -12.3277    121.1365    111.8965   9.6174429601e+01   3.6178413150e+01    0.3718108     0.293333  70.06  0.001614627    1.532    0.347
        82 -12.4902     44.8466    110.5416   1.1778850757e+02   4.8216483276e+01    0.5220048    0.4063485 -49.87  0.003152658    1.234    0.189
        83 -12.3633     61.4959    108.7105   1.1246318016e+02   4.6715316962e+01    0.5933914    0.3787823 -70.10  0.002932891    1.559    0.359
        84 -12.8065     62.3703     99.6818   1.1026776508e+02   4.8709448421e+01    0.6824604     0.440969  84.21   0.00309732    2.375    0.579
        85 -12.7689     43.0761     91.4465   1.1465273606e+02   5.2854201511e+01    0.7276493    0.2998337 -67.07  0.003009091    2.464    0.594
        86 -13.2771     50.2960     99.0347   1.1391829917e+02   5.0317769195e+01    0.7766965    0.5140036   3.48  0.003014942    2.186    0.542
        87 -12.4629     49.3844     94.5643   1.1326580961e+02   5.1457507596e+01     0.375729    0.2713516  86.71  0.001756545    1.714    0.417
        88 -11.4965    175.3817    111.1843   8.2989080816e+01   2.4551156124e+01    0.2268007    0.1391815 -47.30 0.0009534619    1.710    0.415
        89 -10.5769    222.6778    109.6680   7.3616202663e+01   1.4244048188e+01    0.1504275    0.1092482   8.76 0.0005746223    1.701    0.412
        90 -12.8926    137.7541     95.7736   8.7523739698e+01   3.6097073720e+01    0.4377491    0.3857786 -56.16  0.001038906    1.192    0.161
        91 -10.8268    161.9789     96.7565   8.2033096906e+01   3.0389398633e+01    0.2096975    0.1313799  49.15 0.0008879121    1.614    0.380
        92 -12.2292    127.8543     95.7187   9.0060031367e+01   3.8251966582e+01    0.4373299    0.2515571  62.61  0.001648603    2.498    0.600
        93 -11.6904     89.3572     87.4353   9.8727221110e+01   4.7443917145e+01    0.4110515    0.2670978  50.61  0.001741382    1.787    0.440
        94 -13.6259    188.0876     84.5850   7.3229162248e+01   2.6376371648e+01     0.763505    0.4148605  44.11  0.001907798    1.946    0.486
        95 -12.4085    132.3675     86.3523   8.6163390003e+01   3.9175977285e+01    0.2917682    0.2761053 -63.48 0.0008509311    1.128    0.114
        96 -11.6071    125.5340     86.3997   8.7973381505e+01   4.0654450422e+01    0.3296112    0.2754076  87.83  0.001616167    1.526    0.345
        97 -11.9000    241.8004     84.0262   6.4401064510e+01   1.4145564267e+01    0.2781594       0.2219 -68.21  0.001524151    1.464    0.317
        98 -12.6907    237.9210     80.0923   6.3970348175e+01   1.5563540128e+01     0.422272    0.3323566  81.30  0.002037847    1.528    0.346
        99 -13.2855    164.3562     71.4473   7.4138344348e+01   3.4406070065e+01     1.157989    0.5058271  44.58   0.00393038    2.415    0.586
       100 -14.1890    161.0268     80.7774   7.7649068919e+01   3.3582096479e+01      1.35873    0.7076235  32.32  0.004343381    2.725    0.633
       101 -14.0077    169.1373     77.0519   7.4818193497e+01   3.2273917032e+01    0.7031707    0.6205955  75.91  0.002079916    1.245    0.197
       102 -13.9039    177.5638     76.4827   7.2953683585e+01   3.0310279610e+01    0.8380531    0.5102817  63.72  0.002356055    1.849    0.459
       103 -10.6979     98.2549     84.1706   9.5071116825e+01   4.6570787046e+01    0.1957464    0.1730766 -82.17 0.0005102606    1.347    0.257
       104 -12.0572     40.4529    243.5915   1.3235046117e+02   2.0757108820e+01    0.3258215    0.1792224  89.63  0.002221886    1.719    0.418
       105 -13.1509     38.8240     67.8497   1.1054986500e+02   5.8588818463e+01    0.8493733    0.3868372  24.81  0.004005743    2.610    0.617
       106 -13.1922     63.1781     56.3986   9.7954990744e+01   5.8036145898e+01     0.561912    0.4833451 -75.71  0.002384025    1.550    0.355
       107 -13.7263     66.5072     49.9475   9.4450984054e+01   5.8789552889e+01    0.7164409    0.5312856 -42.85  0.002590424    1.278    0.217
       108 -13.7521     91.2108     58.0141   8.8833683898e+01   5.3104911800e+01     1.279905    0.9071351 -88.87  0.005338696    2.945    0.660
       109 -12.7065     77.1984     73.4922   9.8547132312e+01   5.2432497301e+01    0.4911823    0.3276134 -29.33  0.001745783    1.597    0.374
       110 -13.9184     87.3173     65.9735   9.2814477033e+01   5.2280096590e+01    0.7990438    0.5463423 -14.03  0.002859664    1.847    0.459
       111 -11.7980    219.1568     75.1185   6.5409096675e+01   2.0528893052e+01    0.4195667    0.2041138 -34.06  0.001433191    1.897    0.473
       112 -12.5334    217.0409     81.4604   6.7389279841e+01   2.0036953618e+01    0.5046719    0.3615046 -45.03 0.0006246662    1.360    0.265
       113 -12.4101    210.1733     77.6105   6.7465660356e+01   2.2243658276e+01    0.5472134    0.3476987 -60.54  0.002381992    1.991    0.498
       114 -11.8905     90.6827     80.3798   9.6271538710e+01   4.8732282703e+01    0.4251438    0.3365515   0.87  0.002184216    1.512    0.339
       115 -13.3102    170.8721    241.8209   1.0905138951e+02   2.8661961766e+00    0.5398671    0.3231142  37.06  0.003286891    1.329    0.247
       116 -13.7077      8.6301     42.9241   1.1605721833e+02   6.6233871315e+01     0.948776     0.557615  13.58  0.005847947    2.039    0.510
       117 -13.9932     96.2239    238.3569   1.2225779920e+02   1.4604041403e+01    0.7695881    0.4241687  44.09  0.001847338    1.460    0.315
       118 -14.2132     91.4071    231.9644   1.2253291449e+02   1.6351357437e+01    0.6069098     0.381984  82.37  0.003703743    1.822    0.451
       119 -12.2092    147.2391    239.0741   1.1299806399e+02   6.9160239568e+00    0.2166864    0.1825361  71.60 0.0008110542    1.388    0.280
       120 -13.5788      8.7542    210.9603   1.3598926223e+02   2.9830411186e+01    0.7661477    0.4349646  42.72  0.005369219    1.652    0.395
       121 -13.1524    135.0917     79.5715   8.3413214303e+01   3.9886520999e+01    0.9666073    0.4771764  55.89  0.003372328    2.327    0.570
       122 -13.3806    134.0286     67.0880   7.9729110583e+01   4.2433907910e+01     1.008625    0.7336629  18.75  0.004609317    1.687    0.407
       123 -11.9284    113.8906     80.1630   8.9287178289e+01   4.4356434650e+01    0.4324347    0.3541523 -43.15  0.001866464    1.191    0.161
       124 -12.0657     41.9758     77.2649   1.1180248031e+02   5.6191716005e+01    0.3626397    0.2458048 -56.18  0.001162905    1.250    0.200
       125 -13.0430    191.1589     75.3990   7.0092092650e+01   2.7164876768e+01    0.6758788    0.2330183  47.34  0.002213747    3.040    0.671
       126 -13.5164    199.3188     70.1345   6.7208177318e+01   2.6017301405e+01    0.7631837    0.4553426  49.95  0.002128531    1.719    0.418
       127 -11.2119     23.1692     75.1648   1.1803249051e+02   5.8338166509e+01    0.1928529    0.1382007 -46.06 0.0005612983    1.215    0.177
       128 -11.4961    158.2767     63.7527   7.3049566894e+01   3.7188900207e+01    0.3486137    0.2327232 -51.87  0.001376242    1.690    0.408
       129 -12.0561     24.6015    217.1246   1.3353189666e+02   2.7150494416e+01     0.456046    0.2888086  67.44   0.00321876    1.215    0.177
       130 -13.5444     25.7048    227.4823   1.3392171021e+02   2.5145686723e+01    0.5994737    0.3030313 -62.17  0.003805459    2.305    0.566
       131 -13.4471     20.8625    224.9212   1.3460967864e+02   2.6098317753e+01    0.3812335    0.3722416  43.12  0.002093961    1.616    0.381
       132 -10.2041     46.6560    232.6574   1.3062636598e+02   2.1936815351e+01   0.09190419   0.08359792 -39.31 0.0007047013    1.786    0.440
       133 -14.0234    111.5592     40.5325   7.6291546353e+01   5.1897012615e+01    0.8927768    0.5739326  19.93  0.002633579    1.935    0.483
       134 -12.5751     53.1491    214.5180   1.2814134630e+02   2.4487210672e+01    0.3371771    0.1879916  79.76  0.001991829    1.784    0.439
       135 -13.7745    177.8856     58.0232   6.7432744329e+01   3.3200091217e+01    0.7985706    0.6279186 -55.20  0.002125226    1.361    0.265
       136 -12.5285     39.1054     60.6552   1.0845064886e+02   6.0105584302e+01    0.3373713    0.2638398  61.15  0.002001157    1.793    0.442
       137 -12.8265     24.4335     59.9824   1.1400781828e+02   6.1574873165e+01    0.3050046    0.2009652 -49.47 0.0007282761    1.204    0.169
       138 -11.3890    247.6761     55.3244   5.6708780408e+01   1.6947997858e+01    0.2194852    0.1632357 -72.39  0.001211098    1.480    0.324
       139 -12.2597    247.6346     50.8043   5.5628845197e+01   1.7557945397e+01    0.4428002    0.3078218   7.26  0.002210877    2.134    0.531
       140 -10.7784    231.6566     55.7047   5.8690079338e+01   2.0463956135e+01    0.1376861     0.105332  25.23   0.00055079    1.664    0.399
       141 -10.9060     36.6148     53.8072   1.0739334714e+02   6.1787181760e+01    0.1780352    0.1089452 -60.79 0.0009460532    1.668    0.400
       142 -10.8217     23.3146     50.0509   1.1174362947e+02   6.3756496436e+01     0.174835    0.1295874 -48.55 0.0004974731    1.088    0.081
       143 -12.7686    153.9543     46.6303   6.8436131102e+01   4.0915557726e+01    0.5321228    0.2719277  52.90  0.001623101    1.864    0.464
       144 -13.3677    159.0846     43.2634   6.6318342790e+01   4.0103219972e+01      0.61267    0.3959962  56.31  0.001816942    1.491    0.329
       145 -13.4994     66.1954    223.5061   1.2643870426e+02   2.1209843860e+01    0.7297681    0.4857412  41.19  0.004831682    1.430    0.301
       146 -14.0475     62.7161    214.9700   1.2636896478e+02   2.3229353197e+01    0.7252912    0.4257743  57.82  0.003956669    1.443    0.307
       147 -12.8932     95.3293    218.7729   1.2046293362e+02   1.8116528007e+01    0.4862313    0.2288111  40.29  0.002533903    1.852    0.460
       148 -12.6623    198.8610     37.5145   5.8095315215e+01   3.0778782807e+01    0.5095575     0.370504 -79.07  0.001762328    1.542    0.352
       149 -14.0416    217.4387     42.0586   5.6921432307e+01   2.5632284062e+01     1.139071    0.4900393  62.71  0.004082201    2.308    0.567
       150 -12.7871    205.2986     40.3129   5.8009314439e+01   2.8818658210e+01    0.5120164     0.350471 -80.41  0.001930271    1.712    0.416
       151 -11.3703     25.5248     43.0255   1.0863972378e+02   6.4999853540e+01    0.1873379   0.09969115 -51.80 0.0004097106    1.543    0.352
       152 -12.5551     70.5188     36.5152   8.7767329285e+01   6.0524037341e+01    0.3586749    0.2702285  -7.46 0.0009075217    1.320    0.242
       153 -13.2349     76.1331     37.5268   8.6161574300e+01   5.9403200266e+01    0.3838173    0.2855257  41.73  0.001065223    1.449    0.310
       154 -12.1050     36.2669     35.6176   1.0129603948e+02   6.5386123355e+01    0.4534376    0.2247147 -26.57  0.002144324    2.296    0.565
       155 -12.6073    242.5807     36.1726   5.2635536966e+01   2.0541161980e+01    0.6816788    0.2858018  74.04  0.002844116    2.760    0.638
       156 -12.5832     45.9635     33.9618   9.6444018682e+01   6.4551164076e+01    0.5505626     0.299622 -26.76  0.002767411    1.875    0.467
       157 -11.2982    249.0056    225.5031   9.2950536025e+01  -6.9006702427e+00    0.1785216   0.09368708  33.96  0.001046474    1.631    0.387
       158 -11.6851    200.6701    215.3181   9.9669332086e+01   1.7464456700e+00    0.2118366    0.1820433  39.33  0.001128317    1.253    0.202
       159 -12.6241    139.2974     21.7649   6.2790114361e+01   4.7783201801e+01     0.507484    0.2772579  60.97 0.0006099069    1.731    0.422
       160 -11.0335     85.3307    215.8741   1.2210143105e+02   2.0063534462e+01    0.2212984    0.1364674  52.15  0.001325853    1.365    0.268
       161 -11.1927    211.2210     33.2338   5.5323552934e+01   2.8256191836e+01    0.1977127    0.1484846 -60.56 0.0004756081    1.334    0.250
       162 -13.0619    216.6597     29.5949   5.3719859871e+01   2.7375505243e+01    0.5319748     0.269974 -58.03  0.002261268    2.255    0.557
       163 -11.1002    154.5161    214.5029   1.0831827193e+02   9.5518038480e+00    0.1273292    0.1081059  40.79 0.0008103759    1.021    0.021
       164 -11.0526    136.9359    211.2863   1.1133006277e+02   1.3001724493e+01    0.1817079    0.1490859  43.36 0.0009516469    1.051    0.049
       165 -11.9865    223.1779     21.2598   5.0871615656e+01   2.6781850069e+01    0.4096532     0.309226 -82.48  0.001205247    1.310    0.237
       166 -12.1752     45.5270    208.6362   1.2912283767e+02   2.6504300793e+01    0.3262008    0.1612039 -85.95  0.001822454    2.023    0.506
       167 -10.8864     38.4515    210.6878   1.3060539510e+02   2.6903004274e+01     0.283534   0.06137448  40.38  0.001230421    3.350    0.701
       168 -11.7726     89.1304     30.1904   7.8770182563e+01   5.8106369791e+01    0.2235898    0.1957718  -9.27 0.0002424972    1.064    0.060
       169 -11.3074     97.5122     26.8384   7.4823533864e+01   5.6858619262e+01    0.2709298    0.2572069  73.40  0.001519835    1.307    0.235
       170 -13.2420     55.8667     27.4690   8.9578773557e+01   6.4286051230e+01    0.5062965    0.3241403  38.09  0.001504597    1.702    0.412
       171 -11.1150     75.2175     23.4269   8.0468483798e+01   6.1695808604e+01    0.2389225    0.1186728  41.25 0.0007168184    1.979    0.495
       172 -10.7003     80.5132    208.4936   1.2229206905e+02   2.2119320349e+01    0.1225298   0.09847683  65.67 3.233511e-06    1.038    0.036
       173 -10.4548    247.4538     17.5211   4.7790199173e+01   2.1646162868e+01    0.1273907    0.1082169 -59.47 4.183698e-05    1.009    0.009
       174 -11.4812     70.8052     16.8478   7.9015163560e+01   6.3371445293e+01     0.217855    0.1916426  16.49  0.000454117    1.119    0.106
       175 -11.0638    149.5518    207.0940   1.0820277472e+02   1.1615688196e+01    0.2923836    0.1499566  37.53 0.0008264783    1.749    0.428
       176 -12.8436     57.3075    203.7643   1.2643739120e+02   2.6059825486e+01    0.4938185    0.2594597 -88.70  0.002682158    2.035    0.508
       177 -12.7523     16.6641    195.9206   1.3372228369e+02   3.2008193284e+01    0.5968519    0.2387595 -65.64  0.002870023    2.351    0.575
       178 -13.8911     29.8963    169.4071   1.2906924642e+02   3.6248543836e+01    0.5423577     0.371936 -49.41  0.001178901    1.811    0.448
       179 -14.1265     17.8467    160.3611   1.3094658609e+02   3.9331878752e+01     1.191887    0.7456015  51.22  0.007628556    1.544    0.352
       180 -15.5888      8.8185    180.0045   1.3426024267e+02   3.5931046581e+01     1.785904     1.050133 -82.80   0.01180511    1.376    0.273
       181 -13.3433     22.3268    181.2293   1.3162244613e+02   3.4466722401e+01     0.464618    0.3573923 -82.64  0.002044972    1.170    0.145
       182 -10.6771    250.3089    200.6449   8.8386774280e+01  -4.2002923015e+00    0.1039035   0.09787546 -48.72 0.0007042959    1.725    0.420
       183 -12.2559    164.5207    196.2217   1.0346383073e+02   1.0873936102e+01    0.3667252    0.2548536  86.00  0.001696788    2.737    0.635
