#   1 NUMBER                 Running object number                                     
#   2 MAG_AUTO               Kron-like elliptical aperture magnitude                    [mag]
#   3 X_IMAGE                Object position along x                                    [pixel]
#   4 Y_IMAGE                Object position along y                                    [pixel]
#   5 X_WORLD                Barycenter position along world x axis                     [deg]
#   6 Y_WORLD                Barycenter position along world y axis                     [deg]
#   7 A_WORLD                Profile RMS along major axis (world units)                 [deg]
#   8 B_WORLD                Profile RMS along minor axis (world units)                 [deg]
#   9 THETA_WORLD            Position angle (CCW/world-x)                               [deg]
#  10 FWHM_WORLD             FWHM assuming a gaussian core                              [deg]
#  11 ELONGATION             A_IMAGE/B_IMAGE                                           
#  12 ELLIPTICITY            1 - B_IMAGE/A_IMAGE                                       
         1 -12.1642    119.4852     37.7102   2.5254405233e+01   5.0282496979e+01    0.8499051    0.4217311 -49.27  0.003402604    2.546    0.607
         2 -11.4977     78.8505     36.1348   3.6037237159e+01   5.9113049074e+01    0.7376937    0.4906146 -34.56  0.004060482    1.582    0.368
         3 -11.1049      1.8769      3.8361   5.6572911146e+01   7.4091465030e+01    0.5611324    0.1322237 -39.62  0.002538878    3.450    0.710
         4 -11.6084      6.5100     34.0438   6.6342899167e+01   6.8989867392e+01     1.080097    0.3892037 -35.79  0.004734496    2.468    0.595
         5 -10.0075     22.0856      3.1644   4.4823900477e+01   7.2127221241e+01     0.187982    0.1363543 -22.34 0.0007273066    1.310    0.237
         6 -11.5155     20.3151     21.7229   5.4486642712e+01   6.9838655709e+01    0.7403047    0.3737824 -24.43  0.004067711    2.005    0.501
         7 -11.3638      6.1409     11.1134   5.7486399425e+01   7.2715532931e+01    0.6523366     0.433738 -42.88  0.004570618    1.561    0.359
         8 -11.7731     36.2534     19.1176   4.5576664979e+01   6.8331135166e+01    0.6154487    0.3702382 -29.43  0.003140017    1.573    0.364
         9 -12.1933     48.8486     13.0569   3.7346513654e+01   6.7245377780e+01    0.5863384     0.275474  46.09  0.003051823    2.137    0.532
        10 -10.4529     12.9277      8.7241   5.2528299101e+01   7.2432448289e+01    0.3039429    0.1897183 -41.75 0.0009740755    1.743    0.426
        11 -12.2916     15.9938     14.3008   5.3468982528e+01   7.1357257061e+01    0.6810803    0.3244334 -19.64  0.003541876    2.440    0.590
        12 -12.1218     22.6485     10.7550   4.8304988977e+01   7.1123256243e+01    0.4735345    0.3060161  10.69  0.002175315    1.398    0.285
        13 -12.5994    113.5132     25.6088   2.2537334730e+01   5.3134054847e+01    0.9763536    0.3757618  43.69  0.003062183    2.631    0.620
        14 -13.3697    105.5021     20.2215   2.2510649371e+01   5.5526125331e+01    0.3268238    0.3078615  68.98 0.0006553669    1.135    0.119
        15 -12.2987    104.5334     13.9731   2.0483891614e+01   5.6374630282e+01    0.4757119    0.3656428   0.95  0.002877168    1.514    0.339
        16 -12.1485    163.1136     28.3191   1.4168276255e+01   4.0999477269e+01    0.5605704    0.3585715  45.28 0.0008422515    1.754    0.430
        17 -11.0816    135.7126     21.9921   1.6824862061e+01   4.8346158254e+01    0.5911256    0.3710499  61.97  0.002120612    1.382    0.276
        18 -11.2835    134.9342     15.1397   1.4829709980e+01   4.9245149317e+01     0.796905    0.2740201  60.70  0.003283268    2.340    0.573
        19 -10.6192    128.6259     12.7293   1.5174448363e+01   5.0972159170e+01    0.3551077    0.2388507 -73.04   0.00117334    1.839    0.456
        20 -10.8593     68.1967     19.6111   3.2999089069e+01   6.3196590513e+01    0.3456532    0.3226469   1.62  0.001746913    1.183    0.155
        21 -12.2240    164.8560     18.1746   1.1148534089e+01   4.1734624700e+01    0.5429109    0.2805676  46.73  0.002545611    2.200    0.545
        22  -9.7654    120.3779     17.0406   1.8150230051e+01   5.2475755688e+01    0.4157617    0.1859383 -21.93  0.001836097    2.774    0.639
        23 -11.3929     85.6037     14.2105   2.5372267441e+01   6.0396620008e+01    0.6098197    0.3795187  14.80  0.002939472    1.961    0.490
        24 -10.4575     89.5524      8.7759   2.2168602645e+01   6.0094608602e+01     0.314372    0.2028509 -19.16  0.001115284    1.750    0.429
        25 -10.5669    184.9117      6.2842   5.7466264215e+00   3.8195217747e+01    0.3916144     0.221917 -55.84  0.001604159    1.720    0.419
        26 -11.2057    192.1361      8.8886   5.6465340086e+00   3.6242298288e+01    0.6567144    0.3570279 -14.16  0.003062344    3.189    0.686
        27 -10.2218    188.0539      2.1922   4.4603418943e+00   3.7867254074e+01     0.372906    0.1982555 -74.85  0.001766986    1.895    0.472
        28 -11.4643    228.6914     15.9488   3.9486102008e+00   2.7256664375e+01    0.3369658     0.224943  74.69 0.0003593667    1.415    0.294
        29 -10.8091    225.6842     13.7062   3.7284707645e+00   2.8165715460e+01    0.2377433    0.2029552 -49.42 0.0007279211    1.327    0.246
        30 -10.4057    186.8230     14.9848   7.6581995799e+00   3.6832880807e+01    0.2168616    0.1727436  77.02 0.0003379617    1.129    0.114
        31 -10.3045    218.8828     13.0083   4.1400663252e+00   2.9728734842e+01    0.3331974    0.2121278 -87.84  0.001986506    1.352    0.260
        32 -11.3120    206.4085      2.4381   2.8997626404e+00   3.3648792491e+01    0.5782009    0.2287238  84.21  0.002303351    2.449    0.592
        33 -11.7062    212.1805      9.6001   3.9750361183e+00   3.1595748429e+01    0.5342249    0.3932179  -6.11   0.00300653    2.316    0.568
        34 -10.8081    218.6875      3.7554   2.2112019437e+00   3.0791454398e+01    0.2992369    0.2248351 -67.49  0.001064895    1.105    0.095
        35 -11.0820    223.7549      2.6866   1.6155237456e+00   2.9806844390e+01    0.3776499    0.2023684 -75.84 0.0004349066    1.658    0.397
        36  -9.5080    120.5388     11.8911   1.6398035201e+01   5.2939579778e+01     0.274278    0.1525032  70.93 0.0006771096    1.738    0.425
        37  -9.2756     98.5204     11.9968   2.1169042014e+01   5.7882591219e+01     0.175466    0.1248139 -21.64  0.001032311    1.591    0.372
        38 -10.3963    168.5581      9.7265   8.4237341200e+00   4.1723883277e+01    0.4279429     0.165343  55.89  0.001878075    2.375    0.579
        39 -10.3599    163.9344      7.2361   8.3258539904e+00   4.3072304790e+01    0.5103129    0.2629943 -10.05  0.002259689    3.362    0.703
        40  -9.5497    145.0084     10.1705   1.1709512363e+01   4.7324095681e+01    0.1974832     0.148731  48.04 0.0006772231    1.349    0.258
        41 -10.9710    242.7608      4.1418   6.0413875548e-01   2.5666325835e+01    0.2788014    0.1830036 -82.13  0.001110367    1.222    0.182
        42  -9.7334    245.9433      1.4254   3.5989411677e+02   2.5322264677e+01    0.1604971   0.09198265  84.84 0.0003747171    1.514    0.340
        43 -10.6871    247.4822      6.0140   6.5438627321e-01   2.4502189203e+01    0.2759825    0.2021274  47.77  0.001674942    2.160    0.537
        44 -10.2828    152.8490      7.2548   9.7556866063e+00   4.5722019963e+01    0.7662622    0.2988923  63.85  0.003448931    2.068    0.516
        45  -9.7549    157.5167      3.4925   8.1055048870e+00   4.4951892422e+01    0.3571807    0.1748946  47.46  0.001718752    2.226    0.551
        46  -9.5088     78.0003      7.5196   2.4816541651e+01   6.2569406501e+01    0.2248351    0.1884532  84.45 0.0008748301    1.601    0.376
        47 -10.5350     74.0983      3.2043   2.4134801971e+01   6.3718503790e+01    0.5317667    0.2273096  48.86  0.002686639    1.886    0.470
        48 -10.7834    231.8345      6.8093   1.8636349989e+00   2.7635002282e+01    0.2545201    0.1610116 -77.49  0.001014758    1.295    0.228
        49 -11.5406    233.3685      2.6032   9.2691928959e-01   2.7774738675e+01    0.4161643    0.2021654 -68.23   0.00227664    1.823    0.452
        50 -10.1042    122.0260      5.4733   1.3995070962e+01   5.3168478012e+01     0.224947     0.181539 -10.03   0.00103819    1.497    0.332
        51 -10.1228     63.0919      6.6067   2.9098735497e+01   6.5492781878e+01    0.2434285    0.1883567   0.60 0.0008261727    1.270    0.212
        52  -9.2293     64.3151      2.0654   2.6654436547e+01   6.5680279359e+01    0.1530191    0.1281167  10.65 0.0004456409    1.142    0.125
        53 -10.2570    141.6698      3.8606   1.0336237611e+01   4.8691744078e+01    0.4146262    0.1816414  64.81   0.00197399    1.846    0.458
        54 -11.4700    133.7535      2.6208   1.1142463748e+01   5.0668038260e+01    0.4032408    0.2634337  65.25  0.002332801    1.267    0.211
        55  -8.9706    128.5184      1.3995   1.1582799524e+01   5.1995498742e+01    0.1266297    0.1034918  66.97 0.0001247146    1.020    0.020
        56 -10.5627    113.2295      2.5457   1.4624218334e+01   5.5428761156e+01    0.4988485     0.275058  80.63  0.001946785    2.103    0.525
        57 -10.4177    105.3929      2.0791   1.6002967907e+01   5.7228165581e+01    0.3743104    0.2097994  80.81  0.001637834    2.206    0.547
        58 -10.1944     41.7033      3.6994   3.5860455934e+01   6.9370165525e+01    0.2965608    0.1771668  14.59  0.001315622    1.690    0.408
        59  -9.3954     29.5478      2.1616   4.0580035375e+01   7.1285571616e+01    0.1849366   0.09703028 -33.48 0.0007104619    2.003    0.501
        60 -10.0718     13.4374      2.4332   4.9110286534e+01   7.3194218584e+01    0.2467296    0.1658061  17.90  0.001101461    1.315    0.239
        61 -11.6130    177.3515      6.0318   6.4745076522e+00   3.9999173094e+01     0.267778    0.1902382  86.74  0.000335193    1.192    0.161
        62  -9.6877    152.4532      1.4487   8.1777236635e+00   4.6337584605e+01    0.2448716    0.1057037  71.33 0.0006957483    1.945    0.486
        63  -8.6196     52.3424      1.7118   3.0660053368e+01   6.7840032516e+01   0.09958221   0.09218489  81.24 0.0007022193    1.647    0.393
        64  -9.1646     81.4083      1.0000   2.1175743647e+01   6.2438800982e+01    0.2512801   0.05897192  58.74  0.000817749    3.660    0.727
        65  -9.5306     44.6106    119.8393   7.2477062471e+01   4.7104231530e+01    0.2065254    0.1619614 -67.16  0.000518794    1.152    0.132
        66  -9.7555     43.5184    116.4997   7.2197706149e+01   4.8050535007e+01     0.314643    0.2568526  30.18  0.001807768    1.371    0.271
        67  -9.2104     58.0128    118.5024   6.7895782683e+01   4.5784287204e+01    0.2013692    0.1415407  33.72  0.001014089    1.541    0.351
        68  -9.9065     37.1503    116.8971   7.4348596173e+01   4.8638277662e+01    0.3390359    0.2243555 -27.57  0.001527068    1.861    0.463
        69 -10.2855     30.3852     96.9546   7.2791107677e+01   5.4088436928e+01    0.4867717    0.3981845 -84.25  0.001753783    1.334    0.250
        70 -10.8333     51.3003     88.4351   6.3224024765e+01   5.3760480566e+01    0.6653129    0.2880483 -39.12            0    2.528    0.604
        71 -11.6177     15.3593    109.7633   8.0293086221e+01   5.2288595210e+01    0.8392485    0.5442812  -6.76  0.003304088    2.023    0.506
        72 -11.8519     17.6062    100.6542   7.8013621433e+01   5.4287850670e+01    0.3162341    0.2746063 -15.46  0.000640028    1.295    0.228
        73 -12.1042     21.1400     92.9002   7.5304851632e+01   5.5825730104e+01     2.022951     1.045232  85.72  0.007008166    3.821    0.738
        74 -10.8757     42.8267     92.8052   6.7385286361e+01   5.3777866444e+01    0.5443825    0.4003673 -76.45  0.002117947    1.557    0.358
        75 -11.0265     27.0976     86.3437   7.1714243428e+01   5.6826241924e+01    0.5200455    0.4741625 -17.61  0.002340036    1.152    0.132
        76 -10.1619     35.1758     92.0299   6.9992334404e+01   5.4768600986e+01     1.657229    0.5791633 -71.43  0.004524008    6.042    0.834
        77 -11.6960     42.8806     84.9086   6.5427593724e+01   5.5558023395e+01    0.8419002    0.4357456  19.11  0.003458359    2.332    0.571
        78 -10.4860      7.8757    114.8924   8.3466060567e+01   5.1574798540e+01    0.3689137    0.1864155 -52.86 0.0003949646    1.687    0.407
        79 -12.5263      3.0887    110.0431   8.4335106268e+01   5.3025981904e+01    0.9094657    0.3085175 -66.05  0.003629532    2.188    0.543
        80 -11.6822     22.4065    114.2618   7.8700639300e+01   5.0653539669e+01    0.5459372    0.3446056 -10.47  0.002810632    2.178    0.541
        81 -11.5071     28.5005    113.0472   7.6498329760e+01   5.0418539262e+01    0.4485297    0.3806455  33.81  0.001623241    1.349    0.259
        82  -9.3981     79.3366    114.7793   6.0259734435e+01   4.3539136858e+01    0.2800591    0.1802019 -45.62  0.001280415    1.519    0.342
        83  -9.1249     68.0221    115.2135   6.3961769509e+01   4.5189883285e+01    0.2377697    0.1591108  62.71  0.001075028    1.928    0.481
        84  -9.1297     57.5169    114.0235   6.7110113594e+01   4.6948020649e+01     0.220998    0.1308359 -60.36  0.001021104    1.561    0.359
        85  -9.2933    104.6657    112.9948   5.2111457897e+01   3.9412414119e+01    0.2120681    0.1939907 -59.32 0.0004424587    1.074    0.069
        86 -12.1255     80.1749    108.1708   5.8389571606e+01   4.4978121937e+01    0.5438693    0.3777284  47.99 0.0005231148    1.556    0.357
        87  -9.9888     48.9064    112.0642   6.9537735339e+01   4.8510638349e+01    0.3059892    0.1919598  38.48  0.001517574    1.735    0.424
        88  -9.8711    101.2709    109.8490   5.2304296775e+01   4.0799929807e+01    0.2831343    0.2068919   5.53  0.001225505    1.991    0.498
        89  -8.9714    120.4035    109.4663   4.6733306883e+01   3.7013715517e+01    0.1533741    0.1491823 -39.55 0.0002319651    1.057    0.054
        90  -8.9731     46.1295    105.6749   6.9125277524e+01   5.0380173297e+01    0.3021017    0.1308735  42.01  0.001236444    2.629    0.620
        91 -11.2516     52.3465     99.2790   6.5532763866e+01   5.1142402127e+01     0.556246    0.2765421 -40.62            0    2.093    0.522
        92  -9.6476     47.4687    102.0426   6.7866327801e+01   5.1087960490e+01    0.3536709    0.1461797 -46.26  0.001427601    2.265    0.559
        93 -11.3746     75.9774     79.7783   5.2009731077e+01   5.1999583243e+01    0.9739998    0.7288111 -89.55  0.004631779    2.116    0.527
        94 -11.4289     79.7111     92.6970   5.4475547038e+01   4.8599566741e+01    0.8732633    0.7409482  82.94  0.004630481    1.459    0.315
        95 -10.1596     89.1784    105.1103   5.4761933116e+01   4.4141402368e+01     0.271987    0.2209789  43.34 0.0003773051    1.273    0.215
        96 -10.1688     85.8039    103.3997   5.5379025446e+01   4.5132532623e+01    0.3279287    0.2625585 -53.12 0.0005344598    1.211    0.174
        97  -9.1703    182.8382    104.4935   3.0854833840e+01   2.3920719240e+01    0.2092841    0.1488748  56.44 0.0003591127    1.446    0.308
        98  -8.4673    120.3632    101.2981   4.4553924017e+01   3.8824721563e+01     0.157896    0.1242517   5.28 0.0005959879    1.718    0.418
        99 -11.7857     68.0885     96.1128   5.9304676403e+01   4.9693433717e+01    0.6599669    0.4719554   3.14  0.002269968    1.830    0.454
       100 -11.5618      9.5160     97.0436   8.0218686454e+01   5.5691835251e+01    0.4604941    0.4582067 -38.57  0.001218433    1.203    0.169
       101  -8.6364    210.4431     98.4226   2.4520155294e+01   1.8874966076e+01    0.1428284    0.1290456 -62.44 0.0001096153    1.011    0.011
       102 -11.4422    125.8238     94.7725   4.1273166617e+01   3.9021530220e+01    0.2938078    0.2645683  58.01 0.0002231275    1.110    0.099
       103 -10.6278    121.7180     93.6485   4.2058918968e+01   4.0158675259e+01    0.3549382    0.1902567 -46.78 0.0009719392    1.879    0.468
       104 -11.6519     98.3992     91.0648   4.8053114441e+01   4.5543675872e+01    0.2884435    0.2477661  48.97 0.0001094855    1.197    0.164
       105 -10.4333     88.9298     89.4358   5.0550992501e+01   4.7684999469e+01    0.7673973    0.5162232  -7.72  0.003214064    2.359    0.576
       106  -9.4247     89.6967     85.3057   4.9103515623e+01   4.8419701735e+01    0.3018605    0.2105937  54.11  0.001107319    1.630    0.386
       107 -11.4782      7.3095     88.4648   7.9527163898e+01   5.7800291225e+01    0.4989386    0.3854905  -0.89  0.002387992    1.511    0.338
       108  -9.8669     66.4274     88.6943   5.7891022028e+01   5.1609158945e+01    0.3487314    0.2406171   0.10  0.001007595    1.963    0.491
       109 -10.7103    103.9942     86.5885   4.5062554007e+01   4.5368673000e+01    0.3010225    0.2488719 -39.25 0.0004918657    1.215    0.177
       110 -11.6261    143.2134     84.6922   3.4078330784e+01   3.7060660816e+01    0.2642031    0.2539721 -87.01 0.0002570889    1.014    0.013
       111  -9.0764    133.3371     84.6897   3.6471019644e+01   3.9356249587e+01    0.1571833    0.1195865 -85.84 0.0005358403    1.684    0.406
       112 -11.0857    112.0078     82.8521   4.1624010991e+01   4.4456334433e+01    0.6141595    0.3064161  59.18  0.002224024    2.681    0.627
       113 -10.0596     66.9381     81.7826   5.5759302849e+01   5.3030312719e+01    0.3534363    0.2705716  -5.48  0.001851719    1.527    0.345
       114  -7.9316     46.8894     74.9165   6.1208192615e+01   5.7251727876e+01    0.7787987    0.3085399 -61.15  0.002857054    3.310    0.698
       115 -11.8362     53.0095     74.2881   5.8682896218e+01   5.6601431102e+01     0.580938    0.2947112 -55.17  0.000358464    2.007    0.502
       116 -10.8167     58.0211     77.8468   5.7846130683e+01   5.5171812520e+01    0.6217891    0.3192703 -63.17  0.002541782    2.642    0.622
       117 -11.2767     35.4994     71.9239   6.4848417973e+01   5.9174135677e+01    0.5399171    0.2511359  28.20   0.00135217    2.304    0.566
       118  -9.8657     41.1956     72.8265   6.2836295208e+01   5.8363746733e+01     0.380872    0.2288222 -25.44 0.0009930613    1.891    0.471
       119  -9.0979    119.7308     80.7206   3.8847932528e+01   4.3197291010e+01    0.2411739    0.1720897 -84.71  0.001029138    2.102    0.524
       120  -9.4775    103.0355     79.5012   4.3228012705e+01   4.6995226877e+01    0.3140856    0.1916402 -38.84  0.000712969    1.681    0.405
       121 -10.0652    103.0866     74.8743   4.1789097474e+01   4.7883955860e+01    0.2801309    0.2496986  80.71  0.000964819    1.299    0.230
       122  -9.3635     88.6675     73.0565   4.5695134458e+01   5.1083404461e+01    0.1954045    0.1802113 -31.58 0.0004834874    1.075    0.069
       123  -9.4569     92.6089     72.2104   4.4166358058e+01   5.0491670027e+01    0.2492996    0.2360102  44.01  0.001436741    1.092    0.084
       124 -10.6359     89.1474     78.0206   4.7087164084e+01   5.0015332333e+01    0.7089155    0.3605922  47.69  0.002955863    2.093    0.522
       125  -9.9435     94.5533     76.2830   4.4832243260e+01   4.9324831083e+01    0.4533814     0.317463  46.49  0.002208628    1.448    0.309
       126 -10.7762     39.9068     69.1181   6.2287587387e+01   5.9281017989e+01    0.2601649    0.2072038  12.49  0.001056771    1.313    0.238
       127 -11.2445     13.6560     74.6961   7.4331488841e+01   6.0460643811e+01    0.3685925     0.337383  85.88  0.002033524    1.323    0.244
       128 -11.0420      2.1394     71.6149   7.8307219095e+01   6.1818456888e+01    0.6833366    0.2537723 -70.68  0.003002972    2.734    0.634
       129 -10.2931     11.7004     49.4821   6.8702287023e+01   6.5777598390e+01    0.5592061    0.1465205 -44.72  0.002357001    2.855    0.650
       130 -12.5570      5.5100     61.9249   7.4770626584e+01   6.3682247405e+01     0.685313    0.3868675 -11.68  0.001932887    2.002    0.501
       131  -9.9436      7.9604     55.0195   7.1957900063e+01   6.4939920941e+01    0.2170077    0.2027298 -88.31  0.001174224    1.394    0.283
       132  -9.1323    126.8545     76.8281   3.5811749289e+01   4.2337727636e+01    0.1968147    0.1721836  88.02 0.0002750425    1.259    0.205
       133  -9.2190    181.9726     76.3029   2.3898096822e+01   2.9333744681e+01    0.2032765     0.175768  70.67 0.0003511642    1.132    0.117
       134  -8.7061    158.6721     76.2569   2.8316746831e+01   3.4936081324e+01    0.1500868    0.1127106 -85.21 0.0004023895    1.557    0.358
       135  -9.1874    112.4349     75.3428   3.9231906434e+01   4.5820699874e+01    0.2598486    0.1358429  48.93  0.001066929    1.885    0.470
       136  -8.6751    141.7146     74.2688   3.1446589833e+01   3.9347559723e+01    0.1456831    0.1144679 -83.03 0.0002477006    1.498    0.333
       137 -10.8559     81.2216     72.6063   4.8012570701e+01   5.2537342247e+01     0.772631    0.5266289   0.47   0.00266406    2.103    0.525
       138  -9.6364     77.9387     67.8836   4.7617150509e+01   5.4028938405e+01    0.3748636    0.3073472 -82.50  0.001987906    1.730    0.422
       139  -9.7671     77.6650     96.7115   5.6246183483e+01   4.8043277114e+01    0.2435752    0.1982642  17.24 0.0002622264    1.366    0.268
       140  -9.5249     24.9499     73.6127   6.9533546176e+01   5.9820392930e+01    0.2621187    0.1366475 -44.73  0.001348378    1.629    0.386
       141  -9.3735    187.2378     72.7287   2.2088819142e+01   2.8692955069e+01    0.2692168    0.1722854 -44.64  0.001282076    1.506    0.336
       142  -9.7938    153.6531     72.6762   2.8364095615e+01   3.6775757454e+01    0.4021508    0.1641997  44.20  0.001385892    2.835    0.647
       143  -8.8955     19.4915     71.9646   7.1335737742e+01   6.0622574877e+01    0.1753801   0.07381011 -40.50 0.0005994441    2.166    0.538
       144 -10.9437    122.8858     68.8159   3.4405365429e+01   4.4696459454e+01    0.5113902    0.2763512  46.91  0.001852723    1.793    0.442
       145  -9.9182     13.7793     67.6858   7.2649487376e+01   6.1953331143e+01    0.4274864    0.1963382   7.35  0.002055854    2.744    0.636
       146  -9.4364    217.9374     66.4896   1.6072017541e+01   2.2651609018e+01    0.1993177     0.128814  67.84 0.0005514804    1.574    0.365
       147 -10.4283     96.5114     65.5099   4.0791693805e+01   5.0962390579e+01    0.2615439    0.2220813  -5.82 -1.476321e-05    1.281    0.220
       148 -11.0422     92.4989     62.9287   4.1187850034e+01   5.2223672423e+01    0.4882581    0.3152541  55.74  0.001175988    1.761    0.432
       149  -9.2321     52.1306     65.8145   5.6441591894e+01   5.8438073028e+01    0.1807514    0.1414809  -2.87  0.000623056    1.331    0.249
       150 -10.5437    201.6686     64.7384   1.7883562208e+01   2.6615929565e+01    0.2523086    0.2116133 -85.10 0.0002479443    1.100    0.091
       151  -9.0962    192.5403     65.4521   1.9415298839e+01   2.8636330418e+01    0.1433608    0.1265381 -77.92 6.093405e-05    1.012    0.012
       152  -9.7616    105.2664     63.7920   3.7625197485e+01   4.9455196904e+01    0.3789512    0.2131873  37.81  0.001216799    1.869    0.465
       153  -9.9612    158.8722     62.8387   2.4545237351e+01   3.7169829956e+01     0.388828     0.195173  45.78  0.001025798    2.176    0.540
       154  -9.5348     65.5369     61.5436   4.9947530413e+01   5.7291951044e+01    0.3833217    0.1757608 -47.42  0.001461454    2.217    0.549
       155 -10.1367     62.6502     61.6660   5.1063595745e+01   5.7719876359e+01    0.6580712    0.2869067  30.09  0.002711319    2.586    0.613
       156  -8.5461     50.9690     56.6699   5.3914092280e+01   6.0346438704e+01    0.4550848    0.2900631   3.26  0.002291392    1.978    0.495
       157 -10.0555     51.2214     61.4183   5.5390727970e+01   5.9416588349e+01     0.306812    0.2171982  41.89  0.001400905    1.618    0.382
       158 -10.6961     40.0046     56.5902   5.8386680349e+01   6.1753654655e+01    0.2831223    0.1705189  22.51 0.0009661479    1.744    0.427
       159 -11.5437     43.0405     61.0277   5.8558637708e+01   6.0537962091e+01     0.404213    0.2509174 -53.26 0.0009745109    1.640    0.390
       160 -10.8656     46.3041     59.6511   5.6786140895e+01   6.0399278809e+01    0.2932515    0.2310268 -66.02 0.0008957277    1.649    0.394
       161 -10.3073    106.9225     59.1070   3.5621005285e+01   4.9901101353e+01    0.7934679    0.4378737  76.10  0.002320435    5.323    0.812
       162  -9.4519     84.3225     61.3932   4.3311381356e+01   5.4068140269e+01    0.2860413    0.2068812 -31.09  0.001451627    1.411    0.291
       163  -9.1567     91.8092     57.5057   3.9580422947e+01   5.3300253009e+01    0.3979292    0.2729538  89.05  0.001640969    3.016    0.668
       164 -10.1807     87.8489     56.4326   4.0470298854e+01   5.4258028737e+01    0.4307864    0.1858098 -32.15  0.001665972    2.722    0.633
       165  -9.9540     89.4308     51.7941   3.8354696324e+01   5.4714386864e+01    0.2530567    0.1719252 -27.76 0.0008318692    1.568    0.362
       166 -10.3197    124.6439     56.6027   3.0149151059e+01   4.6344770490e+01    0.3122091    0.2851028   8.39  0.000675967    1.214    0.176
       167  -9.9673    123.6127     60.8501   3.1742784861e+01   4.5893481919e+01    0.2576486    0.2196194  69.82 8.378972e-05    1.213    0.175
       168 -10.7347    118.0791     55.9916   3.1599583229e+01   4.7943723399e+01     0.626341    0.4082821 -73.77  0.002352517    2.556    0.609
       169 -10.7141    110.0345     39.4185   2.8142131944e+01   5.2197585041e+01    0.5338548    0.3257002  -6.09  0.001953479    2.543    0.607
       170 -10.4652    112.2131     50.8186   3.1431437508e+01   5.0067925733e+01    0.3485293    0.2914338  -1.29  0.001173887    1.372    0.271
       171 -10.3017    112.5275     42.5181   2.8563655230e+01   5.1213030940e+01    0.3421753    0.2269951  61.79 0.0009814851    1.526    0.345
       172 -11.6885    117.4167     45.4836   2.8330807184e+01   4.9686885552e+01     0.669239     0.460934 -34.93  0.002806075    1.557    0.358
       173  -8.9434    113.3016    249.3539   7.3882040632e+01   6.7976474989e+00    0.1193739   0.09852622  -3.82 0.0007038612    1.704    0.413
       174  -9.6530    113.8377     60.8765   3.4291069033e+01   4.8094566844e+01    0.2701356    0.1974683 -43.32  0.001365209    1.437    0.304
       175  -9.6377     82.8904     46.7148   3.8648242989e+01   5.6786947605e+01    0.9758326    0.3575467 -28.52  0.003269146    4.029    0.752
       176 -12.3024     75.6493     53.0000   4.3356307165e+01   5.7104729973e+01    0.4726852     0.262235  42.06  0.001048209    1.771    0.435
       177 -12.5994     73.0318     47.4970   4.2292256308e+01   5.8474030136e+01     1.073802    0.4685118 -52.31  0.001869053    3.787    0.736
       178  -9.5808     30.0425     53.5124   6.1661899950e+01   6.3428627910e+01    0.2492296    0.1693898  27.98 0.0007831772    1.588    0.370
       179  -9.7473     33.5325     52.5381   5.9820855574e+01   6.3247799098e+01    0.2407637     0.164214 -26.84 0.0008441083    1.356    0.262
       180  -9.7778     29.4229     60.2227   6.4006244064e+01   6.2183676632e+01    0.2670701    0.2247573 -74.63  0.001694477    1.534    0.348
       181 -11.0629     24.4713     57.4257   6.5309339092e+01   6.3202245688e+01    0.5089269    0.4118064 -17.30  0.002310682    1.139    0.122
       182  -8.6205    135.3303     59.3211   2.8468726318e+01   4.3407435355e+01    0.1487183    0.1116322  24.11 0.0007048936    1.694    0.410
       183 -10.2434    157.2650     54.7070   2.2560544198e+01   3.8839878472e+01    0.4249595    0.3043277 -64.70  0.002117263    1.536    0.349
       184  -9.5014    154.4637     51.0377   2.2041167741e+01   4.0073350029e+01    0.3167481    0.2043372 -12.62  0.001132451    2.401    0.584
       185  -9.2943     34.1361     57.2211   6.1072840825e+01   6.2290967898e+01    0.2544074   0.09582791  29.71 0.0009097069    2.762    0.638
       186  -9.5685     66.8935     54.4371   4.7004971442e+01   5.8354820170e+01     0.285934    0.1856459 -54.64  0.001430942    1.940    0.485
       187  -9.4235    139.7335     54.2180   2.5945962679e+01   4.3159613226e+01    0.2477813    0.1836835  69.86  0.000564024    1.355    0.262
       188 -11.1506     60.9298     47.9848   4.6930287515e+01   6.0414972269e+01     0.736488    0.3266713 -36.39  0.003283243    2.271    0.560
       189 -10.2130     46.9793     48.5366   5.2707737144e+01   6.2350871953e+01    0.3538975    0.2221395  11.49   0.00111752    1.822    0.451
       190 -12.1515     43.5087     44.2472   5.2608315138e+01   6.3548943712e+01    0.5478711    0.3549057  31.03  0.001093084    1.563    0.360
       191  -9.9843     55.5025     50.4919   4.9953760341e+01   6.0813583749e+01    0.2026178      0.18166 -16.40 8.849982e-06    1.071    0.066
       192 -10.3364     52.0779     48.1899   5.0492628524e+01   6.1707449026e+01    0.2901098     0.227789  13.50 0.0009057378    1.225    0.184
       193  -9.8858    145.3871     49.7288   2.3424362263e+01   4.2471034480e+01     0.458627    0.2612255 -12.44  0.001750106    3.201    0.688
       194 -10.2328    240.2419     50.5342   1.0048489421e+01   2.0273259043e+01    0.2193333    0.2044456  84.76 0.0007869775    1.305    0.234
       195  -9.6566    189.1663     49.3575   1.5892538047e+01   3.1900882095e+01    0.2061859    0.1818342 -40.85 0.0003657164    1.263    0.208
       196  -9.0029     97.6322     50.0698   3.5248754957e+01   5.3324759208e+01    0.1823107    0.1712493  12.25 0.0004818453    1.043    0.041
       197 -10.8407     28.4601     47.0680   6.0237711428e+01   6.4790474491e+01    0.8301641    0.3638267 -18.51  0.002811786    5.059    0.802
       198  -9.3577     34.4141     45.7152   5.7100668816e+01   6.4396428693e+01     0.243224    0.1362844 -43.45  0.001327309    1.620    0.383
       199  -9.2762      1.8751     48.9215   7.3118218146e+01   6.6500779357e+01    0.1877559    0.1525084 -78.13  0.001043937    1.550    0.355
       200 -10.9795     20.7229     46.3042   6.3525869700e+01   6.5663307891e+01    0.4471422    0.2542462 -38.46  0.001792843    1.485    0.327
       201 -10.0189     26.1860     42.9324   5.9849564583e+01   6.5764210624e+01    0.2499572    0.2267245  -9.85  0.001296841    1.181    0.153
       202 -10.4141     23.2363     37.4160   5.9259457036e+01   6.7018930341e+01    0.4356907    0.2035993  37.02  0.002230462    2.575    0.612
       203 -10.2693    199.5068     44.9689   1.3417755877e+01   3.0084658436e+01    0.5180378    0.2465623  81.31  0.002129589    2.538    0.606
       204 -10.4437    138.4257     44.6491   2.3309730556e+01   4.4877442083e+01     0.483235    0.2278583  37.59  0.001787625    2.998    0.666
       205  -8.6330    179.7061     45.2936   1.6232873025e+01   3.4753937643e+01    0.1420251   0.09651685 -72.47 0.0002466357    1.557    0.358
       206 -10.5931    156.0722     42.2874   1.9240975049e+01   4.0925760453e+01    0.3081898    0.2892557 -29.69  0.001320585    1.228    0.186
       207 -12.9813    152.8565     35.8744   1.7957521025e+01   4.2559581516e+01    0.3364137    0.2878857  70.30 0.0005566804    1.051    0.049
       208  -9.0843     17.7169     41.3941   6.3305222744e+01   6.6820215762e+01     0.222504    0.1051657 -36.27  0.001172058    1.854    0.460
       209  -9.1350     91.0637     41.4705   3.4161587148e+01   5.5960889435e+01    0.1968575    0.1243566  48.52 0.0003888302    1.494    0.331
       210 -10.5965     49.3342    248.7882   8.6658943517e+01   1.6048396835e+01    0.3180002    0.1149191  56.74  0.001421572    2.555    0.609
       211  -8.6917    213.4408    248.5104   5.3847164666e+01  -8.2842114735e+00    0.1207477   0.09643447   8.11 2.712658e-05    1.035    0.034
       212  -9.6686    174.8300    246.1588   6.0918264996e+01  -2.2817285004e+00    0.1786179    0.1370636   7.12  0.001080156    1.363    0.266
       213 -11.6151    126.4730    241.9062   7.0241662950e+01   6.1097548482e+00    0.4083238    0.2699095 -57.18  0.002273231    1.754    0.430
       214 -11.6780     26.3286     28.5000   5.4318960425e+01   6.8166574075e+01    0.4327867    0.3271353 -24.34  0.002235215    1.130    0.115
       215 -10.5681    131.3260    241.0717   6.9116722363e+01   5.4881780795e+00    0.2343914     0.165468  30.71  0.001315475    1.355    0.262
       216 -11.6659     69.5260    239.7598   8.1883441667e+01   1.5162496246e+01    0.5571923     0.353586   9.37  0.002483878    3.466    0.711
       217 -10.1821     76.0690    239.7057   8.0531340885e+01   1.4248144406e+01    0.2316159    0.2140019 -71.27  0.001566341    1.321    0.243
       218 -11.2158    147.0098    238.2018   6.5441107630e+01   3.4805096330e+00    0.4797274    0.3195683  56.26   0.00251395    1.665    0.399
       219 -10.3671     12.9207     23.8689   5.9224289573e+01   7.0204372188e+01    0.2739151    0.2124449  10.56  0.001990118    1.279    0.218
       220  -9.2046    167.3527    238.1764   6.1233938870e+01   2.0837533691e-01    0.1616879     0.123906 -59.77 0.0007346992    1.668    0.401
       221  -9.1840    112.3203    238.6883   7.2817186193e+01   8.9693499817e+00     0.136765   0.08911595  63.33 0.0007036994    1.648    0.393
       222  -9.0341     15.4866    234.0216   9.2167308833e+01   2.3026829725e+01    0.1698925   0.09572057 -81.23  0.001023203    1.578    0.366
       223 -10.1933    231.7128     38.9026   8.4581933862e+00   2.3696049502e+01    0.3712015     0.134121 -40.33  0.001638207    2.415    0.586
       224  -9.5560    100.0233     42.0959   3.1765731660e+01   5.4008444552e+01    0.2511733    0.1752193 -62.48   0.00123048    2.057    0.514
       225  -9.7223    220.2570     39.0574   9.6479455074e+00   2.6170049492e+01    0.2134855    0.1633116  87.91 0.0004613129    1.178    0.151
       226  -9.0715    188.6740     38.5259   1.3249130032e+01   3.3529566588e+01    0.2263575    0.1197195 -37.21  0.001068202    1.934    0.483
       227  -9.3233    194.9923     37.6755   1.2226900599e+01   3.2145236162e+01    0.1831997    0.1468423  80.90  0.000296725    1.127    0.113
       228 -11.0557     61.2649     35.9783   4.2227375261e+01   6.2249786600e+01    0.5230238    0.3084099 -10.12  0.001603585    2.302    0.566
       229 -10.2123     67.5381     32.5172   3.8526369932e+01   6.1678722121e+01    0.4302126    0.2700108  51.17  0.002305325    1.776    0.437
       230 -11.3844     57.3513     30.6009   4.1572708419e+01   6.3657894235e+01    0.3756039     0.279669  -9.22   0.00147399    1.317    0.241
       231 -11.6111     48.9972     30.4510   4.4883088864e+01   6.4966769654e+01    0.7239984    0.2623987  34.72  0.003139945    2.745    0.636
       232 -11.3255    175.4651     33.4685   1.3758543759e+01   3.7365320245e+01    0.5590023     0.429018 -58.83  0.001383183    1.277    0.217
       233  -8.9325     94.3974     36.1331   3.1228461031e+01   5.6015810458e+01     0.173714    0.1222646 -44.24 0.0007383112    1.636    0.389
       234 -11.5198    105.9820     33.0410   2.6959723632e+01   5.3930834892e+01    0.4122564    0.2599608  33.37  0.001315896    1.705    0.414
       235  -8.7959    189.6914    229.7047   5.5392582318e+01  -1.9101496407e+00    0.1300609    0.0924319   2.61 0.0004495413    1.589    0.371
       236  -8.8671    181.3164    228.3072   5.6845832368e+01  -3.4433472755e-01    0.1328392     0.095331   2.17 0.0005806498    1.630    0.386
       237  -9.6067     68.4835    225.4901   8.0717558628e+01   1.8302116620e+01    0.1304927    0.1102587  66.81 7.189742e-05    1.038    0.037
       238 -10.0898    240.3141     32.3862   6.3253300216e+00   2.2752687096e+01    0.2685928    0.1941462  59.36  0.001666684    1.673    0.402
       239  -8.7649    152.7067    219.3337   6.1392623091e+01   6.0514657550e+00    0.1352622    0.1048024  70.85 0.0003986486    1.638    0.389
       240  -9.7210    169.0150     23.6743   1.2061370452e+01   4.0114812841e+01    0.3560367    0.1422661  61.31  0.001531716    2.149    0.535
       241  -9.4845    139.9086     32.6112   1.9326776760e+01   4.6107195589e+01    0.3654093    0.1438749  59.14  0.001225661    2.200    0.545
       242 -10.1964     56.7917     41.8666   4.6252147408e+01   6.2057613750e+01    0.2715794    0.2031485  46.43  0.001001836    1.570    0.363
       243 -11.0305    189.1652     27.7354   1.0512677254e+01   3.4797829372e+01    0.3874607    0.3558054  26.83  0.001900671    1.471    0.320
       244 -11.0977    182.7224     25.7202   1.0800716901e+01   3.6576372835e+01    0.3708171    0.2919648 -89.53  0.001561769    1.107    0.096
       245  -9.6322    187.4836     22.9714   9.5401331058e+00   3.5769489360e+01    0.2091736    0.1908743  52.60 0.0005425533    1.337    0.252
       246 -11.9224    126.1483     28.2359   2.0667414520e+01   4.9908253195e+01     0.496125    0.3695734  76.68  0.002261108    1.381    0.276
       247 -10.7151     32.4472     30.3926   5.2177086874e+01   6.7177326015e+01    0.3796913    0.1995814 -49.30 0.0006285772    2.253    0.556
       248  -9.7176    196.8567     29.1483   9.9492548177e+00   3.2810098125e+01    0.2355669    0.1691456  76.63 0.0006317291    1.250    0.200
       249 -10.6000    201.0037     25.6359   8.6579395558e+00   3.2279187682e+01    0.3809545    0.2765198  -7.04  0.002050698    2.270    0.559
       250 -10.1412    230.8399     27.2377   6.0981148021e+00   2.5414884231e+01    0.3381357     0.183609 -86.19  0.001774678    1.835    0.455
       251 -10.0228      9.6409    218.2033   9.2374315486e+01   2.6982469510e+01    0.1638608   0.08906628 -72.37 0.0007352344    1.688    0.407
       252 -11.2782    145.2426     26.0986   1.6396783253e+01   4.5597269982e+01    0.7603604    0.3456319  81.18  0.002785401    3.231    0.691
       253 -10.5172    147.5599     22.2444   1.4866760495e+01   4.5472002145e+01    0.4625373    0.2227246  58.62  0.001644755    1.784    0.440
       254 -10.4271    127.0386     16.7559   1.6762318794e+01   5.0949836167e+01    0.2611182    0.1861226  45.45  0.000566176    1.347    0.257
       255  -8.7727     44.5330    215.4829   8.4933239925e+01   2.3689428475e+01    0.1282427    0.1056985  75.03 0.0003047573    1.037    0.036
       256  -9.3530    164.5116    211.9461   5.7635273091e+01   5.4379102697e+00    0.1919017    0.1377034 -48.17 0.0004925886    1.510    0.338
       257  -9.0863    206.5999     25.8155   8.1069978536e+00   3.0968466314e+01    0.1726858    0.1017846 -51.45 0.0003507676    1.553    0.356
       258  -9.7588     98.1973     26.1872   2.6520598550e+01   5.6457301670e+01    0.2569701    0.1725228  63.67  0.000762202    1.561    0.359
       259 -10.0053    154.8750     24.1687   1.4260947370e+01   4.3485421901e+01    0.4319192    0.2210641  84.98  0.001829173    2.412    0.585
       260  -9.0741    155.6490     20.7074   1.3159422412e+01   4.3684590343e+01    0.2625176    0.1710945  50.49  0.001329266    1.537    0.350
       261  -9.4433     90.7783     23.2071   2.7426506389e+01   5.8368237227e+01    0.2256455    0.2036226  40.99  0.001463482    1.065    0.061
       262  -9.7991     59.8895     22.8978   3.7380465028e+01   6.4261728038e+01    0.2524744    0.1628764 -32.98  0.001003682    1.633    0.388
       263  -9.2527    223.6964     22.1421   5.6608378774e+00   2.7594367160e+01    0.2114818    0.1382904 -86.34 0.0005790982    1.345    0.256
       264 -10.8078    178.8728     20.7666   1.0021766384e+01   3.8075914556e+01    0.4491709    0.2363872  45.60  0.002082531    2.390    0.582
       265  -9.1933     61.3189    206.5719   8.0322427272e+01   2.3524990423e+01    0.1650435    0.1272642  31.07 0.0009318845    1.491    0.329
       266  -9.6440      5.0176     21.9440   6.2704709443e+01   7.1142334560e+01    0.1490876    0.1333329   2.32  0.001041009    1.346    0.257
       267 -10.8464    247.2241     19.7390   3.2776630417e+00   2.2938747973e+01    0.2468874    0.1688405 -56.16  0.001613468    1.195    0.163
       268  -9.6875     78.6172    204.0718   7.6025350589e+01   2.1619784951e+01    0.2881816    0.1774005  63.64 0.0009131412    1.667    0.400
       269 -11.1796      5.1450    201.0883   9.2238834151e+01   3.1197896805e+01    0.7271413   0.08548711 -66.54  0.002396591    4.991    0.800
       270  -9.7430     74.6946     19.6665   3.0859270351e+01   6.1977847262e+01    0.2319656    0.1642906  15.15 0.0007402119    1.468    0.319
       271  -9.4686     46.8708     20.2019   4.1390221836e+01   6.6683388274e+01    0.1699585    0.1554754  20.52 0.0009532305    1.283    0.221
       272  -9.7029    216.4910     20.3067   5.9160223065e+00   2.9404994358e+01    0.2388866    0.1601018 -64.95  0.000728074    1.285    0.222
       273  -8.8787     21.5471    200.5855   8.8688463490e+01   2.9711138404e+01    0.1271145   0.09772253  76.07 -5.119154e-05    1.045    0.043
       274 -12.2645      4.6478    184.1389   9.1204935013e+01   3.5133663934e+01    0.6650345    0.3904691 -89.05  0.003062931    1.395    0.283
       275  -9.6959    199.2426     17.3150   6.9060285661e+00   3.3671537096e+01    0.2045056    0.1686216  71.25 0.0005663247    1.239    0.193
       276  -9.4750     28.0234    175.9845   8.5003506332e+01   3.4874649448e+01    0.1978066    0.1423446 -48.78 0.0005731471    1.631    0.387
       277 -10.1110     16.0231    174.5409   8.7788230518e+01   3.6400888710e+01    0.2641775    0.1495665  84.99  0.001381815    1.623    0.384
       278  -9.2700     39.4757    173.5137   8.1878780982e+01   3.4230051688e+01    0.1369625    0.1140597  85.24 0.0008098556    1.029    0.028
       279 -11.4060    239.3974     16.3325   3.1948568182e+00   2.4953215306e+01    0.4087137    0.1787965  68.98  0.002135054    2.172    0.540
       280 -11.2883      9.4558    155.4677   8.7664473725e+01   4.1591137903e+01     0.430253    0.2887961  84.64  0.002219906    1.322    0.243
       281 -11.8753      9.1377    166.9378   8.8792950832e+01   3.8837695027e+01    0.6119029    0.3926131  26.37  0.003233343    1.883    0.469
       282  -9.7775    147.7856     16.2769   1.3079443362e+01   4.6053912459e+01    0.4020217    0.1287432  52.08  0.001546935    2.839    0.648
       283 -12.5738     12.7643    161.1256   8.7357966816e+01   3.9940854915e+01    0.8497376    0.4633116 -40.43  0.004174284    2.476    0.596
       284 -12.5297     22.8524    149.0023   8.3396191351e+01   4.2037549359e+01    0.6454644     0.324584 -41.91  0.002928509    2.496    0.599
       285 -10.9399     16.5993    147.8378   8.4973883811e+01   4.2875902932e+01    0.3100759    0.2362186  84.53  0.000316365    1.190    0.159
       286 -10.6328     18.8511    165.1461   8.6206354116e+01   3.8421089299e+01    0.3661389    0.2802163 -41.76  0.001969946    1.616    0.381
       287 -10.1364    205.0620    163.2732   3.9910096415e+01   7.5495980972e+00    0.2629909    0.2162203 -24.35 0.0006105733    1.218    0.179
       288 -10.5109     28.1385    161.5780   8.3436578372e+01   3.8406617967e+01    0.3910867    0.2390252 -64.21  0.001781149    1.449    0.310
       289  -9.2646    104.5047    155.0348   6.1628321427e+01   2.9229780674e+01    0.2408428    0.1483709 -57.69  0.001036322    1.601    0.375
       290 -10.4484      4.3044    153.5934   8.8819071979e+01   4.2442023019e+01    0.2426431    0.1790488  50.98 0.0009798702    1.422    0.297
       291 -11.3782     47.9480    146.9422   7.6058006174e+01   3.9906317628e+01    0.6181348     0.423364 -35.26  0.003085487    1.829    0.453
       292  -9.9792     61.3920    151.9554   7.3027044736e+01   3.6908887063e+01    0.2401076    0.2129601  26.79 0.0002317609    1.302    0.232
       293  -9.8691     30.3676    152.2818   8.1733473648e+01   4.0498204871e+01     0.254639    0.1719572   1.13  0.001298704    2.220    0.549
       294  -9.3401     65.7704     10.4534   2.9894863808e+01   6.4628249407e+01    0.2111813    0.1080777  52.54 0.0009548046    1.892    0.471
       295 -10.2437      3.0580    147.9323   8.8619068332e+01   4.3902203552e+01    0.2787814     0.152523 -81.34  0.001008458    1.514    0.339
       296 -10.5450      8.5613    148.2133   8.7184850951e+01   4.3429424486e+01    0.3183386    0.1609997 -58.54  0.001639017    1.746    0.427
       297 -11.6301      3.3954    142.2008   8.7973370919e+01   4.5267102766e+01    0.5903517    0.3587953  51.31  0.003091623    1.753    0.429
       298  -9.5676    104.1564    147.0860   6.0116276983e+01   3.1259413660e+01    0.2146504    0.2022743 -29.94 0.0002399464    1.180    0.152
       299 -10.7014     33.1539    144.3560   7.9914955023e+01   4.2202025447e+01    0.2883232    0.2459904  82.01 0.0008200064    1.119    0.106
       300 -10.3079     40.3159    138.3500   7.6957988149e+01   4.2954615216e+01    0.3362364    0.2412991 -67.63  0.001277507    1.219    0.180
       301 -11.2640     12.6036    136.0197   8.4730087796e+01   4.6106437869e+01     0.602276     0.351895 -63.35  0.003290737    1.419    0.295
       302 -10.5654     79.9546    138.3792   6.5213627476e+01   3.7604747241e+01     0.324423    0.2797839  71.85 0.0008180366    1.200    0.167
       303  -9.1588     32.0821    137.5250   7.9263874842e+01   4.4022822899e+01    0.2706446    0.2002581  36.94 0.0009474903    1.497    0.332
       304 -11.4716     23.1049    136.3839   8.1737381150e+01   4.5150811530e+01    0.6310307    0.3489907  40.89  0.002218703    1.953    0.488
       305 -10.6474     30.1832    132.9218   7.9156432666e+01   4.5359008523e+01    0.3486019    0.2476468 -44.80  0.001175483    1.462    0.316
       306  -9.5329     47.3935    133.8152   7.4104094046e+01   4.3290723708e+01    0.3720922    0.1146992 -61.99  0.001315868    2.746    0.636
       307  -9.3319     39.0630    133.4866   7.6569908646e+01   4.4313395920e+01     0.185969    0.1367247  30.75  0.000561643    1.534    0.348
       308  -8.9235    103.9035    131.0096   5.6686274820e+01   3.5258805529e+01    0.1794343    0.1730916  70.59 0.0004016156    1.041    0.039
       309  -9.2526     62.6306    131.1624   6.8981300816e+01   4.2005338763e+01    0.2168311    0.1173745 -51.46 0.0006392273    1.729    0.422
       310 -11.0608     10.1198    126.9791   8.4355943836e+01   4.8499831166e+01    0.5213223    0.2951725 -56.61  0.001950576    1.516    0.340
       311  -8.9979     26.5298    127.4871   7.9457144928e+01   4.7051157329e+01    0.1337674    0.1138673 -74.36 1.635041e-05    1.023    0.023
       312 -10.1282     22.7184    126.9352   8.0542615966e+01   4.7523914809e+01    0.1973797    0.1828161  59.77 0.0003311997    1.203    0.169
       313  -9.5282     33.0444    126.0076   7.7215549758e+01   4.6801463178e+01    0.2200193    0.1491659  74.95  0.001127708    1.715    0.417
       314  -9.7812      2.0472    125.7520   8.6602881138e+01   4.9332517491e+01     0.268611      0.17013  83.14   0.00152145    1.570    0.363
       315 -10.9447    104.5743    122.3361   5.4455881567e+01   3.7225272662e+01    0.3848694    0.3429877  52.27  0.001005029    1.143    0.125
       316 -10.0968     56.9180    122.2935   6.9018492973e+01   4.4990800598e+01    0.4226048    0.2058356  47.30  0.001741204    2.373    0.579
       317  -9.6132     50.0201    122.7023   7.1288846146e+01   4.5758886648e+01    0.2799155     0.193158 -28.67  0.001377554    1.788    0.441
