#   1 NUMBER                 Running object number                                     
#   2 MAG_AUTO               Kron-like elliptical aperture magnitude                    [mag]
#   3 X_IMAGE                Object position along x                                    [pixel]
#   4 Y_IMAGE                Object position along y                                    [pixel]
#   5 X_WORLD                Barycenter position along world x axis                     [deg]
#   6 Y_WORLD                Barycenter position along world y axis                     [deg]
#   7 A_WORLD                Profile RMS along major axis (world units)                 [deg]
#   8 B_WORLD                Profile RMS along minor axis (world units)                 [deg]
#   9 THETA_WORLD            Position angle (CCW/world-x)                               [deg]
#  10 FWHM_WORLD             FWHM assuming a gaussian core                              [deg]
#  11 ELONGATION             A_IMAGE/B_IMAGE                                           
#  12 ELLIPTICITY            1 - B_IMAGE/A_IMAGE                                       
         1 -11.9051    198.3550     27.6177   5.7222591391e+01   3.2058290804e+01     1.593934    0.8687867   7.44  0.005774198    2.973    0.664
         2 -12.0549    205.0343     22.4277   5.4778567845e+01   3.0901030192e+01     1.316236     1.064684   0.55  0.006869589    1.377    0.274
         3 -11.1577    211.5621     15.7768   5.2030569156e+01   2.9922838501e+01    0.6493216    0.4999175  13.42  0.001274163    1.534    0.348
         4 -10.3264    226.0811      2.2878   4.6768486005e+01   2.7554559141e+01     0.596224     0.302215  78.35  0.002601092    2.028    0.507
         5  -8.5820      7.8158      1.7903   1.0302364033e+02   7.4351558476e+01    0.2012918   0.08299211 -28.82  0.000957337    2.876    0.652
         6 -10.1108    127.0508    230.6159   1.1502641843e+02   1.3981066499e+01    0.2593887    0.1553171  44.48  0.001731631    1.312    0.238
         7 -10.4025     39.0560    246.4562   1.3009381730e+02   2.2966699341e+01    0.4374826    0.2131061  54.28  0.001766505    1.388    0.280
         8 -10.1121     32.5938    247.3907   1.3108281977e+02   2.3516905043e+01    0.4465067    0.1666297 -77.52  0.002971181    2.690    0.628
         9  -9.4750     29.1691    248.8005   1.3163772548e+02   2.3667329708e+01    0.2249653    0.1484624 -74.91  0.001632724    1.793    0.442
        10 -12.6501      1.9359     25.6047   1.1530533489e+02   7.0154974468e+01     11.21449    0.3263103 -64.54    0.0140465   34.695    0.971
        11 -13.4526     12.9046    159.8735   1.2994735905e+02   4.0622896258e+01     4.174164     1.266263  82.08   0.01613539    4.528    0.779
        12 -13.0319      7.9275    208.5377   1.3327214820e+02   3.2101011758e+01     1.715598    0.7625617 -86.38   0.01176566    1.881    0.468
        13  -8.9817     46.8600    234.4937   1.2831610982e+02   2.3904808766e+01    0.3720223    0.1101034  61.45  0.001855128    3.234    0.691
        14  -9.9897     83.8750    224.2025   1.2164816663e+02   2.0986002919e+01    0.2906508    0.1551893  50.38  0.001918282    1.419    0.295
        15 -10.0582     74.3185    219.6813   1.2289896789e+02   2.2943579058e+01     0.313047    0.1406672  53.40  0.001899948    1.717    0.418
        16  -9.8012     71.3254    218.6608   1.2332688921e+02   2.3488969665e+01    0.3309146    0.1424051  64.46  0.001820936    2.328    0.570
        17  -9.0152     31.7662    233.0847   1.3057548947e+02   2.5761746521e+01    0.2794903   0.07849894  63.36  0.001400337    3.327    0.699
        18 -13.1184      2.3564    176.3233   1.3285598403e+02   3.8340354586e+01     4.476212          nan -76.98   0.01194916   10.852    0.908
        19  -9.9635     63.7667    189.4685   1.2229998744e+02   2.9484324865e+01    0.3003798    0.2414176 -44.37  0.002098766    1.947    0.487
        20 -10.0181     69.3176    182.6400   1.2060895062e+02   3.0043147340e+01    0.2423856    0.2249117 -63.27 0.0008097211    1.476    0.323
        21  -8.9641    114.2523    174.0084   1.1066822396e+02   2.5087039587e+01    0.2722694    0.1282201  60.86  0.001185029    2.613    0.617
        22  -9.4968     78.7417    171.4345   1.1755184302e+02   3.0921067312e+01    0.2187545    0.1937525 -78.27 0.0003055185    1.254    0.203
        23 -11.5451     65.9540    168.4830   1.1984752721e+02   3.3204379990e+01    0.4110492    0.2479062 -49.57  0.001514245    2.222    0.550
        24 -10.0296     99.3831    171.1666   1.1329914417e+02   2.7964018800e+01    0.4786675    0.1270729  45.37  0.001834462    3.240    0.691
        25 -11.1147     85.3494    163.6193   1.1523820845e+02   3.1521049926e+01    0.5045511    0.4133401  60.78  0.001320108    1.110    0.099
        26 -12.5342      3.6300    245.2295   1.3515080165e+02   2.6682113878e+01     1.207256    0.8885514  66.14   0.01105369    1.258    0.205
        27  -9.3899     99.0995    148.1757   1.1006172447e+02   3.2546358763e+01    0.3202691    0.1957179 -58.25  0.001704099    1.644    0.392
        28  -7.7114    134.4958    148.9872   1.0245908704e+02   2.6267941251e+01    0.1908067    0.1157623 -77.11 0.0008106164    2.608    0.617
        29 -11.2401     67.5098    143.8217   1.1659012770e+02   3.8057829747e+01    0.6879464    0.4049786  67.78  0.003431421    1.775    0.437
        30 -10.3246     87.4096    146.9157   1.1249371108e+02   3.4610963014e+01    0.2522268    0.2421806 -28.67 0.0007123164    1.398    0.285
        31  -8.7630     32.5841    141.2974   1.2428167367e+02   4.2616799558e+01    0.2293264   0.09476228 -78.96  0.001147484    2.151    0.535
        32 -10.3564     58.6639    133.7045   1.1731123550e+02   4.1357431654e+01    0.9142432    0.2621283 -74.04  0.002695525    5.732    0.826
        33  -8.3423    110.0317    134.4513   1.0522695962e+02   3.3558886843e+01    0.2534731    0.1822915 -40.96 0.0008849113    1.652    0.395
        34  -9.0914     97.2966    131.1696   1.0762499918e+02   3.6386142168e+01    0.2613439    0.2219344 -28.16 0.0008184168    1.581    0.367
        35  -7.9104    106.9905    121.9862   1.0353572102e+02   3.6706922651e+01    0.1941994    0.1672731 -18.04 0.0004088343    1.552    0.356
        36 -11.1989     37.6540    220.7023   1.2903302273e+02   2.7106776963e+01    0.3268566    0.3109511  -8.70 0.0009135869    1.990    0.497
        37  -8.7500    167.8555    112.5397   8.7495331148e+01   2.6317616342e+01    0.3453653    0.2585241  80.98  0.001513674    1.787    0.441
        38 -12.8986     46.9088    209.5835   1.2684132772e+02   2.7935940510e+01     1.365867       1.2783  44.04   0.01169433    1.625    0.384
        39  -9.0516    246.5769     97.2186   6.9871168643e+01   1.1149671525e+01    0.1987957    0.1241136 -14.44  0.000948157    1.643    0.391
        40  -8.7539     42.2839    230.4507   1.2881499993e+02   2.5041694214e+01    0.2035524    0.1081474  60.90  0.001315876    1.350    0.259
        41  -8.4128    121.5242    247.4704   1.1750494853e+02   1.2509598595e+01    0.1053495   0.07523732  52.83  9.38259e-05    1.013    0.013
        42  -9.2240     95.5563    237.8037   1.2082043403e+02   1.7394680040e+01    0.3007384    0.1679299  80.43  0.001870879    2.155    0.536
        43 -10.4051     94.4929    228.9691   1.2027283455e+02   1.8835858754e+01    0.4531506    0.2621099  88.41  0.002933142    2.071    0.517
        44  -8.5166     32.4718     26.5440   1.0130819034e+02   6.7614674975e+01    0.2657447   0.09822708 -50.97  0.001213738    2.182    0.542
        45  -9.6220    114.1779    229.8476   1.1708733618e+02   1.5959469929e+01    0.1733769    0.1168165  61.27 0.0009596524    1.255    0.203
        46  -7.6280    104.4487    238.4466   1.1944362260e+02   1.6098048287e+01    0.1055697   0.07681704  56.00 0.0001575625    1.009    0.009
