#   1 NUMBER                 Running object number                                     
#   2 MAG_AUTO               Kron-like elliptical aperture magnitude                    [mag]
#   3 X_IMAGE                Object position along x                                    [pixel]
#   4 Y_IMAGE                Object position along y                                    [pixel]
#   5 X_WORLD                Barycenter position along world x axis                     [deg]
#   6 Y_WORLD                Barycenter position along world y axis                     [deg]
#   7 A_WORLD                Profile RMS along major axis (world units)                 [deg]
#   8 B_WORLD                Profile RMS along minor axis (world units)                 [deg]
#   9 THETA_WORLD            Position angle (CCW/world-x)                               [deg]
#  10 FWHM_WORLD             FWHM assuming a gaussian core                              [deg]
#  11 ELONGATION             A_IMAGE/B_IMAGE                                           
#  12 ELLIPTICITY            1 - B_IMAGE/A_IMAGE                                       
         1 -11.4838     20.4612     97.0203   1.2930831166e+02   5.5098579121e+01     2.240296    0.7027588 -74.07  0.007472158    4.007    0.750
         2 -10.3799     10.4318     18.7233   1.1188476395e+02   7.1970249800e+01     1.321648    0.4882916 -18.87  0.004018592    7.117    0.859
         3 -11.0422     23.6471     32.5320   1.1039962424e+02   6.8478787483e+01     1.306622    0.4792748 -35.12  0.003808332    2.649    0.622
         4 -10.8418     21.7944     53.3763   1.1856569158e+02   6.4698244736e+01    0.8319972     0.514691 -89.78  0.002842266    3.715    0.731
         5 -10.3369      4.8143     41.5259   1.2324868875e+02   6.8215432826e+01    0.7244698     0.310752 -64.09  0.003592741    2.389    0.581
         6  -8.7623    128.8553     24.8888   6.9908642117e+01   4.9953825712e+01    0.5839296    0.3371775  -4.93  0.002092514    2.539    0.606
         7  -9.3545    131.5773     17.0694   6.6693345637e+01   5.0103568952e+01    0.4842291    0.2565317  71.75  0.001845604    1.860    0.462
         8  -9.7795     60.9119     31.4832   9.2660421890e+01   6.3703256004e+01    0.8309042    0.3812774 -25.68  0.002938003    2.523    0.604
         9 -10.2596     51.0875     15.0752   8.9208170322e+01   6.7521386112e+01      2.11228    0.9887694  -2.70  0.006673247    5.923    0.831
        10  -9.7650     63.9128      3.3521   7.8392122742e+01   6.6496539971e+01    0.4562453    0.3067518 -35.17  0.002084342    1.812    0.448
        11  -9.6634     62.9846     20.7532   8.7044360597e+01   6.4797751960e+01    0.5312859    0.2605261 -45.88  0.001482602    3.046    0.672
        12 -10.0653     64.5970     12.9352   8.2779549478e+01   6.5415852740e+01    0.4022915    0.3101927  -4.61  0.001863488    1.252    0.201
        13 -10.1922     46.3211     29.7605   9.8170808333e+01   6.6224492923e+01    0.5056403    0.3398887 -53.43  0.002529646    2.183    0.542
        14  -9.1428     78.2202      4.0700   7.4108936694e+01   6.3588092101e+01    0.4677836    0.2472718   2.95  0.001866401    2.450    0.592
        15  -9.3717     70.5723     29.1587   8.7912912938e+01   6.2328236615e+01    0.6764451    0.2582882 -36.16  0.002838768    2.705    0.630
        16  -8.1242     72.0561      8.4880   7.8077547760e+01   6.4439092319e+01    0.2398003    0.1659831 -17.25 0.0007688003    1.518    0.341
        17  -9.5528     73.6557     19.5907   8.2602845778e+01   6.2948062311e+01    0.4975771    0.2114872 -31.19  0.002166643    2.454    0.593
        18  -8.8217     73.8828     12.8195   7.9468892940e+01   6.3645874857e+01    0.4475917    0.2486793   1.06  0.002134085    2.362    0.577
        19  -9.7736     79.4302     23.9954   8.2570604191e+01   6.1284434271e+01    0.6602231    0.2677318  32.23  0.001939858    3.212    0.689
        20  -8.5961    120.3092     16.0699   6.8554577931e+01   5.2968158482e+01    0.3309385    0.2153644  18.02  0.001650934    1.936    0.483
        21  -8.1254    133.7698     12.1115   6.4622249193e+01   5.0035458944e+01    0.3206935    0.1553123 -44.96  0.001424441    2.414    0.586
        22  -9.2559     96.2231     14.9292   7.3750020857e+01   5.8708988504e+01    0.5785468    0.2505582 -13.84  0.002014358    3.155    0.683
        23 -10.6877     37.1681      9.5283   9.2789181972e+01   7.0318525387e+01     0.805639    0.3353547 -38.64  0.002719478    2.651    0.623
        24  -9.9296     29.1745     11.6178   9.7946604529e+01   7.1117162210e+01    0.8714624    0.2820584  35.82  0.003902416    3.031    0.670
        25  -9.6541      2.2014     14.1484   1.1483123839e+02   7.3316454554e+01    0.5680327    0.1990788 -56.86  0.002513243    3.660    0.727
        26  -9.3964     19.5375      8.9686   1.0189131915e+02   7.2598862935e+01    0.4150508       0.2622  -8.04  0.001810289    1.437    0.304
        27  -9.9352     18.1501      3.8144   9.9935837173e+01   7.3443663064e+01    0.4330534    0.3247875  37.86   0.00214704    1.843    0.457
        28  -9.9942      6.3094      5.4353   1.0808997903e+02   7.4363528199e+01    0.4232306    0.2691771 -18.56  0.001929738    1.258    0.205
        29  -9.3616      2.5500      3.4894   1.0952666605e+02   7.4948044558e+01    0.2849039    0.1492916 -33.47  0.001604263    1.522    0.343
        30  -8.8721    115.5045      4.3424   6.5242494435e+01   5.5169709724e+01     0.292907    0.2184549 -62.88  0.001145343    1.656    0.396
        31  -8.5551    121.1288      6.1802   6.4840953997e+01   5.3663770229e+01    0.3378732    0.1476857  65.13  0.001149421    1.955    0.488
        32  -9.1798    114.0995     10.0908   6.7654042058e+01   5.5020453186e+01    0.4618882     0.208796  43.22  0.001140796    2.091    0.522
        33  -9.0571    110.6213      6.6287   6.7080783718e+01   5.6145092673e+01    0.5153323      0.23342 -11.43  0.002224766    2.933    0.659
        34  -8.2208    108.7059      2.3343   6.5842672706e+01   5.6941233650e+01    0.1805016    0.1229581  82.12 0.0005022669    1.637    0.389
        35  -8.5247    125.0599     13.0271   6.6525623588e+01   5.2101029868e+01    0.2179099    0.2001803 -26.79 0.0008063847    1.247    0.198
        36  -8.9146    126.8464      9.1239   6.4829232494e+01   5.2016286312e+01    0.2626238    0.1696634  38.54  0.000445522    1.584    0.369
        37  -9.0386    125.9698      5.0069   6.3554690663e+01   5.2580403942e+01    0.3116831     0.215639  34.74 0.0009618991    1.525    0.344
        38  -8.6020    104.3629     14.6330   7.1576906630e+01   5.6887714662e+01    0.4156164    0.2303354   6.15  0.001840278    2.625    0.619
        39  -9.4676     85.1246     12.9639   7.6015622137e+01   6.1321976828e+01    0.3928591    0.2705663 -60.20  0.001742298    2.333    0.571
        40  -7.9482     80.7575     12.7891   7.7253271328e+01   6.2254935496e+01    0.2249386    0.1609911 -52.72  0.001230397    2.020    0.505
        41  -8.4705    141.6778     12.5488   6.3441679540e+01   4.8018516824e+01    0.2396535    0.1714198 -32.77 0.0007280021    1.569    0.363
        42  -8.6248    102.1026      8.1651   6.9561655826e+01   5.8002149541e+01    0.3255524     0.184536 -24.13  0.001096009    1.974    0.494
        43  -8.0790    103.9111      2.1848   6.6791281632e+01   5.8072653304e+01    0.2279361    0.1735631  29.52  0.000820526    1.300    0.231
        44  -8.7054    143.2409      5.3954   6.0914145537e+01   4.8268176935e+01    0.2201212    0.1438176 -55.08  0.000617692    1.732    0.423
        45  -8.9371    131.8469      5.4395   6.2704795738e+01   5.1098846571e+01    0.3506978    0.1860712  45.22  0.001700964    1.814    0.449
        46  -8.6536     97.6856      5.7111   6.9619268195e+01   5.9218589525e+01    0.3010549     0.147079  50.17  0.001067899    1.666    0.400
        47  -8.7969     95.7043      3.2992   6.9105522284e+01   5.9862034297e+01    0.2544937    0.1936409   8.06 0.0005223143    1.422    0.297
        48  -7.9717     85.0149      6.0338   7.3031694325e+01   6.1986874987e+01    0.2163932    0.1240977  31.89 0.0005854861    1.687    0.407
        49  -8.4050     89.0069      2.7997   7.0560571069e+01   6.1390017334e+01    0.1999325    0.1523277 -37.34 0.0006614077    1.595    0.373
        50  -8.2471    135.4615      1.5302   6.0831806847e+01   5.0520651526e+01    0.3348693    0.1019964  65.69   0.00128991    2.563    0.610
        51  -9.1741    152.4995    116.2450   9.2433214292e+01   2.8585199982e+01    0.3495983    0.2647896 -16.92  0.001538412    1.686    0.407
        52 -10.9516    187.4368    248.0937   1.1089687080e+02  -3.3204330374e+00    0.5302416    0.2848782  31.66   0.00288116    1.544    0.352
        53 -10.6860    201.5721    248.3903   1.0823532602e+02  -5.4728663535e+00    0.4597271     0.298114  35.86  0.002811935    1.356    0.263
        54 -10.0129    195.4459    248.3125   1.0938842605e+02  -4.5562461434e+00    0.4247324    0.2597216   8.73  0.002316256    1.906    0.475
        55 -10.0724     91.9649    113.2915   1.0851626453e+02   4.2027198742e+01    0.6387087    0.4660602 -82.99  0.001888883    1.811    0.448
        56  -8.4714      1.3845    116.2344   1.3839935959e+02   5.1732454095e+01    0.2935799    0.1010331 -77.32 0.0009690173    2.506    0.601
        57 -10.2941     78.1966    113.0191   1.1282276135e+02   4.4440063202e+01    0.5873147    0.3772566 -84.45  0.001800471    2.372    0.578
        58  -7.9301     77.5215    105.9755   1.1132450775e+02   4.6237599586e+01    0.2504221    0.1716259 -26.53  0.001127047    1.807    0.447
        59  -7.5827    167.4858    114.5208   8.8497978466e+01   2.5458934317e+01    0.1576476    0.1510114 -80.90 0.0008093365    1.064    0.060
        60  -9.0729    159.0774    112.0128   8.9763670649e+01   2.7943808636e+01    0.3423862    0.2496635 -61.39 0.0009641713    1.569    0.362
        61 -10.1097     67.3968    103.6651   1.1415292973e+02   4.8346919320e+01    0.8921871    0.4268497  19.27  0.003191921    3.247    0.692
        62  -9.4083     59.7980    109.7629   1.1814802249e+02   4.7941145260e+01    0.5549166    0.3444826 -75.79  0.001539938    1.933    0.483
        63  -8.7815    248.9773    112.3428   7.3444589230e+01   8.1991638325e+00    0.1757839    0.1605712 -35.66  0.000513831    1.068    0.064
        64  -9.9331    128.2917    101.0369   9.4531528457e+01   3.7390543274e+01    0.9667908    0.5341465 -25.41  0.002427217    2.848    0.649
        65  -9.3067     36.0921    111.3497   1.2646581378e+02   5.0295763504e+01    0.2896757    0.1895027  74.66  0.001189848    1.950    0.487
        66  -9.6256     29.9471    110.9869   1.2846244124e+02   5.0960588180e+01    0.4300656    0.1718665 -37.81  0.001603304    3.369    0.703
        67  -9.9612    149.5687    103.2686   8.9679079538e+01   3.1993260509e+01    0.5749958    0.3186488 -55.73 0.0009562651    2.174    0.540
        68  -8.5315    150.0223     96.8745   8.7798185625e+01   3.3186391278e+01    0.5306867    0.2769432  30.21  0.001711358    3.177    0.685
        69  -9.1623     40.3343    107.0975   1.2422247691e+02   5.0903715300e+01    0.3505966    0.2096864 -86.54  0.001040776    2.166    0.538
        70 -10.9505     44.2625    102.0424   1.2182028801e+02   5.1705046784e+01    0.9169346    0.5409743  68.04  0.002867879    2.731    0.634
        71 -10.6561     32.8310     64.0424   1.1680292700e+02   6.1507309174e+01     1.367338    0.6172677 -23.63  0.005199697    3.547    0.718
        72  -9.4277    160.2106    249.3658   1.1643665416e+02   7.0858736788e-01    0.3477986   0.07918221  44.41  0.001104921    4.359    0.771
        73  -8.3265    217.5154    248.4781   1.0527872115e+02  -7.7697702799e+00    0.1208602   0.09242684  13.70 0.0004568595    1.015    0.015
        74 -10.5409     25.7630     78.1390   1.2343551705e+02   5.9062435416e+01    0.6859414    0.4538725  71.26    0.0019583    2.334    0.571
        75  -8.1418    168.3277    247.3214   1.1453671720e+02  -2.5290138365e-01     0.127246   0.08778583   9.32 0.0007048164    1.688    0.408
        76 -10.1749     15.9774     70.5030   1.2567263660e+02   6.1496679443e+01    0.5871962    0.2449219 -60.54   0.00127251    1.968    0.492
        77 -10.1976     17.0309     61.0122   1.2288462578e+02   6.3476052510e+01    0.7412286    0.5190232 -38.76  0.004617513    1.198    0.165
        78 -10.1423    140.8778    118.6776   9.5962609125e+01   3.0709849042e+01    0.5047813    0.3664147 -86.41  0.001330827    2.000    0.500
        79 -10.3534     12.0286     45.7464   1.2091428532e+02   6.6947050533e+01    0.8883582    0.3812473   2.61  0.003697277    3.052    0.672
        80 -10.1314     34.5791     90.7819   1.2289164443e+02   5.5373529455e+01    0.5590442    0.2898983 -79.35   0.00194913    2.748    0.636
        81 -10.2603     36.9518     81.1776   1.1972903205e+02   5.7352358223e+01     1.054527    0.4928072 -15.55  0.003432868    4.936    0.797
        82 -11.9654    238.5983    245.4137   1.0101096899e+02  -1.0239722526e+01     0.234323    0.1964924   8.13 0.0009034048    1.238    0.192
        83  -9.6017      6.8839     32.5140   1.1927161774e+02   6.9811730557e+01    0.2961372    0.1951864  -8.08 0.0006331793    1.467    0.318
        84 -10.1382      7.2082     28.3223   1.1759301379e+02   7.0554614222e+01    0.3611075    0.2545295  33.77  0.001132521    1.859    0.462
        85 -10.0084      6.1880    103.5864   1.3529134353e+02   5.4471787128e+01    0.4689692    0.2824476  74.59  0.001703429    1.962    0.490
        86  -8.4416      1.6007    105.2295   1.3702717478e+02   5.4331728877e+01    0.2534637    0.1200911 -66.63  0.001273022    1.621    0.383
        87  -8.9070    166.0010    104.1500   8.6108734524e+01   2.7902267508e+01    0.3266218    0.2269211 -42.87 0.0005855829    1.433    0.302
        88  -8.7424     93.0180    103.7279   1.0571088458e+02   4.4080084770e+01    0.5785626    0.3102292  17.54  0.001841773    3.723    0.731
        89  -8.7361     14.2499    105.0072   1.3278305300e+02   5.3633990120e+01    0.2252848    0.1481707 -38.13 0.0006620496    1.577    0.366
        90 -10.0386     65.8484    110.8810   1.1637440274e+02   4.6833061568e+01    0.4895783    0.3492485  71.34  0.001137952    1.844    0.458
        91  -8.6151    159.0820    101.0512   8.6830096429e+01   3.0176957635e+01    0.2858877    0.2314314 -73.26 0.0004802497    1.429    0.300
        92  -9.4458     81.4084    100.2127   1.0854586581e+02   4.6948786147e+01    0.3641472    0.2695986 -76.77  0.001163122    1.716    0.417
        93  -7.9785     82.0432     94.6892   1.0683080854e+02   4.8108123062e+01    0.4531558    0.2538067 -14.65  0.001328556    4.738    0.789
        94  -9.4326     94.3905     97.2955   1.0350844403e+02   4.5290373415e+01    0.3436504    0.2929924 -63.95 0.0006401867    1.260    0.206
        95  -8.8671     96.0371     91.0717   1.0119390374e+02   4.6353788541e+01    0.4997624    0.3264615 -12.07  0.001964088    2.479    0.597
        96  -7.7138     63.5132     82.0074   1.0977441839e+02   5.3893044330e+01    0.2973862    0.1904046  84.78 0.0006275938    3.724    0.731
        97 -10.3670     62.8578     95.7223   1.1374587720e+02   5.0873130501e+01    0.5685384    0.3731667 -84.61  0.001576071    2.362    0.577
        98  -9.0129     64.6933     86.3262   1.1057073885e+02   5.2760802921e+01    0.6343381    0.3663084  -9.82  0.002318559    3.358    0.702
        99 -10.0876    240.5438     94.3917   7.0652432329e+01   1.2774419692e+01    0.5372373    0.3069649 -78.87  0.002122537    3.247    0.692
       100  -8.8759    164.4739     94.4795   8.3826899618e+01   3.0164197983e+01    0.3340756    0.2449138 -55.95 0.0008697496    1.456    0.313
       101  -9.6876    138.6180     92.3998   8.9341574448e+01   3.6801442827e+01    0.5058755    0.4301215 -60.45  0.001354283    1.255    0.203
       102  -8.2587    139.5142     87.5403   8.7697412632e+01   3.7554593227e+01    0.3088062    0.1987115  44.85  0.001241641    1.546    0.353
       103 -10.4305      4.2878     89.6091   1.3390415576e+02   5.7849884409e+01      0.77073    0.3590082 -88.75  0.003442526    2.738    0.635
       104  -9.7532      5.6782     79.3534   1.3165389010e+02   6.0127208716e+01    0.5870536    0.2140429 -35.71  0.002541636    2.945    0.660
       105  -8.8796    157.7104     90.7778   8.4297734912e+01   3.2523844161e+01    0.3675458    0.1864623 -39.73  0.001342195    1.992    0.498
       106  -9.4805    111.1957     89.9134   9.6169083679e+01   4.3512421259e+01     0.759869    0.3452444  31.68  0.002447001    3.174    0.685
       107  -8.9630    150.2693     89.4116   8.5624486729e+01   3.4598898237e+01    0.3017951    0.2627483 -49.80 0.0007589868    1.166    0.142
       108 -10.5562     48.1382     83.6810   1.1603594424e+02   5.5556899961e+01     1.093137    0.4100626 -53.99  0.003084333    2.328    0.570
       109 -10.1913     85.2818     86.6034   1.0341070045e+02   4.9335506230e+01    0.4857868    0.3765912  86.22 0.0008419759    1.872    0.466
       110  -9.4773     87.4382     78.6470   1.0024276867e+02   5.0628785279e+01    0.6379601    0.4065673  12.82  0.001841018    2.320    0.569
       111  -8.4377    163.4723     87.4734   8.2101076227e+01   3.1737479926e+01    0.2544463    0.1525556 -39.51 0.0007009768    1.682    0.406
       112  -9.3669    241.3631     84.8197   6.8408459144e+01   1.4138538380e+01    0.1876023    0.1610267 -71.60 0.0005738462    1.145    0.127
       113  -9.7052    229.3598     83.2175   6.9626285052e+01   1.6928684814e+01    0.2529301    0.2383588 -37.69 0.0002660461    1.148    0.129
       114  -9.5465    233.9829     79.4515   6.8145463501e+01   1.6534295203e+01    0.2820298    0.2234458  18.28 0.0008685729    1.841    0.457
       115  -9.6404    104.9718     71.1270   9.2150059291e+01   4.8604260663e+01    0.9053448    0.5034277 -30.78  0.002836094    2.052    0.513
       116  -8.4826    156.4576     70.6837   7.8771693615e+01   3.6490621551e+01    0.2968793    0.2248912 -29.69 0.0008469195    1.441    0.306
       117  -8.6721    157.5107     83.5076   8.2277362329e+01   3.3943417237e+01    0.3453321     0.213651 -49.98 0.0005551729    1.711    0.416
       118  -9.2901    157.1535     77.1861   8.0529200523e+01   3.5180420816e+01    0.6744689    0.2317504 -42.28  0.001962029    2.915    0.657
       119  -9.2232    140.6625     82.3633   8.5877359126e+01   3.8278010997e+01    0.6092386    0.2740596 -39.42  0.001402519    2.275    0.560
       120  -9.1154    140.0880     75.7008   8.4006865517e+01   3.9656874271e+01    0.4587347    0.2516176 -31.49   0.00179599    2.059    0.514
       121  -8.2393    170.4016     83.2098   7.9466078055e+01   3.0809844047e+01    0.2253295    0.1366705 -49.87 0.0009436384    1.718    0.418
       122  -9.0179    149.9291     80.4672   8.3105408685e+01   3.6373460797e+01    0.3956344    0.2132437 -41.36  0.001379034    1.881    0.468
       123  -8.9502    118.9982     80.5037   9.1033553145e+01   4.3712364312e+01    0.4050793    0.2560078 -52.48  0.000648598    1.776    0.437
       124  -8.3577    119.5066     76.4633   8.9622740718e+01   4.4378337408e+01    0.3537002    0.2190735  21.08  0.001222577    2.500    0.600
       125  -9.0513     74.0943     80.0485   1.0533075386e+02   5.2675663355e+01    0.3815746    0.2325916 -58.74 0.0008215915    1.895    0.472
       126 -10.3202    104.0452     82.8271   9.6180212213e+01   4.6491135315e+01    0.5308606    0.3365707 -57.93 0.0009244806    1.922    0.480
       127  -8.4545     68.4030     79.4246   1.0720706580e+02   5.3719392514e+01    0.3479206    0.1753133 -58.03  0.001409804    2.310    0.567
       128  -8.9959    166.2901     78.6666   7.9029723784e+01   3.2641888588e+01    0.2533457    0.2192329 -35.97 0.0008809647    1.203    0.169
       129  -7.8841    184.3217     78.0135   7.5388443079e+01   2.8285099352e+01    0.2124548    0.1857264 -47.99 0.0004668875    1.127    0.112
       130  -8.6016    130.5448     64.2862   8.2784212657e+01   4.3983407820e+01    0.5200129    0.2055699 -39.02  0.001701698    2.593    0.614
       131  -9.4784    127.3041     75.1401   8.7080427015e+01   4.2822383767e+01    0.4365157    0.3208827 -70.87 0.0008179505    1.817    0.450
       132  -9.0285    129.1215     69.2562   8.4741999347e+01   4.3461133000e+01     0.602178    0.2657596  35.27  0.001897773    3.372    0.703
       133  -8.9589    173.3442     91.2660   8.1077398180e+01   2.8610596396e+01    0.4150437    0.2735394 -22.90 0.0009934002    1.917    0.478
       134  -9.3276    162.8905     72.4049   7.7934503757e+01   3.4582731787e+01    0.5064822    0.2104504 -38.68  0.001408049    2.409    0.585
       135  -9.2944    115.2555     72.1744   8.9451971265e+01   4.6149610875e+01    0.5092868    0.3185899 -37.87  0.001638759    1.646    0.392
       136  -9.8455     81.5307     72.3089   1.0024097399e+02   5.3002531554e+01    0.4139286     0.316784 -67.08  0.001033522    1.717    0.418
       137  -9.0887     83.0948     64.8493   9.7186699245e+01   5.4173941499e+01    0.5434593    0.3392405 -12.89  0.002139812    2.365    0.577
       138 -10.6035     54.8669     70.8674   1.0975219704e+02   5.7506270223e+01    0.7192799    0.5189722  75.69  0.001161147    2.443    0.591
       139  -9.3211     55.5367     63.2335   1.0703809468e+02   5.8983021757e+01    0.5583277    0.3197257  27.22  0.002452764    1.849    0.459
       140  -8.2805    238.4827     73.4857   6.6230020033e+01   1.6504565656e+01    0.1353297    0.1168034 -57.73 0.0002325504    1.005    0.005
       141  -8.3144    169.4469     71.2695   7.6305164029e+01   3.3130438771e+01    0.2699383    0.1521043 -31.41 0.0007273529    1.951    0.488
       142  -9.3028    147.0075     69.1970   8.0398092383e+01   3.9105305652e+01    0.4344783    0.2723153 -60.38 0.0008587624    2.043    0.511
       143  -8.2166    147.4788     63.9931   7.8700107842e+01   3.9864806993e+01     0.293771     0.189765  26.29  0.000987071    2.196    0.545
       144  -9.8161     94.8909     68.1603   9.4338208460e+01   5.1260650977e+01    0.4519982    0.2687388 -48.77 0.0008060057    1.838    0.456
       145  -9.4963     97.3306     58.4053   9.0178810447e+01   5.2527503024e+01    0.7245093    0.4991592 -17.71  0.003439676    1.714    0.417
       146  -8.8679    138.0723     66.2834   8.1575167402e+01   4.1811556891e+01    0.3740092    0.2278449 -49.82 0.0006413416    1.826    0.452
       147  -8.7373    138.3236     62.3213   8.0263862140e+01   4.2415082889e+01    0.3039181    0.2179494  35.53  0.001417917    1.526    0.345
       148  -9.1618    121.0861     65.8419   8.5759547387e+01   4.5959268873e+01    0.4149973    0.3019477 -64.08  0.001050938    1.775    0.437
       149  -8.4257    122.3213     61.3372   8.3938978847e+01   4.6444104264e+01    0.3021075    0.2263183  24.49  0.001017391    1.543    0.352
       150 -10.0446     61.9559     60.7522   1.0363262889e+02   5.8536525102e+01    0.6819559    0.2839465  33.14 0.0007299941    2.519    0.603
       151  -8.3799    170.5212     65.8473   7.4561219887e+01   3.3756848036e+01    0.2260278    0.1478914 -36.16  0.001028025    1.579    0.367
       152  -9.4759    109.8103     63.9507   8.8302120849e+01   4.8861965043e+01    0.3534366    0.2959768 -64.60  0.000704388    1.437    0.304
       153  -9.1359    110.8274     58.1979   8.6038968489e+01   4.9624500759e+01    0.4236672    0.2446625  33.83  0.001145592    1.957    0.489
       154  -8.3875    157.7584     63.2331   7.6291151394e+01   3.7403970152e+01    0.2534809    0.1900621 -49.63 0.0006356978    1.383    0.277
       155  -7.8330    152.6140     60.7279   7.6598365288e+01   3.9105410881e+01    0.2093968    0.1354419 -47.32 0.0004032275    1.630    0.387
       156  -8.8849     79.7493     47.1060   9.1898932297e+01   5.7931900089e+01    0.4438551    0.2879162  -0.55  0.001642782    2.098    0.523
       157 -10.0708     72.9946     58.9911   9.8776549469e+01   5.7080292379e+01    0.5564989    0.2779082 -50.56 0.0009575757    2.323    0.569
       158  -8.6636     74.7751     50.8175   9.5114742348e+01   5.8227988917e+01    0.3569206     0.227394  -7.12  0.001542513    2.144    0.534
       159  -8.9225    164.9387     59.3723   7.3746171994e+01   3.6199134157e+01     0.389328    0.2147355 -26.42  0.001593889    2.180    0.541
       160  -9.5341    144.2887     36.5859   7.0728389699e+01   4.4692454909e+01    0.7340819    0.3277811 -55.05 0.0005970226    3.441    0.709
       161  -9.4196    138.9595     56.1416   7.8145272772e+01   4.3251550600e+01    0.5909419    0.2267368 -36.82  0.001689855    2.673    0.626
       162  -8.9654    139.4872     39.9724   7.2787851438e+01   4.5460777243e+01    0.4292986     0.255244 -36.59  0.001375495    1.788    0.441
       163  -9.7779    149.9085     48.1221   7.3270918222e+01   4.1702593765e+01    0.4743471    0.2015017 -33.32   0.00165322    2.482    0.597
       164  -8.4692    143.0103     44.4876   7.3521839614e+01   4.3960127940e+01    0.5193577     0.155935  49.59  0.001686156    3.097    0.677
       165  -8.4871    146.5248     58.9914   7.7362309653e+01   4.0913788801e+01    0.2937273    0.2056405 -41.93 0.0008037742    1.487    0.327
       166  -8.9466    147.4746     53.2437   7.5366884743e+01   4.1564519559e+01    0.4240994    0.2574625 -12.55  0.001372773    2.481    0.597
       167  -7.3517     17.0000    245.0406   1.4417529115e+02   2.1628221279e+01    0.1589515   0.05347412 -79.16 0.0004802136    2.810    0.644
       168  -8.8406      2.6198    237.4785   1.4639695871e+02   2.4527070306e+01    0.1878529    0.1521431  85.86 0.0001748239    1.276    0.216
       169  -8.9842    129.9211     57.7549   8.0811074038e+01   4.5215444535e+01    0.6765036    0.2539536 -32.23  0.002121057    2.994    0.666
       170  -9.6017    132.9516     36.0119   7.2848000501e+01   4.7609569984e+01    0.7092212    0.3206905 -20.16  0.002431645    3.044    0.671
       171 -10.6690    134.0662     30.9275   7.0902325258e+01   4.7962238543e+01     0.349113    0.2857801  14.67            0    1.429    0.300
       172  -8.6018    128.5264     51.4931   7.9072848838e+01   4.6533918047e+01    0.2836673    0.2393357  52.07 0.0005652498    1.107    0.097
       173  -9.4570    130.2628     48.0195   7.7493620415e+01   4.6627996068e+01    0.6419016    0.2493219 -29.74   0.00195274    2.947    0.661
       174  -8.7191     87.5300     58.4647   9.3413976916e+01   5.4501411044e+01    0.2984631    0.2124767 -55.79 0.0006157708    1.767    0.434
       175  -9.3936    118.2500     54.7233   8.2787246328e+01   4.8485737453e+01    0.5032281    0.3070155 -35.96  0.001306682    1.719    0.418
       176  -9.0061    121.1334     46.8312   7.9311810245e+01   4.9011900587e+01    0.3556932    0.1972933 -33.52 0.0005678873    1.917    0.478
       177  -8.3810    122.7970     40.8654   7.6823242750e+01   4.9457266858e+01    0.3036675    0.2091499  30.50   0.00109078    1.623    0.384
       178  -9.8362     42.9945     52.9490   1.0881272408e+02   6.2636831713e+01    0.4794247    0.3476765 -84.36  0.002356177    2.706    0.630
       179  -8.6158     53.4972     39.0507   9.8945974523e+01   6.3702935869e+01    0.2600999    0.1817166 -40.95  0.001036044    1.480    0.324
       180  -8.3220     54.5413     35.5476   9.7045551079e+01   6.4108896054e+01    0.2125773    0.1541697  15.24 0.0009915718    1.327    0.246
       181 -10.1476     49.9768     54.0690   1.0619233538e+02   6.1532276702e+01    0.6126273    0.3626993 -61.43  0.001889362    2.444    0.591
       182  -9.7123     56.3033     43.2956   9.9466319145e+01   6.2571603503e+01    0.7710883    0.4174662   2.27  0.002899644    3.630    0.725
       183  -8.1673    157.7196     55.9791   7.4129765506e+01   3.8555327640e+01     0.185946      0.13329 -34.50 0.0006580097    1.479    0.324
       184  -8.8753    162.9161     53.5664   7.2421235321e+01   3.7598497454e+01    0.3749771    0.2108227 -33.28  0.001225908    1.889    0.471
       185  -9.0099    141.6617     48.5577   7.5112876355e+01   4.3720496122e+01    0.3365453    0.3004803  58.40 0.0007732222    1.042    0.041
       186  -8.7897    105.3901     53.2430   8.5877857265e+01   5.1655388209e+01    0.2729721    0.2424139 -70.06 0.0007575068    1.369    0.269
       187  -8.2773    105.6527     49.6434   8.4508848973e+01   5.2168290453e+01    0.3635206    0.2147474  21.13  0.001285624    2.503    0.600
       188 -10.2098     85.1139     48.0249   9.0384222693e+01   5.6747391388e+01    0.3837235     0.300682 -64.33  0.000956465    1.818    0.450
       189 -10.1843     89.8422     38.2267   8.5023683362e+01   5.7280036561e+01    0.8510424    0.2848288  38.99  0.002881659    3.350    0.702
       190  -8.5396    157.4565     48.8325   7.2027029552e+01   3.9681860406e+01    0.2686549    0.1338067 -39.69 0.0007246104    2.056    0.514
       191  -8.5471    111.8823     46.8405   8.1744725178e+01   5.1182431448e+01    0.2508069    0.2288002   4.49 0.0005235585    1.130    0.115
       192  -8.5516    113.7980     41.7923   7.9418027400e+01   5.1468022678e+01    0.5177492    0.2785996  -2.57  0.001720957    4.056    0.753
       193  -7.6974    162.4460     46.2775   7.0349710445e+01   3.8772169581e+01    0.1949914    0.1315477 -48.07 0.0008017977    1.545    0.353
       194  -9.9568    188.0929    233.7511   1.0857163014e+02  -1.3083916535e+00    0.2715247    0.1920041 -40.73 0.0009969414    1.647    0.393
       195  -7.3630    116.0000    230.9625   1.2316640504e+02   1.0979858742e+01    0.1882081   0.07607834 -57.85 0.0007958455    2.897    0.655
       196  -7.6691      1.3580    225.1317   1.4609404475e+02   2.7074131288e+01    0.1696671    0.0764542  82.33 0.0009530587    1.884    0.469
       197 -10.0827    150.8738    222.5504   1.1450589698e+02   6.7256871110e+00    0.2280245    0.2139101 -26.44  0.001441827    1.214    0.176
       198  -7.7890     24.1891    216.4135   1.4119402991e+02   2.6595044889e+01    0.1569026   0.08725792  50.47 0.0003360007    1.494    0.331
       199  -9.9091     10.5257    207.3381   1.4341094855e+02   2.9903497984e+01    0.3936003    0.2988325  11.95   0.00242095    2.020    0.505
       200  -8.7362     41.9071     28.1743   9.9508850037e+01   6.7080940190e+01    0.2593055    0.1576625 -24.91  0.000422723    1.562    0.360
       201 -10.0130     37.8088     41.9936   1.0715239594e+02   6.5292590842e+01    0.4070291    0.3201947 -75.06  0.001462578    2.140    0.533
       202 -10.2645     35.9128     37.9631   1.0647558114e+02   6.6227514150e+01    0.3904403    0.2439211 -14.27 0.0003617484    1.700    0.412
       203 -10.0480     69.2913     40.6414   9.3197677324e+01   6.0875785920e+01    0.7505248    0.3587504 -35.62  0.002046676    2.097    0.523
       204  -7.6500    152.6787    207.9853   1.1179927552e+02   9.1150746813e+00    0.1794239    0.1713022  25.16 0.0003629471    1.078    0.072
       205  -9.9120     76.1492     31.9546   8.7083500925e+01   6.0896316331e+01    0.3790388    0.3170197  59.73  0.001095336    1.480    0.324
       206  -8.9744    191.9782    194.2194   1.0091285736e+02   4.5717866802e+00    0.5925292    0.2948893 -58.97  0.002027137    4.210    0.762
       207  -7.3132     28.0079    174.9979   1.3712336892e+02   3.5494415356e+01    0.1529264    0.1241559  85.75 0.0003802156    1.018    0.017
       208  -7.2652    169.7340    173.2949   1.0157199461e+02   1.2755222098e+01    0.1390112    0.1183544  84.88  0.000172209    1.510    0.338
       209  -9.3222    244.8860    167.9841   8.5791006951e+01  -1.6775215891e-01    0.3682043    0.1874379  42.32            0    2.145    0.534
       210  -9.5993    245.3310    162.9911   8.4705060567e+01   5.5681487752e-01    0.3578836    0.2251592  30.19 0.0005660275    1.760    0.432
       211  -9.0507     84.7813     21.7642   7.9891612701e+01   6.0453899302e+01    0.2480133    0.2315817 -74.10 0.0006627694    1.405    0.288
       212  -9.0368    104.9613     41.2276   8.1621157880e+01   5.3575850986e+01    0.3731076    0.2367938 -50.33 0.0008267876    1.984    0.496
       213  -8.3045    105.8302     36.3851   7.9567841474e+01   5.4045975493e+01    0.2943123    0.2049999  33.80 0.0008411451    1.428    0.300
       214  -9.3640    153.1389     41.0264   7.0448868850e+01   4.1864585037e+01     0.366367    0.2478203 -51.95  0.001159035    1.611    0.379
       215  -8.2530    153.8184     34.8866   6.8432776357e+01   4.2486675795e+01    0.2503598    0.1765279 -35.18 0.0006321374    1.526    0.345
       216  -7.7251    160.3543     39.2607   6.8623867533e+01   4.0257708044e+01    0.1988339     0.124999 -44.04 0.0007366466    1.658    0.397
       217  -9.5997    224.1465     34.6654   5.8999249048e+01   2.5182861776e+01    0.3518679    0.2440653 -29.94  0.001151397    1.622    0.384
       218  -8.9470    118.9025     34.6022   7.5547210057e+01   5.1221407008e+01    0.3510702    0.1904922 -32.75  0.000690726    1.979    0.495
       219  -9.2009    101.0600     32.3067   7.9339164470e+01   5.5655073669e+01    0.4593158    0.2588318 -27.87  0.001621349    1.918    0.479
       220  -7.6911     97.1535     32.8879   8.0685926346e+01   5.6445076992e+01    0.2187999     0.150442  20.78  0.001099067    1.627    0.385
       221  -9.0223    110.2389     33.0434   7.7141797992e+01   5.3465989576e+01    0.3573539    0.2148529 -45.13 0.0008623186    1.969    0.492
       222  -8.0982    110.2148     26.6442   7.4753242942e+01   5.4248001644e+01    0.2591907    0.1718421 -22.42  0.001327473    1.679    0.404
       223  -8.3479    152.0196     30.6535   6.7438232676e+01   4.3463660904e+01    0.3348623     0.176653  43.03  0.001438105    2.096    0.523
       224  -8.8052    148.9029     27.2025   6.6899470335e+01   4.4660785523e+01      0.42253    0.2114628  24.05  0.001376393    4.439    0.775
       225  -9.0973     91.3260     26.0341   7.9669634697e+01   5.8567224226e+01    0.3145623    0.2249249 -50.64  0.001083618    1.839    0.456
       226  -8.9018     91.9736     21.0605   7.7439467381e+01   5.9002127728e+01    0.3148125     0.216563  36.46 0.0009609245    1.319    0.242
       227  -7.0577    197.4700     27.5184   6.0135542992e+01   3.2388324335e+01    0.1346029     0.118213 -89.01 1.475506e-05    1.051    0.049
       228  -8.5448    155.7655     27.2804   6.5772885971e+01   4.2906204017e+01    0.2779333    0.1615455  79.22  0.001261901    1.798    0.444
       229  -9.0208    103.0727     21.1871   7.4465949783e+01   5.6512032096e+01    0.2948599    0.2053041 -36.76  0.000687972    1.628    0.386
       230  -9.2474    119.0831     21.7128   7.0856383128e+01   5.2687236000e+01    0.2926959    0.2557829 -44.90 0.0008984688    1.302    0.232
       231  -9.0832    100.0419    163.9141   1.1692114850e+02   2.8270595067e+01    0.2145191    0.2013875  74.98 0.0002891137    1.004    0.004
       232  -8.5424    144.1322     25.8165   6.7297040781e+01   4.6027361909e+01    0.2096333    0.1774547 -87.74 0.0005616145    1.203    0.169
       233  -7.9341    111.5787     21.8178   7.2607255450e+01   5.4467447251e+01    0.1837521    0.1224238 -41.21 0.0009416424    1.729    0.422
       234  -9.1804     41.0096     20.6646   9.6483161830e+01   6.8310304836e+01    0.2191495    0.1591388 -23.04 0.0002716959    1.258    0.205
       235  -8.4489    166.1280    160.4410   9.9695018794e+01   1.6130729173e+01    0.2254515    0.2025797 -21.53 0.0003348221    1.159    0.137
       236  -9.0521    245.1782    158.1196   8.3732700611e+01   1.3677590285e+00    0.2070684     0.188025  34.19            0    1.260    0.206
       237 -10.3663    213.0409    156.1446   8.8960806193e+01   7.5122201209e+00    0.2585683     0.243908   0.52 0.0003368694    1.048    0.046
       238  -9.9738    238.3417    146.9701   8.2521650647e+01   4.3987603463e+00    0.3718636    0.2408211 -20.44   0.00172211    1.666    0.400
       239  -8.3218    133.5179    145.9312   1.0443872228e+02   2.6125892716e+01    0.5161931    0.1578983 -51.87   0.00149003    3.560    0.719
       240  -9.4695     66.7434    144.2576   1.2271326156e+02   3.8412993419e+01     0.489698     0.313931  62.75  0.002268935    1.799    0.444
       241  -9.1098    232.1839    138.4372   8.1703210155e+01   6.9881515662e+00    0.2409007    0.2100327 -34.98 0.0002565747    1.054    0.051
       242  -7.6712    160.5769    137.7980   9.5861103585e+01   2.2132872567e+01    0.2043968    0.1498138 -56.55 0.0002800425    1.485    0.327
       243  -7.4473    218.1640    137.4353   8.3897171236e+01   9.8929095877e+00    0.1906767    0.1396026  64.77 0.0009362358    1.731    0.422
       244  -8.4881     27.9916     16.7178   1.0112476352e+02   7.0548730358e+01    0.1687025    0.1328643   2.53 0.0008446566    1.085    0.078
       245  -8.6017    112.3082    134.1034   1.0747564653e+02   3.3200012541e+01    0.3625324    0.2484051  85.62  0.001176591    2.207    0.547
       246 -10.5416    123.9588     90.2021   9.2591775081e+01   4.0643561353e+01     1.107636      0.64996 -31.67  0.002571616    1.981    0.495
       247  -8.6769    112.2671     15.4836   7.0067637355e+01   5.4954439373e+01    0.2206743    0.2145726 -73.94 0.0004658148    1.182    0.154
       248  -9.8207    133.9542    132.1729   1.0113330764e+02   2.9196819605e+01    0.5899807    0.5199796  52.77  0.002953143    1.131    0.116
       249  -9.9766    117.1923    124.8103   1.0389620845e+02   3.4423148715e+01    0.9700997    0.5845301 -70.17  0.002280068    2.423    0.587
       250 -10.2019    139.4955    103.8815   9.2363068040e+01   3.4224022454e+01    0.7117896    0.3741222 -45.97  0.001974562    1.929    0.482
       251 -10.2778    109.0278    112.8251   1.0321679044e+02   3.8877890935e+01     1.171267    0.5481246 -47.26  0.002332707    2.116    0.527
       252 -11.1797    121.1304    109.6486   9.8886173639e+01   3.7079356145e+01     1.452813    0.6704679 -45.50  0.002983031    2.172    0.540
       253 -10.6990    131.7904    119.6870   9.8601655816e+01   3.2503945759e+01     0.989738    0.6331112 -84.72  0.002325319    3.069    0.674
       254  -9.6714     65.9861    129.4735   1.2023734162e+02   4.2221875265e+01    0.5575694    0.3568873 -51.60  0.002668364    1.489    0.328
       255  -7.7201     45.2165     15.7705   9.2151556380e+01   6.8355674228e+01    0.1752973    0.1206046   5.65  0.001055942    1.373    0.272
       256  -7.2405    189.4614     15.5263   5.7970820088e+01   3.5717498179e+01    0.1339594     0.113037 -87.16 6.597026e-06    1.003    0.003
       257 -10.0057     71.1455    125.6565   1.1787016452e+02   4.2426994624e+01    0.5760219    0.3647127 -82.25  0.001437315    2.032    0.508
       258 -10.0358     58.2950    124.5045   1.2168238362e+02   4.4504423974e+01     0.688206    0.3961231  76.37  0.002332684    2.832    0.647
       259  -9.6696     98.5741    128.6543   1.1018033335e+02   3.7124768375e+01    0.6721371    0.4017718  71.36  0.002241789    2.918    0.657
       260 -11.0333    133.4772    109.2875   9.5412420655e+01   3.4437492524e+01    0.9979274    0.4562276 -45.33  0.002783089    2.203    0.546
       261  -7.0273     44.6275    130.2959   1.2698069671e+02   4.4710682590e+01    0.1446716   0.09623247  66.20 0.0007027187    1.736    0.424
       262 -10.4597    108.7482    100.0332   9.9834401070e+01   4.1837751615e+01     0.999339    0.6299975  66.77  0.003872542    2.371    0.578
       263  -9.9557     27.1772    122.8891   1.3124682915e+02   4.8287395778e+01    0.6430885    0.3390536  71.74  0.002117483    2.621    0.618
       264 -10.3940     15.2513    112.0962   1.3349024027e+02   5.1860897929e+01    0.8423753    0.3442745  57.01   0.00322774    3.828    0.739
       265  -9.6273     41.3174    121.8386   1.2660224303e+02   4.7176750554e+01    0.5725183    0.2670881 -81.00  0.001992377    2.838    0.648
       266  -8.3976    158.5811    122.6073   9.2610086092e+01   2.5833080762e+01    0.3192149    0.2307432 -88.16  0.001260076    2.044    0.511
       267  -8.2030     84.4372    132.4438   1.1521847782e+02   3.8658576584e+01    0.6804576    0.3300055  63.26  0.001996371    4.388    0.772
