#   1 NUMBER                 Running object number                                     
#   2 MAG_AUTO               Kron-like elliptical aperture magnitude                    [mag]
#   3 X_IMAGE                Object position along x                                    [pixel]
#   4 Y_IMAGE                Object position along y                                    [pixel]
#   5 X_WORLD                Barycenter position along world x axis                     [deg]
#   6 Y_WORLD                Barycenter position along world y axis                     [deg]
#   7 A_WORLD                Profile RMS along major axis (world units)                 [deg]
#   8 B_WORLD                Profile RMS along minor axis (world units)                 [deg]
#   9 THETA_WORLD            Position angle (CCW/world-x)                               [deg]
#  10 FWHM_WORLD             FWHM assuming a gaussian core                              [deg]
#  11 ELONGATION             A_IMAGE/B_IMAGE                                           
#  12 ELLIPTICITY            1 - B_IMAGE/A_IMAGE                                       
         1 -11.6167      2.3438     49.8299   7.9338246699e+01   6.3700582882e+01    0.3123496    0.1264773 -44.43  0.001756983    1.880    0.468
         2 -13.2366    239.2063     38.2870   2.5045169345e+01   2.4005849742e+01    0.7623342    0.6368592 -77.82  0.005469152    1.106    0.096
         3 -11.6030      2.6424      3.2855   6.2107338494e+01   6.9704731641e+01    0.3855005    0.1727059 -26.38   0.00257736    1.877    0.467
         4 -12.7908      2.2555    198.4923   1.0620043430e+02   3.1679951388e+01    0.3508904    0.2107203 -71.69 0.0008528925    1.245    0.197
         5 -10.9943    139.6493    249.9223   8.5910038500e+01   1.6728690648e+00    0.2640346    0.1806126  48.62  0.001467977    1.436    0.303
         6 -13.7827     99.0419    246.3992   9.3170176739e+01   8.7116172893e+00     1.073163    0.7731578  55.41  0.006293625    1.326    0.246
         7 -13.0373     84.3094    245.9715   9.5889608124e+01   1.0988308538e+01     0.702583    0.5646515  82.26  0.004432363    1.116    0.104
         8 -16.0836      7.7005    240.3378   1.0889359470e+02   2.1824764598e+01     14.39831     4.773543 -71.91   0.06968604    2.355    0.575
         9 -11.7976     40.9156    211.7811   1.0012416776e+02   2.4497180960e+01    0.4089894    0.2188407  78.29  0.001562414    2.249    0.555
        10  -9.7839     80.0962    209.6759   9.1869622725e+01   1.9742039824e+01    0.2550915    0.1677331 -80.07 0.0006160975    1.528    0.346
        11 -11.5731     37.6544    174.2869   9.5883278081e+01   3.3908691763e+01    0.3189415    0.2445196 -50.06 0.0004404894    1.338    0.253
        12 -11.6061     46.0881    168.2019   9.3011878100e+01   3.4431756360e+01    0.2942083    0.2253978 -51.86 0.0004559095    1.250    0.200
        13  -8.5038    110.6871    167.3347   7.7589117960e+01   2.5151056198e+01    0.1554932    0.1146975 -88.95   0.00070455    1.684    0.406
        14 -10.5653     59.7906    158.8105   8.8130289828e+01   3.5043913218e+01    0.2512657    0.2101023 -57.41 0.0002854315    1.075    0.070
        15 -13.0128     44.3916    154.9627   9.1205512464e+01   3.7881559214e+01    0.5092131    0.3275319 -29.31  0.001980887    2.128    0.530
        16 -11.6004     69.0552    152.9277   8.4733683798e+01   3.5242884981e+01    0.5583859    0.5051795  47.06  0.001813254    1.296    0.229
        17 -12.3287     68.2414    143.6499   8.3064764126e+01   3.7616838297e+01    0.7556995    0.5117549  87.18  0.002923077    2.113    0.527
        18 -10.4875     42.4978    146.0326   9.0083812378e+01   4.0267790543e+01     0.191404    0.1777474 -65.44 0.0005470184    1.159    0.137
        19  -9.7493     86.5999    141.1059   7.7839961841e+01   3.5518561912e+01    0.2619688    0.2511715 -89.17 0.0007458516    1.151    0.131
        20 -11.3574     74.0906    138.2277   8.0407183669e+01   3.8092326207e+01    0.3544786    0.2456708 -55.04 0.0004776259    1.230    0.187
        21  -8.8013     90.9915    137.9684   7.6019605013e+01   3.5568215600e+01    0.1779242    0.1555457 -52.50 0.0003477371    1.005    0.005
        22 -10.3450    104.6292    130.3716   7.0792719309e+01   3.5053230616e+01    0.4354726    0.2831348  47.26  0.002030445    1.756    0.430
        23  -9.1091     85.4870    152.4863   8.0568681494e+01   3.2934765325e+01    0.1503198    0.1293734 -61.74 0.0001909348    1.031    0.030
        24 -10.1762     88.4419    125.9351   7.3848386525e+01   3.8784200044e+01    0.2365609    0.2187649  30.94 0.0003950236    1.237    0.192
        25 -14.6553      8.9918    193.5027   1.0438221129e+02   3.2222746742e+01     2.066872    0.8880291 -67.22  0.004709329    1.727    0.421
        26  -8.5509    130.6706    124.3290   6.2999296542e+01   3.1590441862e+01    0.1551604    0.1176138 -80.75 0.0007051363    1.711    0.415
        27 -12.0667    244.1452    121.2887   4.1215009837e+01   9.5157619535e+00    0.4577326    0.1504012 -45.11  0.001735622    2.448    0.592
        28  -9.1741    101.8919    118.5177   6.8542640842e+01   3.8201925670e+01    0.2175433     0.173942 -45.88 0.0003699535    1.114    0.102
        29 -12.3400     70.5708    246.5903   9.8504261634e+01   1.2814082935e+01     0.559867    0.3288516  70.73  0.002952203    1.829    0.453
        30  -9.4522     35.0727     97.8283   8.1859062661e+01   5.2001408800e+01    0.1808805    0.1573993 -59.23 0.0004789713    1.245    0.197
        31 -10.5950    242.5051     97.5146   3.6501281225e+01   1.4158402871e+01     0.135414    0.1103595 -56.13 1.567059e-05    1.030    0.029
        32  -9.8279     43.6617     92.3420   7.7885682813e+01   5.2187743041e+01     0.202207    0.1783246 -52.58  0.001169992    1.223    0.182
        33 -10.4702     53.1382     90.3014   7.4505942341e+01   5.1457418221e+01    0.2461176    0.1512483 -36.59  0.001315717    1.423    0.297
        34 -11.7745    128.7312    230.2484   8.5034930115e+01   7.4202449108e+00    0.5177816    0.2370778 -66.67  0.001934345    3.094    0.677
        35 -12.8572    219.4683     52.3381   2.9905865152e+01   2.5979760569e+01     0.830231    0.5242646  61.20  0.004774219    1.661    0.398
        36 -14.4651      8.6044    208.1593   1.0594134324e+02   2.8856493450e+01     3.530035     1.339714 -49.48   0.01494881    3.514    0.715
        37 -11.3151     62.9966    248.5580   1.0009521440e+02   1.3438553549e+01    0.4987457    0.1823259  54.31  0.002106905    2.931    0.659
