#   1 NUMBER                 Running object number                                     
#   2 MAG_AUTO               Kron-like elliptical aperture magnitude                    [mag]
#   3 X_IMAGE                Object position along x                                    [pixel]
#   4 Y_IMAGE                Object position along y                                    [pixel]
#   5 X_WORLD                Barycenter position along world x axis                     [deg]
#   6 Y_WORLD                Barycenter position along world y axis                     [deg]
#   7 A_WORLD                Profile RMS along major axis (world units)                 [deg]
#   8 B_WORLD                Profile RMS along minor axis (world units)                 [deg]
#   9 THETA_WORLD            Position angle (CCW/world-x)                               [deg]
#  10 FWHM_WORLD             FWHM assuming a gaussian core                              [deg]
#  11 ELONGATION             A_IMAGE/B_IMAGE                                           
#  12 ELLIPTICITY            1 - B_IMAGE/A_IMAGE                                       
         1 -11.9292     12.4801     48.5927   8.9679674805e+01   6.6988911718e+01    0.9945189    0.5263813 -81.43  0.004363367    3.036    0.671
         2 -12.3535    158.1073     88.4414   5.0752143504e+01   3.2718420496e+01      1.00602    0.4206901 -54.48  0.003270624    3.221    0.690
         3 -13.1363     37.9683     49.6930   7.6987178350e+01   6.4227154846e+01    0.8645404    0.6413525 -32.22  0.003407338    1.267    0.211
         4 -11.2186     79.8522     28.7404   5.1017369210e+01   6.0644247578e+01    0.6020933    0.3272504 -16.98  0.002439696    2.547    0.607
         5 -10.9189     18.6159     16.7328   7.3764275693e+01   7.2581214434e+01    0.4217573    0.2628183  -4.06  0.002404251    1.761    0.432
         6  -9.0509     24.1308     13.7639   6.8836010085e+01   7.2400964498e+01    0.3076881    0.2340518  57.85  0.000921766    2.213    0.548
         7 -10.0175     15.0713     13.6487   7.4480937062e+01   7.3470710424e+01    0.1930207    0.1443297 -31.27 0.0005179099    1.197    0.164
         8 -11.5315    165.1847     16.8620   2.9230981952e+01   4.1794973402e+01    0.3964841     0.279969  56.17  0.001299377    1.466    0.318
         9 -12.3813    159.7715     22.9549   3.1683413779e+01   4.2424304611e+01    0.3772788    0.3370189  11.48 0.0005086955    1.432    0.302
        10 -10.4100     74.3964      1.9224   4.0529660824e+01   6.4859990557e+01    0.2578593    0.1946994  75.62   0.00140795    1.500    0.333
        11 -11.7692     66.5859     19.9683   5.1729997842e+01   6.4523489818e+01    0.4834466    0.3171641   9.07 0.0004716919    1.942    0.485
        12 -10.7519     70.6437     13.4898   4.7240891744e+01   6.4486113718e+01     0.354771    0.2035403 -25.22  0.001832564    1.881    0.468
        13 -11.6318     76.1869     10.9379   4.4258560819e+01   6.3597373725e+01    0.5843748    0.4927503  43.40  0.003631052    1.052    0.049
        14 -10.5029     73.9039      6.8542   4.3036822115e+01   6.4503560707e+01    0.2197053    0.1760216  11.60 0.0005403901    1.301    0.231
        15 -12.2437      3.9814     16.3570   8.3325255926e+01   7.4004066430e+01     0.394013    0.2782062  42.59  0.001487152    1.967    0.492
        16 -12.6522    237.9511     17.5368   2.2899568464e+01   2.5537143063e+01     0.317351    0.2130906 -74.71 0.0004219736    1.298    0.230
        17 -11.8376    234.4788     11.0201   2.1763616691e+01   2.6960193852e+01    0.3164773    0.1823623 -26.50  0.001811562    2.021    0.505
        18 -12.0121    234.8432      4.7104   2.0429941927e+01   2.7567498033e+01    0.4406967    0.3279321  12.60   0.00267681    2.530    0.605
        19 -10.7081     50.6318     16.2882   5.6384866594e+01   6.7995145364e+01    0.5171204    0.2997184 -52.56  0.002448222    2.761    0.638
        20  -9.2633     37.2410      6.5348   5.7496507394e+01   7.1510282556e+01    0.2771961    0.1703453  27.38   0.00126848    1.545    0.353
        21 -10.9744     41.7930     18.5474   6.1672941533e+01   6.9162322642e+01    0.3132693    0.2614231 -31.95 0.0009089655    1.275    0.216
        22 -10.0237     39.6695     14.6860   6.0737911537e+01   7.0047922088e+01    0.2277587    0.1558358 -12.99 0.0006479485    1.521    0.342
        23 -11.3847     40.0776     10.8923   5.8498889499e+01   7.0495056930e+01    0.4659213    0.2990842  12.89  0.001908659    1.730    0.422
        24 -11.5582     32.5315     16.7450   6.5573230197e+01   7.0820121579e+01    0.5465961    0.3107135  15.41  0.002782437    2.118    0.528
        25 -10.1836     31.0533     12.6744   6.4234595836e+01   7.1629922604e+01    0.1771058    0.1558642 -24.00 0.0005438987    1.236    0.191
        26 -11.1765    155.5150     12.8106   2.9235208870e+01   4.4573072737e+01    0.4824795    0.2595252 -18.98  0.001855928    2.370    0.578
        27 -10.3337    131.4912     13.9807   3.3043635766e+01   5.0344280270e+01     0.401041    0.2408798  -1.54  0.001854774    2.536    0.606
        28 -11.7624    128.1642     10.9308   3.2544140377e+01   5.1465117511e+01    0.2674454    0.2061535  77.23 0.0002473513    1.181    0.154
        29 -11.0234    127.2682      7.7094   3.1575758011e+01   5.1992178692e+01    0.2306339    0.1873989 -68.23 0.0001871342    1.268    0.212
        30 -10.2784    118.3760     12.6776   3.4866372558e+01   5.3677358099e+01    0.2827271    0.2086159  31.32  0.001564401    1.555    0.357
        31 -10.6228    118.2172      7.7281   3.3092137062e+01   5.4193844936e+01    0.2221863    0.1870294 -11.06 0.0005469036    1.392    0.282
        32 -10.4282    117.9843      3.2494   3.1499131192e+01   5.4650613609e+01    0.3209687    0.1831238 -82.37   0.00104384    2.176    0.540
        33 -10.9470     60.3263     13.5831   5.1009765779e+01   6.6542328426e+01    0.3529236    0.2076388  54.09  0.001849958    1.728    0.421
        34 -10.2187    169.5221     12.5004   2.7505917401e+01   4.1216764789e+01    0.1952337     0.130509  -9.06  0.001013027    2.122    0.529
        35 -10.9119    164.7892      6.2380   2.6257927056e+01   4.2983615849e+01    0.4077893    0.1809757 -24.22  0.001631548    2.606    0.616
        36 -10.1283     95.9439     12.1595   3.9414289408e+01   5.9057792690e+01    0.1983147    0.1635813 -77.01 0.0009049233    1.417    0.294
        37 -11.2887      5.1128     10.5749   7.9786819968e+01   7.4923743245e+01    0.2358627    0.2177195 -31.62  0.001785436    1.316    0.240
        38 -11.0767      9.6267      9.0647   7.5781045035e+01   7.4765805728e+01    0.3362895    0.2050121  36.36  0.002029375    1.952    0.488
        39 -10.4874    176.2665     10.3887   2.6223560870e+01   3.9830043763e+01    0.2086216    0.1679254 -10.74 0.0008562389    1.635    0.388
        40 -10.7440    148.7938      1.8756   2.6746492597e+01   4.7259812161e+01    0.2387314    0.1863722  58.13 0.0004454092    1.283    0.220
        41 -12.6395    145.4787      7.9809   2.9044431380e+01   4.7506339603e+01     0.337635    0.2982463  33.85 0.0005016994    1.345    0.257
        42  -9.8301    150.6979      5.6871   2.7682645068e+01   4.6448626485e+01    0.1877781    0.1579422  68.69 0.0002432089    1.138    0.122
        43  -9.8256    138.0878     10.6724   3.0926182601e+01   4.9057378840e+01    0.2177052    0.1502912 -85.20 0.0006896259    1.468    0.319
        44  -9.8563    107.5548     10.3444   3.6102106833e+01   5.6509978803e+01    0.1587296    0.1285753   2.35 0.0009260867    1.454    0.312
        45 -11.0939    240.9473      9.1409   2.0985396005e+01   2.5885442764e+01    0.1881143    0.1162104 -62.90 0.0005079804    1.288    0.223
        46 -12.7711    212.6630      5.1129   2.1905277033e+01   3.2129452419e+01    0.9600201    0.4579458 -79.22  0.004859223    2.096    0.523
        47  -9.9732    191.5044      7.5367   2.4086670030e+01   3.6577714440e+01    0.2529525     0.250317  86.37  0.001334975    1.306    0.234
        48 -10.8275    189.1998      5.2078   2.3696847987e+01   3.7341838700e+01    0.3744873    0.1992303  55.52  0.001932008    2.090    0.522
        49 -10.7044     24.1658      7.7105   6.5471772525e+01   7.3288987527e+01    0.3361864    0.1687619  47.47  0.001641125    2.818    0.645
        50 -11.4460     19.2214      3.5358   6.6109775495e+01   7.4516983086e+01    0.6596138    0.3090124  30.83  0.003545648    2.038    0.509
        51 -11.0136     10.8533      3.0687   7.1524138465e+01   7.5568439536e+01    0.2306596    0.1713589  -5.51 0.0003690902    1.142    0.125
        52  -9.3742    113.4160      7.4415   3.3852006126e+01   5.5380414117e+01    0.1292132    0.1157159  78.98 0.0001226341    1.063    0.059
        53  -9.7880    100.5126      6.9099   3.6221765023e+01   5.8501262256e+01     0.174898    0.1305605 -10.22 0.0004906758    1.561    0.359
        54  -9.6667     91.8222      7.0181   3.8246036604e+01   6.0509382571e+01    0.1867179    0.1631755 -80.34 0.0007281144    1.299    0.230
        55 -10.3153     68.4880      4.5952   4.3639135288e+01   6.5868942663e+01    0.2647099    0.1769023 -42.37  0.001491462    1.809    0.447
        56  -9.4576    109.2548      5.5562   3.3917284654e+01   5.6550408090e+01    0.1795507    0.1050529  55.66 0.0006544329    1.488    0.328
        57  -9.2144     58.3043      5.3114   4.7551735182e+01   6.7861809392e+01     0.129632   0.08328267  24.26  0.000401589    1.613    0.380
        58  -9.3167     16.2330      9.4070   7.1458361024e+01   7.4017605483e+01    0.1222413   0.07359309 -19.28 0.0005834885    1.677    0.404
        59 -10.8550    178.6732      3.6678   2.4208467213e+01   3.9935316981e+01    0.2508138    0.1826307 -76.10 0.0006778734    1.198    0.165
        60 -10.7589     27.5746      2.9476   6.0637774600e+01   7.3449642322e+01    0.2472192    0.2290753 -75.28  0.001726365    1.778    0.438
        61 -11.1482     31.0719      1.1953   5.7601788223e+01   7.3136431055e+01    0.5080361   0.09943164  44.09  0.001734422    4.757    0.790
        62 -10.8185    242.9564      2.6797   1.9572289280e+01   2.6185238264e+01    0.2122605    0.1299658 -48.11 0.0006084646    1.290    0.225
        63 -10.0470    126.1765      2.5840   2.9967416996e+01   5.2717447532e+01    0.2296101    0.1376364  61.70  0.000414135    1.448    0.310
        64  -9.8165     98.3265      3.1089   3.5136559605e+01   5.9351937775e+01    0.1897464     0.146574  24.14 0.0005861953    1.424    0.298
        65 -10.3327    194.7990      1.7780   2.2405069304e+01   3.6407460023e+01    0.2543394    0.1433328 -87.34  0.001388976    1.625    0.385
        66  -9.3879      3.0656      1.1974   7.6236809006e+01   7.6620557689e+01    0.1372717   0.07815083  18.19 0.0008370497    1.683    0.406
        67  -9.4790    111.6243    164.2352   7.9813320891e+01   2.5549629231e+01    0.2050264    0.1341843 -46.00 0.0005893156    1.614    0.380
        68 -10.7592    247.6686    250.0802   6.6394189557e+01  -9.0047219206e+00    0.1735778     0.121903  21.62  0.001324445    1.378    0.274
        69 -11.7958     89.0061    249.3831   9.6270855676e+01   1.1107493216e+01    0.3492938    0.2250191  34.26 0.0009660887    1.312    0.238
        70 -10.3871     72.2072    250.1494   9.9787537918e+01   1.3108152813e+01    0.2370536    0.1477459  26.81 0.0009358372    1.616    0.381
        71 -12.6295     19.1110    236.9946   1.0976377400e+02   2.1649319081e+01    0.5498072    0.3057806  49.09   0.00341288    1.381    0.276
        72 -12.0471     28.8450    246.7027   1.0830408857e+02   1.8764780161e+01    0.5550662    0.2867948  73.80  0.003236076    1.852    0.460
        73 -12.8003      6.0558    245.6475   1.1267413344e+02   2.1236650455e+01    0.6782837    0.4065141  81.93  0.003631648    1.474    0.321
        74 -12.8502     15.7845    246.0199   1.1082412923e+02   2.0229529897e+01    0.6815018    0.3115891  56.15  0.002948884    1.684    0.406
        75  -9.4290    221.2835    161.2968   5.5631104476e+01   6.8647433025e+00    0.1278826   0.09174748  -8.33 0.0002107774    1.544    0.352
        76 -12.1124     19.4110    157.8938   1.0455510454e+02   3.9539906905e+01     0.608164    0.3568555 -54.01 0.0005308326    1.788    0.441
        77 -11.2080      9.5955    152.2858   1.0684058079e+02   4.1753191852e+01    0.4282365    0.1973232  49.11  0.002030953    2.089    0.521
        78  -9.4292    222.6420    152.1981   5.3604630058e+01   8.1636637347e+00    0.1857733    0.1076028 -30.53 0.0003759659    1.621    0.383
        79  -9.5175    169.9492    152.0000   6.3468290822e+01   1.7509221860e+01    0.2319752   0.08169779  42.50  0.000797889    2.911    0.656
        80  -9.9254    176.8348    150.0857   6.1622883026e+01   1.6599274776e+01    0.2141369    0.1969125 -79.06 0.0006718168    1.271    0.213
        81 -10.5503    207.0321    146.6621   5.5133944731e+01   1.1752561050e+01    0.1844848    0.1729804   5.96 0.0006835778    1.108    0.098
        82 -11.3853     23.9957    156.7668   1.0316158029e+02   3.9407320211e+01    0.3653002    0.2712733  87.44 0.0008863613    1.199    0.166
        83 -10.7075    218.9849    144.2825   5.2602305852e+01   1.0107659228e+01    0.3140795    0.1605787  37.51  0.001466727    2.276    0.561
        84 -10.0982     10.4990    143.9912   1.0588773278e+02   4.3768193442e+01    0.1943288   0.07568425 -54.74 0.0008100403    2.500    0.600
        85  -9.2268    204.5186    141.5335   5.4503180728e+01   1.3114396326e+01    0.1366061    0.1237526 -33.02  8.65854e-05    1.031    0.030
        86  -9.4572    240.3330    140.2905   4.8480890167e+01   7.2782114253e+00    0.1243246   0.09057527  -5.35 0.0003464381    1.631    0.387
        87  -9.5802     13.6597    139.7389   1.0455253502e+02   4.4604317841e+01    0.1278421    0.0916926 -42.82 0.0002526224    1.589    0.371
        88 -11.0148      9.2730    136.3424   1.0556857240e+02   4.5794498621e+01    0.2567618    0.1912439 -75.02 0.0002301345    1.161    0.139
        89 -10.6634      2.8253    135.8631   1.0748968206e+02   4.6353691340e+01    0.4371143    0.1263601 -71.19   0.00171319    2.687    0.628
        90  -9.3628    143.7669    137.0599   6.6147221964e+01   2.5741838650e+01    0.1974486    0.1245385 -48.92 0.0004710602    1.572    0.364
        91  -9.8781     43.7351    136.9385   9.4870410540e+01   4.2455228164e+01    0.2027041    0.1662039 -77.72 0.0005175514    1.119    0.106
        92 -10.2122     17.5330    137.0321   1.0309415888e+02   4.4986686498e+01    0.1822564     0.170333  61.82 0.0001315182    1.146    0.127
        93  -9.8563     21.0026    134.9790   1.0178878013e+02   4.5223761560e+01    0.2217258    0.1388223  68.28 0.0006362133    1.656    0.396
        94  -9.9758    249.0909    133.6958   4.5937773398e+01   6.9496064092e+00    0.1640766    0.1466338 -23.61 0.0004512207    1.111    0.100
        95 -10.2675    241.0456    134.0741   4.7134185659e+01   8.1548821992e+00    0.1937255    0.1619174 -34.90 0.0005219069    1.032    0.031
        96 -11.1157     54.1213    132.4395   9.0861504711e+01   4.2365499464e+01     0.419805    0.2349717  27.39  0.001155445    1.953    0.488
        97 -10.2054     47.6234    133.2729   9.3079035212e+01   4.2951320170e+01    0.2383977     0.191411  36.78 0.0005665427    1.308    0.235
        98 -11.1978     36.7964    130.2897   9.6127080294e+01   4.4936844591e+01    0.3924351    0.2666546 -50.65  0.001207797    1.474    0.321
        99 -11.2298     73.9919    128.9712   8.3898516766e+01   4.0460200920e+01    0.3304299    0.3102799  73.66 0.0009028287    1.054    0.051
       100 -10.4170     25.4947    126.9864   9.9373714176e+01   4.6889811728e+01    0.2449098    0.1574643  55.75  0.001102177    1.642    0.391
       101 -11.1221     15.9218    125.5141   1.0234068748e+02   4.8064929600e+01    0.3857223    0.1792358  26.02  0.001778087    2.313    0.568
       102 -11.2066     10.9782    122.8725   1.0367227532e+02   4.9103602933e+01    0.2964998    0.2401467  83.29  0.001368933    1.143    0.125
       103 -10.3873      2.4014    123.4720   1.0653949177e+02   4.9506863725e+01    0.3799215    0.1285083 -47.04  0.001473842    3.204    0.688
       104  -9.7792    219.8695    123.8809   4.8173312712e+01   1.3439364918e+01    0.1988482    0.1681406 -20.72 0.0005026824    1.193    0.161
       105  -9.9466    243.7927    122.2430   4.4358886155e+01   9.5862623125e+00    0.1689066    0.1326288 -19.27 0.0005734452    1.310    0.236
       106 -11.8508     15.6259    115.4080   1.0121459520e+02   5.0675797685e+01    0.3307565    0.2169095 -69.68 0.0002511379    1.309    0.236
       107 -10.5634      9.6242    111.5036   1.0282699869e+02   5.2090585207e+01    0.2481405     0.200457 -43.67  0.000877531    1.290    0.225
       108 -11.7720     15.1615    109.0921   1.0054609410e+02   5.2321433081e+01    0.4294143    0.3796656  16.48  0.002274027    1.312    0.238
       109  -9.8174      1.3267    118.7508   1.0644702266e+02   5.0761654838e+01    0.1781316   0.09658603 -69.09 0.0003423125    1.525    0.344
       110 -10.1239     72.6079    116.4275   8.1733085842e+01   4.3847825305e+01    0.3021743    0.1443061 -65.41 0.0008438643    2.308    0.567
       111 -10.1921     23.2885    117.6151   9.8855042021e+01   4.9497755243e+01    0.1707448    0.1311928  -2.97  0.000904985    1.610    0.379
       112  -9.5916    179.2058    115.8192   5.3438036640e+01   2.2840625044e+01     0.196933    0.1728239  -7.05  0.001055547    1.304    0.233
       113 -10.1805     85.9678    116.0218   7.7318123859e+01   4.1751916145e+01    0.2244984    0.2162949 -80.50 0.0003509271    1.013    0.013
       114 -10.2871    213.9953    115.0964   4.7178455386e+01   1.6031647102e+01    0.2063473    0.1842666 -35.52 0.0004971096    1.045    0.043
       115  -9.9652    183.7788    114.4004   5.2225216737e+01   2.2161973783e+01    0.1989118    0.1368016  38.81 0.0009505834    1.648    0.393
       116 -11.1626    249.5217    112.2827   4.1588548265e+01   1.0199588892e+01    0.2433538    0.1908813 -47.92 0.0005562151    1.148    0.129
       117 -10.4403     94.3537    112.4367   7.3836897975e+01   4.1128432256e+01    0.2980324    0.2849986 -54.78  0.001143249    1.035    0.034
       118 -12.7528     54.6160    109.5851   8.6418239677e+01   4.8170915015e+01    0.4070689    0.2943363 -44.86 0.0002581057    1.387    0.279
       119 -10.6538     51.8731    103.8208   8.6178019660e+01   4.9984221357e+01    0.2613784    0.2175258  52.93 0.0008361904    1.291    0.225
       120 -10.8780     35.5710    108.4560   9.3042106460e+01   5.0696204914e+01    0.3326313    0.1887775 -52.23  0.001568232    1.621    0.383
       121 -10.1983     38.0927    102.8958   9.1077650949e+01   5.1846062646e+01    0.3019444    0.2316386 -62.30  0.001473154    1.178    0.151
       122 -10.1497      1.0000    108.9874   1.0557580968e+02   5.3238974353e+01     0.267501    0.1334852 -75.68 0.0009695587    1.677    0.404
       123 -10.0401      2.3331    105.3094   1.0469767372e+02   5.4091020639e+01    0.2778407    0.1112235 -74.50  0.001120212    2.085    0.520
       124 -10.8469     23.3353    106.8568   9.7247200586e+01   5.2249873756e+01     0.252766    0.2080602  17.86  0.000804399    1.388    0.279
       125 -11.0695     26.9611    103.9556   9.5431453305e+01   5.2672916975e+01    0.4053322    0.2330769  73.69  0.001789061    2.304    0.566
       126  -9.4702    103.3880    105.2096   6.9251881719e+01   4.1114775583e+01     0.203933    0.1449931 -60.61 0.0002621422    1.484    0.326
       127 -10.4728    119.2663    102.9191   6.4080503208e+01   3.8390726166e+01    0.4423531    0.2505371 -40.74  0.001799575    1.835    0.455
       128 -11.1339    143.7206     98.3817   5.6621209686e+01   3.4023621562e+01    0.4525969    0.3547879 -80.70  0.001808295    1.543    0.352
       129 -11.3731     61.9311     98.8236   8.1373252644e+01   4.9842940200e+01    0.3490966    0.2858532 -45.31 0.0009295944    1.188    0.158
       130 -11.5724     66.7101     98.0054   7.9451751977e+01   4.9325926949e+01    0.2873859    0.2427747  22.50 0.0002064434    1.282    0.220
       131  -9.6841     47.7438    100.3203   8.6941521472e+01   5.1383098714e+01    0.1894435    0.1557525 -30.84 0.0001923645    1.303    0.233
       132 -10.6949     51.9624     97.4395   8.4719043833e+01   5.1564949070e+01    0.3317452    0.1942896 -43.24 0.0008492494    1.731    0.422
       133 -10.5810     90.5639     99.2366   7.1653622574e+01   4.4962801375e+01    0.2154252    0.1404825 -41.88 0.0002892061    1.576    0.365
       134 -11.6038      2.5434     95.5781   1.0344502225e+02   5.6511171925e+01    0.5101295    0.3206371 -76.55  0.002821131    1.375    0.273
       135 -10.2488      9.9820     99.0421   1.0107066353e+02   5.5215430626e+01    0.1963983     0.139812  70.94 0.0006225728    1.528    0.346
       136 -11.2859     14.6359     96.5049   9.8907520318e+01   5.5540478934e+01    0.2728832    0.2105341 -54.18  0.001606072    1.166    0.143
       137  -9.1427    250.3204     95.6632   3.8098637969e+01   1.2603804855e+01    0.1297411   0.08156338 -59.54 0.0007049913    1.708    0.415
       138  -9.8872    101.2002     95.6105   6.7322232947e+01   4.3741192883e+01    0.2108077    0.1460113  31.71 0.0005332629    1.608    0.378
       139 -12.5535    166.4730     83.4714   4.7742070073e+01   3.1718537071e+01    0.9646525    0.8715065   8.43  0.005262386    1.345    0.257
       140 -12.0330     10.4908     90.5951   9.9615969524e+01   5.7290277685e+01    0.2627651    0.2447041 -64.10 0.0003389435    1.080    0.074
       141  -9.9869      9.9860     86.5052   9.9164033968e+01   5.8331340747e+01    0.2056207      0.15155  52.87  0.001182453    1.559    0.358
       142  -9.7475     36.3316     91.6933   8.9462864232e+01   5.4838664190e+01    0.1464384    0.1280293 -47.25 0.0008429968    1.074    0.069
       143  -9.3104     38.3361     89.3106   8.8138204456e+01   5.5209388178e+01    0.2345909    0.1194852 -57.03  0.001046963    1.730    0.422
       144 -12.1343     22.0479     87.5597   9.4387652540e+01   5.7202343062e+01     1.032472    0.2595027 -62.67  0.003642676    3.043    0.671
       145 -11.6109      5.9731     50.8110   9.3749125145e+01   6.6931791397e+01    0.6303957    0.4043128 -66.09  0.003655647    1.464    0.317
       146  -9.8457    109.3573    248.3055   9.1964781363e+01   8.5997750479e+00    0.1187271   0.08889142   2.22 0.0004278358    1.722    0.419
       147 -11.3270      7.1030     40.8382   9.0355724853e+01   6.9007473520e+01    0.3001408     0.174765 -50.67  0.001588488    1.423    0.297
       148 -10.8913     12.0760     57.2324   9.2226376876e+01   6.5114586892e+01     0.223337    0.1611309 -59.61 0.0003529072    1.240    0.194
       149 -14.1254     16.5684     67.4148   9.2518217301e+01   6.2463540261e+01    0.4852178    0.4300423 -68.72  0.001201046    1.144    0.126
       150 -12.3573     13.5778     76.5668   9.5841793687e+01   6.0513296616e+01    0.7778127    0.5789952  80.85  0.003717386    1.566    0.361
       151 -12.3466      6.1200     74.1249   9.8686215622e+01   6.1558897557e+01    0.5914079    0.4021755 -12.94  0.002215617    1.659    0.397
       152 -12.7604      2.9999     62.1976   9.7850647002e+01   6.4523588838e+01    0.8113014    0.4022121 -86.87   0.00317262    2.620    0.618
       153 -11.5207      9.5949     61.1895   9.4413918218e+01   6.4380902916e+01    0.4979574    0.2720085  39.58  0.001469618    2.199    0.545
       154 -10.4659    153.6625     90.5426   5.2262305792e+01   3.3333034188e+01    0.2824138    0.1431192  47.15  0.000948188    2.054    0.513
       155  -9.4920     25.5058     90.5451   9.3559361609e+01   5.6170892907e+01    0.1351944    0.1200629 -58.05 3.243345e-05    1.008    0.008
       156 -10.5298     96.4651     89.0812   6.6939101283e+01   4.6140645003e+01    0.3629841    0.2148987  39.97  0.001552399    1.732    0.423
       157 -10.1513     83.0648     88.4876   7.1164609195e+01   4.8822833154e+01    0.2420385    0.1997019 -37.14 0.0005416985    1.234    0.189
       158 -10.7871     78.1327     88.0223   7.2734119340e+01   4.9809513935e+01    0.3969436    0.3407343  17.91  0.001719047    1.272    0.214
       159 -10.4803    115.8322     87.8280   6.0815566801e+01   4.2381333807e+01    0.2139645    0.1829253 -82.75 0.0006895348    1.320    0.242
       160  -9.9371     67.9356     83.6951   7.5175824396e+01   5.2522556744e+01    0.2830772    0.1390589  25.91  0.001071418    2.583    0.613
       161 -10.3550     47.9244     88.0624   8.4031420373e+01   5.4380081016e+01    0.2066022    0.1916338 -59.51 0.0003233001    1.042    0.040
       162  -9.7837    120.9502     86.4868   5.9021559131e+01   4.1539791730e+01    0.2291836    0.2059265 -48.10 0.0004549575    1.107    0.097
       163 -10.4950      4.9646     86.0082   1.0114967716e+02   5.8745609105e+01    0.1985066    0.1440423 -48.45 0.0004625467    1.251    0.201
       164 -10.2762      7.4993     81.8187   9.9425678305e+01   5.9626638793e+01    0.3870167    0.1751451 -36.10  0.001747321    2.370    0.578
       165 -11.4621     30.3201     81.1623   8.9582629720e+01   5.8021271351e+01    0.4679025    0.2711519 -39.48  0.002270102    1.731    0.422
       166 -10.7725     65.3510     87.1094   7.7093017048e+01   5.2140593723e+01    0.3224997    0.2754228 -51.02   0.00112337    1.119    0.107
       167 -10.0387     74.3651     81.8104   7.2272396574e+01   5.1875702122e+01    0.2759271    0.1783781 -41.82   0.00127272    1.546    0.353
       168  -9.7008     62.6437     82.5402   7.6839452329e+01   5.3623690054e+01    0.1877961    0.1369694  44.69 0.0008624211    1.469    0.319
       169  -9.5613     42.1663     82.1174   8.4864410613e+01   5.6513979574e+01    0.1860444    0.1601578  83.56 0.0004220533    1.341    0.254
       170  -9.2961    146.6695     81.3030   5.1229456973e+01   3.6700469738e+01    0.1553563      0.11584 -79.61 0.0006622133    1.652    0.395
       171  -9.6716    101.2266     80.9685   6.3042044523e+01   4.6923853950e+01    0.1975271    0.1233294 -46.24 0.0003157321    1.597    0.374
       172  -9.4336    183.6069     80.6881   4.3934199304e+01   2.8316264326e+01    0.1449375    0.1123352  19.64 9.562773e-05    1.839    0.456
       173 -12.8621     44.9302     74.9400   8.1807996103e+01   5.7861619780e+01    0.4816988    0.3323992  61.59 0.0008008666    1.982    0.495
       174 -10.7140     42.9851     67.6963   8.0554501663e+01   5.9752204981e+01    0.2839424    0.2359706  -9.69  0.000968644    1.261    0.207
       175 -10.5522     36.0419     68.2035   8.3777293459e+01   6.0462390963e+01    0.3858686    0.1758018  40.09  0.001327976    2.477    0.596
       176 -10.3279    112.4455     79.5411   5.9297627253e+01   4.4825872906e+01    0.2301158    0.1438385  57.40 0.0005512967    1.743    0.426
       177  -9.8278     58.5144     79.4966   7.7570704052e+01   5.4948336234e+01    0.2069658    0.1402396  17.09 -4.672767e-05    1.749    0.428
       178 -12.0834     37.0495    242.9993   1.0646170553e+02   1.8590128455e+01    0.5677581    0.2804278  80.49  0.002145597    2.172    0.539
       179 -10.3230    145.3500     74.5948   4.9593405160e+01   3.8245990043e+01    0.2948999    0.1893907 -37.13  0.001124695    1.591    0.372
       180  -9.3612    121.4971     75.5600   5.5606393869e+01   4.3596413063e+01    0.1493844    0.1445579  84.26 0.0008075238    1.019    0.019
       181 -10.4584     75.7077     74.4286   6.9530579714e+01   5.3264470480e+01    0.4036397    0.2411121  20.40  0.001651654    2.341    0.573
       182 -11.0494     54.7058     74.3174   7.7582328757e+01   5.6684228491e+01    0.3860613    0.2113917  46.38 0.0009249576    2.122    0.529
       183 -11.7849     50.4235     68.0409   7.7456479915e+01   5.8690928237e+01    0.5113177    0.3838331  -0.46 0.0006358524    1.556    0.357
       184 -10.6390     51.9192     62.3845   7.5010044906e+01   5.9702774019e+01    0.3040207    0.2353231 -17.48  0.001644085    1.398    0.285
       185 -10.7039    207.5251     73.0786   3.8442969208e+01   2.4331572444e+01    0.2221924    0.1919457  75.69 0.0003541539    1.226    0.184
       186 -10.9049    101.1070     71.7897   6.0198408133e+01   4.8822443939e+01    0.4325113     0.256276  71.03 0.0008693825    2.942    0.660
       187 -10.9043     47.1988     59.4216   7.6080050821e+01   6.0997538447e+01     0.546168    0.2978244 -46.85  0.002143461    1.711    0.416
       188  -9.9884    152.0794     71.9504   4.7407186842e+01   3.7130840267e+01    0.2151499    0.2074489  87.11 0.0003611801    1.042    0.040
       189 -10.2589     94.5449     71.4680   6.2144007814e+01   5.0256614146e+01    0.2533779    0.1392398 -33.58 0.0005834328    2.110    0.526
       190 -10.2732     78.1282     69.8734   6.7192392036e+01   5.3789012249e+01    0.2630852    0.2178734  16.86 0.0003962248    1.322    0.243
       191  -9.9395     74.7039     69.8131   6.8415751983e+01   5.4424872248e+01    0.3472575    0.1977089 -34.52  0.001482698    1.979    0.495
       192  -9.8296     68.5961     70.7683   7.1009710913e+01   5.5287886773e+01    0.2355334     0.163658 -18.38  0.001086297    1.857    0.462
       193 -10.0262    194.9362     69.6641   3.9374171876e+01   2.7605962808e+01    0.1871997    0.1659517 -89.22 0.0003955818    1.122    0.108
       194 -10.4550    167.8655     69.6560   4.3740133810e+01   3.3802561675e+01    0.2122177    0.1940321 -34.37 0.0003457392    1.172    0.147
       195  -9.2629    230.4775     68.5176   3.4572256313e+01   2.0327331197e+01     0.130171    0.1074068 -54.12 0.0001672224    1.006    0.006
       196 -10.3944    128.3087     66.6577   5.1123682438e+01   4.3680934437e+01    0.4048004    0.2663958  88.87  0.001655408    2.324    0.570
       197  -9.3904    220.5549     67.5902   3.5507144831e+01   2.2455457159e+01    0.1316138    0.1105367 -58.20 4.744321e-05    1.025    0.024
       198 -10.8909     93.6945     66.5952   6.0810214406e+01   5.1397006351e+01    0.2556996    0.2489679 -34.94 0.0003305631    1.034    0.033
       199 -11.8000     44.7003     38.2975   6.9342448029e+01   6.5496174091e+01     0.375773    0.3411365  29.54            0    1.194    0.163
       200 -12.3337     26.7293     50.4088   8.2803185746e+01   6.5357263174e+01      1.47616    0.5565547 -65.37  0.005166265    4.002    0.750
       201 -12.5898    226.6121    245.2888   6.9123612000e+01  -6.1693365391e+00    0.6327211    0.3933522  -0.19  0.004186352    1.486    0.327
       202 -11.2599     29.0839     65.8124   8.6278923262e+01   6.1741880822e+01    0.3434062    0.2045671 -31.97 0.0007613231    1.773    0.436
       203 -10.9654     32.5714     63.7776   8.4091026876e+01   6.1840851218e+01     0.224613    0.2072168 -73.12  0.000315313    1.208    0.172
       204 -12.2573    122.9691     63.8910   5.1567973417e+01   4.5419794450e+01    0.4417959    0.3163468 -67.34 0.0003354255    1.717    0.418
       205 -10.2741    119.2601     65.3361   5.2981172662e+01   4.6019252264e+01    0.2304859    0.2115978 -11.80 0.0002945941    1.210    0.173
       206 -10.6626     78.1244     63.4281   6.5029378212e+01   5.5100661836e+01    0.4728488    0.3020273  70.13  0.001903083    2.740    0.635
       207 -10.7054     66.1783     93.0996   7.8391033370e+01   5.0592103903e+01    0.3785645    0.2155933  29.62  0.001642747    1.917    0.478
       208  -9.7613     31.0712     92.9822   9.1817681262e+01   5.5052031901e+01    0.2249366    0.1399985 -40.35 0.0007404876    1.631    0.387
       209 -10.5858    202.1984     61.9489   3.6463699429e+01   2.7197832433e+01    0.2641832    0.1971281 -29.33  0.001448244    1.454    0.312
       210 -10.2513    151.9726     64.0000   4.5125510252e+01   3.8518018653e+01    0.2388035   0.08159866  57.70            0    2.908    0.656
       211  -9.0105    161.7038     61.3680   4.2533166587e+01   3.6623026892e+01    0.1554081     0.103737 -67.10 0.0007029902    1.726    0.421
       212 -10.3223    113.2066     60.9114   5.3140884021e+01   4.8197697770e+01    0.2182065    0.1932545 -78.16   0.00053106    1.233    0.189
       213 -11.0534     92.5336     60.8623   5.9229734786e+01   5.2732936086e+01    0.3774495    0.2228262  43.75   0.00103279    1.674    0.403
       214 -11.3092     85.6054     59.1142   6.0905958878e+01   5.4479212581e+01    0.4514022    0.3117137 -26.06  0.002142725    1.662    0.398
       215 -10.4780    169.0291     60.0192   4.0882612041e+01   3.5095145163e+01    0.2098839    0.1947206 -72.27            0    1.022    0.022
       216 -11.7735     98.5621     58.3026   5.6453938175e+01   5.1921755380e+01    0.5066999    0.3166449 -26.56  0.001559531    1.927    0.481
       217 -11.1164     58.9572     58.9606   7.0883051027e+01   5.9342036740e+01     0.352443    0.3088889   1.57  0.001192232    1.154    0.133
       218 -10.0248     61.9653     53.7755   6.7787315843e+01   5.9878416659e+01    0.3737203    0.1976024 -32.26  0.001539617    2.189    0.543
       219 -11.2368    147.2655     56.7185   4.3893062738e+01   4.0838348258e+01     0.296565     0.232578 -57.29   0.00040253    1.288    0.224
       220 -11.6637    132.1876     56.1749   4.6904058275e+01   4.4555752690e+01    0.3675148    0.3569146  44.53  0.000836757    1.093    0.085
       221 -11.9912    129.4461     49.6031   4.5393903080e+01   4.6259580197e+01     0.531109    0.4275423  56.49  0.001498116    1.196    0.164
       222 -10.3973     80.1879     60.1713   6.3158309781e+01   5.5344993512e+01    0.3037497    0.1794202 -47.37 0.0002735679    1.742    0.426
       223 -10.4316    110.0087     54.9567   5.1995725581e+01   4.9959945074e+01    0.2198957     0.215841  63.44  0.000516202    1.013    0.013
       224 -12.9424    105.2940     52.3641   5.2399804810e+01   5.1466384605e+01    0.3988318    0.3410918  27.72 0.0004684191    1.251    0.201
       225 -11.1326     75.3200     55.8014   6.3351677077e+01   5.7106618759e+01    0.2381919    0.2265373 -10.80 0.0002380904    1.024    0.023
       226  -9.8273    230.5325     54.8773   3.1553124230e+01   2.2274325264e+01    0.1944449    0.1081057 -38.33  0.001023082    1.567    0.362
       227 -10.7656     88.3110     53.0943   5.7837860167e+01   5.5025576746e+01    0.4178127    0.2478519 -44.46  0.001702298    1.749    0.428
       228  -9.5713     82.3521     53.8359   6.0121097478e+01   5.6105770384e+01    0.1948857    0.1301796 -29.96 0.0006661116    1.626    0.385
       229 -10.6275    119.8407     52.8785   4.8735937978e+01   4.8025748465e+01    0.2282607     0.198839  53.01 0.0003470314    1.114    0.102
       230  -9.1750     96.2525     52.2915   5.5027822642e+01   5.3479369458e+01    0.1365859    0.1103111   8.33 0.0006867916    1.484    0.326
       231  -9.7628     73.0063     51.4816   6.2612193670e+01   5.8344478099e+01    0.2851439    0.1708179  -6.40  0.001037213    3.405    0.706
       232  -9.8807     56.7335     52.1401   6.9361740606e+01   6.1054604841e+01    0.2887053    0.1789346  -8.46  0.001221381    2.573    0.611
       233  -9.6899     52.4975     50.5549   7.0601852376e+01   6.2026864950e+01    0.2489447     0.113324 -36.85  0.001020085    2.366    0.577
       234 -11.5000     34.7859     42.4244   7.5871441546e+01   6.6068071051e+01    0.5891725    0.3252345   3.14  0.002383631    2.764    0.638
       235  -9.6822    181.8050     49.7567   3.6125160970e+01   3.3631868265e+01    0.1934045    0.1433247 -68.22 0.0003655481    1.325    0.245
       236  -9.6817    167.8517     49.1044   3.8026623563e+01   3.7033486190e+01    0.1745398    0.1635231  42.56            0    1.243    0.195
       237 -10.3392     78.3284     47.6085   5.9196379961e+01   5.8009592291e+01    0.3488114    0.1619809 -29.91  0.001074922    2.724    0.633
       238 -10.8080     59.3605     47.0871   6.6333081647e+01   6.1581062764e+01     0.397395    0.3090178  66.40  0.002107603    1.801    0.445
       239 -10.1307    120.0870     46.7864   4.6611759846e+01   4.8931205254e+01    0.2050901    0.1826922  82.40 0.0002702759    1.144    0.126
       240 -10.2556    104.5224     46.9179   5.0673751308e+01   5.2531319512e+01    0.2666448    0.1889331  37.58 0.0006371743    1.480    0.324
       241 -10.0325    151.4755     45.9503   3.9849985946e+01   4.1456512495e+01    0.2075161    0.1850811  79.87 0.0004712987    1.057    0.054
       242 -10.5697    143.0329     45.1788   4.1169838316e+01   4.3628268526e+01    0.2339751    0.1999415 -46.60 0.0005573728    1.186    0.157
       243 -10.1256    113.2735     44.6801   4.7555509362e+01   5.0860511034e+01    0.3805403    0.2158407  27.98   0.00147162    2.790    0.642
       244 -10.9377     91.7314     43.1071   5.3009625908e+01   5.5975903148e+01    0.4772779    0.2270885 -43.42  0.001996171    2.249    0.555
       245 -10.7735     95.5179     42.9560   5.1801712632e+01   5.5172316642e+01    0.3892382    0.2609644 -15.22 0.0009477181    1.924    0.480
       246 -10.5215     98.2692     37.6511   4.8985239667e+01   5.5361695713e+01    0.2529558    0.2185108 -47.69 0.0005102194    1.248    0.199
       247 -11.0525    100.1695     35.3601   4.7579725181e+01   5.5260684514e+01    0.3993638     0.273642 -82.81  0.001828272    2.231    0.552
       248 -11.4248     51.8584     43.2338   6.8055434479e+01   6.3509863527e+01    0.4878191    0.2594229 -32.40  0.002236449    2.048    0.512
       249  -9.6216     85.8391     45.4299   5.5783855541e+01   5.6852506918e+01       0.2717   0.09850295 -40.52 0.0009901619    2.825    0.646
       250  -9.7780    187.0479     43.0036   3.3642299976e+01   3.3360554259e+01    0.2212126      0.14114 -67.66 0.0005359291    1.626    0.385
       251 -11.3493    158.2524     42.6487   3.7709772703e+01   4.0276447596e+01    0.2442382    0.2190805 -79.37 0.0002822515    1.032    0.031
       252 -11.1404    131.1820     41.6367   4.2396403897e+01   4.7026792072e+01    0.3036472     0.245635 -56.75 0.0005700981    1.285    0.222
       253 -10.5995     81.4668     41.8297   5.5849279817e+01   5.8345270340e+01    0.2550252    0.1849412  46.18 0.0007072696    1.329    0.247
       254 -10.4405     18.5144     42.2586   8.4412623606e+01   6.7835481560e+01    0.7861952    0.1206705 -46.81  0.002488775    4.508    0.778
       255 -10.2403     33.5415     32.3981   7.2438270168e+01   6.8097944030e+01    0.5378098     0.214818  27.36  0.001285869    2.747    0.636
       256 -10.8858     24.0935     41.4966   8.1110555553e+01   6.7458115017e+01    0.2850115    0.2391142  15.81 0.0009162077    1.235    0.190
       257 -12.7103     27.6203     37.8974   7.7857465959e+01   6.7789111349e+01    0.3725786    0.2929802  28.07 0.0003802647    1.354    0.262
       258 -11.8465     24.5135     34.5009   7.8215260795e+01   6.8779781188e+01    0.2619486    0.1996218  -7.03 0.0005054788    1.270    0.213
       259 -10.2113    148.6136     40.1523   3.8588849670e+01   4.2976575197e+01    0.3162892    0.1632012 -36.42  0.001402245    1.948    0.487
       260  -9.4510    121.2818     41.3361   4.4460063396e+01   4.9459458844e+01     0.141537    0.1086429  22.95 0.0003307165    1.619    0.382
       261 -13.2674     74.3671    238.4481   9.8360391630e+01   1.5021025534e+01     0.799827    0.6775349 -85.34  0.005481481    1.293    0.227
       262 -11.4017     70.0145     37.1485   5.8055317918e+01   6.1372001913e+01    0.4252505    0.3169052 -24.61 0.0004283949    1.400    0.285
       263 -11.5836     74.5497     35.9143   5.5870152572e+01   6.0678862905e+01    0.3227983    0.2700349  38.73 0.0003099227    1.134    0.118
       264 -10.8423    226.1240     33.0254   2.7126219888e+01   2.6072706429e+01    0.1968415    0.1598973 -61.62 0.0002823283    1.019    0.019
       265 -11.3743    225.0038     37.7307   2.8272582312e+01   2.5705377080e+01     0.322232    0.2083448 -77.70  0.000455546    1.530    0.346
       266 -11.4737    221.7401     31.9478   2.7265436998e+01   2.7120084368e+01    0.2555483     0.174579 -46.59 0.0003013811    1.253    0.202
       267  -9.8841    249.4958     37.5045   2.6194495713e+01   2.0900407438e+01     0.120172   0.09287979 -56.96   0.00081065    1.009    0.009
       268 -10.2824    110.8556     36.0625   4.5065370911e+01   5.2685531827e+01    0.2825351    0.2198831 -40.39 0.0005819956    1.354    0.262
       269 -11.0456     82.6454     36.0689   5.3142944625e+01   5.8999591998e+01    0.4541086    0.2730043  30.00    0.0020953    1.960    0.490
       270  -9.7436      1.3064     36.6654   9.2485315237e+01   7.0222648535e+01    0.2975726     0.108913 -69.85  0.001227706    3.221    0.690
       271  -9.9814    163.8688     36.1509   3.4944745471e+01   3.9794115981e+01    0.1802236    0.1568597  49.04  0.000390374    1.291    0.225
       272 -12.7886     57.8361     34.0320   6.1598826279e+01   6.4108520509e+01    0.3409502    0.2811967  21.58 0.0006623611    1.154    0.134
       273  -9.5382     37.5549     36.0470   7.1913408779e+01   6.6910467102e+01    0.1841399    0.1411832  19.48 0.0005823518    1.281    0.219
       274  -9.5846    134.4736     34.9570   3.9530588100e+01   4.7144806756e+01    0.2044845    0.1355601 -36.55  0.001017784    1.566    0.362
       275 -12.2146      8.5539     31.9735   8.6575476536e+01   7.0715560747e+01    0.3888161    0.2752926 -60.39  0.001150116    1.463    0.317
       276 -10.9213     17.1946     31.0442   8.1032288602e+01   7.0174670274e+01    0.4115425    0.1990122  20.61  0.002092428    2.158    0.537
       277 -10.2641    205.7202     32.2774   2.8839431956e+01   3.0532620945e+01    0.2083714    0.1470394  82.25 0.0005927294    1.372    0.271
       278 -10.2407    166.8094     31.7886   3.3276217901e+01   3.9644871202e+01    0.2219708    0.1852698 -21.12  0.001278486    1.428    0.300
       279 -10.1796     49.6924     28.8841   6.2889551274e+01   6.6315578964e+01    0.4777737    0.2205234 -31.75  0.002126798    2.366    0.577
       280  -9.6958     44.0102     31.4662   6.6732729593e+01   6.6789981845e+01    0.1780393    0.1199231  35.72 -5.019873e-05    1.477    0.323
       281 -10.7265    102.5379     29.3636   4.4646103820e+01   5.5531534753e+01    0.3487378    0.2495984  67.15   0.00117557    1.422    0.297
       282  -9.7304    237.5340     29.4682   2.5433928060e+01   2.4206765544e+01    0.1197694   0.09712094 -60.30 0.0001590136    1.054    0.051
       283 -10.8557    197.9688     28.0528   2.8588178734e+01   3.2792680842e+01    0.1945784    0.1520272  41.06  0.001132271    1.712    0.416
       284 -10.2553    111.9590     27.0669   4.1491768467e+01   5.3608968658e+01    0.2732514    0.1942998 -21.40  0.001015196    1.606    0.377
       285 -10.1079    111.5175     22.4667   3.9877109967e+01   5.4268201436e+01    0.1848702    0.1784178 -85.26 0.0006822846    1.083    0.077
       286 -11.3483     66.0509     27.6108   5.5436276414e+01   6.3584090489e+01    0.4307606     0.216506  30.66  0.001160424    2.422    0.587
       287  -9.6321    107.7551     27.6022   4.2676458571e+01   5.4538049106e+01    0.1880833    0.1261945  70.68 0.0006889856    1.554    0.356
       288 -10.8319    172.8662     25.6290   3.0759068458e+01   3.8944159940e+01    0.3229702    0.2286479  44.84  0.001186633    1.707    0.414
       289 -10.3803    128.7899     18.9563   3.5198442203e+01   5.0478649088e+01    0.2471776    0.2022964 -10.17 0.0007616957    1.469    0.319
       290 -10.2365    128.4500     26.4606   3.7832820149e+01   4.9696632351e+01    0.2433142     0.171722  72.65 0.0005274658    1.359    0.264
       291 -10.3525    129.0000     23.0114   3.6550001547e+01   4.9970119861e+01    0.2936354    0.1950279 -21.99 0.0009386389    1.755    0.430
       292  -9.6033    117.5341     26.4332   4.0027691186e+01   5.2351230562e+01    0.1367003     0.124985  66.55  1.44918e-05    1.007    0.007
       293 -10.1672      1.6051     25.9085   8.8771274800e+01   7.2373100693e+01     0.165877    0.1260931 -44.11 0.0005971475    1.128    0.113
       294  -9.4447    219.2351     25.3862   2.5997927753e+01   2.8452792248e+01    0.1594694    0.1032898 -85.66 0.0003315888    1.478    0.324
       295  -9.6429    214.5500     25.1994   2.6352718991e+01   2.9475686272e+01    0.1542273    0.1173888 -24.34 0.0004582606    1.592    0.372
       296 -10.7420     22.6835     24.2991   7.4899621241e+01   7.0841609135e+01    0.2409655    0.1996365 -12.96 0.0008084812    1.029    0.028
       297 -10.7019     24.4665     21.2905   7.2439042904e+01   7.1150028490e+01    0.2660943    0.2446109  46.76  0.001446519    1.483    0.326
       298 -11.0534     88.6500    240.9439   9.5556375785e+01   1.2689499380e+01     0.238742    0.1384071 -50.92  0.001314994    2.121    0.528
       299  -9.5860     98.0381    241.7873   9.3654878497e+01   1.1280295414e+01    0.1716198   0.08370364  35.13 0.0004947016    1.694    0.410
       300 -10.0452    195.6231    238.2556   7.3550983647e+01  -1.4895561333e+00    0.2009016     0.135965 -21.58  0.001276827    1.475    0.322
       301 -10.7015      7.3381     24.8609   8.4652479929e+01   7.2183390958e+01    0.3199257    0.1582261  17.12  0.001292314    2.090    0.521
       302 -11.5954     13.6957     23.2133   7.9904098365e+01   7.1955423739e+01    0.3127071     0.186562   0.10 0.0002384144    1.830    0.453
       303 -10.7225    244.1421    236.8987   6.4980504697e+01  -7.0867001424e+00    0.1570778     0.130023  -6.95  0.001115261    1.264    0.209
       304 -10.1927    160.1297    235.7908   8.0035854953e+01   3.6598077534e+00    0.1700128    0.1277882   6.07 0.0004224631    1.345    0.256
       305 -11.3587    165.0978     22.8050   3.0939721528e+01   4.1147652938e+01    0.2360728    0.1882733 -42.05 0.0003130835    1.279    0.218
       306 -10.9697    168.2956     21.3194   3.0117335673e+01   4.0546202864e+01    0.2353319    0.2139113  66.43  0.000543126    1.189    0.159
       307 -11.4544     58.9570     21.0916   5.5218971844e+01   6.5840371212e+01    0.4653738    0.2449589  35.03  0.002184384    1.907    0.476
       308 -11.7519     22.6149    248.7682   1.0962323611e+02   1.9021820568e+01    0.3656171    0.2153093  48.78  0.001310525    1.277    0.217
       309  -9.8390    177.3642    234.8455   7.6504521898e+01   1.4289906306e+00     0.165198    0.1028067 -28.93 0.0009469943    1.748    0.428
       310 -12.2461    235.1458    248.5725   6.8188546294e+01  -7.5117132691e+00    0.4498561    0.2483518  -3.68  0.002770728    1.877    0.467
       311 -11.0898     30.5602    234.5480   1.0730261173e+02   2.0952734755e+01    0.3809275    0.1507354  79.62  0.001696778    3.059    0.673
       312 -10.7218     86.7743    232.8838   9.5171009711e+01   1.4466369889e+01    0.2612121    0.1230205  52.38   0.00123409    2.102    0.524
       313  -9.7446    186.2967     22.8613   2.8483327950e+01   3.6096959637e+01    0.2122039    0.1346468 -52.79 0.0007736274    1.439    0.305
       314 -10.7161    102.8162     21.1279   4.1371342097e+01   5.6481482991e+01    0.5189469    0.3157844  55.09  0.002629669    1.472    0.321
       315  -9.6518     97.5052     23.4743   4.3634978674e+01   5.7434057158e+01    0.3253352    0.2813045  10.90  0.001294745    1.263    0.209
       316 -10.3106     94.2289     23.0143   4.4318944988e+01   5.8237999779e+01    0.2666578    0.2015153 -22.55 0.0008767504    1.449    0.310
       317 -10.5345     85.3942     21.2275   4.6070318333e+01   6.0429071293e+01    0.4459952     0.174713  51.42  0.001857398    2.241    0.554
       318 -10.3270      9.6853     15.8393   7.9162135022e+01   7.3626847594e+01    0.2593839    0.1564176 -10.92 0.0009927398    1.724    0.420
       319 -10.4968      6.1927     20.4015   8.3571935596e+01   7.3102085488e+01    0.2303102    0.1436932   9.84 0.0007568439    1.608    0.378
       320 -10.0906     38.5097    232.4101   1.0551478743e+02   2.0517198943e+01    0.1864872    0.1440888  86.90 0.0002230975    1.260    0.206
       321 -10.0625     24.2557    232.1342   1.0847232046e+02   2.2097826162e+01    0.1783302    0.1494295  36.38  0.000616496    1.317    0.241
       322  -9.3373     58.5046    229.4835   1.0101946797e+02   1.8775808276e+01     0.125555    0.1012542  55.68 0.0001153174    1.012    0.012
       323 -11.1585      4.1725    226.6772   1.1232993762e+02   2.5147932843e+01    0.2848649    0.1501791  79.30  0.001693138    1.648    0.393
       324 -10.1019    173.2477     20.1928   2.9214695762e+01   3.9486016406e+01    0.1927792    0.1343384 -67.85 0.0008537162    1.365    0.268
       325  -9.7088    139.0606     19.5249   3.3662570054e+01   4.7893530124e+01    0.2134266     0.121937  68.41  0.001032681    1.593    0.372
       326 -10.9990    121.3059    226.4456   8.6912400324e+01   1.0846222069e+01    0.2856275    0.1754601  68.99  0.001343212    2.566    0.610
       327 -10.2386     46.6360     17.1359   5.8630246310e+01   6.8569774100e+01    0.3775637    0.2079547 -10.28    0.0012985    2.750    0.636
       328  -9.3114    190.4928    226.4703   7.2737855264e+01   9.1205126404e-01    0.1229794    0.1002039   6.73   9.0524e-05    1.036    0.035
       329 -10.6109     43.6834     13.7006   5.8244777912e+01   6.9530835982e+01    0.2240687    0.1503562  30.24 0.0005589042    1.380    0.275
       330  -9.6935    109.8144    242.5958   9.1262272015e+01   9.5350279755e+00    0.1777703   0.09246623  42.73 0.0003305289    1.618    0.382
       331 -10.7146     15.7030    221.7959   1.0972595507e+02   2.5078282160e+01    0.3344758    0.0856229  42.02  0.001484032    2.642    0.622
       332  -9.9315    124.9982    220.7961   8.5372688704e+01   1.1362729838e+01    0.2407161    0.1609102   6.00  0.001204388    2.048    0.512
       333 -11.1127     21.3787    220.2538   1.0843587798e+02   2.4842884714e+01    0.2202238    0.1313637  81.26   0.00129958    1.525    0.344
       334  -9.8411     42.3074    220.6514   1.0389595567e+02   2.2518337301e+01    0.1361044   0.07321028  61.07  0.000704328    1.705    0.414
       335 -10.9250    177.9636     17.9980   2.8091172419e+01   3.8611027157e+01    0.1908027    0.1651863 -80.05  0.001201912    1.023    0.022
       336  -9.9571    151.9716     18.0184   3.1271380810e+01   4.4886531917e+01     0.213703    0.1844387 -88.76  0.001298539    1.034    0.033
       337 -10.5571     11.0873    207.9172   1.1002073584e+02   2.8486915943e+01    0.2513801    0.1683424 -84.15 0.0008311631    1.377    0.274
       338 -10.1194    108.3883     17.2570   3.8590710890e+01   5.5600692153e+01    0.2129186    0.1834125  34.53 0.0004578831    1.204    0.169
       339 -10.7337    194.9268     16.8062   2.6092268570e+01   3.4801580333e+01    0.1991535    0.1670235 -73.22 0.0003291577    1.016    0.016
       340 -10.0561    143.4360     16.3237   3.1961365237e+01   4.7164678928e+01    0.2158321     0.136219 -19.30 0.0007878811    1.931    0.482
       341  -9.2674     82.5165     17.4078   4.5267385609e+01   6.1512060464e+01    0.1332379    0.1145424  37.84 8.215474e-05    1.062    0.059
       342 -11.3405    247.0798     14.8891   2.1782710885e+01   2.4062500146e+01    0.1944637    0.1194865 -60.86   0.00124499    1.286    0.222
       343 -10.0143    184.6798     14.8001   2.6555469700e+01   3.7385108196e+01    0.3065487    0.1292166  67.30  0.001405228    2.169    0.539
       344 -10.1779    225.7588     14.0660   2.2988392365e+01   2.8398311544e+01    0.2124019    0.1388752  49.69  0.001237921    2.118    0.528
       345 -11.5108     10.5666    217.0529   1.1058437756e+02   2.6565334117e+01     0.356179    0.2736224  15.10  0.002356282    1.725    0.420
       346 -10.0286     12.5226    212.5073   1.0994004193e+02   2.7355904898e+01    0.2282412    0.1262478 -88.04 0.0007832753    1.650    0.394
       347  -9.7446     38.2648    217.3782   1.0455907149e+02   2.3669128452e+01    0.1769796   0.09126875  43.28  0.000728673    1.601    0.375
       348 -11.4055     29.2780    215.5759   1.0643452514e+02   2.5028559980e+01    0.3034973    0.2129058  31.95  0.001342815    1.458    0.314
       349 -11.4877    235.8985    214.3549   6.2737956280e+01  -3.2344912573e+00    0.2295631    0.1852798 -14.12  0.001154697    1.117    0.105
       350 -11.7197    237.9226    209.9517   6.1676084643e+01  -2.8794751141e+00    0.2667455     0.243608   9.34  0.001459376    1.380    0.276
       351  -9.8172    136.7577    215.4559   8.2058090800e+01   1.0601896883e+01     0.190573    0.1168316  22.83 0.0009473544    1.710    0.415
       352  -9.2539    169.6992    213.3034   7.4767713000e+01   6.0030046804e+00    0.1186575   0.09997755  61.78 0.0004340135    1.589    0.371
       353  -9.7309    100.1452     13.0662   3.8793383444e+01   5.7988100683e+01    0.2262562    0.1394279  23.96  0.001088571    2.093    0.522
       354  -9.5487     83.7659     13.5807   4.3215379662e+01   6.1665226570e+01    0.1677092    0.1195832  68.04 0.0002375229    1.477    0.323
       355  -9.4357    110.0000    212.0089   8.7573931366e+01   1.5318068600e+01     0.201011   0.07685266 -58.46 0.0007993776    2.921    0.658
       356 -10.4239     20.7894    212.0910   1.0810222992e+02   2.6649907979e+01     0.202592    0.1292335  63.96  0.001218359    1.307    0.235
       357 -11.0208      1.4934    211.0286   1.1225156749e+02   2.8663056015e+01    0.2444611   0.09928857 -83.16 0.0009801252    2.226    0.551
       358 -12.0350      5.5184    208.7032   1.1128076014e+02   2.8815968417e+01    0.4423267    0.2602681 -82.14  0.001895874    1.556    0.357
       359 -10.7226    247.3378    205.6758   5.9453205488e+01  -3.4399239871e+00    0.2038164    0.1397954 -36.10  0.001353803    1.461    0.315
       360  -9.2004    188.2395    204.9891   6.9713024790e+01   4.6402932097e+00    0.1560957    0.1024305 -38.87 0.0005487922    1.543    0.352
       361 -10.6822     20.3368    199.4985   1.0744053466e+02   2.9489251773e+01    0.3023918    0.1560287 -60.36  0.001106287    2.087    0.521
       362 -10.6295    175.3279    202.3111   7.1829175155e+01   7.0512044090e+00    0.2246827    0.2030648  26.42 0.0004293911    1.131    0.116
       363  -9.8975    117.1132    201.5176   8.4482724145e+01   1.6387096798e+01    0.2114065    0.1244011  35.74  0.001018804    1.550    0.355
       364  -9.3277    238.4973    200.5111   5.9983006406e+01  -1.6326049592e+00    0.1187557   0.09388532 -10.53 8.528473e-06    1.008    0.008
       365  -9.8344     58.2419    195.9976   9.8036306690e+01   2.6059147008e+01    0.1705638    0.1073446 -73.75 0.0008438688    1.600    0.375
       366 -11.6440     16.1370    192.9571   1.0801540064e+02   3.1382822181e+01    0.4252913    0.2492203  27.00  0.002025363    1.835    0.455
       367 -10.1890    244.9262    188.0321   5.6781985315e+01  -6.7335692842e-01     0.184953    0.1445779 -14.28 0.0005392837    1.037    0.035
       368 -10.4683    168.0736    183.4764   7.0038578590e+01   1.1660022735e+01    0.2774604    0.2215709  82.27  0.001446817    1.897    0.473
       369  -9.3997      2.3342    187.3213   1.1096431070e+02   3.3879464203e+01    0.1165368   0.08549081 -50.38 0.0004613395    1.704    0.413
       370  -9.6762     61.6352    184.7916   9.5965860168e+01   2.8246915377e+01    0.1939323    0.1216357 -85.92 0.0009462496    1.698    0.411
       371 -11.5143     15.7826    181.8529   1.0737671782e+02   3.4012559902e+01    0.4520277    0.2190676  66.42  0.002187169    1.982    0.495
       372  -9.7835     58.8641    181.8427   9.6344304033e+01   2.9309320382e+01    0.1963221    0.1882463 -46.81 0.0007389315    1.237    0.192
       373  -9.1742      1.6747    180.2711   1.1075320007e+02   3.5572126948e+01     0.130057   0.07158186  59.16 0.0003211792    1.576    0.366
       374  -9.8209    244.4095    177.8353   5.5030549925e+01   8.8510060358e-01    0.1840722   0.09393906 -26.94 0.0009547292    1.839    0.456
       375 -10.3601     46.5516    177.4586   9.9087711707e+01   3.1882795323e+01    0.2507341    0.2146963  71.63  0.001309183    1.029    0.029
       376  -9.1170     34.2438    173.6693   1.0196435307e+02   3.4183066257e+01    0.1372657   0.08630088  69.48 0.0001499092    1.542    0.351
       377 -10.7476     18.5217    173.0241   1.0604201095e+02   3.5885254809e+01    0.2576445    0.1466977  48.14  0.001210611    1.607    0.378
       378 -10.5539      7.4987    173.0601   1.0888214330e+02   3.6822129298e+01    0.1982577    0.1070105 -79.77  0.001038453    1.616    0.381
       379 -12.4884     36.9912    165.6190   1.0041996000e+02   3.5881675878e+01    0.8222861    0.6334257 -20.47  0.002063269    1.795    0.443
       380 -10.4717     35.4700    161.4731   1.0040476323e+02   3.7082623233e+01    0.2457954    0.2223973 -86.72 0.0005650506    1.079    0.073
       381 -11.8090     51.9919    162.0418   9.5819792055e+01   3.5049132687e+01    0.6896212    0.4495169  79.29   0.00337488    1.643    0.392
       382 -10.4207      5.0578    168.4956   1.0921873215e+02   3.8115135338e+01     0.173735    0.1207964  28.89  0.001029418    1.580    0.367
       383 -10.7003     55.4915    161.4521   9.4755451319e+01   3.4760537424e+01    0.3446614    0.2264708  64.43  0.001212206    1.587    0.370
       384 -10.2933    186.8017    165.1888   6.2703047374e+01   1.1911480120e+01    0.2273424     0.160984 -89.55 0.0009661607    2.945    0.660
       385  -9.3494    177.2526    168.6349   6.5311670516e+01   1.2923233586e+01    0.1327322    0.1100588 -75.24 0.0002808567    1.624    0.384
