#   1 NUMBER                 Running object number                                     
#   2 MAG_AUTO               Kron-like elliptical aperture magnitude                    [mag]
#   3 X_IMAGE                Object position along x                                    [pixel]
#   4 Y_IMAGE                Object position along y                                    [pixel]
#   5 X_WORLD                Barycenter position along world x axis                     [deg]
#   6 Y_WORLD                Barycenter position along world y axis                     [deg]
#   7 A_WORLD                Profile RMS along major axis (world units)                 [deg]
#   8 B_WORLD                Profile RMS along minor axis (world units)                 [deg]
#   9 THETA_WORLD            Position angle (CCW/world-x)                               [deg]
#  10 FWHM_WORLD             FWHM assuming a gaussian core                              [deg]
#  11 ELONGATION             A_IMAGE/B_IMAGE                                           
#  12 ELLIPTICITY            1 - B_IMAGE/A_IMAGE                                       
         1 -13.8829    201.9023     16.9991   6.3192774466e+01   3.1885092471e+01     1.163056      1.08807 -38.82  0.004719334    1.212    0.175
         2 -13.9492    207.8676     10.7726   6.0976682235e+01   3.1056354839e+01     3.533928     1.752651  27.88  0.001839559    4.978    0.799
         3 -12.8790      2.1675      3.6913   1.1589921696e+02   7.3994946635e+01    0.9140164    0.4906868  25.48  0.005990852    2.081    0.520
         4 -12.1083      2.1665     13.2795   1.2010452336e+02   7.2460507352e+01     1.009373    0.1313929 -53.11  0.003372077    5.764    0.827
         5 -11.4158    190.1252     15.7971   6.4213665199e+01   3.5013088803e+01    0.3082491    0.2254907 -40.52  0.001001578    1.414    0.293
         6 -11.8237     51.2770    238.4927   1.4166462009e+02   2.0649526822e+01    0.9170897    0.4365171  80.81  0.003917826    2.305    0.566
         7  -9.1493    205.3121    250.3321   1.1449745873e+02  -4.7137542210e+00    0.1201206   0.07572301  14.69 0.0007044112    1.677    0.404
         8  -9.6777    189.0140    250.5268   1.1744118083e+02  -2.1987151827e+00     0.185432   0.09262118  39.12 0.0005485956    1.548    0.354
         9  -9.8839    184.0311    250.3870   1.1832393153e+02  -1.3919086047e+00    0.1750554    0.1216035  35.18 0.0004045761    1.104    0.094
        10 -10.4292    136.1531    227.8433   1.2438384178e+02   9.8642082633e+00    0.2856735    0.1752219 -55.03  0.001591392    1.992    0.498
        11 -11.8585    149.8034    248.5605   1.2438759504e+02   4.3690983136e+00    0.5717158    0.3326367  59.63  0.003109848    2.022    0.505
        12 -12.8599    123.9437    233.2190   1.2745336434e+02   1.0987196752e+01     1.067612    0.3704307  45.37  0.003909583    2.292    0.564
        13 -11.4220    135.6657    241.1005   1.2614114411e+02   7.7951581156e+00    0.3138609    0.2268001  36.91 0.0009878642    1.229    0.186
        14 -11.7640    135.3549    236.2370   1.2560672575e+02   8.6199849704e+00     0.465428    0.3431062  17.59  0.001455229    1.780    0.438
        15 -10.7202    133.7974    232.9814   1.2550344534e+02   9.4067746714e+00    0.2538102    0.1938138 -52.40 0.0008800947    1.624    0.384
        16 -11.4622    133.6025    249.2449   1.2748359217e+02   6.8686294742e+00    0.6317574    0.3463407  57.81  0.003445194    1.888    0.470
        17 -10.2894    123.1164    249.8815   1.2950058158e+02   8.4268538093e+00    0.3138055    0.1718088  41.39  0.001806408    1.443    0.307
        18 -10.0648    126.6060    248.8332   1.2873865758e+02   8.0409530419e+00    0.2385325    0.1907562  77.85 0.0008897628    1.403    0.287
        19 -11.8981    122.0884    244.9247   1.2915215480e+02   9.3689402734e+00    0.7636853    0.2318735  39.78   0.00319036    2.701    0.630
        20 -11.4364    126.4524    240.3209   1.2780512194e+02   9.4116487406e+00    0.4397742    0.2932639  53.77  0.002309924    1.275    0.216
        21 -11.1186    114.9857    250.2449   1.3104156909e+02   9.6329927891e+00    0.5059596    0.2033871  40.88  0.002522399    1.967    0.491
        22 -11.8175    109.6351    246.7905   1.3167857932e+02   1.1008640619e+01    0.4822119    0.3542624 -78.98  0.002518714    1.615    0.381
        23 -11.6567     99.1310    247.2752   1.3367078264e+02   1.2518731902e+01    0.6052579    0.2738016  43.83  0.003266427    1.704    0.413
        24 -10.2939    101.3543    240.1840   1.3256040785e+02   1.3370650993e+01    0.2202335    0.1346523  75.01 0.0004715549    1.903    0.474
        25 -10.1853     89.1800    250.6625   1.3579582739e+02   1.3419113323e+01    0.5102377    0.1037551  40.95  0.001937121    3.644    0.726
        26 -10.6275     89.3784    247.0034   1.3543612417e+02   1.3998384207e+01    0.3445515    0.1586427  51.48   0.00140492    1.704    0.413
        27  -8.3631     74.8949    250.5285   1.3834485472e+02   1.5451473863e+01     0.229848   0.09144258  39.81   0.00118851    2.124    0.529
        28 -12.0426     62.4882    245.4500   1.4016338034e+02   1.7984565750e+01     1.034673    0.5435892  31.34  0.005724198    2.399    0.583
        29 -13.5672      4.1534    166.5879   1.4590418981e+02   4.0012578464e+01     1.912037    0.8885985  84.67  0.006155072    1.937    0.484
        30 -14.7335     16.3017    150.5474   1.4183073514e+02   4.2523271737e+01     2.660108     1.995063 -78.65   0.01799162    1.119    0.107
        31 -12.7496     40.9503    228.5861   1.4284992367e+02   2.3719718077e+01    0.2983777    0.2708744 -80.30 0.0007990468    1.463    0.316
        32 -13.9469     47.2052    219.2117   1.4100880470e+02   2.4737620881e+01     1.013817    0.6224509  61.96  0.005643563    1.311    0.237
        33 -12.6938      1.4087    241.1666   1.5027637829e+02   2.5685248125e+01     0.468712    0.1758717 -79.88 0.0003848371    2.362    0.577
        34 -10.2356    199.9260    245.8821   1.1481426046e+02  -3.3351069219e+00    0.1673025    0.1345148  57.04 0.0006204215    1.647    0.393
        35 -10.4596    193.7835    245.2417   1.1583139439e+02  -2.2828137012e+00    0.1984485    0.1656815  19.96 0.0003022298    1.121    0.108
        36 -10.4314    222.0852    244.9509   1.1075067699e+02  -6.6291649502e+00    0.1896357    0.1158318  12.96  0.001126484    1.684    0.406
        37 -11.8310    249.2783    241.5733   1.0559982073e+02  -1.0181715520e+01    0.3786276    0.2065758 -34.06   0.00232906    2.137    0.532
        38 -11.2500    143.2548    249.1494   1.2567709444e+02   5.3383590042e+00    0.5100387     0.321256 -82.89   0.00240863    2.895    0.655
        39 -10.6166    104.2823    237.8634   1.3176653856e+02   1.3317860677e+01     0.212538    0.1669907  53.01 0.0006662151    1.036    0.035
        40 -10.3003    164.9980    242.1907   1.2072608801e+02   2.8081627067e+00    0.1835143     0.167041  30.79 0.0003692113    1.168    0.144
        41  -9.4859     83.6045    242.2467   1.3607366956e+02   1.5638637626e+01     0.132474    0.1061452 -67.53 0.0004631343    1.523    0.343
        42 -10.8688    172.7937    239.9058   1.1894953208e+02   1.8460966763e+00    0.2730977    0.2039329 -62.21   0.00131772    1.952    0.488
        43 -10.8214    115.8200    239.8770   1.2978247636e+02   1.1179685706e+01     0.219977    0.1880681  57.05 0.0006454508    1.106    0.096
        44 -11.5961     89.3546    237.5746   1.3457119047e+02   1.5615458876e+01    0.3668879    0.2369168  56.66   0.00195431    1.240    0.194
        45 -11.3923     96.4504    239.1088   1.3337959259e+02   1.4295204250e+01    0.4044121    0.2507414 -83.77  0.001917148    1.943    0.485
        46 -10.4753    165.6563    235.2038   1.1964312580e+02   3.7169501466e+00    0.2352306    0.1943885  12.53  0.001174484    1.340    0.253
        47 -10.0898    161.9839    232.5131   1.1997041935e+02   4.7403677311e+00    0.1973768    0.1592419  58.27 0.0006851878    1.323    0.244
        48  -9.8542     55.6997    235.7574   1.4066939880e+02   2.0580518073e+01    0.2737095    0.1440393  66.16  0.001191188    1.683    0.406
        49  -9.5279     93.9731    217.0039   1.3154449312e+02   1.8668234470e+01    0.2455389    0.1513067  86.94 0.0007756985    1.963    0.490
        50 -11.2275     98.5952    231.7498   1.3222171482e+02   1.5254273787e+01    0.3672302    0.2945547 -87.92 0.0006986296    1.326    0.246
        51 -10.5961     92.5945    226.0170   1.3279481937e+02   1.7199681073e+01    0.2795827    0.1709294  47.01 0.0009488693    1.333    0.250
        52 -11.4349     99.2595    223.5411   1.3120745655e+02   1.6630856753e+01    0.4700557    0.2643946  46.21  0.001057164    1.450    0.311
        53 -11.2380    112.7280    230.1221   1.2928450050e+02   1.3328175690e+01    0.3649938    0.3037094  59.77  0.001593641    1.067    0.063
        54 -11.4297    106.1429    229.1432   1.3046700008e+02   1.4544656587e+01    0.5594864     0.262034  55.47  0.002119093    2.034    0.508
        55  -9.5737     77.9597    233.2146   1.3632263761e+02   1.8035324296e+01    0.2046212    0.1462338  88.00  0.001045014    1.392    0.282
        56 -11.1588    156.5038    231.8199   1.2093269921e+02   5.7760498233e+00    0.2419447     0.203516  26.24 0.0007945638    1.195    0.163
        57 -13.2798      6.4868    249.0723   1.4977929136e+02   2.3827847515e+01    0.7342358    0.3385507  39.61   0.00489817    1.995    0.499
        58 -10.7909    141.7082    230.5491   1.2364490270e+02   8.4819416025e+00    0.3356957    0.2043833 -38.64  0.001444845    2.247    0.555
        59 -11.5619    141.9898    221.7715   1.2240435283e+02   9.8903344879e+00    0.3714681    0.3330608  29.60 0.0003673791    1.187    0.157
        60 -11.1627    138.0122    214.2281   1.2215186961e+02   1.1885446611e+01    0.4871604    0.3521728  32.34  0.001180728    1.370    0.270
        61 -10.7096     84.7005    229.5022   1.3468581801e+02   1.7737640372e+01    0.3094175    0.2390607  44.99  0.002062394    1.240    0.193
        62 -10.7268     77.5033    220.9566   1.3526288442e+02   2.0367268493e+01     0.275434    0.1758714  64.80 0.0007597622    1.388    0.280
        63 -10.8175     80.4656    227.4136   1.3530482311e+02   1.8734615815e+01    0.2845461    0.2480099 -19.55 0.0008422981    1.900    0.474
        64 -10.3010     78.6861    224.6992   1.3539179776e+02   1.9493747399e+01    0.2361842     0.207995   2.90 0.0008687109    1.807    0.447
        65  -9.1669    190.8277    228.1493   1.1382343186e+02   4.9182287193e-01    0.1690801    0.1252092  20.74 0.0002740473    1.270    0.213
        66  -9.2169    179.6756    228.1059   1.1593118353e+02   2.3870670731e+00    0.1924496    0.1311062  72.94  0.000941212    2.715    0.632
        67 -10.6597    165.8444    226.8040   1.1840484454e+02   4.9539177977e+00    0.2967023    0.2239417 -76.87  0.001707171    2.029    0.507
        68 -11.1715    160.4963    223.6712   1.1899335709e+02   6.3696057951e+00    0.4711521    0.2395265  37.20 0.0008306865    1.695    0.410
        69  -9.7782    197.5787    226.6548   1.1232426939e+02  -4.3244662834e-01    0.2443434    0.1988238  64.60   0.00151133    1.727    0.421
        70 -10.8948    132.6013    224.4119   1.2464117046e+02   1.1044068344e+01     0.243188    0.2299709 -13.41  0.001320047    1.348    0.258
        71 -10.3139    129.5650    221.2347   1.2483345380e+02   1.2107659229e+01    0.2780282    0.1859855  74.59  0.001478963    1.923    0.480
        72  -9.7219    147.0412    225.0826   1.2185538334e+02   8.4683623659e+00    0.1861938    0.1560092  27.68 0.0003467275    1.226    0.185
        73  -9.4215    149.7242    222.6185   1.2097637087e+02   8.4109965405e+00    0.1838082    0.1577866  -3.31 0.0006690171    1.465    0.317
        74 -10.8631    117.3432    224.3152   1.2768234110e+02   1.3601623552e+01    0.2275748    0.1901711  51.16  0.000268889    1.053    0.050
        75 -10.6401    110.7284    221.5592   1.2867817765e+02   1.5172695252e+01    0.2994763    0.1944068 -61.36  0.001391427    1.783    0.439
        76 -10.6176    105.3108    219.3303   1.2950895165e+02   1.6452161163e+01    0.3459638    0.2031859  72.73  0.000552349    2.136    0.532
        77 -10.6426     73.0582    209.7677   1.3504500444e+02   2.3171558647e+01    0.4448129    0.2543437  25.88  0.002152723    2.530    0.605
        78 -11.0115     70.7712    220.1400   1.3651371315e+02   2.1472496039e+01    0.4329477    0.2723859 -83.30  0.002071673    1.629    0.386
        79  -9.9666     35.2531    219.7411   1.4330249738e+02   2.6055385387e+01    0.2946575    0.1714976 -70.57  0.001883158    1.736    0.424
        80  -9.5317     31.9893    219.2380   1.4387611234e+02   2.6522304248e+01    0.2905454    0.1033321  58.74  0.001420713    2.498    0.600
        81 -10.2698    246.1584    218.8051   1.0234256796e+02  -7.1705693920e+00    0.1721289    0.1166452   8.24 0.0007531206    1.343    0.255
        82  -8.9441     92.4347    232.5241   1.3349146913e+02   1.6049322914e+01    0.1227049   0.09528872  59.09 7.135024e-05    1.015    0.015
        83  -8.6364     99.2951    218.2950   1.3060935063e+02   1.7597353117e+01    0.1103353   0.09881824  10.54 0.0002752021    1.562    0.360
        84  -8.4689     89.6696    218.3410   1.3256310563e+02   1.9071802733e+01    0.1351917   0.07911273  66.38 0.0004728222    1.745    0.427
        85  -8.9170     23.4905    217.5079   1.4533602876e+02   2.7783661498e+01    0.1801322   0.09066124 -82.55  0.000542783    1.777    0.437
        86  -9.6869     22.1653    214.6314   1.4540644323e+02   2.8477937859e+01    0.2990205    0.2350584 -11.39  0.001962867    2.616    0.618
        87  -8.8527    190.6581    215.2892   1.1179769115e+02   2.3827283597e+00    0.1239164   0.09681702  61.55 0.0007023279    1.647    0.393
        88  -9.0755    182.7734    213.9886   1.1311270571e+02   3.9690420271e+00    0.1505145     0.109503 -38.11 0.0003486052    1.600    0.375
        89  -9.7246     88.1448    212.9754   1.3228754526e+02   2.0330981390e+01    0.2218699    0.1600363 -89.84 0.0005483001    1.426    0.299
        90 -10.9273     68.1124    214.5822   1.3652014398e+02   2.2913949277e+01    0.2258943     0.158019 -81.33 0.0004817296    1.413    0.292
        91 -10.3923    101.9995    211.9430   1.2930481477e+02   1.8371805823e+01    0.3805811    0.1892105  60.56  0.001739008    2.243    0.554
        92  -8.9045    152.4946    212.4472   1.1892427454e+02   9.6327485126e+00    0.1348651    0.1123345  46.83 0.0002297139    1.053    0.050
        93  -9.4143     33.5497    211.3727   1.4304712504e+02   2.7875147941e+01    0.1604246   0.09554596  41.17 0.0003413309    1.613    0.380
        94 -10.5198    109.1395    207.8242   1.2729339105e+02   1.8001079040e+01       0.3192    0.1876635 -70.26  0.001120036    2.030    0.507
        95  -9.4061    134.6638    208.2959   1.2199090000e+02   1.3538961152e+01    0.2470786    0.1868084   3.78 0.0009935965    2.009    0.502
        96  -9.1276    119.8090    208.8293   1.2518115908e+02   1.6018455508e+01     0.181936    0.1352322  63.10 0.0003534626    1.294    0.227
        97 -12.3166     93.5652    202.8249   1.2996853470e+02   2.1495959990e+01    0.5339367    0.4476588 -87.15  0.003390477    1.198    0.165
        98 -10.2385    102.8833    202.7152   1.2796058909e+02   2.0026218201e+01    0.4256202    0.2258092  52.55  0.002085773    1.707    0.414
        99 -10.6993     98.4961    196.6866   1.2812223067e+02   2.1949413235e+01    0.6429574     0.287228  40.72  0.002567893    2.010    0.502
       100 -11.2453    247.0342    206.4367   1.0001185507e+02  -5.7877226458e+00     0.315456    0.1999196  31.82  0.001888502    1.405    0.288
       101  -9.9489    175.2694    205.3315   1.1316560936e+02   6.6988619965e+00     0.310669    0.2137645  -9.15  0.001557653    2.083    0.520
       102  -9.3804    178.2838    204.6921   1.1245309792e+02   6.2517214232e+00    0.2167777    0.1743502  32.52 0.0002531064    1.083    0.076
       103  -9.6411    125.7037    205.5959   1.2348730772e+02   1.5611337469e+01    0.2111924    0.1549464  83.91 0.0006111674    1.659    0.397
       104 -11.6237    244.8553    241.3147   1.0629456901e+02  -9.5365802654e+00    0.2162105      0.16024 -14.75  0.001241669    1.362    0.266
       105  -9.5981    166.9725    203.2530   1.1450021839e+02   8.5711514150e+00    0.1877271    0.1513625  41.38  0.001088659    1.076    0.071
       106  -9.5928    133.0859    202.5661   1.2147697413e+02   1.4878624766e+01    0.2050434    0.1970555  86.91 0.0004513153    1.158    0.136
       107  -9.6637    134.1142    197.9077   1.2054713939e+02   1.5573401869e+01    0.2603426    0.1874078 -86.79  0.000354601    1.848    0.459
       108  -9.4200    133.4704    194.2607   1.2011621162e+02   1.6389105119e+01    0.2608661    0.1551293  39.41 0.0006643697    1.534    0.348
       109 -10.8952     32.8279    201.9460   1.4250384613e+02   2.9840723854e+01    0.1816275    0.1601305  73.50 0.0002936188    1.238    0.192
       110  -9.4299    137.9915    201.6831   1.2029989344e+02   1.4162886708e+01    0.1902543    0.1533204  47.13 0.0003741566    1.069    0.065
       111  -9.7807     64.0760    202.1534   1.3613677186e+02   2.5949829385e+01     0.234665    0.1607183  35.64 0.0005521598    1.585    0.369
       112  -9.9160    197.1370    200.8195   1.0806201592e+02   3.4285144073e+00    0.2466526    0.1624647  34.07 0.0008890679    1.340    0.254
       113 -10.3446    115.1051    200.2859   1.2500208025e+02   1.8462663058e+01    0.2191201    0.1904189  74.27 0.0002705505    1.119    0.107
       114 -10.2572    120.0709    199.2472   1.2378061828e+02   1.7809042478e+01    0.4008086    0.2083798  54.88   0.00158838    1.933    0.483
       115  -9.1957    169.7478    200.2276   1.1342279976e+02   8.5721315850e+00    0.1798238    0.1455684  19.85 0.0003674782    1.278    0.218
       116  -9.9704     44.0703    199.3140   1.4002024321e+02   2.9083045544e+01    0.2819245    0.1992049  41.09  0.001159738    1.456    0.313
       117  -8.2172     86.2524    199.2773   1.3110731761e+02   2.3345359171e+01    0.1766636    0.1503233 -73.09 0.0001837433    1.262    0.208
       118  -9.6157     85.9863    195.7342   1.3073489251e+02   2.4113814698e+01    0.1997942     0.150443  64.42 0.0003043358    1.174    0.148
       119 -10.7389     54.0727    198.2202   1.3784725166e+02   2.8073930890e+01    0.5937854    0.1883734  40.68  0.002617432    2.665    0.625
       120 -10.2109     56.4957    193.9915   1.3692403685e+02   2.8644239935e+01    0.2948897     0.246547  55.31   0.00129009    1.181    0.153
       121 -11.6181     66.3273    194.9764   1.3491555551e+02   2.7126748364e+01    0.3716178     0.258572 -48.38  0.001447879    1.888    0.470
       122 -11.9240     71.6432    187.6391   1.3292506130e+02   2.7934778257e+01    0.3461525    0.3299606  -2.23 0.0009371954    1.457    0.314
       123 -10.9710     76.4728    186.4215   1.3169723058e+02   2.7498285848e+01    0.3527397    0.2181315 -82.37  0.001850857    1.717    0.417
       124 -10.2570    112.9308    193.6613   1.2453101663e+02   2.0152232616e+01    0.4504218     0.247014 -63.11  0.001152965    2.072    0.517
       125  -8.7935    107.6168    196.2822   1.2607146052e+02   2.0527578523e+01    0.1445534   0.08996228  64.48 0.0007008106    1.729    0.422
       126 -10.8824    249.4402    194.2175   9.7360322382e+01  -4.5965464237e+00    0.2973422    0.2223167  24.43  0.001882298    1.197    0.165
       127 -13.9982     27.3353    247.2884   1.4632696687e+02   2.1933622980e+01     1.996885    0.6066399  43.77   0.01087023    2.354    0.575
       128  -9.6502    159.1861    194.0098   1.1455552305e+02   1.1645966086e+01    0.3523697    0.1746878  51.22  0.001334364    2.036    0.509
       129 -10.7940    120.0480    192.6817   1.2281508094e+02   1.9108479179e+01    0.3499944    0.3253899 -40.39  0.001635203    1.301    0.231
       130  -8.6565     82.2326    194.3673   1.3138904456e+02   2.4966207543e+01    0.1852221    0.1200471  41.02 0.0001680182    1.467    0.318
       131  -9.0045     84.6725    192.3171   1.3060051640e+02   2.5024910590e+01    0.1349991    0.1173734  67.23 0.0003647821    1.048    0.046
       132 -10.3632     38.7316    192.4213   1.4053737453e+02   3.1138919873e+01    0.3340655     0.199442 -53.44 0.0001689354    2.085    0.520
       133  -9.1247     41.3695    187.9438   1.3958499438e+02   3.1779131895e+01    0.2816248    0.1523957 -87.50  0.001530018    1.774    0.436
       134  -9.6208     72.9499    193.0812   1.3326842566e+02   2.6595834113e+01    0.1882985    0.1573369  69.48  0.001201482    1.012    0.012
       135  -9.0217     26.3430    192.8181   1.4312801008e+02   3.2412557054e+01    0.1557853   0.08769021 -69.12 0.0009066655    1.680    0.405
       136  -9.6109     20.3322    191.8998   1.4428131959e+02   3.3216331470e+01    0.2620417     0.133958  71.35  0.001497316    1.758    0.431
       137 -10.2126    191.5397    191.5141   1.0747120085e+02   5.9432486482e+00    0.2631531    0.2242574  21.14  0.000645941    1.083    0.077
       138  -9.6539    172.9364    192.2487   1.1137486891e+02   9.3461827846e+00    0.2227056    0.1482206  18.55 0.0007494664    1.878    0.468
       139  -8.5648    102.2915    192.2972   1.2669276883e+02   2.2226115220e+01    0.1201692    0.1072558  -5.08 0.0003703359    1.559    0.359
       140  -9.3794    135.1720    190.0246   1.1906411006e+02   1.6898885740e+01    0.2064288    0.1708289  69.76 0.0004264833    1.259    0.206
       141  -9.8985     32.5274    189.5741   1.4159728273e+02   3.2429605240e+01    0.3339849    0.2162305  29.84  0.002042589    1.881    0.468
       142 -11.1645    249.6917    187.4992   9.6046542877e+01  -3.7468064500e+00    0.3574955    0.2253558 -23.66  0.002037676    1.507    0.337
       143  -8.3091     45.2947    187.6210   1.3871145265e+02   3.1385457082e+01    0.1336286   0.07452518  70.47 0.0007021754    1.750    0.429
       144  -9.7666    143.2977    181.3545   1.1579484625e+02   1.7066452262e+01    0.2209705    0.2007836  17.49 0.0008575096    1.218    0.179
       145  -9.8702    143.2917    184.6746   1.1637621747e+02   1.6418114225e+01    0.2384041    0.2112889 -47.69 0.0006536721    1.265    0.209
       146  -9.5206    140.0688    183.2819   1.1684929883e+02   1.7303698374e+01    0.2467602    0.2066799  54.26 0.0002429872    1.105    0.095
       147  -9.9271     29.7012    183.6909   1.4170954343e+02   3.3977705407e+01    0.2765744    0.2148725  87.29  0.001328866    1.073    0.068
       148 -10.4461     24.7682    184.4301   1.4281438160e+02   3.4331877468e+01    0.2373284    0.1556037  46.67 0.0007401479    1.453    0.312
       149  -9.0475     36.8404    184.0870   1.4021157181e+02   3.3117424021e+01     0.240286    0.1326678  42.68 0.0007616148    1.708    0.414
       150 -11.0150    236.2764    145.9022   8.9831160720e+01   4.7092704326e+00    0.5591862    0.2858649  30.57  0.002348148    2.477    0.596
       151 -12.7065    248.2209    101.5534   7.8062689356e+01   9.2567547866e+00    0.8354933    0.4977047 -33.66  0.004142233    1.536    0.349
       152 -13.2281    248.3572    113.9742   8.0849923503e+01   7.3207172193e+00     1.499356    0.9092537 -17.84  0.007044254    1.961    0.490
       153 -12.8724    248.6215    171.9933   9.3192351627e+01  -1.4311598615e+00    0.9414816    0.5346869 -33.15   0.00494329    1.682    0.405
       154 -12.5793    245.6661    156.4540   9.0507137405e+01   1.3448686820e+00     1.216125    0.8728852 -72.70  0.005772999    2.778    0.640
       155 -11.0460    249.6010    150.9415   8.8712506638e+01   1.4551440172e+00    0.5288596    0.3188459 -33.81  0.002607549    1.541    0.351
       156 -12.0292    248.0773    142.5393   8.7171982863e+01   2.9943404252e+00    0.7947156    0.5243017  32.13  0.004166497    1.629    0.386
       157 -12.7582    248.5701    133.8239   8.5210596635e+01   4.2278727638e+00     1.044387    0.8382794 -23.41  0.006122693    1.141    0.124
       158  -8.6277    170.0366    180.0283   1.0973560856e+02   1.2089072724e+01     0.165868    0.1525587  33.89            0    1.020    0.020
       159 -10.0402    118.0190    190.0125   1.2286038954e+02   2.0002465393e+01    0.2207645    0.2050196  19.48  0.001335318    1.283    0.221
       160 -10.2863    108.8280    178.2175   1.2312325025e+02   2.4061737294e+01    0.3333399    0.2139105  55.27  0.001081397    1.496    0.331
       161  -9.2026     48.0100    179.6115   1.3732400841e+02   3.2784519548e+01    0.1704323    0.1097201  41.80 0.0004916512    1.532    0.347
       162 -10.9992     80.9589    175.6963   1.2927092576e+02   2.9157803748e+01    0.3121662     0.224329  72.46 0.0004369829    1.378    0.274
       163  -9.7155     77.4706    175.5273   1.3006667562e+02   2.9717668787e+01    0.2267056      0.16685  55.59 0.0005871331    1.239    0.193
       164  -9.3567    115.1048    176.6141   1.2140629609e+02   2.3292547275e+01    0.2370821    0.1854244 -79.05  0.000698792    1.396    0.284
       165 -10.7063     68.8018    166.8131   1.3095649818e+02   3.2911481421e+01    0.2477941    0.2095851 -61.49 0.0003724738    1.267    0.211
       166 -11.7159     68.3219    173.4133   1.3193886587e+02   3.1502937392e+01    0.5326478    0.2781464 -53.56  0.001177137    2.077    0.518
       167  -9.6012    107.7023    173.0246   1.2255533130e+02   2.5370545774e+01    0.1899693    0.1705139  83.80 0.0004981296    1.080    0.074
       168  -9.5666     95.2656    172.8087   1.2546986981e+02   2.7530310473e+01    0.2067434    0.1677694  75.94 0.0006304365    1.191    0.160
       169  -9.4203     90.8932    172.8306   1.2651248355e+02   2.8237149277e+01    0.2493059    0.1815918 -48.26 0.0006036565    1.590    0.371
       170 -10.9404     95.9590    157.0155   1.2273852925e+02   3.0933220737e+01    0.4683454     0.223188 -60.61  0.001658402    2.164    0.538
       171 -11.6870    101.0076    149.6827   1.2014587079e+02   3.1726255449e+01     1.060318    0.6385161 -27.86  0.004088941    3.066    0.674
       172  -9.8284     89.7458    160.4145   1.2485970497e+02   3.1192170419e+01    0.2107362    0.1783101  79.87 0.0002597987    1.126    0.112
       173  -9.7881     93.5101    169.4052   1.2536552822e+02   2.8567998847e+01    0.2348547    0.2058801  33.35 4.978773e-05    1.286    0.222
       174 -12.6087     87.4262    166.7492   1.2642799816e+02   3.0139920209e+01    0.8460507    0.6289766 -54.78  0.004642843    1.432    0.302
       175 -10.9660     29.1333    170.8789   1.4071851196e+02   3.6806255403e+01    0.3824633    0.2742175 -82.31  0.001907898    1.188    0.158
       176 -12.5108    245.4242    163.4473   9.1993537105e+01   3.5486559224e-01    0.6414108    0.4693922 -43.51  0.002891154    1.548    0.354
       177  -8.9514    100.5447    170.4884   1.2384836476e+02   2.7155960827e+01    0.1405537    0.1251441  70.05 -4.784857e-05    1.015    0.015
       178 -10.9821     44.4973    168.8896   1.3699350914e+02   3.5564893671e+01    0.5147506    0.3067119  34.60  0.002863148    1.813    0.449
       179  -9.6312    126.5866    167.7521   1.1718358939e+02   2.3047622078e+01    0.1951036    0.1382919 -69.40 0.0009413163    1.636    0.389
       180  -9.4224    107.2020    168.1836   1.2187509275e+02   2.6509383556e+01    0.1954447    0.1877915  46.35 0.0003844402    1.148    0.129
       181  -9.1005     58.5300    167.4864   1.3351345521e+02   3.4149179091e+01    0.1309295    0.1100854  80.02 0.0008096781    1.021    0.020
       182  -9.3303     53.9653    164.5737   1.3424956904e+02   3.5388557713e+01    0.1947241    0.1487559 -78.81 7.746453e-05    1.182    0.154
       183 -12.3692     29.5780    227.6839   1.4484637160e+02   2.5197869226e+01    0.9237339    0.4523041  49.85  0.003560124    1.594    0.373
       184  -9.5785     65.9249    181.9880   1.3354508164e+02   2.9951845944e+01     0.191094    0.1616832  71.61 0.0003300212    1.025    0.025
       185  -9.2339     36.9776    162.5326   1.3808057264e+02   3.7831841545e+01    0.1679696    0.1133467  42.14 0.0005448142    1.515    0.340
       186  -8.5662    154.5151    161.5629   1.0952059649e+02   1.8771154613e+01    0.1494614    0.1364123  58.58 0.0001095174    1.086    0.079
       187 -14.4845      7.7784    209.0455   1.4773835022e+02   3.0995077078e+01     2.476455     1.152846 -80.13   0.01517111    1.836    0.455
       188 -10.5912     73.8763    159.3138   1.2864659234e+02   3.3885954546e+01    0.3438899    0.2210261 -38.18  0.001478706    2.182    0.542
       189  -9.2365     78.8912    158.8566   1.2732320112e+02   3.3245590531e+01    0.1906627     0.180636 -71.43 0.0005236565    1.164    0.141
       190  -9.0303     52.4742    158.4684   1.3385211697e+02   3.6959710661e+01    0.1284875    0.1115233  89.01 0.0002642274    1.037    0.035
       191  -9.6838    134.4869    155.9006   1.1304143728e+02   2.4022689425e+01    0.2136001    0.1480141 -51.07 0.0003642658    1.524    0.344
       192  -8.7139    128.0067    156.0004   1.1462139833e+02   2.5286086396e+01     0.171102    0.1636786 -88.65 0.0009548166    1.063    0.059
       193  -9.3390    228.4259    155.1153   9.3167041534e+01   4.7684555431e+00    0.2063162    0.1278878 -32.67 0.0006265731    1.572    0.364
       194  -9.4570     52.9741    146.3053   1.3209610173e+02   3.9697960664e+01    0.2374805    0.1643609 -85.19  0.000617669    1.391    0.281
       195 -10.1600     60.3574    150.9884   1.3085300892e+02   3.7674954367e+01    0.4555699    0.2420708  73.53  0.001928115    2.625    0.619
       196 -10.8819     56.0501    150.5112   1.3189126888e+02   3.8340598002e+01    0.4670468    0.3088046  61.42  0.002534925    1.534    0.348
       197 -10.4521    113.9243    150.8175   1.1708265622e+02   2.9126534824e+01    0.3599628    0.2461402 -57.54  0.000710424    1.508    0.337
       198 -11.0531     60.6383    137.5778   1.2873229786e+02   4.0760218038e+01    0.2648359     0.245542 -62.95 0.0006351543    1.142    0.124
       199 -12.9247     67.4109    144.2350   1.2798383465e+02   3.8288998648e+01    0.7311153    0.4984904  71.01  0.003789544    1.612    0.380
       200 -11.6435     73.8284    139.8866   1.2554040523e+02   3.8385099231e+01    0.5143129    0.4279135  56.68  0.002963955    1.191    0.161
       201  -9.8238    138.8426    138.6386   1.0832430562e+02   2.6818643700e+01    0.2454986    0.2268934  11.53 0.0004241303    1.203    0.168
       202  -9.6952    158.9978    145.0857   1.0499858581e+02   2.1150109083e+01    0.2196783    0.2070237  51.71            0    1.030    0.029
       203  -8.7359     93.1591    145.3655   1.2137874700e+02   3.4062469598e+01    0.2027141     0.122652  50.67  0.000659512    1.658    0.397
       204 -12.6047     12.3091    186.0894   1.4551111075e+02   3.5189980663e+01     0.915803    0.3461043  26.59  0.004422574    3.467    0.712
       205 -11.4198     47.5382    138.4411   1.3241301819e+02   4.2175524396e+01    0.4600032    0.2025892  24.30   0.00194782    3.067    0.674
       206 -10.3736    111.1629    136.2879   1.1484067068e+02   3.2911323170e+01    0.4247401    0.2911717  30.08  0.001820268    1.676    0.403
       207 -11.0180    133.4625    142.4236   1.1048021474e+02   2.7126185784e+01    0.8149123    0.3046285 -50.89   0.00277799    2.853    0.649
       208 -13.3210     56.6057    209.4657   1.3835997950e+02   2.5462323795e+01     2.004735     1.090669  69.27   0.01102803    1.784    0.439
       209 -12.0799     45.2716    131.5794   1.3202077344e+02   4.4035179854e+01    0.4802507    0.3488733  73.74   0.00193614    1.434    0.302
       210 -12.4818      3.1789    130.9514   1.4326739742e+02   4.7910483527e+01    0.5215052    0.2938569 -71.48  0.003166519    1.407    0.289
       211  -9.8509    175.4373    179.7774   1.0854988893e+02   1.1067328910e+01    0.3446753    0.1563916  40.95  0.001406401    2.022    0.506
       212 -11.9293     67.6545    128.2343   1.2516926556e+02   4.1999876358e+01    0.4616628    0.3756977  60.08 0.0007395952    1.263    0.208
       213 -13.6281     20.4959    122.3288   1.3765431160e+02   4.8582147535e+01    0.8017966    0.5465837 -37.01  0.004802903    1.780    0.438
       214  -9.1793    105.8806    128.9898   1.1467309888e+02   3.5560597172e+01    0.3094124    0.1779343 -53.55  0.001340496    1.738    0.425
       215  -9.5534    122.9384    128.0727   1.0993222302e+02   3.2430639514e+01    0.2222375    0.2165684  71.44 0.0003357459    1.013    0.012
       216 -10.4650    209.7942    125.8346   8.9969741769e+01   1.3516935144e+01    0.2994255    0.2458203 -28.97 0.0004999053    1.208    0.172
       217 -11.4718     36.7009    124.6887   1.3339789372e+02   4.6556437909e+01    0.5156253    0.2304176  71.34  0.001735962    4.711    0.788
       218 -11.5024     38.2474    121.5814   1.3248355819e+02   4.7122442659e+01     0.343549    0.2031656  55.32  0.001790697    1.910    0.476
       219  -8.6444     85.4628    126.5998   1.1980919841e+02   3.9684147318e+01     0.140275    0.1326296  88.64 0.0002264871    1.019    0.019
       220 -10.1559     59.0918    125.0203   1.2703413868e+02   4.3906188275e+01     0.363272    0.1964593  26.37  0.001677325    2.263    0.558
       221 -10.6584     54.7049    120.8568   1.2756436994e+02   4.5435832031e+01    0.2661147     0.203128  30.81  0.001008168    1.479    0.324
       222 -12.8225      9.7977    119.3471   1.4028673268e+02   5.0071644086e+01    0.4183794    0.4139039 -30.50  0.003234152    1.283    0.220
       223  -9.5986     86.3818    116.3703   1.1734876903e+02   4.1900977324e+01    0.3076666    0.1784553 -63.89  0.001017673    1.857    0.461
       224 -11.8806     15.6492    114.7673   1.3806319514e+02   5.0691093723e+01     0.328527    0.1992746 -68.01 0.0009772425    1.335    0.251
       225  -9.9607    231.9823    116.3683   8.3918221763e+01   1.0308461348e+01    0.1926095    0.1866741  30.94 0.0007094482    1.084    0.078
       226 -10.0260     50.1661    112.8934   1.2746464866e+02   4.7841726019e+01    0.1931459    0.1653931 -89.13 0.0003305429    1.164    0.141
       227 -10.9154    168.0386    113.2352   9.5306335921e+01   2.5478613629e+01    0.3562608    0.3024228 -88.99 0.0008673457    1.383    0.277
       228  -9.3891    203.5149    111.5090   8.7673406182e+01   1.7445974440e+01    0.1489467    0.1429227   5.09 0.0008096469    1.063    0.059
       229  -8.8514     83.6218    111.1923   1.1698473820e+02   4.3545591808e+01    0.1928232    0.1265814 -46.00 0.0002034468    1.508    0.337
       230 -11.0572     57.5878    110.2799   1.2468812277e+02   4.7543095446e+01    0.3934039    0.2433475  20.77   0.00193162    2.056    0.514
       231 -10.7832     31.6415    110.9214   1.3275597358e+02   5.0240325062e+01    0.2121859    0.1798642  46.81 0.0006292033    1.318    0.241
       232  -9.7780    116.8452    128.7683   1.1169029221e+02   3.3501093213e+01    0.2565464    0.1731406  -6.16 0.0009588142    2.905    0.656
       233  -9.8273     62.4326    107.2595   1.2256361277e+02   4.7609117720e+01    0.1920953    0.1246506 -71.75  0.000940207    1.643    0.391
       234 -11.3072     27.3114    106.4066   1.3335404265e+02   5.1667996536e+01    0.2519611    0.2206917 -39.51  0.001696383    1.243    0.195
       235 -11.9525     19.1602    104.2091   1.3553267542e+02   5.2833744347e+01    0.3830709    0.2425566 -50.44  0.002030161    1.454    0.312
       236  -8.6741     77.5528    103.4401   1.1700465474e+02   4.6286363070e+01    0.1394453    0.1317123 -55.38 0.0001139125    1.010    0.010
       237  -8.7949     85.9355     97.0263   1.1280653687e+02   4.6355743163e+01    0.1650889    0.1569347 -50.70            0    1.011    0.011
       238  -9.1584     72.1117     90.1726   1.1541616568e+02   5.0095142087e+01    0.1967629    0.1755622 -23.99  0.000241284    1.158    0.136
       239  -9.7240     30.9852     90.4590   1.2930857240e+02   5.4973680789e+01    0.1632696    0.1249395  24.65 0.0004051422    1.525    0.344
       240 -12.9940     38.1615    244.7883   1.4436503456e+02   2.1129029385e+01    0.9572742    0.4897222 -72.37   0.00617951    2.019    0.505
       241  -9.9019     24.2394     88.0290   1.3113278484e+02   5.6093210874e+01    0.1818078    0.1719443 -42.27 0.0003785799    1.150    0.130
       242 -13.2134     13.9597    238.9200   1.4813602178e+02   2.4831801949e+01    0.6894701    0.3592157  42.90  0.003433994    1.688    0.408
       243 -10.6015    169.6781    248.5171   1.2069854898e+02   1.1580138930e+00    0.3071505    0.1899478  18.04 0.0007955932    2.068    0.516
       244 -10.3953     81.5263    247.0857   1.3687302037e+02   1.5107948449e+01     0.284515    0.1923732 -89.30  0.001900014    1.566    0.361
       245  -9.4073     79.3572    243.1994   1.3693797822e+02   1.6077315777e+01    0.1683214    0.1032304  61.36            0    1.352    0.260
       246 -10.0770    209.7858    247.0291   1.1322283841e+02  -5.0068008670e+00     0.132039   0.09308609 -29.46 0.0004000615    1.681    0.405
