#   1 NUMBER                 Running object number                                     
#   2 MAG_AUTO               Kron-like elliptical aperture magnitude                    [mag]
#   3 X_IMAGE                Object position along x                                    [pixel]
#   4 Y_IMAGE                Object position along y                                    [pixel]
#   5 X_WORLD                Barycenter position along world x axis                     [deg]
#   6 Y_WORLD                Barycenter position along world y axis                     [deg]
#   7 A_WORLD                Profile RMS along major axis (world units)                 [deg]
#   8 B_WORLD                Profile RMS along minor axis (world units)                 [deg]
#   9 THETA_WORLD            Position angle (CCW/world-x)                               [deg]
#  10 FWHM_WORLD             FWHM assuming a gaussian core                              [deg]
#  11 ELONGATION             A_IMAGE/B_IMAGE                                           
#  12 ELLIPTICITY            1 - B_IMAGE/A_IMAGE                                       
         1  -8.7543    119.2677     33.5939   7.9599840548e+01   5.0409011056e+01    0.2243203    0.1556269 -41.62 0.0006107644    1.644    0.392
         2  -9.6168    189.9565     14.6404   6.2133117461e+01   3.5994575290e+01    0.3247653    0.2022899 -81.56  0.001727288    1.658    0.397
         3  -8.4628     55.8283     10.1793   8.9230439634e+01   6.4926773822e+01    0.1598852    0.1438698  10.29 0.0007378986    1.293    0.226
         4  -8.4436     27.8557     10.0962   1.0019015381e+02   6.8681186123e+01    0.1486094    0.1211112 -45.48 0.0007621212    2.018    0.504
         5  -8.1496     90.8038      9.2039   7.8185737004e+01   5.8873780021e+01    0.1811607    0.1262051 -69.98 0.0007319918    2.754    0.637
         6  -9.3626      6.4689      8.8404   1.0947642464e+02   7.0905743302e+01    0.1824713    0.1226488  32.14  0.001314986    2.008    0.502
         7 -10.2476    247.4097      4.3566   5.4543978357e+01   2.4283164060e+01    0.3812731    0.2630631 -84.53   0.00168534    1.150    0.130
         8  -7.7278    101.4475      8.4391   7.5276888372e+01   5.6806114929e+01    0.1198309    0.1051232  47.03 7.838172e-05    1.109    0.099
         9 -10.2092    243.0919      7.1317   5.5391572272e+01   2.4873242101e+01    0.3389261    0.1836881 -60.50  0.001708644    1.597    0.374
        10  -8.6575     33.2263      4.7695   9.5561621672e+01   6.8642273994e+01     0.233015    0.1307312 -41.14  0.001384669    2.496    0.599
        11  -8.3534     79.0270      4.0093   7.9394393919e+01   6.1560198158e+01    0.1622582    0.1429848 -62.29 0.0007844234    1.701    0.412
        12  -7.8731     44.7073      3.3461   9.0365191150e+01   6.7253916311e+01   0.09319931   0.08698218 -28.43 0.0005037856    1.665    0.399
        13  -8.4639     16.0053      3.4910   1.0259277378e+02   7.0714329665e+01    0.1160377    0.0869358  42.52 0.0006128211    2.317    0.568
        14  -9.8270    236.0956      1.7708   5.4908408474e+01   2.6953993228e+01    0.2995881    0.1390595  79.01  0.001595982    1.872    0.466
        15  -8.2772     62.2489      1.4211   8.3392445537e+01   6.4721378404e+01    0.1425352   0.09961972  50.73  0.000524393    1.561    0.359
        16  -8.8815    210.9906    246.5092   1.0992893401e+02  -8.6769688350e+00     0.199051    0.1752756 -54.19 0.0006055934    1.563    0.360
        17  -8.0533    185.2216    250.3963   1.1550885753e+02  -5.1348313936e+00    0.1873764    0.1037223  45.68 0.0009562916    1.702    0.412
        18  -8.3219     94.0420    249.5688   1.3326324033e+02   1.0054612339e+01    0.2603776    0.1258857  74.20  0.001033437    3.443    0.710
        19  -9.5778     65.8374    249.5568   1.3854286681e+02   1.4221267176e+01    0.3164899    0.1620634  55.90  0.001099553    1.636    0.389
        20  -9.7719     52.4263    249.8190   1.4098618552e+02   1.5996828089e+01    0.3115154    0.1626965  46.04 0.0005952592    1.659    0.397
        21  -8.9894    147.3114    246.2385   1.2238390221e+02   1.9235001522e+00    0.2891684    0.1660553  64.71  0.001307253    2.490    0.598
        22  -8.3429     76.7559    247.6045   1.3633721936e+02   1.3036721913e+01    0.1758693   0.09242842  51.54  0.000543009    1.581    0.367
        23  -8.7246     27.4828    250.5254   1.4535356899e+02   1.8971661557e+01    0.2094591   0.09333041  41.88 0.0007753929    2.084    0.520
        24  -9.6573     10.6029    245.8034   1.4785905629e+02   2.1771285615e+01    0.4763192    0.2074569  71.67  0.002684701    2.008    0.502
        25  -9.0404    120.2967    245.5630   1.2767712955e+02   6.5964008038e+00     0.336239    0.2029297  70.89  0.001394223    2.100    0.524
        26  -8.7653    159.4909    244.5141   1.1970177916e+02   1.4530756948e-01    0.2383524    0.1469754  33.22 0.0008832873    1.523    0.343
        27  -9.2859    160.2213    240.4605   1.1895151550e+02   7.2287951047e-01    0.3569878    0.2413032 -77.27  0.001554249    2.358    0.576
        28  -7.7736     67.6019    245.2102   1.3782095406e+02   1.4823214055e+01    0.1568653    0.1046378 -63.52 0.0009460243    1.652    0.395
        29  -9.3494     46.0085    244.8789   1.4173528845e+02   1.7801686042e+01    0.2081159    0.1303921  53.91 0.0008165893    1.335    0.251
        30  -8.3854    201.9164    243.4361   1.1116317926e+02  -6.7772824567e+00    0.2119356    0.1783682 -59.88   0.00110548    1.648    0.393
        31  -8.8779    169.0393    243.4879   1.1764024263e+02  -1.3100427339e+00    0.2151069    0.1840906 -85.45 0.0006299933    1.524    0.344
        32  -7.4810     89.6719    247.3390   1.3386172492e+02   1.1153881752e+01    0.1356716   0.07977494  68.23 0.0007051726    1.733    0.423
        33  -9.5233     30.2007    242.0819   1.4431457647e+02   2.0303887682e+01    0.2170729    0.1461864  74.84 0.0005376042    1.133    0.118
        34  -8.8265    194.0378    239.6744   1.1208083382e+02  -4.8998901652e+00    0.1866922    0.1631364  45.07  0.000447205    1.234    0.190
        35  -9.5056    182.5484    240.6152   1.1450198354e+02  -3.1265509025e+00    0.4301732    0.3171252  39.50  0.001689836    1.202    0.168
        36  -8.1133     88.3538    242.1733   1.3356351058e+02   1.2363319135e+01    0.1721567    0.1076469 -84.22 0.0006819804    1.740    0.425
        37  -9.7094      3.4194    240.8271   1.4875137888e+02   2.3483871295e+01    0.2415733    0.1408391  81.27 0.0006648694    1.283    0.221
        38  -8.9001     37.7603    241.3823   1.4293398503e+02   1.9532968333e+01    0.1392235    0.1026116  42.75 0.0004285518    1.522    0.343
        39  -9.3167    240.8343    239.5555   1.0321000337e+02  -1.2159439875e+01    0.2481225    0.1396742 -19.30  0.001327637    1.932    0.482
        40  -8.3326     77.4799    242.9859   1.3574301678e+02   1.3837238342e+01    0.1797542   0.09204695  83.16 0.0008102971    2.593    0.614
        41  -8.7718    125.8258    239.6452   1.2580332582e+02   6.7835632817e+00    0.2558937    0.1518997  37.68 0.0007490953    1.586    0.369
        42  -8.6186    135.6450    239.0519   1.2373049595e+02   5.2209676713e+00    0.2004871    0.1535174  80.57 0.0007786985    1.529    0.346
        43  -8.4545    107.3936    238.6620   1.2939462488e+02   1.0040162370e+01    0.2066119    0.1333608  68.90 0.0005791342    1.641    0.391
        44  -8.0217     83.8788    238.8541   1.3407784624e+02   1.3705750697e+01    0.1775835    0.1211436  63.91 0.0003953847    1.279    0.218
        45  -8.7039     52.9553    239.1521   1.3999683796e+02   1.8041958629e+01    0.1979073    0.1249538  68.49 0.0006414767    1.339    0.253
        46  -9.3089     19.2681    238.5576   1.4596407660e+02   2.2255709280e+01    0.2117783     0.149623  80.16 0.0005923485    1.046    0.044
        47  -9.3591    231.2431    237.2162   1.0455770081e+02  -1.0424102157e+01    0.2410735    0.2157418 -77.96  0.001038278    1.875    0.467
        48  -8.2586     72.1955    238.6104   1.3631636662e+02   1.5484548257e+01    0.1608352    0.1116622  36.24 0.0003733577    1.630    0.386
        49  -8.2202    189.5892    237.2551   1.1256097498e+02  -3.7643851865e+00    0.1720411    0.1210938 -27.64 0.0007715092    1.611    0.379
        50 -10.0117    214.7087    233.0647   1.0694948563e+02  -7.2388691210e+00    0.5341628    0.3773004 -81.03  0.002304639    3.912    0.744
        51  -8.8949    203.2967    234.8923   1.0947007617e+02  -5.6697348143e+00    0.2832834    0.2138412 -69.98  0.001110497    2.218    0.549
        52  -9.7374    175.8402    233.4078   1.1468726544e+02  -7.5829434567e-01    0.4674915    0.2750334 -63.40  0.002123385    2.680    0.627
        53  -8.2494    170.0179    235.7353   1.1623996491e+02  -1.4993753379e-01    0.2163373     0.169322 -67.31 0.0006978982    1.657    0.397
        54  -8.0364     44.5603    236.4686   1.4131723389e+02   1.9676200280e+01    0.1221663   0.09129471  74.85 0.0001274904    1.027    0.027
        55  -9.2130    108.4634    234.4468   1.2865354438e+02   1.0698473238e+01    0.3035598     0.206089  75.07  0.001026382    1.611    0.379
        56  -8.5375     95.0899    235.0436   1.3142960484e+02   1.2738023042e+01    0.2197032    0.1324074  67.04 0.0008969043    1.721    0.419
        57  -8.6607     78.8250    234.5049   1.3460314394e+02   1.5346914325e+01    0.2539581    0.1471054  87.03  0.001288954    1.959    0.489
        58  -8.3546      7.2074    235.3635   1.4781263810e+02   2.4176504136e+01    0.1519636   0.07703865  52.47 0.0007749001    1.662    0.398
        59  -8.2457    122.8352    234.0645   1.2566351370e+02   8.3656346493e+00    0.2147197    0.1402451  79.63   0.00070291    2.004    0.501
        60  -8.1561     99.4033    234.2253   1.3046371876e+02   1.2216136064e+01    0.1780267    0.1156898 -83.70 0.0007221081    1.731    0.422
        61  -9.1255     68.6692    232.7360   1.3640904384e+02   1.7193138927e+01    0.4223537     0.188522  68.48  0.001751655    2.952    0.661
        62  -9.5084     53.7715    234.0658   1.3939498656e+02   1.8972243043e+01    0.2331984    0.1237742 -78.78  0.001112052    1.801    0.445
        63  -8.6804    194.6114    232.8877   1.1083808482e+02  -3.8955267336e+00    0.2196527    0.1985984  67.66 0.0009107441    1.410    0.291
        64  -9.4133    186.5441    230.8539   1.1210550163e+02  -2.1760955276e+00    0.3192974    0.2468638 -85.18  0.001468167    2.098    0.523
        65  -9.0991    236.0333    230.8628   1.0256035416e+02  -1.0216975372e+01    0.2035769    0.1621846 -23.84 0.0004410232    1.228    0.186
        66  -8.5680      1.5963    230.9092   1.4849564862e+02   2.5628622458e+01    0.2166596   0.09846063  85.09  0.001063787    1.852    0.460
        67  -9.9058    149.3491    226.1406   1.1899138076e+02   5.2612968889e+00    0.6151214    0.4084825  89.08  0.002791508    2.484    0.597
        68  -8.9392    140.1041    230.2361   1.2154658471e+02   6.1157741506e+00    0.2586833    0.1633999  56.44 0.0007484977    1.609    0.379
        69  -8.6703     32.5809    230.2046   1.4300984907e+02   2.2432435324e+01    0.1947017    0.1381761  54.31 0.0004717654    1.299    0.230
        70  -7.7508    229.6785    229.2967   1.0345705820e+02  -9.0189616794e+00     0.111314    0.1019301  66.43 0.0003951942    1.619    0.382
        71 -10.0411     61.6693    228.3766   1.3734022111e+02   1.9086591774e+01     0.450721    0.1794025  45.83   0.00174759    2.177    0.541
        72  -9.2121    128.0221    227.4830   1.2366841883e+02   8.7710134650e+00    0.2831407    0.1933292  80.27   0.00112703    1.880    0.468
        73  -9.4629     49.1545    227.8204   1.3970898075e+02   2.0878712950e+01    0.3355105    0.2289634  51.71  0.001565704    1.334    0.250
        74  -7.8515    119.7057    227.3711   1.2539456511e+02   1.0230210220e+01    0.1421515   0.09610093  73.96 0.0007026855    1.729    0.422
        75  -8.9861     94.5428    224.9447   1.3032209209e+02   1.4906389086e+01     0.469943    0.2519255  82.17  0.001938311    2.873    0.652
        76  -8.8141      6.3867    226.2094   1.4739714602e+02   2.6107777293e+01    0.2258018    0.1301423  62.88 0.0007797017    1.418    0.295
        77  -8.6542    206.0409    225.8103   1.0736086405e+02  -4.6583325702e+00    0.2218388    0.1672275 -53.69 0.0007365458    1.695    0.410
        78  -8.8588    180.8050    224.5147   1.1219624037e+02  -6.7881183572e-02    0.2758116    0.2136086  78.84 0.0009892019    1.907    0.475
        79  -8.5721     74.9827    225.2484   1.3436487556e+02   1.7847328758e+01    0.1804717    0.1445391  63.49 0.0003781968    1.077    0.072
        80  -8.8469    216.5996    223.5752   1.0491082664e+02  -6.0481788856e+00    0.2379954    0.1965753 -52.15 0.0008095209    1.546    0.353
        81  -7.9407    113.6328    223.8315   1.2618105736e+02   1.1989707103e+01    0.1800951    0.1234276 -77.42 0.0006165931    1.648    0.393
        82  -8.7265    104.6185    223.4554   1.2802809989e+02   1.3580091065e+01    0.3169716    0.1920312 -84.36   0.00150167    2.085    0.520
        83  -8.8195    162.0760    228.1572   1.1665858461e+02   2.6075441694e+00    0.2568541    0.1763456  56.44  0.001083268    1.566    0.361
        84  -7.9200     26.6873    224.7035   1.4366640690e+02   2.4260598903e+01    0.1028727   0.08524348 -59.08 0.0004344999    1.600    0.375
        85  -9.4525    192.4047    221.2841   1.0927681687e+02  -1.5470181732e+00    0.3491417     0.264984 -75.61  0.001196549    2.089    0.521
        86  -8.5283    172.9646    223.1456   1.1357714494e+02   1.5788736089e+00    0.2033301    0.1785222  68.07 0.0005368695    1.311    0.237
        87  -8.9895    238.9409    221.4850   1.0033893950e+02  -9.2573060339e+00    0.2132793    0.1688355 -43.25 0.0005547912    1.506    0.336
        88  -9.3101    225.5378    221.8130   1.0288832425e+02  -7.2157052222e+00    0.2088893    0.1901529 -62.27 0.0004440144    1.538    0.350
        89  -8.7634    202.5710    220.2757   1.0706093186e+02  -3.1425670940e+00    0.3317385    0.1273528 -40.18  0.001331103    2.761    0.638
        90  -9.5265    159.4875    220.9804   1.1603048451e+02   4.4207063485e+00    0.5044959    0.2402488  56.00  0.001928668    2.800    0.643
        91  -7.8231    140.3109    222.6877   1.2036103650e+02   7.5531237804e+00    0.1406301    0.1015491  70.58 0.0004110399    1.629    0.386
        92  -9.2022     54.9379    221.8692   1.3802333256e+02   2.1384379310e+01    0.2072592    0.1589298  56.93 0.0008216326    1.200    0.167
        93  -8.7372     19.0110    221.4978   1.4483387335e+02   2.5779392861e+01    0.2180197    0.1236556  80.26 0.0006617606    1.484    0.326
        94  -9.5509    133.2393    217.4847   1.2106815105e+02   9.8708278838e+00    0.6347253    0.3702885 -77.58  0.002642551    2.693    0.629
        95  -8.6773     82.7367    220.5052   1.3223155209e+02   1.7697532149e+01    0.2534997     0.141949  74.33  0.001167931    2.149    0.535
        96  -8.1252     43.8290    220.8123   1.4010091091e+02   2.3045915702e+01    0.1740682    0.1136836  68.45 0.0004447978    1.313    0.238
        97  -9.1346    120.2459    219.1500   1.2411125064e+02   1.1824186402e+01    0.3824519    0.2320891  75.81   0.00167152    2.350    0.574
        98  -8.8779    248.4889    218.3331   9.8038871604e+01  -1.0213572588e+01    0.2966111    0.1917126  57.24  0.001475784    2.782    0.641
        99  -8.5405    209.9396    218.9816   1.0537403071e+02  -4.1839764130e+00     0.226418    0.1785951 -41.49 0.0008164183    1.385    0.278
       100 -10.3519    160.3221    215.1218   1.1487154146e+02   5.4002324970e+00    0.4115504    0.2660454 -34.46  0.001977106    1.876    0.467
       101  -7.8045     98.8186    219.4045   1.2871792944e+02   1.5390537580e+01    0.1710275    0.1240016  35.62 0.0003878856    1.491    0.329
       102  -8.0975      1.5051    219.5170   1.4783318676e+02   2.7959206375e+01    0.1139003   0.08161477  82.58 0.0001532432    1.011    0.011
       103  -8.8465    142.8774    216.7523   1.1887811845e+02   8.2777215090e+00    0.2897147    0.1867242 -70.43 0.0009895589    2.012    0.503
       104  -8.8318    108.3558    217.7006   1.2645418394e+02   1.4170186914e+01    0.2546028    0.1476087  53.92 0.0009280243    1.634    0.388
       105  -8.6969     51.7287    217.6940   1.3825083540e+02   2.2710242246e+01    0.2518293    0.1474807 -87.51 0.0007768566    1.619    0.382
       106 -10.7726     34.2009    213.8196   1.4135146252e+02   2.5722212416e+01    0.6354142    0.3265194  80.61  0.002884666    1.950    0.487
       107  -8.1311     61.7360    217.1664   1.3617826329e+02   2.1481001988e+01    0.2105679    0.1346533  81.90 0.0009137794    1.505    0.336
       108  -8.3481     87.1360    215.6621   1.3071388694e+02   1.8067243553e+01     0.218477    0.1414002  58.74 0.0006496641    1.434    0.303
       109  -8.6817     12.9563    216.0316   1.4554880580e+02   2.7564940631e+01    0.1765272    0.1291101  81.52 0.0004275278    1.012    0.012
       110  -8.5505    232.3314    214.9936   1.0036065972e+02  -7.2205061207e+00    0.2066906    0.1848107  60.64 0.0008998528    1.561    0.359
       111  -8.3351    154.3837    215.1788   1.1614968083e+02   6.4840359708e+00    0.1842727    0.1343542 -66.49 0.0005484908    1.649    0.394
       112  -7.7664    179.2786    217.6115   1.1131673941e+02   1.4553724953e+00    0.1351256    0.1090899  84.62 0.0007000247    1.733    0.423
       113  -9.3608    213.9188    212.2377   1.0335524322e+02  -3.7244173924e+00      0.35191    0.2670066  66.28  0.001571238    2.007    0.502
       114  -8.5089    185.5849    214.1258   1.0939402148e+02   9.5201036556e-01    0.2469836    0.1803105 -67.63  0.001214461    1.937    0.484
       115  -8.5381     93.0360    213.9211   1.2922988386e+02   1.7512872513e+01    0.2932577    0.1656039  69.98  0.001112248    2.168    0.539
       116 -10.0493     71.7099    211.9827   1.3353066703e+02   2.1208439350e+01    0.6211741    0.2720548  49.03  0.002815382    2.103    0.525
       117  -8.6198    224.9813    212.4847   1.0127331791e+02  -5.6241191300e+00    0.2833934    0.1771062 -34.87  0.001310286    1.576    0.365
       118  -8.9199    204.4411    211.1279   1.0501774775e+02  -1.8868032609e+00    0.2692164    0.2118874 -68.45   0.00074584    1.835    0.455
       119  -9.4349    175.3517    210.2606   1.1083302086e+02   3.5559546230e+00    0.3943898    0.3212882  69.05  0.001493403    1.495    0.331
       120  -9.0089    147.7994    210.9034   1.1685286244e+02   8.5615228387e+00    0.3208019    0.2877624  46.49  0.001479354    1.032    0.031
       121  -7.8934    106.3267    212.6967   1.2618874217e+02   1.5589067731e+01    0.1456896   0.09695995  70.20  0.000370911    1.644    0.392
       122  -8.2853      3.9775    212.2478   1.4692670496e+02   2.9245604482e+01    0.1524953    0.1143836  75.52 0.0003029502    1.099    0.090
       123  -8.7984    116.2676    210.5438   1.2370050242e+02   1.4346091880e+01    0.3020552    0.2026315  73.88 0.0008078798    1.769    0.435
       124  -8.5973     99.1784    210.9505   1.2749989777e+02   1.7164712078e+01    0.3390938    0.1502878  54.32  0.001364419    2.390    0.582
       125  -7.8119    192.2761    210.6217   1.0738193897e+02   3.7911515098e-01    0.1333598    0.1111649 -89.48 0.0007003661    1.702    0.413
       126  -8.2490     85.7621    210.1428   1.3030282810e+02   1.9498192457e+01     0.248391    0.1250989  71.00 0.0009583996    2.919    0.657
       127  -8.9879    236.4341    208.5365   9.8389668434e+01  -6.8416746610e+00    0.2454717    0.2153239 -58.70 0.0009611783    1.559    0.358
       128  -8.9302    138.0090    208.5435   1.1860035727e+02   1.0861068947e+01    0.4795861    0.2390654  35.07  0.001431568    2.109    0.526
       129  -8.9484     57.3637    206.8153   1.3596342723e+02   2.4370823169e+01    0.4785534    0.2066399  84.59  0.001599941    4.375    0.771
       130  -7.9316     46.3242    209.6605   1.3854549365e+02   2.5168111177e+01     0.137421   0.07822126  71.26 0.0007051127    1.725    0.420
       131  -9.5459     25.7269    208.1331   1.4251696255e+02   2.7921861992e+01    0.3458224    0.1708122 -81.98  0.001428316    1.762    0.433
       132  -9.3184    246.3753    207.4770   9.6387455817e+01  -8.2321619781e+00    0.2285243    0.2046521 -35.83 0.0005954111    1.303    0.232
       133  -8.0408    156.4337    208.2517   1.1452435029e+02   7.4896403468e+00    0.1850882    0.1387698 -66.53 0.0005733737    1.578    0.366
       134  -8.2691    126.2152    208.2367   1.2115156396e+02   1.3076659450e+01    0.2016046    0.1572332  77.67 0.0008157669    1.396    0.283
       135  -9.1379     99.4412    206.2266   1.2677790389e+02   1.8167800980e+01    0.3812254    0.2296447  83.05   0.00134321    2.228    0.551
       136  -9.5004     79.6115    206.5345   1.3117104160e+02   2.1252649295e+01    0.3495628    0.1952476  49.31  0.001340552    1.665    0.399
       137  -8.0053     51.4580    206.4395   1.3715812339e+02   2.5233053957e+01    0.1292107    0.1045318  81.72  0.000105038    1.005    0.005
       138  -9.4438     12.8446    204.0357   1.4468308057e+02   3.0154282266e+01    0.3052406    0.1704494 -89.21  0.001012539    1.470    0.320
       139  -9.4052    192.5757    197.2569   1.0479705759e+02   2.8198449723e+00    0.3787556    0.2706501 -62.35  0.001076925    1.828    0.453
       140  -9.0945    183.8006    204.0235   1.0791329305e+02   3.1741209373e+00     0.323256    0.2531213  75.85  0.000848453    1.772    0.436
       141  -8.7229    131.3659    204.4678   1.1939848740e+02   1.2950716463e+01    0.3151308    0.2073567  69.05  0.001101418    1.887    0.470
       142  -8.1862    109.1153    205.2054   1.2447978652e+02   1.6757766488e+01    0.2002883    0.1522302  75.18 0.0005194909    1.356    0.263
       143  -8.6074     40.7815    204.9269   1.3920954279e+02   2.6905253948e+01    0.2552256    0.1295365 -57.49  0.001300991    2.042    0.510
       144  -9.4338    250.1082    202.2758   9.4735352665e+01  -7.9861440899e+00    0.3948995    0.1705538 -38.58  0.001195398    2.150    0.535
       145  -8.9410    178.8938    204.0290   1.0894704636e+02   4.0945180020e+00    0.2561794    0.1956712  42.18 0.0007544434    1.247    0.198
       146  -9.7637    163.7811    203.0878   1.1201200164e+02   7.1456638746e+00    0.4277515    0.2771403  63.32  0.001153218    2.011    0.503
       147  -8.3225    122.0899    204.2759   1.2143836907e+02   1.4677650207e+01    0.2054687     0.170683  53.74 0.0004622184    1.113    0.102
       148  -9.1406    242.9754    200.9090   9.5741656942e+01  -6.6510636964e+00    0.2814732    0.1748103 -44.36 0.0009813173    1.705    0.413
       149  -8.2934    211.0016    201.9737   1.0198290017e+02  -1.4288026126e+00    0.2051965    0.1735104 -86.63  0.000655853    1.741    0.426
       150  -8.7724    140.6218    201.4927   1.1683104883e+02   1.1870355047e+01    0.3660241    0.2190886  70.98  0.001225399    2.664    0.625
       151  -8.9968     80.1140    201.3996   1.3039287504e+02   2.2341419653e+01    0.3376211    0.1716756  75.71  0.001273486    3.101    0.678
       152  -8.0534     73.2730    202.6016   1.3205338684e+02   2.3090694598e+01    0.1448144   0.09006688  77.54 0.0006985003    1.744    0.427
       153  -9.4243    149.6110    198.8703   1.1436521817e+02   1.0725077973e+01    0.4122902    0.2825454  88.27  0.001242547    2.241    0.554
       154  -8.7866    124.0109    199.2286   1.2018575288e+02   1.5441798224e+01    0.3209645     0.213548  88.00  0.001196308    2.058    0.514
       155  -9.2154    112.7259    198.5104   1.2263172569e+02   1.7625732005e+01    0.3957444     0.246999  79.65  0.001689592    2.240    0.554
       156  -9.1313     88.6661    198.5451   1.2809150733e+02   2.1662392490e+01     0.393129    0.2307062  87.01  0.001470924    2.236    0.553
       157  -8.8578    169.1353    216.2924   1.1320587481e+02   3.5525655878e+00    0.2490437    0.2044675 -65.53 0.0007332943    1.452    0.311
       158  -8.8760    237.0292    198.5186   9.6358014033e+01  -5.2957225646e+00    0.2517287    0.1766833 -49.73  0.001236179    1.681    0.405
       159  -8.5821    177.0594    199.0757   1.0840924045e+02   5.4137830373e+00    0.2184046    0.1762026  80.03  0.000514241    1.634    0.388
       160  -9.0294    105.5411    199.0482   1.2434797295e+02   1.8753380276e+01    0.2514882    0.1768654  59.54 0.0004954639    1.392    0.282
       161 -10.0529     61.6315    197.3900   1.3395928199e+02   2.5939244260e+01     0.457979    0.2333603  75.43  0.001797341    2.612    0.617
       162  -8.2679     44.6523    199.2919   1.3783087607e+02   2.7706878712e+01    0.1359776    0.0801925  69.11 0.0004000509    1.667    0.400
       163  -9.4977    194.9567    203.4120   1.0548610701e+02   1.2167749550e+00    0.3985561    0.3016775 -46.16  0.001719255    1.412    0.292
       164  -8.5449    202.1111    197.6691   1.0292570644e+02   9.6479590977e-01    0.2405751    0.1901281 -52.94 0.0007124037    1.442    0.306
       165  -9.4740     53.0904    197.3962   1.3581995929e+02   2.7076182912e+01    0.3154241    0.1453063 -59.78  0.001485755    2.044    0.511
       166  -7.8892     83.6936    197.2995   1.2903734381e+02   2.2731972812e+01    0.1436648   0.09558208  72.55 0.0003075805    1.593    0.372
       167  -8.6761    215.8843    195.6349   9.9791101935e+01  -1.1662475912e+00    0.2574438    0.1784428 -57.40 0.0009675137    1.884    0.469
       168  -8.1395    133.1205    196.1842   1.1760187430e+02   1.4431139080e+01    0.2066329     0.166105  79.41 0.0005958967    1.374    0.272
       169  -8.6853    224.6158    194.4273   9.7872274795e+01  -2.4935380082e+00     0.255419    0.1999407 -61.52  0.001013516    1.720    0.419
       170  -7.5844    209.2918    195.6728   1.0109600100e+02   1.6426263255e-02    0.1318157    0.1133563 -85.23 0.0003536041    1.621    0.383
       171  -8.8615    185.1896    194.9374   1.0589086432e+02   4.6729487230e+00    0.2532609    0.2330372 -77.79 0.0008032742    1.269    0.212
       172  -8.9949    160.8108    194.4235   1.1106332597e+02   9.5010742321e+00    0.2798908    0.2266217  87.20  0.000903198    1.538    0.350
       173  -9.2964     43.8168    193.6773   1.3740833376e+02   2.9094044026e+01    0.3952451    0.1999426  77.17  0.001790214    2.361    0.576
       174  -9.4505    245.6122    193.5801   9.3846827700e+01  -5.8723580926e+00    0.2487785     0.184259 -48.59 0.0007961249    1.551    0.355
       175  -8.7516     76.8737    194.0820   1.3013540433e+02   2.4519764821e+01    0.2172907    0.1641034  77.89 0.0005400313    1.264    0.209
       176  -8.5629      6.2346    193.9633   1.4519102983e+02   3.2986638794e+01    0.2075183    0.1283846 -67.78 0.0007944909    1.446    0.309
       177  -8.3707    155.1703    193.4066   1.1212622207e+02   1.0812993822e+01    0.2158531    0.1313353  52.33 0.0009423022    1.702    0.412
       178  -8.2301    230.7927    194.5760   9.6739022637e+01  -3.5840327865e+00    0.1737852    0.1275491  49.61 0.0005448802    1.610    0.379
       179  -8.2613    198.8698    192.0724   1.0248627089e+02   2.6223234426e+00     0.207618    0.1965693 -73.18 0.0005584142    1.237    0.191
       180  -8.4270    172.1993    192.1577   1.0813440957e+02   7.7481427731e+00    0.1990844    0.1749305  88.55 0.0005881868    1.343    0.255
       181  -9.0671    139.3884    190.5405   1.1516809391e+02   1.4488897049e+01    0.3386867    0.2464209  88.60 0.0008408975    1.800    0.444
       182  -8.3190    118.0089    192.3219   1.2040769597e+02   1.8083970226e+01    0.2050264    0.1756722  53.18   0.00044962    1.111    0.100
       183 -10.5404     92.1286    188.9848   1.2588974653e+02   2.3323690330e+01    0.9436957    0.3482667  52.97  0.003207993    3.293    0.696
       184  -7.8773    178.8513    191.6119   1.0659186320e+02   6.5604708115e+00    0.1995965    0.1330007  51.77 0.0004231249    1.586    0.369
       185  -8.5358     17.2111    191.4583   1.4278462569e+02   3.2510763665e+01    0.1631174   0.09310208  53.57 0.0009428033    1.687    0.407
       186  -8.5772    148.3252    189.3915   1.1291737723e+02   1.3011548618e+01    0.2461205    0.1793968 -76.56 0.0007133159    1.730    0.422
       187  -8.3179    237.1571    188.5968   9.4382779216e+01  -3.6361237799e+00     0.228184    0.1652429 -43.02 0.0006070181    1.395    0.283
       188  -9.1747    164.8998    186.9337   1.0872236163e+02   1.0274180181e+01    0.3556898    0.2113371 -53.46   0.00121656    1.817    0.450
       189  -9.2425    155.9937    187.4874   1.1082137579e+02   1.1919268081e+01    0.3772692    0.2404157 -64.76 0.0009913249    1.952    0.488
       190  -8.9176    129.3127    188.6866   1.1715697996e+02   1.6820304559e+01      0.31945    0.2267542  78.92  0.001111831    1.783    0.439
       191  -9.7463    120.9215    186.9039   1.1879891352e+02   1.8790844369e+01    0.5998169    0.3150344 -74.35  0.002129591    3.052    0.672
       192  -8.3839     71.0183    189.2475   1.3081113764e+02   2.6514721031e+01    0.1862637     0.161124  73.86 0.0003522286    1.064    0.061
       193  -8.7867     34.4371    188.4573   1.3887506614e+02   3.1389243040e+01     0.294704     0.144552  71.46  0.001115369    2.378    0.580
       194  -8.6497    216.6652    188.0623   9.8133233791e+01   6.5307944216e-02    0.2211706    0.1951829  53.96 0.0006803622    1.317    0.241
       195  -8.9212    191.3634    187.6691   1.0316081366e+02   4.9127290897e+00    0.2976471    0.2394775 -87.81 0.0009289383    1.744    0.427
       196  -9.3236     54.6455    187.1487   1.3426218671e+02   2.9256271582e+01    0.3838341    0.2024755  73.57  0.001424389    2.363    0.577
       197  -9.1887     49.7595    188.2223   1.3548719758e+02   2.9627797811e+01    0.2176997    0.1563623  59.59 0.0006766931    1.331    0.248
       198  -7.8630    230.4798    187.4879   9.5389755768e+01  -2.2961477728e+00    0.1348548    0.1247027 -17.71  0.000340685    1.071    0.067
       199  -9.1433    109.5104    186.1384   1.2135112293e+02   2.1031216202e+01    0.3940592    0.2449233  83.45  0.001168965    2.345    0.574
       200  -8.9818     28.4869    187.0986   1.4001522555e+02   3.2350574263e+01    0.2182775    0.1681991  53.93  0.000642503    1.330    0.248
       201  -8.5767    249.2077    185.7706   9.1676185061e+01  -5.1547720324e+00    0.2264227    0.1596897 -43.99 0.0006675922    1.439    0.305
       202  -9.0746    182.8732    184.9810   1.0441583792e+02   7.1135761123e+00    0.3369876     0.209708 -46.46 0.0008836539    1.647    0.393
       203  -8.8086    210.1607    184.1955   9.8628398189e+01   1.9881991518e+00    0.2394886    0.2019112 -51.72 0.0005161733    1.300    0.231
       204  -8.6226    202.7980    184.7175   1.0021079464e+02   3.2846735625e+00    0.2595823    0.1872497 -69.19 0.0007951893    2.026    0.506
       205  -8.1943    143.3763    184.7967   1.1318472264e+02   1.4991074144e+01    0.2092268    0.1800591  56.07 0.0006652977    1.133    0.118
       206  -9.0211     66.6685    184.6008   1.3118114447e+02   2.8233371604e+01    0.3570121    0.1852128  61.32  0.001042974    2.230    0.552
       207  -8.5101    224.1444    183.6887   9.5813258430e+01  -4.9436128875e-01    0.2320146     0.178494 -45.18 0.0004769511    1.337    0.252
       208  -8.5335    197.2747    183.2917   1.0104929827e+02   4.6260332856e+00    0.3811477    0.2326236 -32.75  0.001432422    1.763    0.433
       209  -8.9680    174.1788    183.6253   1.0602292138e+02   9.1209020993e+00    0.2947643    0.2270421 -77.49 0.0008641907    1.718    0.418
       210  -8.7205    241.4391    182.0761   9.2306222550e+01  -3.2370371078e+00    0.3832198    0.2686186 -74.54  0.001724376    2.863    0.651
       211  -9.1123     44.5490    182.7161   1.3600452766e+02   3.1557305036e+01    0.3179691     0.176841  66.85  0.001463453    1.960    0.490
       212  -7.5710      1.3780    183.6962   1.4535772994e+02   3.5682283202e+01    0.1253791   0.06717614  68.57  0.000702671    1.772    0.436
       213  -9.0298    147.5763    180.7122   1.1143019968e+02   1.5072582818e+01    0.3695988    0.2658486  81.96  0.001309966    1.908    0.476
       214  -8.7274    133.3495    180.5764   1.1472418365e+02   1.7894114513e+01    0.3978014    0.2442537 -83.26  0.001486995    2.736    0.635
       215  -8.5308     59.9888    181.8361   1.3235852216e+02   2.9807468925e+01    0.2496434    0.1604181  60.30  0.000717784    1.572    0.364
       216  -7.8726    235.3124    181.6909   9.3332447570e+01  -2.1167586877e+00    0.1278972    0.1093615 -74.75 0.0004152236    1.625    0.385
       217  -9.5418     25.3317    179.1229   1.3988816230e+02   3.4518831715e+01     0.574748    0.2585954  80.17  0.002424382    2.904    0.656
       218  -8.6127    137.8586    179.6903   1.1349544503e+02   1.7219362842e+01    0.2942976    0.1991868 -87.19  0.001221744    2.159    0.537
       219  -8.2026    114.7507    180.5899   1.1914516551e+02   2.1387135743e+01    0.2063894    0.1320989  52.36   0.00065839    1.565    0.361
       220  -9.2969    191.4332    178.4303   1.0126515724e+02   6.7411617254e+00     0.285021    0.2507331  87.87 0.0005742497    1.389    0.280
       221  -9.1891     36.0371    177.0324   1.3726837994e+02   3.3873835628e+01    0.5079915    0.2237275  81.12  0.001860756    3.684    0.729
       222  -9.5981    248.7012    176.8386   8.9977677162e+01  -3.5577111911e+00    0.4519028    0.2286624 -47.75  0.002046225    2.105    0.525
       223  -8.6709    250.5128    172.9120   8.8873836441e+01  -3.1862098396e+00    0.1972467    0.1713317 -40.17 0.0005259545    1.164    0.141
       224  -8.7529    205.1079    177.7440   9.8312162401e+01   4.1882304200e+00    0.2524633    0.1917852 -52.53 0.0005549412    1.427    0.299
       225  -8.4694    129.0284    177.3777   1.1514316084e+02   1.9462232466e+01    0.2808613     0.205712 -87.52 0.0008248019    1.698    0.411
       226  -8.5729    101.2007    178.4007   1.2202190324e+02   2.4306164372e+01    0.2036716    0.1291934  51.63 0.0004694615    1.576    0.366
       227  -8.4418    231.0384    177.0313   9.3165613369e+01  -5.3008298818e-01    0.2075833     0.168147 -68.52 0.0005523295    1.668    0.400
       228  -8.2813    217.6180    177.3721   9.5767830744e+01   1.8711910001e+00    0.1971557    0.1682099 -79.49 0.0005548942    1.563    0.360
       229  -9.2121    183.0849    176.1060   1.0255538089e+02   8.8918998231e+00    0.3281684    0.2368543 -58.41 0.0005858479    1.572    0.364
       230  -8.6764     89.0670    176.8176   1.2469564183e+02   2.6710303817e+01    0.3089794    0.1994737  82.95 0.0009957079    1.935    0.483
       231  -9.9764     57.2099    173.2168   1.3184377041e+02   3.2235850659e+01    0.8193085    0.3795441  85.28  0.002621447    4.446    0.775
       232  -8.4189     12.7595    176.5911   1.4237313430e+02   3.6302158746e+01    0.2199691    0.1197038  83.03  0.001186864    1.754    0.430
       233  -8.0359    211.5331    176.5182   9.6777815331e+01   3.1862383721e+00    0.1425544    0.1349074 -15.61 0.0001229692    1.016    0.016
       234  -9.2864    158.7579    175.0707   1.0773526950e+02   1.4070441646e+01    0.4010614    0.2808723  86.22  0.001035167    2.194    0.544
       235  -9.2681    104.2996    174.7871   1.2064149050e+02   2.4629439940e+01    0.5317547    0.2996114  71.59   0.00188633    2.864    0.651
       236 -10.6987     75.8747    170.3743   1.2688436602e+02   3.0316447158e+01      1.22377    0.4666094 -74.32  0.003506296    4.748    0.789
       237  -7.9618    224.4772    174.4839   9.3861489474e+01   1.1311507950e+00    0.1403331    0.1297981 -20.27  0.000163086    1.017    0.017
       238  -7.4792    153.2804    174.6439   1.0890558328e+02   1.5278663731e+01    0.1554576    0.1199191  89.15 0.0007014015    1.660    0.398
       239  -9.4367    175.7547    172.3092   1.0335455217e+02   1.1183665376e+01    0.3435314    0.2554025 -49.12 0.0009089959    1.368    0.269
       240  -8.5484    142.8857    172.8225   1.1096444343e+02   1.7786546085e+01    0.2114436    0.1788951  83.25 0.0005370338    1.308    0.235
       241  -8.9532    198.4431    170.6213   9.8172579619e+01   6.9107184751e+00    0.3355477     0.226326 -31.51  0.001263799    1.569    0.363
       242  -8.6365    134.7162    171.9010   1.1272257873e+02   1.9622388415e+01    0.2778753     0.208253 -74.69 0.0008525598    1.532    0.347
       243  -9.4631    121.3990    170.5203   1.1567360898e+02   2.2521626763e+01    0.4078981    0.2765481 -83.44  0.001089713    1.944    0.486
       244  -9.3077     44.9687    171.2358   1.3449195871e+02   3.4229188619e+01    0.3216012    0.1905806  79.73  0.001195495    1.891    0.471
       245  -8.8788    230.5409    170.3747   9.1880978198e+01   7.7134998956e-01    0.2295612    0.2246098  25.71 0.0006714661    1.140    0.123
       246  -8.6035    205.9298    170.4637   9.6620479765e+01   5.4506174340e+00    0.2777753     0.198264 -58.65 0.0009560596    1.659    0.397
       247  -8.9609     39.3739    170.5635   1.3572582297e+02   3.5032610904e+01    0.2935974     0.171436  51.09   0.00113071    1.773    0.436
       248  -8.3923    237.1369    169.8621   9.0581244484e+01  -3.3031298674e-01    0.2017736    0.1813955 -54.78 0.0005826082    1.251    0.201
       249  -9.1377    167.2040    168.7323   1.0450221937e+02   1.3720316704e+01    0.3420005     0.246549 -81.95 0.0009380619    2.000    0.500
       250  -8.3805    149.8082    169.6724   1.0869603094e+02   1.7100139728e+01    0.2801787    0.1982744 -82.23 0.0007193551    1.969    0.492
       251  -9.1418    111.4133    167.2409   1.1750561136e+02   2.5160998190e+01    0.3396676    0.2239839 -81.97  0.001050445    1.960    0.490
       252  -8.6883     20.0165    170.5044   1.4017327858e+02   3.7039310465e+01     0.158048     0.119296  41.13 0.0004923614    1.523    0.344
       253  -8.2014    244.4685    168.9872   8.9111108953e+01  -1.4688728317e+00    0.2071124     0.121721 -40.09 0.0005940208    1.541    0.351
       254  -8.2400     88.5284    169.0004   1.2352295461e+02   2.8683724079e+01    0.2137223    0.1214024 -86.14 0.0008093394    2.614    0.617
       255  -8.0509    218.8473    168.5774   9.3692737578e+01   3.2998878708e+00    0.1845993    0.1382213  57.70 0.0005164835    1.597    0.374
       256  -9.0187    192.0266    166.7870   9.8685017009e+01   8.9915627143e+00     0.290956    0.2375816 -64.37 0.0006914539    1.402    0.287
       257  -8.4111    185.1627    166.9640   1.0017743670e+02   1.0369091694e+01    0.2420817    0.1687687 -68.37 0.0008362682    1.930    0.482
       258  -9.8743    136.7191    164.5979   1.1076381235e+02   2.0916969977e+01    0.6268991    0.3684638  67.85  0.002286395    2.645    0.622
       259 -10.1684     95.1324    163.2503   1.2084723594e+02   2.8988769250e+01    0.8038412    0.4408136  80.60  0.002561697    3.969    0.748
       260  -9.0907     20.3141    166.1069   1.3963615563e+02   3.8036315670e+01    0.3083071    0.1453868  69.06  0.001079876    2.676    0.626
       261  -8.1412    233.7999    164.9976   9.0165765379e+01   1.1590626224e+00    0.2201797    0.1478709 -59.09 0.0006274724    1.896    0.473
       262  -9.2873     63.3237    164.7175   1.2911196665e+02   3.3477572268e+01    0.2791758    0.1920008  76.56 0.0006062087    1.596    0.373
       263  -8.6833     60.4439    160.1588   1.2913121438e+02   3.4971670018e+01    0.3195795    0.1854526  76.59  0.001075184    2.328    0.570
       264  -9.3951     33.5873    163.5022   1.3622021608e+02   3.7339917473e+01    0.5262901    0.2081308  55.90  0.002093091    3.301    0.697
       265  -8.2766    240.0183    164.3095   8.8918736453e+01   1.5343405175e-01    0.1830239    0.1741985  -9.70  0.000419321    1.083    0.077
       266  -8.7098    213.0690    163.7000   9.3768006434e+01   5.3635619707e+00    0.2559109    0.1885303 -51.30 0.0005828118    1.412    0.292
       267  -8.4359    159.4747    164.1795   1.0529441906e+02   1.6334191417e+01    0.2442424    0.2076951  78.41 0.0006896651    1.330    0.248
       268  -9.2314    246.0950    162.9165   8.7579861980e+01  -6.7831175940e-01    0.2024439    0.1723531 -54.82 0.0004818659    1.297    0.229
       269  -8.2571    204.7290    162.9699   9.5256951562e+01   7.1751937112e+00    0.2128797    0.1831568 -38.99  0.000477607    1.122    0.109
       270  -9.2038      3.3068    162.5599   1.4312470014e+02   4.0297686709e+01    0.3621304    0.1809055  60.22  0.001942008    2.175    0.540
       271  -8.9750    151.8299    161.2389   1.0644528224e+02   1.8591647034e+01    0.3334354    0.2189677 -66.67  0.001016718    1.884    0.469
       272  -8.8244    177.4768    160.8015   1.0050757510e+02   1.3281987693e+01    0.2852862    0.2363909  89.80 0.0008810991    1.481    0.325
       273  -8.4350    227.3050    159.1299   9.0101738685e+01   3.4682368256e+00    0.2633369    0.1799117 -54.85 0.0009194645    1.631    0.387
       274  -8.9065     84.5108    159.5258   1.2288314999e+02   3.1632624419e+01    0.2614212     0.221175 -69.33 0.0005836144    1.092    0.084
       275  -9.7811     81.4071    154.6898   1.2281552511e+02   3.3300396210e+01    0.4863979    0.2800541  68.96  0.001622404    2.555    0.609
       276  -9.7046    250.2197    157.7471   8.5816477172e+01  -4.8664900386e-01    0.3522888    0.1684746 -40.29 0.0007742161    1.846    0.458
       277  -8.1362    237.0121    158.7991   8.8290944513e+01   1.7035635079e+00    0.2043023    0.1429155 -55.27 0.0006114935    1.603    0.376
       278  -8.2923    128.0019    158.9896   1.1173586962e+02   2.3968247970e+01    0.2481401    0.1851676  81.36 0.0006452815    1.676    0.403
       279  -9.9123    105.6103    158.0625   1.1719481345e+02   2.8422440800e+01    0.4604719    0.3134383  85.14  0.001244474    1.980    0.495
       280  -8.4166    196.8054    158.1182   9.5806567758e+01   9.7822490281e+00     0.230419    0.2020872 -75.85 0.0007895721    1.310    0.237
       281  -8.4456    188.1528    157.8747   9.7559289581e+01   1.1646551124e+01      0.28815    0.1698888 -50.53 0.0008542464    1.752    0.429
       282  -9.0967    167.6472    157.2466   1.0191683837e+02   1.6142508985e+01    0.3594016    0.2638316 -86.47  0.001157673    1.934    0.483
       283  -8.2069     79.2651    158.5808   1.2406417334e+02   3.2678353489e+01    0.1854655    0.1432664  23.66 0.0007871516    1.599    0.375
       284  -9.3130     42.3871    157.4166   1.3326519350e+02   3.7841860344e+01     0.237223    0.1946623  86.86 0.0005199579    1.133    0.117
       285  -8.4330    217.8802    156.5209   9.1294199117e+01   5.8052872084e+00    0.2884597    0.1768255 -55.86 0.0007950737    1.910    0.476
       286  -9.1816    119.4563    155.4031   1.1313064732e+02   2.6486379015e+01    0.4258531    0.2857099 -83.16  0.001537759    2.063    0.515
       287  -9.0625    100.2439    156.3985   1.1824721140e+02   2.9776134418e+01    0.2996535    0.2314421 -82.00   0.00106989    1.395    0.283
       288  -8.8927    157.3595    156.0045   1.0400767573e+02   1.8609752041e+01    0.2960357    0.2580091  77.38  0.000821425    1.256    0.204
       289  -9.1566     49.4945    155.5234   1.3120079223e+02   3.7475191919e+01    0.3295593     0.184331  64.46  0.001500746    2.248    0.555
       290  -8.2793    242.6992    155.3086   8.6571541489e+01   1.2955639585e+00    0.1927727    0.1200914 -33.15 0.0004797667    1.512    0.339
       291  -7.8847    239.7354    153.3340   8.6662054493e+01   2.2005292902e+00    0.2004486    0.1364316  58.87 0.0004937853    1.843    0.457
       292  -8.0998    204.5523    155.0974   9.3572263450e+01   8.7886419570e+00    0.2256698    0.1414087 -43.88 0.0007418165    1.537    0.349
       293  -8.6136    144.6599    155.0608   1.0681488634e+02   2.1499061023e+01    0.2514927    0.1941889 -75.21 0.0008450442    1.517    0.341
       294 -10.2200     67.9009    153.6912   1.2616335845e+02   3.5535585731e+01    0.4724062    0.3001679  88.99  0.001650745    1.946    0.486
       295  -8.1311    232.6285    153.8431   8.8011720984e+01   3.4428708275e+00    0.2025889    0.1219815 -48.64 0.0005216132    1.648    0.393
       296  -9.6618    132.8091    153.0704   1.0928325794e+02   2.4399951924e+01    0.4712795    0.3463546 -89.98  0.001288544    1.790    0.441
       297  -8.9653    133.5869    148.2264   1.0802548793e+02   2.5377042909e+01     0.330828    0.1880351 -42.96 0.0009816285    1.831    0.454
       298  -8.9944    151.9133    152.7858   1.0457560717e+02   2.0493763551e+01    0.2799799    0.1997666 -64.24 0.0007405465    1.582    0.368
       299  -8.6810     20.0605    152.9505   1.3819269539e+02   4.1143851162e+01     0.155256    0.1211128 -77.60 0.0006776509    1.024    0.023
       300  -9.6909     28.4347    150.0339   1.3575387361e+02   4.1061042380e+01    0.6453941    0.2738432  60.91  0.002487474    3.690    0.729
       301  -9.6881    248.7500    149.5704   8.4355637921e+01   1.2313930724e+00    0.3252993    0.1950811 -38.21 0.0007286596    1.479    0.324
       302  -8.8684    189.4468    150.4982   9.5638306678e+01   1.2916292700e+01    0.3102495    0.2460548 -72.60 0.0009791504    1.523    0.343
       303  -8.1407    182.3989    151.2332   9.7305941185e+01   1.4276888132e+01    0.2237545    0.1419935 -56.06 0.0006859725    1.739    0.425
       304  -8.9004     98.2408    150.7902   1.1766132911e+02   3.1487355054e+01    0.3147669    0.2224288 -88.90 0.0009809127    1.771    0.435
       305  -8.6460      3.2603    150.9614   1.4198997892e+02   4.2956629216e+01    0.1646601   0.08213182 -74.42 0.0008906759    1.556    0.357
       306  -8.6265    243.3219    150.0749   8.5362581953e+01   2.1313711159e+00    0.2077708    0.1562655 -41.70 0.0007366635    1.196    0.164
       307  -8.9574    237.8441    150.2632   8.6334665304e+01   3.1186963245e+00    0.3662758    0.1579847  37.77  0.001398625    2.943    0.660
       308  -8.1316    212.8412    149.8697   9.0796042323e+01   8.1238470981e+00    0.1974187     0.170178 -67.53 0.0003164891    1.293    0.227
       309 -10.6129     62.0634    135.9765   1.2457177677e+02   4.0640138299e+01    0.6757508    0.2997368  36.34  0.002868462    2.432    0.589
       310  -9.1556     53.7787    149.8598   1.2921848912e+02   3.8328506561e+01    0.3504023    0.1728114  41.92  0.001466157    2.166    0.538
       311 -10.3667     54.8226    144.6083   1.2807978149e+02   3.9474267620e+01    0.8375994    0.4469327  84.68  0.003153329    3.260    0.693
       312 -11.2308     69.1146    141.8326   1.2372585477e+02   3.8259004363e+01    0.6358327    0.4728409 -56.18  0.002656082    1.224    0.183
       313 -10.4495     72.4113    134.3102   1.2136180868e+02   3.9612715442e+01    0.6765285    0.2885621  33.40  0.002680541    2.622    0.619
       314 -10.0596     73.1491    129.6414   1.2020258510e+02   4.0628893272e+01    0.4036604    0.2498027 -73.58  0.001114446    1.887    0.470
       315  -8.3154    198.8003    149.0500   9.3380574873e+01   1.1220167138e+01    0.2292182    0.1958736 -67.76 0.0005321146    1.293    0.227
       316 -10.3627     89.1418    146.3832   1.1919269441e+02   3.4095672774e+01    0.6713505    0.3932624 -89.12  0.002445712    3.003    0.667
       317  -8.4304     86.6898    149.6615   1.2048620853e+02   3.3694736742e+01    0.1965877    0.1597508  14.67 0.0004952354    1.567    0.362
       318  -9.8164     39.7108    147.9995   1.3259363797e+02   4.0401253489e+01    0.4513966    0.2366005  68.72  0.001932756    2.752    0.637
       319  -9.0872    233.4051    147.5432   8.6521109416e+01   4.4711125229e+00    0.2719125    0.1970464 -43.23  0.001063432    1.266    0.210
       320  -9.6064    221.1785    147.6160   8.8731531797e+01   6.8695116294e+00    0.3569153     0.250356  38.62 0.0009183663    1.563    0.360
       321  -9.4931     78.1889    147.2952   1.2229926265e+02   3.5601125135e+01    0.3476157    0.2250226  81.81  0.001023001    2.123    0.529
       322  -9.6175    139.1233    145.3371   1.0599940554e+02   2.4903677823e+01    0.4501913    0.2976871 -69.90  0.001084361    1.932    0.482
       323 -10.3742    106.6270    144.2887   1.1410524396e+02   3.1565861144e+01    0.7690195     0.479782 -88.05   0.00236966    2.710    0.631
       324 -10.1754    148.9181    144.9015   1.0350799068e+02   2.2928068739e+01    0.5697083     0.386544 -83.38  0.001596316    2.284    0.562
       325  -9.0824     13.2928    146.2307   1.3904807091e+02   4.3286801281e+01    0.3029273      0.15247  74.26  0.001041194    2.575    0.612
       326  -7.8750    206.7687    146.5887   9.1240397293e+01   1.0036978894e+01    0.1955092    0.1448037  61.00 0.0005665874    1.551    0.355
       327  -8.1734    175.5156    146.0620   9.7629864610e+01   1.6882497002e+01    0.2303545    0.1516451 -46.77 0.0005934242    1.499    0.333
       328  -9.0983     33.2597    145.5254   1.3390380179e+02   4.1662469728e+01    0.3149533      0.17986  70.72  0.001507742    2.244    0.554
       329  -8.5652    240.1896    145.2580   8.4865609716e+01   3.5976981441e+00    0.2037676    0.1784991 -25.25 0.0005394604    1.115    0.103
       330  -9.7836    242.6940    143.3083   8.4030325231e+01   3.4823941270e+00     0.469662    0.2140872 -31.08  0.001824193    2.520    0.603
       331  -8.9939    247.1134    143.8510   8.3419269188e+01   2.5596069061e+00    0.2696644    0.1810689 -33.59 0.0007318583    1.387    0.279
       332  -8.4586    250.5047    141.0126   8.2274880426e+01   2.4464663314e+00    0.2139318    0.1851743 -12.70 0.0006585671    1.252    0.201
       333  -8.8616    165.6609    144.1017   9.9391265023e+01   1.9470876570e+01     0.329254    0.2206111  63.35 0.0009303114    1.797    0.444
       334  -9.7196    124.8031    142.4743   1.0896259657e+02   2.8509503049e+01    0.5250821    0.3343811 -75.83  0.001409948    2.274    0.560
       335  -7.8092    194.3220    143.7139   9.3082714287e+01   1.3278258650e+01    0.1520761    0.1210409 -85.74   0.00028525    1.598    0.374
       336  -9.3491      3.0915    142.3777   1.4111240555e+02   4.4938194092e+01    0.2697139    0.1571245  83.55  0.001437262    1.743    0.426
       337  -8.2763    181.9255    141.9376   9.5278527604e+01   1.6359992515e+01    0.2446382    0.1893776 -82.83 0.0006394358    1.666    0.400
       338  -8.9413     45.9823    140.6129   1.2979091230e+02   4.1487749259e+01    0.2991401    0.1886296  47.39  0.001344368    1.767    0.434
       339  -8.2700     39.6133    141.6970   1.3166803441e+02   4.1924741157e+01    0.1357373   0.09025725 -36.87 0.0007017297    1.794    0.443
       340  -9.8131     23.3812    138.5236   1.3548887505e+02   4.4249215966e+01    0.4560581    0.2431406  66.55  0.001733976    2.534    0.605
       341  -8.5636     19.4930    139.4987   1.3663357504e+02   4.4353443522e+01     0.162795    0.1109378  47.13 0.0009672698    1.672    0.402
       342  -8.7642    172.0700    138.4600   9.6623850196e+01   1.9289504823e+01    0.3005608    0.2174068 -62.58 0.0006914869    1.561    0.359
       343  -8.8682    114.9016    138.6496   1.1067868808e+02   3.1360758490e+01    0.3062615    0.1863899  56.00  0.001263759    1.897    0.473
       344  -8.0695    207.6352    138.2964   8.9196237767e+01   1.1515085872e+01    0.2294375     0.173049 -77.01 0.0007362528    1.728    0.421
       345  -8.5348    197.5983    137.6089   9.1012333004e+01   1.3822725997e+01    0.2886507    0.2052028 -74.36 0.0008513561    1.923    0.480
       346  -9.1451     92.9837    137.4137   1.1630562567e+02   3.5630421716e+01    0.3851283    0.1965939  49.20  0.001328125    2.191    0.544
       347 -10.5898     83.2139    133.5750   1.1819066446e+02   3.8155291221e+01    0.6328766    0.3705047 -55.54  0.001903297    1.576    0.365
       348  -8.7991    250.7332    130.1809   7.9951437628e+01   4.3465340386e+00    0.4297223    0.1151613 -39.19  0.001397145    3.383    0.704
       349  -9.2142    248.2791    135.2314   8.1405625864e+01   3.8994738698e+00    0.3104665    0.1978357 -44.08 0.0008023364    1.386    0.279
       350  -8.4603    246.8389    130.3655   8.0595980098e+01   5.0517274846e+00    0.2419784    0.1641487 -48.72 0.0005685806    1.349    0.258
       351  -8.0961    162.6076    136.2975   9.8258560929e+01   2.1866888595e+01    0.2159212    0.1494474 -37.50 0.0008748574    1.514    0.340
       352  -8.7525    130.4808    136.4982   1.0613343459e+02   2.8754833806e+01    0.2662178    0.1547452  43.54 0.0007157659    1.749    0.428
       353 -10.1621    132.5123    131.4064   1.0440632512e+02   2.9509475166e+01     0.642141    0.4411167  86.23   0.00193745    2.272    0.560
       354  -7.8778    187.7115    135.3725   9.2516491559e+01   1.6464451319e+01    0.1613997    0.1204622 -75.65  0.000702101    1.718    0.418
       355  -8.2690    151.4835    135.5029   1.0068827345e+02   2.4500429234e+01    0.1568972    0.1538381 -73.86 0.0008104421    1.009    0.009
       356  -8.0522    237.5443    133.8060   8.2838088557e+01   6.2244149041e+00    0.2044572    0.1209762 -51.12 0.0009162423    1.671    0.402
       357  -7.9400    231.3011    134.2946   8.3996965027e+01   7.3749181880e+00    0.1386296    0.1117034  -2.85 0.0001996784    1.573    0.364
       358  -8.6391    179.4407    133.8428   9.3911612606e+01   1.8634047938e+01    0.3037766    0.2082087 -64.21 0.0006641912    1.755    0.430
       359  -8.9687    112.8817    133.3808   1.1001291497e+02   3.2996911706e+01    0.3554999    0.2551736 -84.71 0.0009950653    1.873    0.466
       360  -8.6802      9.5463    133.9989   1.3849350980e+02   4.6410292195e+01    0.1677993    0.1607649 -82.23  0.001009456    1.233    0.189
       361 -10.4383     98.1894    130.1160   1.1326540087e+02   3.6478185686e+01    0.6707336    0.2628476 -54.72  0.001635473    2.503    0.600
       362  -8.9636    143.0178    131.7198   1.0184139514e+02   2.7198585159e+01    0.3179874    0.2450465 -70.52 0.0007702209    1.493    0.330
       363  -8.5580     31.1620    130.7968   1.3225090659e+02   4.5365077408e+01    0.1911439    0.1564078  87.75 0.0005417628    1.244    0.196
       364  -9.9868     12.9890    129.3459   1.3697491695e+02   4.7232526537e+01    0.4637624     0.241765  80.18  0.002106352    2.633    0.620
       365  -7.8309    204.5298    130.4818   8.7996085498e+01   1.3750744851e+01    0.1528675    0.1411537 -64.50 0.0001691815    1.078    0.072
       366  -8.1383    192.6259    130.2487   9.0295494562e+01   1.6431412328e+01    0.2075475     0.143211 -34.88 0.0005678941    1.504    0.335
       367  -8.9809    168.3232    129.5531   9.5332153393e+01   2.2057406444e+01     0.317842    0.2509008 -72.08 0.0006216082    1.466    0.318
       368  -9.2824    152.9553    129.1287   9.8795054152e+01   2.5598845655e+01    0.3684475    0.2215624 -55.28 0.0007374171    1.788    0.441
       369  -8.0285    211.4784    128.9918   8.6337848869e+01   1.2535606954e+01    0.2180374    0.1204614 -60.99 0.0005594599    2.483    0.597
       370 -10.6151     60.2864    125.4795   1.2304179749e+02   4.3389879375e+01    0.7966198    0.4642701  81.48  0.002609752    3.247    0.692
       371 -10.7969     44.7140    123.9676   1.2725412769e+02   4.5602521471e+01    0.9842887    0.5475631  88.85  0.004023285    2.987    0.665
       372  -8.4803     26.2243    129.6041   1.3342347261e+02   4.6096546115e+01    0.1562142    0.1230243  -3.96 0.0009019263    1.672    0.402
       373 -10.0283    118.1203    125.6734   1.0678394074e+02   3.3775220519e+01    0.5668622    0.3971216  89.06  0.001553512    2.154    0.536
       374  -8.1354    228.3547    125.1655   8.2473941234e+01   9.6972015086e+00    0.2163106    0.1204186 -49.75 0.0007086483    1.738    0.425
       375  -8.8874    179.3389    124.8439   9.1767947457e+01   2.0555951796e+01    0.2913461    0.2359838  89.81 0.0007085499    1.467    0.318
       376  -9.3637     39.0561    136.1576   1.3094424158e+02   4.3308916666e+01    0.2793848    0.1837071  80.14 0.0008265228    1.829    0.453
       377 -10.5129     28.3266    121.8522   1.3159533632e+02   4.7721923104e+01    0.8364393    0.4168369 -87.97  0.003400112    3.159    0.683
       378  -7.7794    188.6869    124.3263   8.9686116854e+01   1.8535323246e+01    0.1597262    0.1207342 -78.93 0.0006325881    1.665    0.400
       379  -9.9695    130.7760    118.6195   1.0169387073e+02   3.2775702949e+01    0.5172393    0.3383392 -80.69  0.001206041    2.596    0.615
       380  -9.1387     76.6027    124.0543   1.1802184730e+02   4.1449914995e+01    0.3138542     0.165231  52.91  0.001274726    2.454    0.592
       381  -9.1427    158.9284    121.8909   9.5595296848e+01   2.5841455026e+01    0.4175355    0.2699558 -84.22 0.0009649983    2.794    0.642
       382  -8.9397    172.0460    121.6941   9.2576893038e+01   2.2886841276e+01    0.2745121    0.2055575 -56.75 0.0003868502    1.384    0.278
       383  -9.6120     71.1201    119.9700   1.1872257185e+02   4.3218613477e+01    0.3742612     0.239846 -81.60  0.000902207    2.200    0.545
       384  -9.7147    141.5132    118.6498   9.8973166577e+01   3.0447627011e+01    0.4352429     0.303737 -71.49  0.001046931    1.882    0.469
       385  -9.4063     20.8539    118.9395   1.3325649168e+02   4.9028242914e+01    0.2557126    0.1754895  29.88    0.0010605    1.756    0.431
       386  -9.6952      3.1273    117.7262   1.3806713322e+02   5.0553197248e+01    0.4015055    0.2049801  71.12  0.001908367    2.951    0.661
       387  -8.3951    192.8702    115.3692   8.6678439660e+01   1.9395000272e+01    0.2661249     0.192749 -53.92 0.0004298147    1.383    0.277
       388  -9.8647    109.2705    114.2266   1.0635525234e+02   3.8123321180e+01    0.4860021    0.3317326 -80.18  0.001461426    2.238    0.553
       389  -9.5181     36.4059    115.2597   1.2807180882e+02   4.8497514380e+01    0.3249727    0.2017391  50.13  0.001600524    2.001    0.500
       390  -9.5547    250.0190    115.4363   7.6924348406e+01   7.1158571579e+00    0.2414336    0.2152739 -89.05  0.001049776    1.215    0.177
       391 -10.0429    248.3152    108.5918   7.5709908318e+01   8.6626104033e+00    0.2973486    0.2466689 -64.40  0.001171044    1.158    0.137
       392 -11.0599    249.5577    104.3008   7.4615702165e+01   9.1683519894e+00    0.7232846    0.4159729 -68.64  0.003135366    2.430    0.589
       393  -9.9210     78.8704    112.5995   1.1473664038e+02   4.3779073301e+01    0.5202609    0.3572611  87.10  0.001968708    2.315    0.568
       394  -7.7908    167.3081    114.6607   9.1866060894e+01   2.5454757309e+01    0.1631127    0.1230256 -80.17 0.0007043164    1.684    0.406
       395 -10.8404    133.6855    109.7094   9.8638947605e+01   3.4106962868e+01    0.7860286    0.3575335 -48.72  0.002565003    2.238    0.553
       396  -9.9497     92.6486    112.5464   1.1066446940e+02   4.1539216224e+01    0.4794254    0.3043867 -65.33  0.001247868    1.868    0.465
       397  -9.6060     51.4194    113.3421   1.2317846697e+02   4.7330030612e+01    0.2551803    0.2325015  79.61 0.0005812461    1.237    0.192
       398 -10.0818    121.8141    112.3993   1.0245795433e+02   3.6032257895e+01    0.4058541    0.2982965 -89.05 0.0005563216    1.959    0.489
       399  -8.1809    174.7915    111.9772   8.9553859739e+01   2.4269842611e+01    0.2497434    0.1669033 -65.70 0.0004315569    1.862    0.463
       400  -8.3970    159.2389    111.9621   9.3004970901e+01   2.7883747628e+01    0.2388359    0.2038135 -74.86 0.0005409198    1.279    0.218
       401 -10.2362     66.2076    110.5439   1.1806893054e+02   4.6096228025e+01    0.3977308     0.292755 -79.86  0.001406956    1.675    0.403
       402  -9.5899     14.3201    111.5278   1.3395531649e+02   5.1213076001e+01     0.283717     0.181334  81.60   0.00105505    1.981    0.495
       403  -9.2380      8.2810    109.8942   1.3546235832e+02   5.1990034325e+01    0.2471959    0.1515616  46.72  0.001450291    2.052    0.513
       404  -7.9355    189.1843    108.2056   8.5650008885e+01   2.1668790495e+01    0.2152848    0.1735736 -71.61 0.0004791247    1.349    0.259
       405  -9.8408    111.9496    107.0630   1.0375295466e+02   3.9194582799e+01    0.6737633    0.2198168  40.79  0.002139828    3.218    0.689
       406  -9.7639    139.6927    104.0867   9.5623947383e+01   3.3978336281e+01     0.520782    0.2905606 -51.79  0.001341303    1.915    0.478
       407 -10.5546     45.6578    102.4076   1.2260912859e+02   5.0472172993e+01    0.7338452    0.4523425  76.46   0.00314256    3.141    0.682
       408 -10.6033     22.7819    102.6770   1.2985450095e+02   5.2564355263e+01    0.6575719    0.3836237  83.26  0.002756301    2.840    0.648
       409  -9.3212    150.5647    103.3087   9.2769460511e+01   3.1676484355e+01    0.4424381    0.2644876 -64.62  0.001388813    2.391    0.582
       410  -8.6473     93.9890    104.5676   1.0823914506e+02   4.3094424388e+01    0.3945378    0.2422821   2.21  0.001402417    3.379    0.704
       411  -9.3568     79.1810    105.0267   1.1278935472e+02   4.5447051481e+01    0.3755544     0.188136  26.13  0.001502816    2.571    0.611
       412  -8.4337    166.6392    104.2221   8.9338076451e+01   2.7751659079e+01    0.2395829    0.1855507 -61.90 0.0005866138    1.388    0.279
       413  -9.5656    128.3578    102.1434   9.7998212207e+01   3.6868472214e+01    0.3073564    0.2647293 -68.75 0.0008282639    1.277    0.217
       414 -10.8000    109.1773     99.1415   1.0239904984e+02   4.1445884972e+01    0.8534143    0.8193312 -15.21  0.001986403    1.036    0.035
       415  -8.8661    107.6828     92.6641   1.0102291987e+02   4.3089521576e+01     0.727134    0.3219395  27.85  0.002172133    4.222    0.763
       416  -8.8223      6.8732    103.1925   1.3481661624e+02   5.3568903588e+01    0.1758003    0.1450716 -87.54 0.0007125796    1.298    0.230
       417  -7.8060    175.4790    102.5013   8.6998960222e+01   2.6012387780e+01    0.1548266    0.1474708 -79.27 0.0008102536    1.018    0.018
       418  -8.0286    159.8042    101.0454   9.0029097278e+01   2.9992533186e+01     0.250625    0.1704056 -68.75 0.0006717048    1.924    0.480
       419  -9.3038     82.1057    100.1017   1.1063637315e+02   4.6073521135e+01    0.3430939    0.2516895 -76.91 0.0009728203    1.855    0.461
       420  -9.1739     95.0298     97.0350   1.0592035728e+02   4.4543266890e+01    0.3100805    0.2253338 -59.72 0.0005739558    1.525    0.344
       421 -10.0190     63.9607     96.1371   1.1528791863e+02   4.9624120574e+01    0.4929702    0.3298244 -85.04  0.001640881    2.576    0.612
       422  -9.2034     56.8530     95.1098   1.1731377136e+02   5.0773848407e+01    0.3179784    0.2044548  46.23  0.001393358    1.899    0.473
       423  -8.1476    151.5020     95.4747   9.0444975944e+01   3.3038077525e+01    0.1532036    0.1488011  20.26 0.0008085715    1.090    0.082
       424  -8.1230    188.4294     94.2059   8.2300209282e+01   2.4539173364e+01    0.2148976    0.1362514 -52.03 0.0007869764    1.600    0.375
       425  -8.1083    165.1074     94.1771   8.7035518000e+01   3.0094576799e+01    0.2129726    0.1758081 -69.95 0.0004289424    1.315    0.240
       426  -9.3619    139.0661     92.5448   9.2629183592e+01   3.6466564404e+01     0.398017    0.2789847 -76.31 0.0008197881    2.087    0.521
       427 -10.3524    246.3825     92.2619   7.2479698310e+01   1.1892551712e+01     0.332568    0.2452384 -84.14  0.001804184    1.505    0.335
       428  -8.0061    176.2407     93.4151   8.4497502182e+01   2.7590064389e+01    0.2093815    0.1442991  69.37 0.0006346187    1.621    0.383
       429 -10.1402    123.4891     91.4263   9.6315333932e+01   4.0109024623e+01    0.6120014    0.4170981  31.82  0.001408619    1.640    0.390
       430  -9.6402      5.2601     92.2240   1.3345339646e+02   5.6054512747e+01    0.2890066    0.1894378  64.51  0.001409029    2.191    0.544
       431  -8.9333     47.0046     92.4692   1.1987860127e+02   5.2511989787e+01    0.3180636    0.1304979  27.90  0.001373078    2.779    0.640
       432  -9.5585     34.8324     89.9415   1.2331271399e+02   5.4310438902e+01    0.3755711    0.2455036 -83.08  0.001617771    2.244    0.554
       433  -8.8489     29.8904     92.0604   1.2542407906e+02   5.4304828700e+01    0.1895042    0.1572002 -77.61  0.001109286    1.358    0.264
       434  -7.8257    157.5718     91.5237   8.7985434426e+01   3.2387668674e+01    0.1530253    0.1456551 -83.11 8.639076e-05    1.048    0.046
       435  -9.0952     23.2457     90.1900   1.2721458631e+02   5.5263785859e+01    0.2908548    0.2031569   7.96  0.001516587    1.710    0.415
       436  -8.7134    151.1072     89.4745   8.8898303117e+01   3.4297304894e+01    0.2448614    0.2058302 -73.60 0.0005635873    1.331    0.249
       437  -9.9534     86.4165     86.0518   1.0545959684e+02   4.8325401456e+01    0.5921162     0.342862 -55.51  0.001655848    1.965    0.491
       438 -10.1236     48.3668     84.3539   1.1739336918e+02   5.4081071352e+01    0.4189965    0.2967184  86.01  0.001751914    2.504    0.601
       439  -9.6479    104.8204     83.2254   9.9125752537e+01   4.5535604677e+01     0.442655    0.2913126 -64.42  0.001354134    2.174    0.540
       440  -8.3284    157.9074     84.1002   8.5888582581e+01   3.3705647486e+01    0.2290056    0.1998877 -79.48 0.0003944499    1.231    0.187
       441  -9.1556    140.9433     82.9376   8.9469796963e+01   3.7883883431e+01    0.4395408    0.2246291 -51.14   0.00119411    2.253    0.556
       442  -8.5007    128.5147     83.4697   9.2721300149e+01   4.0572782528e+01    0.2741316    0.1339075  38.16  0.001030722    2.296    0.564
       443  -9.4043     10.1860     81.3010   1.2973740544e+02   5.8070181841e+01    0.3175431    0.1936316  74.37   0.00159377    3.055    0.673
       444  -8.9267    150.1386     80.7280   8.6691170020e+01   3.6157249922e+01      0.26233    0.2024136 -56.29  0.000723985    1.396    0.284
       445  -8.5864    119.3532     80.3482   9.4222171309e+01   4.3134813587e+01    0.2704049    0.2064318 -83.51 0.0006312137    1.902    0.474
       446  -8.7831     74.5238     80.6621   1.0767119536e+02   5.1329632739e+01    0.2700932    0.2124588 -80.55 0.0009717621    1.892    0.472
       447  -8.6767    166.6934     79.9019   8.2875336967e+01   3.2366725387e+01    0.2095683    0.1861875 -50.95 0.0004343604    1.136    0.120
       448  -8.4586     15.2604     86.2394   1.2904429931e+02   5.6698967541e+01    0.1552407    0.1312841 -82.48  0.001057156    1.372    0.271
       449  -8.7521    105.3437     77.3118   9.7214366510e+01   4.6561944036e+01    0.3174627    0.1843233  18.56  0.001200501    2.847    0.649
       450  -8.4075    184.1855     78.2067   7.9017066795e+01   2.8447416013e+01     0.205588    0.1655968 -71.57 0.0005314365    1.298    0.230
       451 -10.1104     63.8238     74.7311   1.0947912632e+02   5.4064193184e+01    0.6729708    0.2964213 -58.73  0.002478513    3.494    0.714
       452  -9.3664    127.9957     75.4116   9.0496847379e+01   4.2173443784e+01    0.3580484    0.2363788 -57.66 0.0008644753    1.881    0.468
       453  -8.8993    248.5955     75.8139   6.8696781835e+01   1.4173020521e+01    0.2045925    0.1038932 -50.18 0.0009583631    1.739    0.425
       454  -7.9897    157.2827     76.6454   8.3967882017e+01   3.5197093611e+01     0.154242    0.1145707 -73.08 0.0007017242    1.662    0.398
       455  -8.6323    140.4786     75.4691   8.7440092478e+01   3.9347829567e+01     0.253683      0.19292 -70.96 0.0007192335    1.660    0.398
       456  -7.8242     17.3389     76.6446   1.2624601331e+02   5.8550876974e+01    0.1128965   0.08942155  79.11 0.0007041098    1.809    0.447
       457  -9.3051    234.7673     74.2154   7.0121242394e+01   1.7379895817e+01    0.2236284     0.212732 -79.81 0.0003971666    1.171    0.146
       458  -8.8663    163.3040     73.5783   8.1852603352e+01   3.4287843171e+01    0.2697672    0.1706103 -50.85 0.0009590753    1.685    0.407
       459  -9.6450     82.3361     72.7251   1.0278777628e+02   5.1608817937e+01    0.3635921     0.255392 -59.53  0.001046167    1.834    0.455
       460  -7.8350    151.2842     73.6331   8.4434966518e+01   3.7147184214e+01    0.1536946    0.1141754 -72.78 0.0007018428    1.694    0.410
       461  -8.5739    115.6305     72.6896   9.2936082580e+01   4.5319045930e+01    0.2713954    0.1756207 -41.49 0.0007656221    1.578    0.366
       462  -7.7266    175.4933     72.5267   7.9158382947e+01   3.1522398005e+01    0.1480631    0.1383666  86.62 9.154163e-05    1.009    0.008
       463  -9.0746    105.8722     71.6561   9.5339366069e+01   4.7493065784e+01    0.2651114    0.1824144 -56.97 0.0005787822    1.823    0.451
       464  -9.3505     95.0238     71.0055   9.8322336923e+01   4.9690583489e+01    0.3583691    0.2123455 -52.63 0.0009795494    2.030    0.507
       465  -9.7949     51.4219     69.7565   1.1230027214e+02   5.6644308243e+01    0.4082645    0.2335928 -62.87  0.001485798    2.507    0.601
       466  -9.6103     24.5458     80.4398   1.2460742778e+02   5.7218733608e+01    0.3794302    0.2391164 -81.69  0.001489865    2.403    0.584
       467  -8.5817    238.6810     70.4521   6.8792897068e+01   1.7138309017e+01     0.236699    0.1143763 -39.87 0.0008658361    1.940    0.485
       468  -8.3652     28.0139     71.0470   1.2106062256e+02   5.8832719650e+01    0.2052255    0.1174039 -29.39 0.0009017552    1.721    0.419
       469  -8.8902     16.6572     70.1974   1.2496812671e+02   5.9900014579e+01    0.2368389    0.1801575 -81.88  0.001079749    1.773    0.436
       470  -9.1588    157.1406     70.1770   8.2195134357e+01   3.6344486634e+01    0.2046167    0.1715901 -78.56 0.0004405192    1.319    0.242
       471  -8.6839    146.9826     68.3300   8.3878114938e+01   3.9063860228e+01    0.2393395     0.196991 -53.44 0.0004593816    1.294    0.227
       472  -9.4189    121.2770     66.8210   8.9642069918e+01   4.5137815747e+01    0.3743365    0.2466391 -33.84  0.001158861    1.582    0.368
       473  -8.3836     32.0177     68.4340   1.1890766581e+02   5.8985445519e+01    0.1676022    0.1156009  13.23 0.0007210741    1.591    0.371
       474  -9.1862    138.6377     66.4476   8.5238582162e+01   4.1319105207e+01     0.279363    0.2038065 -62.04 0.0007537348    1.681    0.405
       475  -7.5735    163.6666     65.7032   7.9613615478e+01   3.5515550227e+01    0.1478707    0.1123481  27.61  0.000442882    1.645    0.392
       476  -8.7665     37.1974     64.5257   1.1590692360e+02   5.9231103056e+01      0.23138    0.1840133 -74.54 0.0008937512    1.810    0.448
       477  -8.8680    110.3187     63.7873   9.1638183902e+01   4.7957859076e+01    0.2447912     0.218486 -84.15 0.0006039617    1.407    0.289
       478  -9.4900     97.6472     61.4969   9.4527557607e+01   5.0852189620e+01    0.3223675    0.3072231 -13.69  0.001137802    1.093    0.085
       479  -8.4488     64.3605     63.3041   1.0580108227e+02   5.6126675061e+01     0.137646     0.092936  -7.61 0.0007038503    1.727    0.421
       480  -8.2043    158.1550     62.1372   7.9730153090e+01   3.7414750114e+01    0.1996702    0.1659561 -82.26 0.0003632763    1.324    0.245
       481  -9.6640     73.2476     59.5152   1.0156097826e+02   5.5452070159e+01    0.3811027    0.2179363 -49.67  0.001055729    2.022    0.505
       482  -7.7496    164.3167     60.2642   7.7986400270e+01   3.6223691912e+01    0.1422388    0.1085106  32.78 0.0002903494    1.548    0.354
       483  -7.8792     88.8403     59.5893   9.6570076992e+01   5.2803201897e+01    0.1789519    0.1265969  51.42  0.000589549    1.618    0.382
       484  -9.8862     23.5795     56.5897   1.1875144982e+02   6.1973991186e+01    0.3980885    0.2717974 -82.20  0.002087964    2.958    0.662
       485  -8.4142    130.5352     58.0352   8.4633192186e+01   4.4517374549e+01    0.2033968    0.1399708 -37.42 0.0004411736    1.528    0.346
       486  -9.3421      7.4004     57.0925   1.2515957373e+02   6.3046632609e+01    0.2460446     0.176419 -84.47  0.001068481    2.183    0.542
       487  -9.2080    119.1199     55.5644   8.6697665454e+01   4.7420322234e+01    0.3926656    0.2152075 -44.89  0.001284848    2.044    0.511
       488  -9.5066     54.3587     55.6422   1.0686037797e+02   5.8846787928e+01    0.3188387    0.2060032 -54.97  0.001111485    1.967    0.492
       489  -8.8385    140.0249     56.2977   8.1908186255e+01   4.2611459768e+01    0.1948965    0.1828914  66.79  0.000484545    1.060    0.056
       490  -8.9978     43.9851     55.6898   1.1069273605e+02   6.0112870550e+01    0.2320721    0.1639973 -46.11 0.0007373299    1.403    0.287
       491  -8.0314    152.5924     54.2579   7.8624934060e+01   3.9956658992e+01    0.1846155    0.1410343 -19.20 0.0009395523    1.562    0.360
       492  -9.0014    105.6763     53.4537   8.9608964292e+01   5.0558659146e+01    0.2642437    0.2116161 -14.87 0.0009059223    1.308    0.235
       493  -9.3623     92.3731     50.7528   9.2554048034e+01   5.3563707007e+01    0.3484061    0.2216656 -46.53  0.001331241    1.846    0.458
       494  -8.6039    144.5347     49.0151   7.8766006516e+01   4.2627722440e+01    0.1996612    0.1400199 -34.10 0.0005011978    1.538    0.350
       495  -8.5519    129.9559     49.3260   8.2091042425e+01   4.5948557148e+01    0.1997155    0.1704339  50.01 0.0005528232    1.088    0.081
       496  -8.2161    163.5537     48.2697   7.4815971296e+01   3.8189622272e+01    0.1809426    0.1406562 -14.23 0.0009399101    1.622    0.384
       497  -8.6015    120.9244     47.7545   8.3764608383e+01   4.8181612040e+01    0.2207277    0.1942313 -28.16 0.0005520221    1.209    0.173
       498  -8.5434    112.0850     47.0228   8.5775062990e+01   5.0183683836e+01    0.2031678     0.192577  18.22 0.0006181846    1.053    0.051
       499  -8.8875     82.1087     46.3985   9.4228773697e+01   5.6077527180e+01    0.2363929    0.1798452 -38.77  0.000696412    1.422    0.297
       500  -9.9389    133.0232     45.0262   8.0061812615e+01   4.5853822382e+01    0.3109063    0.2075095 -36.75 0.0006303142    1.612    0.380
       501  -8.5338     44.9604     44.7321   1.0667277823e+02   6.1847475359e+01    0.1966546    0.1440857 -47.85 0.0005609231    1.588    0.370
       502  -8.7568     16.8444     45.0642   1.1797573284e+02   6.4571947533e+01    0.1588287    0.1409767 -40.20 0.0005900222    1.315    0.239
       503  -8.9539     58.2034     42.7685   1.0105303695e+02   6.0416296291e+01    0.2561718    0.1881891 -54.47  0.001204662    1.955    0.489
       504  -7.6586    100.6564     43.6709   8.7751989699e+01   5.2996384229e+01    0.1427864   0.09570374  17.29 0.0007050887    1.748    0.428
       505  -9.1273     69.6248     41.9988   9.6773184706e+01   5.8812272541e+01    0.2722069    0.2124811 -59.39  0.001118433    1.981    0.495
       506  -9.2593      5.2204     42.3414   1.2196355992e+02   6.5849645607e+01    0.2473284    0.1774829 -70.01   0.00143279    1.984    0.496
       507  -8.6172    106.0033     41.6328   8.5599182292e+01   5.2195403641e+01    0.2195995    0.1847975 -64.40 0.0006604897    1.576    0.365
       508  -7.8569    206.4698     41.4581   6.6413973959e+01   2.8804529759e+01    0.1351035    0.1177382 -88.50 0.0006551467    1.029    0.028
       509  -8.4794     36.9608     40.9674   1.0847216102e+02   6.3372629170e+01    0.1566981    0.1493795 -82.96 0.0006936087    1.696    0.410
       510  -9.1526     95.2291     38.1316   8.7383914856e+01   5.4814680303e+01    0.2674402    0.1659763 -38.94 0.0008649799    1.782    0.439
       511  -8.0578     80.6011     36.8661   9.1327562985e+01   5.7692598848e+01    0.1680048    0.1142503 -41.84 0.0005456522    1.716    0.417
       512  -9.5004     26.2047     35.4245   1.1088842973e+02   6.5354135562e+01    0.2986251    0.1788595 -53.20 0.0009507223    2.128    0.530
       513  -8.7950    200.7762     35.9690   6.5861925836e+01   3.0885570650e+01    0.2261322    0.1743153  77.05 0.0004649212    1.158    0.137
       514  -8.1220    125.8220     35.7990   7.8798048534e+01   4.8687570758e+01    0.1710707    0.1549313 -79.62 0.0003616042    1.290    0.225
       515  -8.8217    111.4573     35.0477   8.1976685361e+01   5.1912229276e+01    0.2553271    0.1940563 -15.13 0.0008418449    1.436    0.304
       516  -8.9338    232.9767    247.6715   1.0602291337e+02  -1.2145424982e+01    0.2253884     0.171248 -49.29 0.0008206228    1.888    0.470
       517  -8.9150     48.4493     33.5218   1.0128295390e+02   6.3113117374e+01    0.2090682    0.1904602 -41.36 0.0007053057    1.524    0.344
       518  -8.6681     60.7129     32.8231   9.6498919246e+01   6.1485135995e+01    0.1882569    0.1581311  62.39 0.0005762088    1.904    0.475
       519  -8.0720    139.2231     31.9717   7.4761291232e+01   4.6093807986e+01    0.1674144    0.1121335 -29.92 0.0008741462    1.666    0.400
       520  -8.3026     72.0740     31.3229   9.2039840931e+01   5.9883974770e+01    0.1706206     0.146001  21.29 0.0007749441    1.104    0.094
       521  -9.4530     12.9990     30.1920   1.1468889988e+02   6.7318704260e+01    0.2786031    0.1669399 -57.44  0.001437332    2.321    0.569
       522  -8.6292    101.4922     29.4924   8.2650894320e+01   5.4650017430e+01    0.2039025    0.1148525 -40.47 0.0007334197    2.079    0.519
       523  -8.8728     81.3494     27.5660   8.7690993637e+01   5.8741193309e+01    0.2288412    0.2012939 -73.71 0.0007617724    1.754    0.430
       524  -8.9343      3.7687     27.9364   1.1801328978e+02   6.8331508014e+01    0.1771978      0.13697 -52.69 0.0008606414    1.587    0.370
       525  -8.5038    208.8727     27.3716   6.2869530062e+01   3.0080621697e+01    0.1833826    0.1437051  79.33 0.0006279205    1.123    0.109
       526  -8.7282     91.9320     26.5525   8.4216156041e+01   5.6884316859e+01    0.2174347    0.1692072 -44.25 0.0006928603    1.614    0.380
       527  -8.8983    228.5140     25.4493   6.0337583904e+01   2.5846856570e+01    0.2317832    0.1173912 -37.22  0.001076648    2.038    0.509
       528  -9.0836    184.2847     24.1808   6.5181459658e+01   3.6273735835e+01    0.2613662    0.1505907 -83.97  0.001222425    2.063    0.515
       529  -8.5774    167.1680     23.0274   6.7330773912e+01   4.0502008153e+01     0.223178    0.1319899 -60.04  0.000522083    2.018    0.505
       530  -8.1059    104.4818     23.0140   7.9633297468e+01   5.4766712336e+01    0.1649213    0.1021741 -52.62 0.0004793291    2.401    0.584
       531  -8.0649     34.5092     23.4893   1.0293590174e+02   6.6223704415e+01    0.1131817   0.09058258  -6.68 0.0008093035    1.079    0.073
       532  -9.0585     63.7148     21.1329   9.0935411662e+01   6.2495230404e+01    0.2349726    0.1713541 -43.83 0.0009239162    1.871    0.466
       533  -8.7429     48.1993     21.7436   9.6793841719e+01   6.4723820049e+01     0.183549    0.1400177 -28.25 0.0007038326    1.375    0.273
       534  -7.8859     88.5336     34.4961   8.8050365483e+01   5.6563458437e+01      0.12739     0.113376  19.29 0.0001407122    1.051    0.049
       535  -8.5796     19.5310     21.5463   1.0858606802e+02   6.8048921372e+01    0.1091846   0.08439434 -13.58 7.493609e-05    1.072    0.067
       536  -8.8465     74.1527     19.6354   8.6923087090e+01   6.0923798255e+01    0.2192637    0.1802146 -50.40 0.0007280183    1.773    0.436
       537  -8.1202     87.6441     17.7401   8.2198181370e+01   5.8665515780e+01    0.1558747    0.1092823 -32.45 0.0004336011    1.620    0.383
       538  -8.1968     29.9960     16.0730   1.0181180271e+02   6.7707380238e+01    0.1440399    0.1351861 -32.10 0.0009006505    1.711    0.416
       539  -8.9052    132.7321    248.5289   1.2559316134e+02   3.9801437643e+00    0.3619796     0.204423  69.02  0.001355962    2.661    0.624
       540  -9.0997    175.4599    247.5455   1.1698430695e+02  -3.0653309936e+00    0.2804495    0.2235062 -84.88  0.001462673    1.865    0.464
       541  -7.8106     47.7024     10.3701   9.2274077312e+01   6.6110887273e+01   0.09714206   0.08986866 -41.95 0.0007029762    1.735    0.424
       542  -8.7779    156.5027    248.4426   1.2086710512e+02  -1.7926578309e-02    0.2325733    0.1791517 -88.92 0.0007828297    1.788    0.441
       543  -9.4239     21.5012    248.3040   1.4621124396e+02   2.0090097353e+01    0.2101564    0.1506816  70.87 0.0006819731    1.053    0.050
       544 -10.2270    243.1237    246.4069   1.0397261694e+02  -1.3413074611e+01    0.4435201    0.3024938  -0.37  0.002784155    1.397    0.284
       545  -9.2130    246.3716    229.3087   1.0040950211e+02  -1.1510649714e+01    0.3826726    0.1860036 -41.73  0.001250142    2.229    0.551
       546  -9.4624    248.4917    242.4796   1.0234349187e+02  -1.3631650918e+01    0.2661676    0.1954394 -42.35 0.0009811326    1.742    0.426
       547 -11.1505    247.4639    237.2668   1.0162166996e+02  -1.2782571440e+01    0.3209205    0.2372721 -30.25 0.0003436295    1.377    0.274
       548  -8.3833    218.6839    248.1528   1.0874833197e+02  -1.0097038317e+01    0.1686695    0.1518468 -37.33 0.0007446383    1.414    0.293
       549  -8.0520    144.2009    248.3626   1.2329730911e+02   2.0783466194e+00    0.1923808    0.1012613  48.26 0.0009409207    1.681    0.405
       550  -8.9678    103.8901    247.2486   1.3110594779e+02   8.9483303915e+00      0.34453    0.1870778 -84.17  0.001594164    2.664    0.625
       551  -9.4293     34.8621    248.0081   1.4392680099e+02   1.8578750598e+01    0.2147642     0.127124  62.68 0.0009313968    1.336    0.251
       552 -10.1129    224.0590    244.0690   1.0706320878e+02  -1.0328277950e+01     0.434275    0.2466588 -44.98  0.002110905    2.156    0.536
