#   1 NUMBER                 Running object number                                     
#   2 MAG_AUTO               Kron-like elliptical aperture magnitude                    [mag]
#   3 X_IMAGE                Object position along x                                    [pixel]
#   4 Y_IMAGE                Object position along y                                    [pixel]
#   5 X_WORLD                Barycenter position along world x axis                     [deg]
#   6 Y_WORLD                Barycenter position along world y axis                     [deg]
#   7 A_WORLD                Profile RMS along major axis (world units)                 [deg]
#   8 B_WORLD                Profile RMS along minor axis (world units)                 [deg]
#   9 THETA_WORLD            Position angle (CCW/world-x)                               [deg]
#  10 FWHM_WORLD             FWHM assuming a gaussian core                              [deg]
#  11 ELONGATION             A_IMAGE/B_IMAGE                                           
#  12 ELLIPTICITY            1 - B_IMAGE/A_IMAGE                                       
         1 -15.1651    217.2177    168.3393   4.3176011181e+01   6.3787474029e+00     3.313747     2.537217 -58.58   0.01848177    2.052    0.513
         2 -14.5876    195.9639     90.0624   2.9077030391e+01   2.3225831149e+01     2.616349     1.489778 -72.35  0.008635266    3.968    0.748
         3 -15.9780    205.5175     80.0138   2.4900781725e+01   2.2675748315e+01     2.591754     2.093403  45.68   0.01403446    1.343    0.255
         4 -16.1485    214.9458    117.6939   3.2696626571e+01   1.4658792011e+01     2.388981     2.065361  84.53   0.01359831    1.521    0.343
         5 -17.3553    242.3821     66.7317   1.6782161460e+01   1.6680429846e+01     5.205555     3.316186 -60.32   0.02741074    1.747    0.428
         6 -17.7951    245.3418    118.4990   2.8236384056e+01   8.8298170560e+00      3.82621     1.712699 -31.00   0.01767762    1.947    0.486
         7 -10.6815    192.1936     10.4547   7.4032822485e+00   3.5099852995e+01    0.3405273    0.2867666  84.09 0.0005835356    1.128    0.113
         8  -8.7343    137.6486      8.0047   1.3128840821e+01   4.9519282250e+01    0.1903071    0.1825501 -39.82 0.0004929272    1.119    0.107
         9 -11.1213    237.6494      3.3682   2.2416893432e+00   2.5205247091e+01    0.4224309    0.3802724  84.04  0.002003418    1.246    0.197
        10  -8.2791    247.8490      5.0658   2.0513577969e+00   2.2882519259e+01    0.1984983    0.1218328 -59.92 0.0003876641    1.386    0.278
        11  -7.3842    200.4865      6.9619   5.7093073282e+00   3.3402034592e+01    0.1826477    0.1257016 -28.69 0.0004985888    1.477    0.323
        12  -7.7921    244.6285      2.5494   1.6645407848e+00   2.3804310890e+01    0.1909799    0.1218918 -57.12 -1.996896e-06    1.294    0.227
        13  -8.8224    227.5316      4.5140   3.1255521434e+00   2.7312239388e+01    0.2582645    0.2301642 -89.61  0.001630042    1.179    0.152
        14  -9.2268    226.3288      1.6343   2.5063111031e+00   2.7864458046e+01    0.2175372    0.1370612  88.98 0.0005994015    1.531    0.347
        15  -8.3041    185.0881      3.5659   6.0766380272e+00   3.7555780874e+01     0.417562    0.1945521 -86.77 0.0009389562    2.370    0.578
        16  -8.2173    131.3533      7.3130   1.3864247113e+01   5.1239985683e+01    0.1535475   0.09451618  39.73 3.868125e-05    1.731    0.422
        17  -8.8082    156.9525    201.6427   6.0811316075e+01   1.1196131493e+01    0.2023538    0.1865269 -30.72 0.0003296993    1.244    0.196
        18 -11.5200    200.5142    237.8763   5.7872474494e+01  -4.4027343148e-01     1.409022     1.196187 -38.56  0.009439485    1.666    0.400
        19  -9.6391    239.8298    223.9791   4.9129776772e+01  -4.0302670726e+00     0.338436    0.2018767  22.58 0.0007350426    1.369    0.270
        20 -10.6266    248.9609    220.4488   4.7114708894e+01  -4.7921955741e+00    0.3787425    0.2614745  -7.15 0.0003849003    1.191    0.160
        21 -10.6809    248.7751    214.8282   4.6233842879e+01  -4.1599723957e+00    0.4129565    0.2339679  13.94 0.0007783203    1.617    0.381
        22  -9.6192    242.5933    213.6227   4.7018845130e+01  -3.2349850014e+00    0.3959865    0.2380885   3.52   0.00197803    1.572    0.364
        23 -10.7404    244.8162    230.6435   4.9370265560e+01  -5.3582360660e+00     0.632152    0.3320226  17.40  0.002603484    1.689    0.408
        24 -12.5571    228.3993    244.5148   5.4081396895e+01  -4.7860588132e+00      1.61661    0.7459916  31.90   0.00440678    1.735    0.424
        25 -10.6518    233.0836    232.0596   5.1476415150e+01  -4.0539626191e+00    0.3542225    0.2694805  23.06  0.002663159    1.261    0.207
        26 -10.8523    235.1807    226.7199   5.0313400418e+01  -3.7393411816e+00    0.5336643    0.2317919  40.16  0.002911182    2.365    0.577
        27 -12.1712    245.6710    243.4354   5.1156379872e+01  -6.7471198630e+00    0.9317101    0.7690891 -12.70  0.004239039    1.510    0.338
        28 -11.4558    235.6410    245.7727   5.3087646337e+01  -5.7930046288e+00    0.3826858    0.3503127 -13.12  0.003189767    1.738    0.425
        29  -8.4459    207.9771    197.4256   5.0191681531e+01   3.6928372118e+00    0.1706925    0.1403136   6.30    0.0003207    1.033    0.032
        30  -8.2981    250.6891    197.3607   4.2984549607e+01  -2.4282400693e+00    0.1412404   0.08623973 -17.85 0.0008805604    1.435    0.303
        31 -12.2571    244.3064    195.7365   4.3708017115e+01  -1.3751066131e+00    0.2178967    0.1734659   2.55 0.0003634405    1.072    0.067
        32 -10.1607    181.8355    240.0426   6.1517224317e+01   1.8634722265e+00    0.4428556    0.1724566  30.06  0.002152106    2.268    0.559
        33 -14.0007    239.3214    175.1495   4.0761517551e+01   1.9383862471e+00     1.487367    0.5189289  29.82  0.005650574    3.887    0.743
        34 -14.8361    247.1437    158.8747   3.6387160097e+01   2.9150846566e+00     1.293434    0.7719292 -31.42  0.007412521    1.502    0.334
        35 -14.8898    207.0385    132.8879   3.7544295219e+01   1.3748671598e+01     1.940517     1.201076  -3.07  0.008365988    2.395    0.583
        36 -14.3946    215.4121    139.5814   3.7551374364e+01   1.1087796117e+01    0.9134523     0.750034  -4.80  0.003646124    1.164    0.141
        37  -8.0587    159.5764    240.7580   6.5732212620e+01   4.9070151012e+00    0.1256534    0.1159846 -68.16 0.0005117831    1.543    0.352
        38  -9.7177    187.4428    237.7433   6.0187409836e+01   1.3717363817e+00    0.2401477    0.1875179 -10.22 0.0002613455    1.343    0.255
        39  -8.9649    177.4863    231.1306   6.1102682902e+01   3.6398390599e+00     0.220149    0.1591768  37.65 -0.0001104096    1.257    0.204
        40 -15.4805    223.6510     75.8580   2.1255939635e+01   1.9303950346e+01     1.594182    0.8452923 -23.76  0.007058652    2.016    0.504
        41  -8.8214    195.0239    229.1521   5.7598040391e+01   1.3901173217e+00    0.1811509    0.1502725  -2.55 0.0003621643    1.198    0.165
        42 -15.8634    245.4299     94.1254   2.2776010708e+01   1.2284853034e+01     1.054747    0.7245188  27.30  0.005728698    1.854    0.461
        43 -16.3839    243.3001     83.6712   2.0637518098e+01   1.4164814080e+01     2.675551    0.8600625  44.99  0.009559429    4.191    0.761
        44  -8.1187    212.5696    196.3014   4.9171393839e+01   3.1458938730e+00    0.2111848    0.1237277  18.23 0.0008085232    1.756    0.431
        45  -7.0075    121.4601    196.4564   6.7668815191e+01   1.7871830560e+01    0.1319623    0.1147357  39.09 0.0008074844    1.032    0.031
        46  -9.8956    183.0546    194.9190   5.4457027921e+01   8.0093621138e+00    0.1980684    0.1686608  12.57            0    1.040    0.038
        47  -8.4493    200.6279    192.8531   5.0744417236e+01   5.4875056059e+00    0.2959949    0.2255415  71.99  0.001557257    2.611    0.617
        48  -8.3707    204.4091    188.2075   4.9220023399e+01   5.5589900087e+00    0.2503425    0.1669636  14.60 0.0009462092    1.507    0.336
        49  -9.0577    158.7873    190.1951   5.8591841351e+01   1.2820908417e+01    0.2239523     0.187439  21.19 0.0002423937    1.105    0.095
        50 -10.4394    246.9614    185.8135   4.1517354563e+01  -5.3128490084e-01    0.2582026    0.1746822  39.19 0.0008669501    1.665    0.399
        51  -7.5745    199.9486    186.2525   4.9696550371e+01   6.5669528406e+00    0.1640874    0.1355904  12.62 0.0001953453    1.036    0.035
        52  -7.8781    138.8168    185.2164   6.2101135383e+01   1.7113951011e+01    0.1855266    0.1525499   8.05 0.0005364383    1.369    0.269
        53  -7.1231     89.7157    184.6598   7.3408621663e+01   2.5155793997e+01    0.1241788     0.103722 -21.31 0.0007015133    1.633    0.388
        54  -7.1396    181.4357    182.5984   5.2617995866e+01   1.0230099219e+01    0.1330935    0.1134233  16.52 -1.479559e-05    1.037    0.036
        55 -10.5856    199.8046    163.9123   4.5476628736e+01   1.0045334722e+01    0.4835636    0.3583545 -30.64  0.002730583    1.332    0.249
        56 -11.8294    197.9057    179.4376   4.8831555057e+01   7.9364591572e+00    0.2454299    0.2111857 -16.22 0.0003075602    1.150    0.130
        57 -10.6676    199.2194    172.0272   4.7179231855e+01   8.8633611407e+00     0.416696    0.3707073 -14.08            0    1.125    0.111
        58  -7.4923     65.1201    181.3517   7.8941974542e+01   2.9316455994e+01    0.1775788   0.09989631  45.78 0.0001800048    1.548    0.354
        59  -8.3933    181.9036    173.9847   5.0932934728e+01   1.1566886500e+01    0.1929904    0.1763596  17.90            0    1.070    0.065
        60  -9.2821    172.1528    173.1690   5.2774734987e+01   1.3438604680e+01     0.215353    0.1973298  28.96            0    1.087    0.080
        61  -9.3160    157.9851    172.1315   5.5599801494e+01   1.6173095503e+01    0.3178653     0.253442 -12.62 0.0004042791    1.426    0.299
        62  -9.0109    156.2861    168.6927   5.5332652382e+01   1.7118131686e+01    0.3479563    0.2105042  40.01  0.001672988    1.528    0.346
        63  -9.5167    148.9465    172.3163   5.7629149689e+01   1.7768641206e+01    0.3764998    0.2638034  -5.77  0.001473342    2.037    0.509
        64  -7.9358    137.2877    170.6856   5.9990222798e+01   2.0176153622e+01    0.1371378    0.1077554  72.03 0.0003094798    1.586    0.369
        65  -7.7965    110.7662    167.9588   6.5871587823e+01   2.5364562642e+01    0.1803968    0.1177185 -56.36 0.0008833245    1.646    0.392
        66  -8.4903    189.6492    166.4652   4.7940764084e+01   1.1438963638e+01     0.212858    0.1845914 -27.82 0.0006157742    1.187    0.158
        67  -7.8229    134.4945    167.4730   6.0069554461e+01   2.1317114218e+01    0.1414431    0.1302155  34.53  0.000334035    1.024    0.023
        68  -7.8162    163.2093    166.0433   5.3317601397e+01   1.6336205462e+01    0.1918744    0.1783274   4.43 0.0005779684    1.056    0.053
        69  -8.0060    152.7332    163.4104   5.5120415476e+01   1.8772568291e+01    0.2025236    0.1280914  31.46 0.0009489069    1.584    0.369
        70  -9.0956    149.0012    159.5239   5.5213674353e+01   2.0224759175e+01    0.3764745      0.19393 -64.55  0.001289144    3.745    0.733
        71  -8.1914    188.0864    159.6275   4.6881043605e+01   1.2867300481e+01    0.2069217    0.1771042 -39.56 0.0002896718    1.270    0.212
        72  -8.0518    177.6288    158.9087   4.8852235347e+01   1.4936184431e+01    0.2280177    0.1751212  28.62 0.0005298905    1.249    0.199
        73 -11.9601    165.4932    154.8742   5.0599807924e+01   1.7974719457e+01    0.4098783    0.3149022  33.16  0.000272965    1.246    0.197
        74 -10.3102    171.1530    147.9715   4.7933081342e+01   1.8160557638e+01    0.3421161    0.2729946 -56.67 0.0003442634    1.485    0.327
        75  -9.0471    166.4912    148.6149   4.9074653938e+01   1.8955768145e+01    0.2539844    0.2463329  41.86 0.0006313167    1.106    0.096
        76  -8.0285    144.3126    159.3175   5.6254515283e+01   2.1146641997e+01    0.1447262    0.1115543   0.25 0.0002506868    1.644    0.392
        77  -7.5189    195.2562    156.9446   4.4931123215e+01   1.1998521308e+01    0.1739766     0.152564 -20.67  0.001024047    1.114    0.103
        78  -7.4256    181.0744    155.5137   4.7448341150e+01   1.4885943769e+01     0.193636    0.1313379  37.66 0.0009695665    1.416    0.294
        79 -10.8566    136.6125    151.7024   5.6580303040e+01   2.4152569401e+01    0.6521921    0.4349808   0.55  0.002656333    2.598    0.615
        80  -9.4266    141.0551    150.8659   5.5346226317e+01   2.3475166603e+01    0.3003515    0.2347782 -22.71 0.0002793755    1.508    0.337
        81  -8.9056    156.0675    152.7890   5.2257520246e+01   2.0190422536e+01     0.275988    0.1942252  23.79  0.001197024    1.572    0.364
        82  -8.9230    151.6414    147.7832   5.2225739820e+01   2.2038745428e+01    0.2408406    0.1878268 -53.82 0.0003602798    1.411    0.291
        83  -9.2373    133.0910    147.7319   5.6638433062e+01   2.5657702499e+01    0.2731973    0.2162412 -41.63  0.000740787    1.338    0.253
        84 -14.6326    194.2506    101.9358   3.2440657925e+01   2.1612307808e+01     1.421768     1.057424 -59.33   0.00249613    1.581    0.368
        85  -8.1241     41.5807    144.3663   8.0996124822e+01   4.0753200019e+01    0.2309629    0.1627607  26.93 0.0007739384    1.592    0.372
        86  -9.2211    172.6614    140.0788   4.5889018790e+01   1.9328186253e+01    0.5195537    0.3510146 -73.86  0.001562524    2.736    0.635
        87  -9.5963    132.0724    140.8575   5.5462761979e+01   2.7319775489e+01    0.3409371    0.2243944 -53.80 0.0008812002    1.620    0.383
        88  -8.0072    166.9849    137.5236   4.6538799938e+01   2.0962875454e+01     0.330308      0.18377 -25.41  0.001294738    2.405    0.584
        89  -8.6748    155.0219    136.8513   4.9067417349e+01   2.3542399532e+01    0.2983579    0.2113514 -49.80  0.000723544    1.501    0.334
        90  -7.6587    181.4205    136.7600   4.3320212951e+01   1.8168405581e+01    0.1890166    0.1346839 -25.29 0.0003602415    1.473    0.321
        91  -9.4192    159.8269    134.3965   4.7416535175e+01   2.3040516952e+01    0.3331358    0.2399109 -40.15 0.0005399597    1.410    0.291
        92 -10.9726    136.2000    130.2639   5.2089620894e+01   2.8764750984e+01    0.8943887    0.2683029 -49.51  0.002687292    3.601    0.722
        93 -10.9443    171.5394    126.7270   4.3056777745e+01   2.2069309829e+01    0.6944594    0.3466876 -40.94  0.002823958    1.994    0.499
        94  -9.2402    168.4647    121.9839   4.2576806113e+01   2.3627305184e+01    0.2693621    0.2351304  15.61 0.0003791693    1.209    0.173
        95  -9.7145    124.7868    129.8665   5.4925295208e+01   3.1153348258e+01    0.3632601    0.2523162  61.79  0.001630013    1.692    0.409
        96  -9.3189    116.5606    129.6951   5.7076584567e+01   3.2803887708e+01    0.3194348    0.2591013 -76.59   0.00126384    1.401    0.286
        97  -8.0788    165.5992    128.7072   4.4810795909e+01   2.2944917084e+01    0.2821891    0.1426054 -37.14  0.001029211    2.048    0.512
        98  -8.1491    179.5127    127.3218   4.1531535856e+01   2.0280514710e+01    0.3942468    0.2064554  41.29  0.001648051    1.947    0.486
        99  -9.2322    163.4444    123.6930   4.4090205814e+01   2.4375984008e+01    0.2702325    0.2461922   2.70 0.0005756803    1.138    0.121
       100 -10.1928     56.7703    119.5257   7.2840581296e+01   4.5094821141e+01    0.4653163    0.2420476 -83.42  0.001851544    2.489    0.598
       101 -10.1595     63.1526    119.7230   7.0833931361e+01   4.4193716609e+01    0.3779807    0.2333417  52.34  0.001771386    1.719    0.418
       102  -8.2103     40.9914    120.4891   7.8069400761e+01   4.6719690340e+01    0.2007805   0.08892576  51.53 0.0006441148    2.522    0.603
       103  -8.0126     46.3556    119.3008   7.6160229090e+01   4.6421381874e+01     0.139675    0.1003415 -35.04  0.000128536    1.706    0.414
       104 -10.6881    140.9558    114.9998   4.7220229746e+01   3.1003010401e+01    0.6612859    0.2674808 -46.01  0.001340104    2.509    0.601
       105 -10.6777    145.8645    110.4690   4.4853292096e+01   3.0868351348e+01    0.4715104    0.3724946  24.78  0.001728845    1.436    0.303
       106 -10.1724    140.8508    106.3400   4.4999892789e+01   3.2835673833e+01    0.6674145    0.1758755 -41.88  0.001848134    3.871    0.742
       107  -9.9515    141.8919     99.1771   4.2798284176e+01   3.4076118601e+01    0.3826695    0.2789275 -12.77  0.001167755    1.847    0.459
       108  -9.5334    134.0125    112.0374   4.8222323504e+01   3.3133205491e+01    0.2645139    0.2248169 -42.79 0.0003524217    1.186    0.157
       109 -10.2174    169.3843    114.5999   4.0552967456e+01   2.4834698351e+01    0.9983402    0.3810736  52.32  0.003379584    2.876    0.652
       110 -10.4372    172.5798    101.3437   3.6458745892e+01   2.6599853446e+01    0.4106031    0.3569563 -35.94  0.002144904    1.124    0.110
       111  -9.9047    165.4223    105.4491   3.9052059840e+01   2.7462978641e+01    0.6083609    0.4086321 -58.15  0.001287519    1.798    0.444
       112 -11.5550    165.9324     98.3265   3.7041856175e+01   2.8692507853e+01    0.3841713    0.3189473 -46.04  0.000247951    1.203    0.169
       113 -11.1073    157.7316    109.3065   4.1765736189e+01   2.8452971516e+01    0.7784081    0.5323853  29.67  0.001353061    1.716    0.417
       114 -11.5836    158.8289    102.6944   3.9771815922e+01   2.9497119966e+01    0.7330677    0.3579805 -41.91 0.0002949205    2.022    0.506
       115  -9.8520     63.4956    114.2951   6.9697979406e+01   4.5498255454e+01    0.3834848    0.1870846  20.13  0.001436774    2.987    0.665
       116 -10.1120    149.5012    103.6055   4.2166139778e+01   3.1446966911e+01    0.5806583    0.3551004 -59.26  0.002112223    2.095    0.523
       117  -8.8007    129.6690    112.4292   4.9453472415e+01   3.3979906515e+01    0.2968623      0.14765  49.45   0.00111923    2.073    0.518
       118  -7.5855    172.4610    109.1155   3.8509754127e+01   2.5184422393e+01    0.2362262    0.1462067 -35.44  0.000555584    1.608    0.378
       119 -10.3462     55.3746    107.9882   7.1180596315e+01   4.8163134895e+01    0.3658707    0.2817616  53.69  0.001957471    1.360    0.264
       120  -9.7729    133.6050    107.1336   4.7050149685e+01   3.4268947642e+01    0.4314194    0.2946476  13.34  0.001720051    2.280    0.561
       121  -7.9676     73.8470     99.1472   6.2935606257e+01   4.7694945611e+01     0.199478    0.1695513 -27.86 0.0004318391    1.322    0.244
       122  -9.5740    134.8706     95.9187   4.3655951155e+01   3.6343515480e+01    0.3028142    0.2972668   9.68 0.0003290379    1.042    0.040
       123  -8.4084    124.2195     96.4076   4.6618383676e+01   3.8622604006e+01    0.2248449    0.1474552  57.54 0.0009314234    1.691    0.409
       124  -9.3590    146.4361     95.1765   4.0576212888e+01   3.3836162826e+01    0.2985266    0.2242011  47.97  0.001186781    1.335    0.251
       125  -7.4954    113.2791     95.3468   4.9403097184e+01   4.1213605168e+01     0.156296    0.1234659 -10.34 0.0003788229    1.637    0.389
       126  -9.0869    147.7291     89.0010   3.8505267159e+01   3.4746629395e+01    0.2643312    0.2332841  71.37 0.0002481724    1.212    0.175
       127 -10.0747    141.9816     89.3197   3.9976844767e+01   3.6038225318e+01    0.3015065    0.2738262 -24.09  0.000357223    1.146    0.128
       128  -9.4360    143.9829     86.0177   3.8523254551e+01   3.6213818011e+01     0.288399    0.2689344 -55.38  0.001500809    1.084    0.078
       129  -7.1449    163.3244     88.3089   3.4822014014e+01   3.1167234391e+01    0.1568813    0.1211956  14.32 0.0007037286    1.651    0.394
       130  -8.3419    156.9635     87.4330   3.5947344515e+01   3.2848544056e+01    0.2317794    0.1515368  53.08 0.0003694323    1.550    0.355
       131  -8.2536    128.1488     86.0548   4.2542344751e+01   3.9908939428e+01    0.2684508    0.2167782  48.18 0.0003515259    1.241    0.194
       132  -9.9211    158.1149     73.4477   3.1571790944e+01   3.5108153420e+01    0.3312687    0.2783029 -20.19  0.000302193    1.285    0.222
       133  -9.1797    152.9615     75.9666   3.3442563413e+01   3.5929352031e+01    0.4511927    0.2319545  50.46 0.0003630574    1.936    0.484
       134  -8.9450    157.5487     79.7371   3.3574239583e+01   3.4125326984e+01    0.6265872    0.2451519 -36.26  0.001836621    2.547    0.607
       135 -10.2751    151.9465     84.2625   3.6147635580e+01   3.4646155707e+01    0.3736752     0.292144  47.09 0.0002608146    1.291    0.226
       136  -8.8384    150.5188     79.5116   3.5058453380e+01   3.5877799527e+01    0.3632232    0.2664981 -59.96  0.001647509    1.558    0.358
       137  -7.7943      3.5067     85.0640   8.6440483534e+01   5.8529297352e+01    0.1969328    0.1044372 -76.47 0.0009333005    1.561    0.360
       138  -9.4314    133.2768     83.5648   4.0448933317e+01   3.9222617937e+01    0.3495857    0.2636291  -9.33 -1.440013e-05    1.749    0.428
       139  -7.4932      2.4757     80.5035   8.6278383886e+01   5.9693485655e+01    0.1267607    0.1023254 -68.81 -3.28574e-05    1.036    0.035
       140  -6.9677     90.7163     78.7232   5.1521954000e+01   4.9488217626e+01    0.1459883    0.1183931  -8.14 0.0002394355    1.508    0.337
       141  -7.8833    133.2838     77.3238   3.8524378152e+01   4.0446521420e+01    0.1558002    0.1241468   6.66 0.0001871359    1.597    0.374
       142  -9.4403    170.1262     70.0610   2.8163715029e+01   3.2712127997e+01    0.3754114    0.2488818 -31.55   0.00081843    1.519    0.342
       143  -8.2177    139.8157     68.2591   3.4033190863e+01   4.0557702210e+01       0.2773    0.2040187 -49.25 0.0009373177    1.406    0.289
       144  -7.4174    166.7791    223.0228   6.2003487275e+01   6.3477554499e+00    0.1330512    0.1001105 -38.85 0.0003069941    1.588    0.370
       145  -9.9456    156.7276     61.6745   2.8221359280e+01   3.7458374709e+01    0.3242644     0.299756 -23.73 0.0004235713    1.126    0.112
       146  -7.6620    176.7536     58.5700   2.3568128754e+01   3.2894624905e+01    0.1970344    0.1430032  80.96 0.0004146685    1.552    0.356
       147  -8.0731    169.0138     55.5377   2.3988555844e+01   3.5312332885e+01    0.3899779    0.1442013  60.12  0.001345437    2.682    0.627
       148  -9.5745    140.2841     53.2080   2.8927780206e+01   4.3016287908e+01    0.3158942    0.2695413 -52.85 0.0001861006    1.208    0.172
       149  -7.8580    118.3147     52.3468   3.3993044920e+01   4.8627746341e+01    0.1591244    0.1183078  15.52 0.0007047448    1.719    0.418
       150  -7.2593    160.3777     51.2865   2.4216688353e+01   3.8166887299e+01    0.1584401    0.1123353  31.42            0    1.726    0.421
       151  -7.7633    152.9769     52.5029   2.6026855153e+01   3.9882434564e+01    0.2288351    0.1483087  61.96 0.0005191675    1.540    0.351
       152  -7.8133    177.1721     44.1955   1.9185868451e+01   3.4884266564e+01    0.2039777    0.1995248  -1.63 0.0004422273    1.124    0.110
       153  -8.8834    162.5568     40.9546   2.0513081803e+01   3.9098115747e+01    0.2878557     0.249195 -78.22 0.0007539223    1.173    0.147
       154  -8.1299    165.5900     36.8272   1.8691094150e+01   3.8867275846e+01    0.2340295    0.1893192  55.82 0.0004786751    1.239    0.193
       155  -7.2193    167.2801     33.3179   1.7308625008e+01   3.8883553975e+01      0.14405    0.1104101  29.37 0.0002780741    1.578    0.366
       156  -9.9121    163.0024     28.7404   1.6479554292e+01   4.0573543078e+01    0.2611124    0.2346384 -54.71 0.0003106455    1.097    0.089
       157  -9.0732    144.0710     20.7711   1.6760892951e+01   4.6500704574e+01    0.2907245    0.2089215 -30.43 0.0004417395    1.446    0.308
       158 -15.1673    229.2614    115.5081   2.9916414250e+01   1.2215010152e+01    0.8159507    0.5589317 -53.65  0.003950402    1.767    0.434
       159  -7.5806    195.5676     15.4986   8.5043497402e+00   3.3735961159e+01    0.1349952    0.1216578 -68.92 8.418033e-05    1.022    0.021
       160 -15.3802    234.4128     94.0909   2.4212964405e+01   1.4414232931e+01     1.023051    0.6163889  32.42  0.004923349    2.178    0.541
       161  -9.1142    225.9157    216.8515   5.0292210667e+01  -1.3931920402e+00    0.1870678    0.1383854   8.12 0.0003055249    1.067    0.063
       162  -8.8430    230.1379    214.7401   4.9241549766e+01  -1.7152002238e+00    0.2384852    0.1729743  45.58  0.001102469    1.909    0.476
       163  -9.3468    162.5380    212.2597   6.1283392629e+01   8.6088211428e+00    0.2359721    0.2267092  58.03 0.0008180006    1.305    0.234
       164 -10.0287    245.5386    205.9899   4.5276542469e+01  -2.7490600737e+00    0.3918166    0.2148406 -25.33  0.001736194    1.687    0.407
       165 -10.0461    237.0051    207.0387   4.6831272417e+01  -1.7327582986e+00    0.3325841    0.2099221  37.69  0.001475504    1.660    0.397
       166  -8.4225    241.0014    205.4359   4.5910561090e+01  -2.0819187093e+00    0.1667734    0.1211384  -0.57 5.933354e-05    1.109    0.099
       167  -9.6242    124.1677    205.8960   6.8364965886e+01   1.5710305211e+01    0.2395285    0.1751885  22.85  0.001380139    1.433    0.302
       168  -9.0292    227.4085    202.0036   4.7575759209e+01   2.1432019847e-01    0.3124689    0.1750389 -38.08   0.00134736    2.014    0.503
       169  -9.4936    195.0177    201.7138   5.3309675530e+01   5.0928656785e+00    0.1976631    0.1649697 -12.14 0.0002915874    1.192    0.161
