#   1 NUMBER                 Running object number                                     
#   2 MAG_AUTO               Kron-like elliptical aperture magnitude                    [mag]
#   3 X_IMAGE                Object position along x                                    [pixel]
#   4 Y_IMAGE                Object position along y                                    [pixel]
#   5 X_WORLD                Barycenter position along world x axis                     [deg]
#   6 Y_WORLD                Barycenter position along world y axis                     [deg]
#   7 A_WORLD                Profile RMS along major axis (world units)                 [deg]
#   8 B_WORLD                Profile RMS along minor axis (world units)                 [deg]
#   9 THETA_WORLD            Position angle (CCW/world-x)                               [deg]
#  10 FWHM_WORLD             FWHM assuming a gaussian core                              [deg]
#  11 ELONGATION             A_IMAGE/B_IMAGE                                           
#  12 ELLIPTICITY            1 - B_IMAGE/A_IMAGE                                       
         1 -15.5224     99.1553     37.1019   1.3910145693e+01   5.5577986654e+01     1.106405     0.986937  -5.65  0.006070441    1.308    0.236
         2 -13.6386     49.3116     31.3301   3.0299797207e+01   6.7762151950e+01    0.7262161    0.5202773 -25.16  0.003747966    1.542    0.351
         3 -14.0150    106.8957     13.7172   2.3882286055e+00   5.6552530909e+01    0.6675125    0.4098882 -81.15  0.003098219    1.872    0.466
         4 -14.2566     98.4878     22.5509   7.9508687452e+00   5.7727771334e+01     1.179609    0.3472758  63.87  0.003887506    3.129    0.680
         5 -14.4901    175.6226     10.6045   3.5281283642e+02   3.9478299558e+01    0.7388124    0.3829694  45.14  0.003371139    2.789    0.641
         6 -14.4835    179.3001      3.7978   3.5068288179e+02   3.9289160610e+01    0.8067034    0.2940324  67.51  0.003576668    2.591    0.614
         7 -12.5025    122.4647     11.9446   3.5905823184e+02   5.2674498515e+01    0.5212943    0.1814611  45.26  0.001723483    3.873    0.742
         8 -13.7543    113.5475     22.2678   4.5697954196e+00   5.3875097187e+01    0.6839985    0.2792137 -41.05  0.002716025    2.452    0.592
         9 -13.9951    165.0840      6.9119   3.5261883127e+02   4.2367822703e+01    0.4488606    0.3366848 -51.33  0.002305735    1.201    0.167
        10 -12.5960    112.2830      6.6871   3.5856964058e+02   5.5831603012e+01    0.5081352    0.2193453 -83.84  0.001783577    3.320    0.699
        11 -12.5055    146.8412      3.6107   3.5322366767e+02   4.7194752762e+01    0.4003107    0.1695371 -38.34  0.001810178    2.152    0.535
        12 -12.1683    119.9463      3.6513   3.5626621733e+02   5.4102888174e+01      0.26118     0.228852  50.12  0.001577498    1.249    0.199
        13 -13.2148    239.4699    220.7287   2.9562966078e+01  -1.7618898038e+00    0.3639317     0.152018 -23.76  0.002021941    2.273    0.560
        14 -13.2590    248.4576    246.4155   3.1942794267e+01  -5.4682926114e+00    0.5273789    0.2095343 -26.26   0.00329198    2.147    0.534
        15 -12.7734    238.4077    249.2305   3.3843650590e+01  -4.8876667613e+00    0.3467459    0.1310189 -34.95  0.002093361    2.479    0.597
        16 -13.1431    242.1516    247.8060   3.3077748230e+01  -5.0665789612e+00     0.427551    0.1543966 -24.62  0.002379572    2.683    0.627
        17 -13.0449     48.1909    230.4035   7.0168305828e+01   1.9617771702e+01    0.7387817    0.3430507  31.72  0.003788334    1.689    0.408
        18 -13.5587     47.7866    241.0352   7.0919135967e+01   1.7604154393e+01     1.061509    0.5789046  78.10  0.005844394    2.192    0.544
        19 -12.5604     77.1422    219.5203   6.2367715469e+01   1.8445116573e+01    0.4640892    0.3526981  55.83  0.002218543    1.296    0.228
        20 -13.3529     76.8710    249.8218   6.5041322185e+01   1.2806411001e+01    0.9178518    0.3528357  18.22  0.003678706    3.348    0.701
        21 -12.6966     68.1964    249.6812   6.6936569774e+01   1.3806165972e+01    0.7044624    0.2813638  24.89  0.003360745    2.181    0.542
        22 -15.5012     88.7747    235.4942   6.1147536942e+01   1.3957519854e+01     1.496152      1.09255  18.64  0.008385222    1.286    0.223
        23 -13.1897     66.3814    221.5052   6.5159769995e+01   1.9347006222e+01     0.723931    0.3428268  22.32  0.003357328    2.074    0.518
        24 -14.0003     73.6343    241.6782   6.5122642295e+01   1.4622935950e+01      0.82915    0.6233027  15.74  0.004015379    1.343    0.255
        25 -14.5097     72.8847    228.4377   6.4198790193e+01   1.7199213771e+01     1.288205    0.5918251  23.28  0.006036094    2.060    0.515
        26 -14.2749    247.5337    215.7260   2.7594429182e+01  -1.9628999762e+00    0.5860325    0.2522255 -30.99  0.003566617    1.911    0.477
        27 -12.5307     38.6039    222.1979   7.1936917277e+01   2.2297517850e+01    0.3747289    0.1938789 -67.68  0.001977914    2.175    0.540
        28 -13.2675    233.0933    214.1601   2.9536577331e+01  -3.1084623147e-01    0.4736625     0.173802 -32.41  0.002510408    2.376    0.579
        29 -11.1061     84.8440    216.2024   6.0160873265e+01   1.8144360454e+01    0.2310181    0.1571805 -27.92  0.001127458    1.984    0.496
        30 -12.1846     68.2434    213.5853   6.4000253829e+01   2.0755441169e+01    0.3507773    0.2177255  31.35  0.001137864    1.365    0.267
        31 -11.8899     64.3319    213.6737   6.4984368561e+01   2.1208643203e+01    0.2685946    0.1853075  53.09  0.001234253    1.338    0.253
        32 -11.3478     54.0710    212.3929   6.7448352690e+01   2.2681110343e+01    0.2285327    0.1781522  69.10 0.0007389967    1.280    0.219
        33 -11.1060     59.0259    211.4517   6.6123369924e+01   2.2308942363e+01    0.2290543    0.1780858 -49.45  0.001355051    1.558    0.358
        34 -10.4927    209.4557    211.5351   3.2996960942e+01   2.6485207033e+00    0.1152905   0.08989646  -4.12 0.0002350569    1.024    0.023
        35 -11.6566     78.9510    210.2374   6.0995222019e+01   2.0120777982e+01    0.4059252    0.2063514  28.10  0.001924203    1.730    0.422
        36 -10.5859     95.4625    209.4616   5.6809659138e+01   1.8114896700e+01    0.1341213    0.1153503  31.23 0.0002334188    1.012    0.012
        37 -10.9321    228.9575    207.9688   2.9212666359e+01   9.1832705534e-01    0.1381967   0.09915993 -16.59 0.0007039774    1.103    0.094
        38 -10.6557     68.5142    207.4713   6.3355270775e+01   2.2020084457e+01     0.134545    0.1145844  40.84 2.298234e-05    1.008    0.008
        39 -11.3423     88.9825    205.7242   5.7981736574e+01   1.9752298669e+01    0.2001319    0.1533603  35.03  0.000553221    1.120    0.107
        40 -10.6367     78.7002    204.3290   6.0431262981e+01   2.1403722785e+01    0.1415303   0.09015639  56.50 0.0005834971    1.642    0.391
        41 -10.5571     73.2065    203.8578   6.1790800795e+01   2.2211843393e+01     0.173142    0.1519878   0.20 0.0004492839    1.301    0.232
        42 -11.8448    109.8452    220.0510   5.4633119935e+01   1.4136002257e+01     0.195029    0.1582073  48.08 0.0006893874    1.274    0.215
        43 -10.6174     53.5188    200.4977   6.6602517722e+01   2.5359191067e+01     0.135409    0.1155623  46.85  0.000124511    1.005    0.005
        44 -10.6410     82.1595    199.3565   5.8983863618e+01   2.2021962550e+01    0.2074201    0.1037048  38.77 0.0009402463    1.702    0.412
        45 -13.5929     55.4588    223.2461   6.7942093043e+01   2.0255876035e+01    0.7125252    0.4998803  11.88   0.00397862    1.604    0.377
        46 -11.2782    218.2844    187.5955   2.7565551816e+01   4.9426613341e+00    0.1986189    0.1321825  15.18 0.0008346247    1.480    0.324
        47 -12.6953     32.4358    154.1137   6.8483283030e+01   3.9103674997e+01    0.9802445    0.1226857  41.32  0.002636521    4.856    0.794
        48 -11.3615    240.3354    139.3273   1.5447636452e+01   8.9945094472e+00    0.1203938   0.08032387  -7.89 0.0007051754    1.722    0.419
        49 -11.2871    230.4931    137.0110   1.6343584371e+01   1.0736266288e+01    0.1754702   0.09182304 -18.52 0.0008100881    2.502    0.600
        50 -12.7550    247.5842    129.5901   1.2657118039e+01   9.3681581148e+00    0.3376454    0.1730078 -53.11  0.001681699    2.693    0.629
        51 -13.0903    235.3939    121.1114   1.2530355337e+01   1.2354682151e+01    0.3518847    0.2124182 -18.69  0.001925892    1.869    0.465
        52 -12.8093    235.5246    111.5378   1.0578225553e+01   1.3734339025e+01    0.2900941    0.1761271 -32.25  0.001691121    1.368    0.269
        53 -14.2289    246.3829    100.4938   7.0850887453e+00   1.3619552744e+01    0.4787941    0.3957871 -57.67  0.003415133    1.297    0.229
        54 -10.1715    125.3061     86.3320   2.4015792368e+01   4.0326292733e+01    0.1542601    0.1253189   4.15 0.0004198095    1.662    0.398
        55 -12.5644      4.7151     85.5681   7.1961478145e+01   5.9877884583e+01    0.3127401    0.2302845 -55.97    0.0017017    1.253    0.202
        56 -11.6354     47.6515     78.9160   4.9570130252e+01   5.7544675319e+01    0.3336209    0.2681354  16.44  0.001685645    1.337    0.252
        57 -10.9026     96.9395     75.6953   2.8907321166e+01   4.9021011462e+01    0.2257462     0.202545  54.64 0.0009708432    1.094    0.086
        58 -14.1512     13.4378     68.7342   6.4747439697e+01   6.3835280371e+01    0.6655558    0.4240556 -18.74  0.003260642    1.756    0.430
        59 -13.6026    249.5904     87.7212   4.1842309715e+00   1.4872923220e+01    0.8613743    0.1223432 -32.84   0.00193839    9.878    0.899
        60 -13.7022     69.9479     68.5573   3.6384273409e+01   5.6255208958e+01    0.7818894    0.5118136  73.84  0.003058603    2.502    0.600
        61 -12.8829     63.4355     71.7476   4.0226866585e+01   5.6740116350e+01    0.3688678    0.2420705  61.37  0.001559628    1.974    0.493
        62 -13.2740     56.6973     70.6925   4.2877395736e+01   5.8161969706e+01    0.3427945    0.3292747  36.70   0.00184254    1.046    0.044
        63 -12.6611     48.3546     69.7585   4.6508715108e+01   5.9718480723e+01    0.3277282    0.2561791 -42.57  0.001158896    1.277    0.217
        64 -13.1426     77.5193     67.5014   3.2987094363e+01   5.4971831534e+01    0.4675562    0.2384735  37.67  0.001809948    2.057    0.514
        65 -12.4396      8.6186     64.0678   6.6585737472e+01   6.5344933531e+01    0.3687711    0.2658651  24.82  0.002004093    1.481    0.325
        66 -15.5797     77.8739     49.0291   2.5766805775e+01   5.8635758367e+01     1.246196    0.8204346  36.25  0.005692156    1.616    0.381
        67 -14.8794     70.7448     41.2356   2.5196569052e+01   6.1622397721e+01    0.8662599    0.6448147  42.49  0.004388658    1.290    0.225
        68 -14.1630    104.8783     29.8563   9.4869894103e+00   5.5157470605e+01    0.6152564    0.4632344  50.56   0.00318217    1.302    0.232
        69 -14.9806     83.9486     39.0083   1.9335330399e+01   5.8989631404e+01     1.340889    0.4289666  53.87  0.004442042    2.941    0.660
        70 -14.8564     98.8317     49.3547   1.8878513118e+01   5.3683498551e+01      1.29939    0.5627247 -35.50  0.004815281    2.495    0.599
        71 -13.7660     89.4812     32.1273   1.4564232953e+01   5.8711942079e+01    0.7985634    0.5095013 -70.50  0.003405693    2.278    0.561
        72 -11.2760     34.8285    248.8649   7.4202470074e+01   1.7473736977e+01    0.1716814     0.102532  49.89 0.0008431253    1.326    0.246
        73 -15.1254     83.3971     60.7563   2.8326124596e+01   5.5134000357e+01     1.632273    0.7121171  52.11  0.005876394    2.400    0.583
        74 -14.1260     87.7906     54.9977   2.4585444841e+01   5.5275097273e+01    0.6985447    0.5287066  66.77  0.003361129    1.441    0.306
        75 -12.8906     57.1814     61.5533   3.9494399211e+01   6.0199221125e+01    0.3222942    0.2646452 -62.30   0.00165497    1.313    0.238
        76 -13.8170     68.0050     56.7962   3.2861292484e+01   5.9189886862e+01    0.6253827    0.4083733 -68.25  0.002632587    2.178    0.541
        77 -13.0059     63.2733     58.9203   3.5735560659e+01   5.9663714111e+01    0.3491601    0.2583899 -30.62  0.001184675    1.508    0.337
        78 -13.1610     17.4587     58.6094   6.0091862029e+01   6.6119460543e+01    0.3376264    0.2487377 -64.90  0.001596475    1.297    0.229
        79 -12.2459     11.4453     59.6155   6.3977539083e+01   6.6308940352e+01     0.294092    0.2225185  50.35  0.001605149    1.499    0.333
        80 -10.2478    127.6533     54.7014   1.3433225788e+01   4.5636666237e+01    0.1510484    0.1157609  28.93 0.0007036014    1.680    0.405
        81 -14.0419     28.5760     48.2871   5.0028058886e+01   6.7495743518e+01      0.85057    0.3575961 -38.27  0.003199256    2.766    0.638
        82 -11.1966    121.5380     46.0236   1.1793760360e+01   4.8565841613e+01    0.3774096    0.1562634 -51.00  0.001299523    2.907    0.656
        83 -11.1648    134.1585     44.1974   8.5586934946e+00   4.5639871445e+01    0.2136099    0.1634002 -77.15  0.001074271    1.359    0.264
        84 -14.6439     37.7481     38.6320   4.0413833616e+01   6.8354192184e+01    0.8132217    0.6221291  51.97    0.0039813    1.536    0.349
        85 -13.2578     44.2257     40.0364   3.7309119114e+01   6.7026048658e+01    0.4025099    0.2441368  27.30  0.001869256    1.748    0.428
        86 -13.6115     92.4897     47.3928   2.0044982038e+01   5.5550853071e+01    0.8150616    0.4156982 -26.12  0.003026173    2.715    0.632
        87 -12.2330    224.7084    245.0781   3.5420327926e+01  -3.1662819195e+00    0.2405495   0.09845097 -30.31  0.001425428    2.232    0.552
        88 -12.1436    123.3845     32.4042   6.4998233050e+00   5.0054395549e+01    0.4653477    0.2097166  58.31  0.001896015    2.033    0.508
        89 -12.2423     11.9745     26.1746   5.2913975443e+01   7.4142732826e+01    0.4797936    0.1811501  25.49  0.002050317    2.542    0.607
        90 -13.6161     59.2550    241.3826   6.8350347720e+01   1.6299724636e+01    0.9969466    0.7526207  26.62  0.006365322    1.191    0.161
        91 -11.3100    220.1815    238.2742   3.5198910338e+01  -1.9315310569e+00     0.184465    0.1112588 -17.56  0.001016138    1.402    0.287
        92 -13.0146    108.6448     21.2225   5.1330761690e+00   5.5270063282e+01    0.3991806    0.2355105 -35.92   0.00188746    1.760    0.432
        93 -12.1037    156.9536     19.3691   3.5713320752e+02   4.3071912029e+01     0.265966    0.1591203 -57.28  0.001095826    1.574    0.365
        94 -12.3500    145.0205     17.5889   3.5797106198e+02   4.6267659039e+01    0.3516997    0.1281848  80.92  0.001245111    3.083    0.676
        95 -13.4631    244.4177    232.2794   3.0532894390e+01  -3.5727285209e+00    0.3164833    0.1372783 -18.58  0.001820993    2.305    0.566
        96 -12.7819    232.1004    236.6110   3.3048663733e+01  -2.9040069101e+00    0.2015565    0.1196855 -19.93  0.001149859    1.374    0.272
        97 -12.0540    226.2323    230.4941   3.3092142973e+01  -1.6075672875e+00    0.1994687    0.1482339  -5.15 0.0006797818    1.071    0.066
        98 -12.3324    236.3007    229.3604   3.1339450400e+01  -2.4689225989e+00    0.1983954   0.09717217 -23.19 0.0009553577    1.759    0.431
        99 -12.1094    235.4994    225.4905   3.0889214605e+01  -1.9349020551e+00       0.1833    0.1679959  27.20  0.001482242    1.907    0.476
       100 -13.3625     62.5682    230.0375   6.6762248649e+01   1.8091808628e+01    0.8407208    0.5497168  -5.42  0.004421217    2.250    0.556
       101 -12.0307     25.6546    224.1516   7.5129322490e+01   2.3186241307e+01    0.2228255    0.1280198  39.26 0.0006611475    1.347    0.258
