#   1 NUMBER                 Running object number                                     
#   2 MAG_AUTO               Kron-like elliptical aperture magnitude                    [mag]
#   3 X_IMAGE                Object position along x                                    [pixel]
#   4 Y_IMAGE                Object position along y                                    [pixel]
#   5 X_WORLD                Barycenter position along world x axis                     [deg]
#   6 Y_WORLD                Barycenter position along world y axis                     [deg]
#   7 A_WORLD                Profile RMS along major axis (world units)                 [deg]
#   8 B_WORLD                Profile RMS along minor axis (world units)                 [deg]
#   9 THETA_WORLD            Position angle (CCW/world-x)                               [deg]
#  10 FWHM_WORLD             FWHM assuming a gaussian core                              [deg]
#  11 ELONGATION             A_IMAGE/B_IMAGE                                           
#  12 ELLIPTICITY            1 - B_IMAGE/A_IMAGE                                       
         1 -13.6620    227.2113     22.0020   3.5124678863e+02   2.7373907080e+01    0.8345014    0.5578546  30.38  0.004513583    2.815    0.645
         2 -13.3791    224.9064      4.9387   3.4764410111e+02   2.9603025584e+01     1.168106    0.4710531 -72.35  0.005910049    2.452    0.592
         3 -13.3755    234.2184     24.5512   3.5138506332e+02   2.5773010605e+01    0.7555565    0.2022433 -41.08   0.00172325    2.416    0.586
         4 -14.3053    244.6736     22.6469   3.5040991082e+02   2.4091295637e+01     1.440558    0.6126032 -49.76  0.008237145    1.722    0.419
         5 -14.4296    245.2296      7.7864   3.4737285444e+02   2.5549911414e+01      1.09647    0.5961806 -55.99  0.005392815    1.371    0.270
         6 -12.8263    222.4543     11.9074   3.4929095479e+02   2.9374557851e+01     0.721256    0.2221453 -54.18  0.003285968    2.616    0.618
         7 -11.3687     11.0412     25.6466   5.1876856782e+01   7.4371685226e+01    0.4167636    0.2623459 -28.14  0.002052831    1.561    0.359
         8 -10.8933     32.0352     20.8563   3.3250863401e+01   7.2593850928e+01    0.5400792    0.2711706 -27.19  0.002280692    2.612    0.617
         9 -10.8066    200.9449     17.6954   3.5193425868e+02   3.3163339712e+01    0.4005795     0.122375 -39.98  0.001208914    2.397    0.583
        10 -12.1792     68.9857     13.7908   1.0947981300e+01   6.5964587850e+01    0.4764509    0.2447006  57.54  0.001425372    1.730    0.422
        11 -10.2536    125.4135     12.1907   3.5774787876e+02   5.1830974076e+01    0.1922141    0.1159094 -42.17 0.0006715751    1.650    0.394
        12  -9.6772     88.5993     12.2458   4.5630489679e+00   6.1302696380e+01    0.1805261    0.1338727   0.19 0.0009428313    1.674    0.403
        13 -10.4694     54.7133     10.2872   1.4324315153e+01   6.9657838298e+01    0.2724948    0.1348971 -56.03 0.0009666271    4.059    0.754
        14 -10.0163    144.2417      9.9226   3.5463336259e+02   4.7252136146e+01    0.1805431    0.1583139 -72.19 0.0003439744    1.048    0.046
        15 -12.3729    116.7526      6.9908   3.5702803397e+02   5.4558642543e+01    0.3676061     0.336292  -6.29 0.0008674128    1.308    0.236
        16 -11.8719    173.3498      6.5861   3.5102271889e+02   4.0491952328e+01    0.3377868    0.1948916 -40.98 0.0001828838    1.541    0.351
        17 -10.7829    194.2581      7.9758   3.4997181465e+02   3.5620315679e+01    0.2135237    0.1668129  85.28  0.001023092    1.270    0.213
        18 -11.7416     64.0074      7.5792   9.1606098784e+00   6.7816544335e+01    0.2809789    0.1888168 -86.04   0.00119675    2.061    0.515
        19  -9.9771    209.8911      6.3466   3.4868804706e+02   3.2463588189e+01    0.2303192   0.09275199 -86.19  0.001086422    2.610    0.617
        20 -10.6010     76.6785      5.4502   4.1695386091e+00   6.4947551637e+01    0.2283646    0.1872885  15.33 7.686444e-05    1.378    0.274
        21 -10.0049      2.7969      6.3679   4.9203196630e+01   7.8956756091e+01    0.1747486    0.1033066   4.79 0.0009473573    1.703    0.413
        22 -10.7187    189.1905      5.0290   3.4954067093e+02   3.7026997935e+01    0.2463032    0.1737674 -81.23 0.0007854603    1.246    0.198
        23 -11.1177     70.1513      3.7009   5.0176768191e+00   6.6711459277e+01    0.2755557    0.1571271  23.13  0.001256158    2.287    0.563
        24  -9.7253     25.9825      9.7331   3.0235433935e+01   7.5389827739e+01    0.1856573    0.1509216  23.37 0.0007293192    1.104    0.094
        25 -10.3024     88.1920      1.2245   3.5939087062e+02   6.2407665896e+01    0.1835758    0.1013746  76.26 0.0002706208    1.686    0.407
        26  -9.9242      5.6942     89.6952   7.0984600077e+01   5.8788483669e+01    0.1475438   0.09073623 -44.16            0    1.602    0.376
        27 -12.5098    236.6810     86.6349   4.4107476854e+00   1.7446627924e+01    0.4051983    0.2850025 -75.19  0.001575272    1.813    0.448
        28 -10.3619    114.9891     86.5320   2.5796248232e+01   4.2716800900e+01    0.2248359    0.2082404 -51.83 0.0003318738    1.075    0.070
        29  -9.6164     69.6675     87.3341   4.1340495042e+01   5.1909481751e+01    0.1626703    0.1211283  74.33 0.0007052229    1.732    0.423
        30 -11.3475     47.9425     85.7126   5.0141162631e+01   5.5812316609e+01    0.2519525    0.2238218 -58.44 0.0003142726    1.099    0.090
        31 -12.7341    248.8637     83.2168   2.4875586605e+00   1.5943746146e+01    0.2659353    0.2084945 -42.08 0.0004626516    1.032    0.031
        32 -10.7162    222.0175     84.4469   5.5623579803e+00   2.0286550324e+01    0.2050953    0.1368917 -38.18  0.000535342    1.231    0.188
        33 -10.5414    161.9576     83.8882   1.4259125458e+01   3.2530530331e+01     0.300457    0.2079814  52.50   0.00147977    1.531    0.347
        34 -10.1252    147.3761     84.2895   1.7251810654e+01   3.5750282092e+01    0.2654709    0.1858582  80.53  0.001195736    1.823    0.452
        35 -10.7997     66.7416     82.7776   4.1169109078e+01   5.3546066732e+01    0.2768674    0.1882232 -51.85  0.001246853    1.460    0.315
        36 -12.5185    238.2412     80.7001   3.0068965552e+00   1.8009196467e+01     0.428202    0.2502403  86.94  0.001264995    2.710    0.631
        37 -11.0727    197.0601     80.5393   7.7992565831e+00   2.5616500290e+01    0.2453057    0.1713198 -40.39 0.0003188041    1.243    0.196
        38 -10.8791    169.4333     80.5863   1.2041473204e+01   3.1443823182e+01    0.3060708    0.2936103 -65.30  0.001315087    1.062    0.058
        39 -11.0833    147.1293     79.1492   1.5840140852e+01   3.6749604773e+01    0.2836476    0.1977286 -44.31 0.0003538872    1.373    0.271
        40 -10.2093    114.4600     80.5154   2.4100663629e+01   4.4084337987e+01    0.3342695    0.1509336  48.89  0.001220259    2.204    0.546
        41 -10.6272     98.1559     77.5641   2.8020579659e+01   4.8389480602e+01    0.4517648    0.3110331 -76.27  0.001858765    2.082    0.520
        42 -11.8321     39.3003     77.0546   5.1911942838e+01   5.9199248947e+01    0.2936647    0.2624629  52.67 0.0004496324    1.193    0.162
        43 -11.7598    248.4511     69.2829   3.5969941243e+02   1.7846797269e+01    0.2465195    0.1810926 -59.53  0.001703416    1.293    0.227
        44 -10.6838     73.2863     74.9618   3.6043043408e+01   5.4175160110e+01    0.2130426    0.2017208 -57.97 0.0005610535    1.070    0.066
        45 -10.9108    178.0049     71.8889   8.3604436922e+00   3.0984054924e+01    0.3235331    0.2315834 -72.51 0.0009462131    1.563    0.360
        46 -12.5087    248.0832     74.3620   7.6518974688e-01   1.7243380726e+01    0.3658845    0.2692707  74.86  0.002524672    1.713    0.416
        47 -11.5336      8.1526     71.4371   6.7064235104e+01   6.3533320021e+01    0.3226108    0.1920373  82.00  0.001490799    1.947    0.486
        48 -10.5334     96.4037     70.2871   2.6149794050e+01   5.0301324501e+01    0.3787802    0.1945202 -38.12   0.00145681    2.111    0.526
        49 -10.2061     54.6215     70.8763   4.2700771376e+01   5.8492620040e+01    0.2135231    0.1430417 -68.32  0.000938503    1.765    0.433
        50 -10.6522    124.0146     68.7203   1.7855275008e+01   4.4125767538e+01    0.4378812    0.2082112 -56.43  0.001346948    2.843    0.648
        51 -11.1479    208.8600     67.0088   3.0996292126e+00   2.5279946953e+01     0.192941    0.1696859 -62.83 0.0002603014    1.094    0.086
        52 -11.2469     92.1855     66.1256   2.6076234746e+01   5.2097996900e+01    0.3135949    0.2424152  -2.49  0.001424379    1.799    0.444
        53 -10.0611    101.8860     67.1694   2.3363464915e+01   4.9669892298e+01    0.2082042    0.1830197  12.65 0.0002319599    1.346    0.257
        54 -10.5600    154.7294     65.1063   1.0306799726e+01   3.7389038243e+01     0.470938    0.1838216 -42.41  0.001770779    2.366    0.577
        55 -12.8948    117.3282     61.6341   1.7173195354e+01   4.7025392307e+01    0.5581475    0.4879518   1.98 0.0006987057    1.411    0.291
        56 -10.2435    166.4431     64.8723   8.2617684380e+00   3.4694373552e+01    0.2310434    0.1960589  44.73  0.001283508    1.365    0.268
        57 -12.7070    248.1504     61.1210   3.5806000642e+02   1.8942261580e+01    0.4107591    0.2966458  32.33  0.002623668    2.215    0.548
        58 -13.7635    246.4114     54.7223   3.5688478310e+02   2.0037106965e+01    0.8092567    0.4396057 -25.60  0.004551921    1.944    0.486
        59 -11.8816    231.9432     53.5320   3.5779096206e+02   2.2724181580e+01    0.2891399    0.1584873 -71.11  0.001172035    2.165    0.538
        60 -12.9959    229.4304     47.7916   3.5674651453e+02   2.3912246435e+01    0.4081125    0.3060963 -55.68  0.001358126    1.099    0.090
        61 -12.7109    234.1679     46.3807   3.5606743900e+02   2.3219005534e+01    0.3490692     0.218434 -59.28  0.001454238    1.415    0.294
        62 -10.5254     50.8352     56.7916   3.9530850062e+01   6.2367272495e+01    0.2141243    0.1889607   2.40 0.0004266666    1.178    0.151
        63 -10.2367     60.4952     62.9861   3.7273257842e+01   5.9295943787e+01    0.3344628    0.2010328 -55.13  0.001449346    1.771    0.435
        64 -11.4666     57.0304     61.1276   3.8177318586e+01   6.0333088817e+01    0.6517029    0.2828791 -58.44  0.002272524    2.902    0.655
        65  -9.8725     50.6483     63.3265   4.2023956459e+01   6.0916744806e+01    0.1531858    0.1155933  70.09 0.0007047883    1.763    0.433
        66 -11.8445     27.3228     62.6038   5.4176352595e+01   6.4248656111e+01    0.4760681    0.2027832  42.53  0.001819977    2.688    0.628
        67 -10.9790     16.3000     62.8553   6.0631326056e+01   6.5207568786e+01    0.2344854    0.1844867  33.43  0.000623427    1.361    0.265
        68 -13.3660    238.5814     51.1859   3.5675113926e+02   2.1831601765e+01    0.5520539    0.2669092 -52.95  0.002176719    1.782    0.439
        69 -10.9053    151.2296     59.9205   9.3995719889e+00   3.9059169790e+01    0.3148941    0.2618646  15.14   0.00164066    1.609    0.378
        70 -10.6199    144.4219     59.7988   1.0615956613e+01   4.0722010248e+01    0.3971698     0.251949  30.23  0.001655251    2.432    0.589
        71 -10.7782      1.6768     60.3390   6.8879587429e+01   6.6725108017e+01     0.274374    0.1715966 -80.70 0.0009444461    1.571    0.364
        72  -9.6526    192.5012     60.5286   3.4502616877e+00   2.9565498051e+01    0.1346045    0.1149325 -55.61 -4.636332e-05    1.006    0.006
        73  -9.6424    102.2285     60.0147   2.0733221976e+01   5.0954628672e+01    0.1949534    0.1264733 -40.15 0.0003732306    1.585    0.369
        74 -13.2199     76.4664     58.6587   2.8948352358e+01   5.7052584133e+01    0.8216818    0.3358848  43.09  0.002722379    2.415    0.586
        75 -11.3201    209.6985     58.5699   1.0200075353e+00   2.6294626079e+01    0.2350347     0.174898 -57.33 0.0004172683    1.183    0.155
        76 -11.3169     38.4679     58.1693   4.6511711943e+01   6.3952393474e+01    0.4136172    0.2454762  49.40  0.001145366    2.028    0.507
        77 -12.1928     33.9992     56.7161   4.8498759637e+01   6.4890392457e+01    0.5205984    0.2439004  16.86  0.001972387    2.719    0.632
        78 -10.6768    162.0412     58.0608   7.0374163606e+00   3.6778065124e+01    0.2311041    0.2052661 -29.78  0.001316025    1.230    0.187
        79 -11.5366      6.2249     56.1271   6.5232398145e+01   6.7577189308e+01    0.4589178    0.2645335 -12.85  0.001817749    1.906    0.475
        80 -11.5930    221.3304     55.3477   3.5912926102e+02   2.4461971315e+01    0.3090553    0.1426552 -43.76  0.001576124    1.706    0.414
        81 -10.3001    216.1411     55.8507   3.5973624271e+02   2.5393822751e+01    0.1498793     0.140962 -26.39            0    1.277    0.217
        82 -10.5439    196.7594     55.3151   1.6407971839e+00   2.9400396706e+01    0.2173408      0.16391 -61.06 0.0003946105    1.204    0.169
        83  -9.6999    180.6224     56.1143   3.8162449102e+00   3.2797711987e+01     0.170594    0.1244666 -24.84 0.0001440034    1.531    0.347
        84  -9.6583    141.5701     56.1381   1.0020332740e+01   4.2005033698e+01    0.1844028    0.1427207 -22.22   0.00091663    1.518    0.341
        85  -9.8976     99.5311     54.3588   1.9451473276e+01   5.2625106719e+01     0.570272    0.2731351  40.13  0.002091275    2.482    0.597
        86 -11.3937     48.1374     52.3663   3.9167571466e+01   6.3788784475e+01    0.3461057    0.2954808 -80.95 0.0008982759    1.448    0.309
        87 -12.8699     51.0119     44.7683   3.4486473364e+01   6.4876490926e+01    0.5873375     0.355924  20.08  0.001326892    2.155    0.536
        88 -12.7058     60.9778     43.3127   2.9042306815e+01   6.3254997726e+01    0.3287759    0.3048976  61.14 0.0004288403    1.160    0.138
        89  -9.5226    146.2539     52.3296   7.9678574281e+00   4.1449697977e+01    0.1349394    0.1141146  15.44  0.000303388    1.555    0.357
        90 -11.6335     82.0771     48.4819   2.2804869147e+01   5.7761433769e+01    0.3859754    0.3262906  40.86  0.001152279    1.164    0.141
        91 -12.1830     77.3397     48.1084   2.4378703795e+01   5.8894667858e+01    0.5474234    0.5112351 -10.44  0.003043944    1.141    0.124
        92 -10.8076     75.7097     41.9675   2.2356306992e+01   6.0348007089e+01    0.3310421    0.2729117  56.63  0.001141943    1.195    0.163
        93 -11.8732     81.3277     40.9631   1.9889115267e+01   5.9232601448e+01     0.612071    0.3998196  48.09  0.002894572    1.451    0.311
        94  -9.9935    182.0523     49.7038   1.9287312597e+00   3.3385137328e+01    0.1819132    0.1602159 -74.22 0.0003639686    1.067    0.063
        95 -12.0282     15.2791     46.8106   5.6805519353e+01   6.9240086343e+01     0.486704    0.3249053  89.85  0.001798698    2.009    0.502
        96 -10.9258    133.5787     46.5034   8.4315493886e+00   4.5472138891e+01      0.28865    0.2311541 -80.23 0.0008688344    1.272    0.214
        97 -11.0313     26.2767     45.3874   4.9039522413e+01   6.8461008870e+01    0.3714418    0.3288512 -85.05  0.002158414    1.361    0.265
        98 -12.3907    246.4968     41.7154   3.5420709777e+02   2.1603214121e+01    0.4196095    0.2433334 -81.68  0.002581631    1.971    0.493
        99 -12.3896      8.9098     43.3167   6.0146083423e+01   7.0554444407e+01    0.5991609    0.1663039 -50.08  0.002233864    2.825    0.646
       100  -9.9484    215.0619     44.6693   3.5725055824e+02   2.7062339072e+01    0.1620279    0.1380233 -55.50 0.0005171512    1.073    0.068
       101 -10.3405    126.1393     44.6131   9.2711123346e+00   4.7624433568e+01    0.3292103    0.2104082  27.72  0.001374446    2.406    0.584
       102 -10.1554    122.0264     44.7706   1.0195382898e+01   4.8637666455e+01    0.2723394    0.1729669  66.14 0.0004196902    1.538    0.350
       103 -10.5984    172.1288     43.8832   1.5784834844e+00   3.6454770623e+01    0.2504901    0.1865781 -56.08 0.0006819252    1.210    0.173
       104  -9.8231    148.7933     41.9583   4.3060410899e+00   4.2333559664e+01    0.1983154    0.1780833  72.05  0.001140383    1.131    0.115
       105  -9.7871    146.6421     39.2950   3.8043893379e+00   4.3232144028e+01     0.152688   0.09807332 -69.46 0.0007032219    1.698    0.411
       106 -11.6784    220.6437     38.1140   3.5528666482e+02   2.6778087419e+01    0.2006297    0.1682603 -62.09 0.0004829353    1.091    0.083
       107 -10.0365    159.8189     40.8654   2.3428331801e+00   3.9786894892e+01    0.1900564     0.143191 -73.51  0.000456216    1.289    0.224
       108 -10.2600    133.0773     40.8063   6.6086146132e+00   4.6425446234e+01    0.2257914    0.1820879 -75.13 0.0004492702    1.234    0.190
       109  -9.7104     35.8579     41.3635   4.1389859016e+01   6.8068848074e+01    0.1909687    0.1264517  17.84 0.0002927316    1.638    0.389
       110 -11.1913     69.1858     39.5482   2.3811978331e+01   6.2209794359e+01    0.3801384    0.2884364 -59.92  0.001748304    1.595    0.373
       111 -10.1848     65.3190     39.3123   2.5307446532e+01   6.3082829456e+01    0.1474619    0.1110978  12.72 0.0001974739    1.647    0.393
       112 -11.3445    227.1184    241.6567   3.3706642871e+01  -2.7788870101e+00    0.1710518    0.1203666 -25.34 0.0008885347    1.402    0.287
       113 -11.2588    212.1567    242.0784   3.6220627879e+01  -1.3756543170e+00    0.1910734    0.1379527  16.23  0.001440337    1.269    0.212
       114 -10.6249    238.6602    230.3453   3.0265511052e+01  -2.5524135847e+00   0.08663099   0.07936838  -9.29 0.0007047688    1.782    0.439
       115 -10.9094    245.7949    211.1953   2.6283658564e+01  -9.5926328119e-01    0.1412945    0.1229841 -67.99 0.0009653567    2.907    0.656
       116 -10.4624    198.1713    204.5489   3.2988358061e+01   5.2279078975e+00    0.2012919    0.1938699  -4.02  0.001473907    1.483    0.326
       117 -13.1228    232.5461     35.8760   3.5392128252e+02   2.4785383560e+01    0.6351659    0.2349978 -63.38  0.002687302    3.377    0.704
       118 -12.0108    200.4076     37.7969   3.5691959082e+02   3.0936683102e+01    0.2403839    0.1947318 -51.49 0.0002918633    1.057    0.054
       119 -10.1383    110.8715     39.3660   1.0730765920e+01   5.2257384360e+01    0.2193074    0.1220181  51.51 0.0009443851    1.740    0.425
       120 -10.0026    186.1353     38.1620   3.5841057714e+02   3.4003305035e+01     0.191947    0.1299671 -58.74 0.0006310728    1.321    0.243
       121  -9.7443     97.9858     42.9746   1.5488757750e+01   5.4919083650e+01    0.1827716    0.1605875  61.10 0.0004768555    1.078    0.073
       122 -11.8434     61.0605     36.4935   2.5833996666e+01   6.4468926753e+01    0.2972054    0.2446214  15.22  0.001085136    1.324    0.245
       123 -11.9624     61.5360     32.4662   2.3655083251e+01   6.5048236516e+01    0.2708735    0.2569605 -42.60 0.0008407057    1.144    0.126
       124 -10.7910     26.4548     36.1919   4.5092403193e+01   7.0454075677e+01    0.2524951    0.2233609 -17.75 0.0008302472    1.046    0.044
       125 -12.7060     59.5872     28.6098   2.2557413459e+01   6.6082101425e+01     0.523705    0.2646565  36.16  0.001957206    2.182    0.542
       126 -11.1017     51.3861     36.1170   3.0263288991e+01   6.6463731911e+01     0.374723    0.1874996  44.13  0.001609316    1.935    0.483
       127 -11.6807    229.2808    118.9447   1.1994055044e+01   1.3946555305e+01     0.189176    0.1830429 -10.61 0.0003161363    1.218    0.179
       128  -9.9381    161.4386     35.4900   5.3213664784e-01   4.0102662977e+01    0.1361775    0.1226114 -71.63 7.120519e-05    1.041    0.039
       129 -10.9485     91.0311     34.5078   1.3986818913e+01   5.7919678191e+01     0.417089    0.3044286  19.56  0.001996323    1.798    0.444
       130 -10.2564     87.4812     34.5492   1.5071994372e+01   5.8779000179e+01    0.2516949     0.147605 -30.45 0.0005786097    1.877    0.467
       131 -10.3393    189.2263     34.1740   3.5705756132e+02   3.3813684709e+01    0.1772468    0.1717869 -61.48 0.0005474271    1.228    0.186
       132 -10.6556    131.7395     33.7362   4.4271402028e+00   4.7727483671e+01    0.2505438    0.1890366 -70.40 0.0003728155    1.342    0.255
       133  -9.9758    111.4732     32.4864   7.9473130605e+00   5.3070327445e+01     0.145119    0.1327141  86.29  0.000125548    1.029    0.028
       134 -11.1296     71.0408     32.2414   1.9654077034e+01   6.2994626886e+01    0.2021706    0.1755209  50.87 0.0003431011    1.087    0.080
       135 -11.6698     12.4068     32.2146   5.3624888418e+01   7.2832041972e+01    0.2737404    0.1707589  19.01  0.001084504    1.599    0.375
       136 -10.1811     80.2596     30.7402   1.5662201444e+01   6.1075163850e+01    0.1953983    0.1787975  76.19   0.00052841    1.121    0.108
       137 -10.4055    166.1850     34.7817   3.5973014169e+02   3.9052636777e+01    0.1740388    0.1581129  46.06 0.0004743011    1.335    0.251
       138  -9.9891     85.9554     29.5035   1.3291367381e+01   5.9877286882e+01    0.2245453    0.1307183  55.38 0.0004961878    1.572    0.364
       139 -10.3444     38.5999     29.2535   3.3828109744e+01   7.0015363258e+01    0.1930242    0.1237967 -31.69 0.0008133283    1.654    0.395
       140 -12.0133      3.8455     26.5526   5.8416155952e+01   7.4732576390e+01    0.2983262    0.2070863   0.50  0.001678974    1.419    0.295
       141 -11.9844    158.9667     26.5022   3.5815505338e+02   4.1810963939e+01    0.2296828    0.2030089 -59.01 -3.83743e-05    1.083    0.077
       142 -11.8271     68.4002     27.0340   1.8104635737e+01   6.4377814108e+01    0.3298185     0.196466  57.46 0.0008355373    1.643    0.392
       143  -9.8306    204.3494    117.2264   1.5182921999e+01   1.8339040773e+01    0.2998135    0.1377859 -54.17  0.001169074    3.063    0.674
       144 -11.5383     52.4076     24.3731   2.3626783467e+01   6.8242326822e+01    0.3317774    0.2249443 -12.36  0.001159282    1.866    0.464
       145 -10.3397    123.3373     23.7139   2.3082729261e+00   5.1124354984e+01    0.2385042    0.1919472 -67.62 0.0002645569    1.222    0.182
       146 -11.0240    124.3262     20.7195   1.0421311300e+00   5.1212655069e+01    0.2344203    0.2229781  48.69 0.0002341286    1.185    0.156
       147 -11.2182     73.3681     24.2070   1.4862878820e+01   6.3625465462e+01    0.3192272    0.1800427  50.85 0.0009676304    1.608    0.378
       148 -10.3091    247.4931    117.5137   9.4544873966e+00   1.1430094696e+01    0.1677327    0.1164899  71.49  0.001033469    2.309    0.567
       149 -11.0662    210.7840     21.0896   3.5207620199e+02   3.0731507844e+01    0.3033427    0.2338583  -2.81  0.001444314    1.911    0.477
       150 -12.7748     82.0841     21.7740   1.0855565784e+01   6.1846473916e+01    0.4024054     0.264506  72.96   0.00194609    1.616    0.381
       151  -9.9193    175.7940     25.1792   3.5596027566e+02   3.7947824748e+01    0.2463056   0.09808549 -60.60 0.0009511132    2.863    0.651
       152  -9.7069    151.4959     22.4275   3.5779914491e+02   4.4122713783e+01    0.1374823    0.1181587 -77.37 0.0001087574    1.017    0.017
       153 -10.9047     42.0075     21.0638   2.7210596847e+01   7.0803731903e+01    0.4568426    0.2898608  69.55  0.001925045    2.986    0.665
       154 -11.1510     56.4395     25.0853   2.2111640268e+01   6.7294320820e+01    0.2723861    0.1772321  34.86 0.0008555414    1.549    0.354
       155  -9.7597    162.6850     20.6899   3.5600749903e+02   4.1572798709e+01    0.1273465   0.09926437  41.40 0.0002390618    1.633    0.388
       156  -9.7880    196.3335    113.1640   1.5542383441e+01   2.0448669353e+01    0.2018072    0.1061588 -45.52 0.0006617237    1.756    0.430
       157  -9.9578    204.5402     17.5053   3.5164350525e+02   3.2421567833e+01    0.1634355    0.1148427 -19.78 0.0009691791    1.722    0.419
       158 -10.6433     49.0368     18.3161   2.1816682382e+01   6.9834519504e+01    0.3522707    0.2340407  78.60  0.001527508    2.709    0.631
       159  -9.7027     77.3786     17.1090   9.9838706463e+00   6.3561119770e+01    0.1879821    0.1224321 -43.01 0.0009267021    1.697    0.411
       160 -10.8885    212.3652     15.5255   3.5067817200e+02   3.1011486574e+01    0.2582646    0.1216108 -54.01 0.0008409523    1.720    0.419
       161 -10.2376    102.1198     15.6842   3.1098191083e+00   5.7492786973e+01    0.1982991    0.1680916  -8.51 0.0005843626    1.394    0.283
       162 -10.1404     24.9547    111.5053   6.5333487947e+01   5.1448796507e+01    0.2041615    0.1449391  20.27 0.0004047577    1.500    0.333
       163 -10.3765    160.0160     14.0466   3.5430429396e+02   4.2933099570e+01    0.1924931    0.1694076 -85.84 -0.001877172    1.086    0.079
       164 -10.1733    150.2237     13.2483   3.5505723404e+02   4.5425760091e+01    0.1855814    0.1318657 -62.09 0.0006202006    1.289    0.224
       165 -10.1531    198.6024    107.4610   1.3893145674e+01   2.0982854166e+01    0.2242068    0.1201754  39.12  0.001030697    2.359    0.576
       166 -10.3018     85.9217    107.1777   4.0755798231e+01   4.4004222491e+01    0.2365067     0.207523  65.79 0.0003978726    1.198    0.165
       167  -9.6961     38.2474     12.3164   2.3900120015e+01   7.2824678938e+01    0.1290096   0.09436911   9.03 0.0002105292    1.520    0.342
       168  -9.6947     15.4658    106.5644   6.8659441757e+01   5.3574045518e+01    0.1415917    0.1308623 -74.22 9.036222e-05    1.026    0.025
       169  -9.9854    208.7140    104.6908   1.1769537163e+01   1.9590281363e+01    0.2786329    0.1269261 -52.33  0.001162968    2.592    0.614
       170  -9.6809    169.4819     98.0263   1.6557121195e+01   2.8376672725e+01    0.1953944    0.1249725 -14.88 0.0005768529    2.387    0.581
       171 -10.8849    249.3391     97.0481   5.2142289314e+00   1.3996831812e+01    0.1711262    0.1168492 -37.32 0.0004644722    1.117    0.105
       172 -10.8124    199.5872     96.1544   1.1143717134e+01   2.2645986692e+01    0.2233935    0.2051506 -76.03 0.0003981031    1.185    0.156
       173 -11.1758    102.0452     96.4995   3.2560136687e+01   4.3350560790e+01     0.283888    0.2299759 -48.44 0.0003834168    1.236    0.191
       174  -9.9577    160.0425     95.9920   1.7841369403e+01   3.0759590982e+01    0.2209077    0.1707044 -80.08  0.000817959    1.592    0.372
       175  -9.4462    183.0108     94.7570   1.3379535154e+01   2.6149737246e+01    0.1593098    0.1192955  57.04 0.0002739961    1.479    0.324
       176  -9.9490     95.6928     90.4353   3.2829366966e+01   4.6074116091e+01    0.4248784    0.1424857 -53.36  0.001236885    3.457    0.711
       177 -10.1621    250.4717     90.4719   3.7885033797e+00   1.4718182789e+01    0.1169931   0.09048648 -35.39 0.0008083455    1.071    0.066
       178 -10.7512    127.6078     89.9410   2.3443429020e+01   3.9157125876e+01    0.2825691    0.2089753  35.85 0.0005371603    1.518    0.341
       179  -9.4702     88.0042     89.5021   3.5149740492e+01   4.7875738772e+01    0.2161179    0.1325888  64.46 0.0005461567    2.289    0.563
