#   1 NUMBER                 Running object number                                     
#   2 MAG_AUTO               Kron-like elliptical aperture magnitude                    [mag]
#   3 X_IMAGE                Object position along x                                    [pixel]
#   4 Y_IMAGE                Object position along y                                    [pixel]
#   5 X_WORLD                Barycenter position along world x axis                     [deg]
#   6 Y_WORLD                Barycenter position along world y axis                     [deg]
#   7 A_WORLD                Profile RMS along major axis (world units)                 [deg]
#   8 B_WORLD                Profile RMS along minor axis (world units)                 [deg]
#   9 THETA_WORLD            Position angle (CCW/world-x)                               [deg]
#  10 FWHM_WORLD             FWHM assuming a gaussian core                              [deg]
#  11 ELONGATION             A_IMAGE/B_IMAGE                                           
#  12 ELLIPTICITY            1 - B_IMAGE/A_IMAGE                                       
         1 -16.7010    119.8897     10.0848   2.9046108119e+02   6.9596706283e+00    0.3049216   0.07118934  26.63   0.01891915    4.474    0.776
         2 -15.8094    196.0428     11.5869   2.8960151816e+02   6.5010379848e+00    0.1216525   0.05898801  34.01    0.0111383    2.012    0.503
         3 -14.6159     85.3859     23.4088   2.9093463921e+02   7.0052922767e+00   0.07507171   0.05599454  52.57  0.008321355    1.449    0.310
         4 -13.6422    152.4933     24.5709   2.9017566603e+02   6.6037957482e+00   0.01704339   0.01378708 -64.39   0.00110641    1.219    0.180
         5 -15.0434     28.2890     15.8384   2.9154186083e+02   7.4217537684e+00   0.04595075   0.03428456 -73.20   0.00465503    1.399    0.285
         6 -12.9544     64.7962     14.9280   2.9111920738e+02   7.2219801042e+00   0.02352437   0.01515251 -45.61  0.002431583    1.568    0.362
         7 -17.9634    235.2668     11.4739   2.8915413160e+02   6.2744802811e+00    0.1475088    0.0878558  39.78   0.01480296    1.693    0.409
         8 -13.3553     36.2844      3.0680   2.9137428444e+02   7.5231315306e+00   0.03126568    0.0155127  41.01  0.002851042    2.054    0.513
         9 -13.7167     75.1765     20.2833   2.9103258806e+02   7.1002921534e+00   0.02430261   0.01845489 -72.01  0.001990181    1.359    0.264
        10 -13.9268     87.0692      9.4140   2.9083183816e+02   7.1570921009e+00   0.03021163   0.01811007 -53.35  0.001447998    1.601    0.375
        11 -13.2447    233.3756    193.6337   2.9026362585e+02   4.1826248918e+00   0.01953979   0.01271301 -63.12  0.001153741    1.510    0.338
        12 -14.1955    197.9825    248.1880   2.9099046682e+02   3.7569574908e+00   0.03539048   0.02421492  22.09  0.003769585    1.537    0.349
        13 -12.7973    230.4682    188.1347   2.9026391794e+02   4.2629928602e+00   0.01798757   0.01592928  69.67  0.001433646    1.205    0.170
        14 -13.7677    214.3822    189.6897   2.9045606844e+02   4.3381575968e+00   0.02269934   0.01725064 -27.03  0.001251266    1.485    0.327
        15 -13.2054    223.6499    189.8373   2.9035157276e+02   4.2828005495e+00   0.01514347   0.01109645  33.44  0.001327939    1.372    0.271
        16 -11.3515    195.3094    181.6537   2.9062515048e+02   4.5414091271e+00  0.006960365  0.004935447  66.32 0.0007044727    1.705    0.413
        17 -14.7888     93.4333    176.3767   2.9175376131e+02   5.1909613920e+00   0.03311639   0.02528569  88.08  0.003652558    1.513    0.339
        18 -12.4508    186.6628    177.5062   2.9069883568e+02   4.6393743333e+00   0.01196102  0.006039013 -63.15  0.001083057    1.949    0.487
        19 -13.4596    178.3096    177.8453   2.9079591161e+02   4.6837745971e+00   0.02028084   0.01027517  21.35  0.001812601    2.191    0.544
        20 -11.9263    146.3880    167.3997   2.9109715478e+02   4.9890849708e+00   0.01994877  0.009628789 -48.01  0.001779712    2.066    0.516
        21 -10.8673    241.4893    166.4584   2.9000945524e+02   4.4495643065e+00  0.006470833  0.006364756 -83.58 5.691901e-05    1.021    0.020
        22 -14.1075     81.7655    159.9273   2.9178902530e+02   5.4484851298e+00   0.01869667   0.01456309 -45.62  0.002128023    1.282    0.220
        23 -13.6021     94.4464    158.0602   2.9163338878e+02   5.3969629894e+00   0.03449587   0.02543206 -76.94  0.003779243    1.459    0.315
        24 -13.4072    134.9993    158.7658   2.9117549731e+02   5.1547138101e+00   0.02337702    0.0184035 -85.50  0.002096266    1.402    0.287
        25 -13.7322    130.5591    154.9360   2.9120329365e+02   5.2246446284e+00   0.03291837   0.01884861  35.40  0.002294185    1.730    0.422
        26 -13.5128    189.8428    157.6313   2.9054427932e+02   4.8506787227e+00   0.02293321   0.02099784 -26.74  0.002833399    1.132    0.116
        27 -12.2320    229.9491    154.9674   2.9007214300e+02   4.6491788021e+00   0.01806213   0.01209623 -27.06  0.001820667    1.820    0.450
        28 -11.3161    201.9656    152.0074   2.9037281102e+02   4.8454834155e+00   0.01065341  0.007610602 -27.33 0.0005552501    1.632    0.387
        29 -12.1109    249.3668    151.0344   2.8982792393e+02   4.5820514690e+00   0.01625514   0.01021803  18.88  0.001630492    1.749    0.428
        30 -13.7226    192.3130    148.1918   2.9045991642e+02   4.9454658117e+00   0.02440162   0.01793345  66.46  0.001918981    1.606    0.377
        31 -13.5899    187.9625    142.7392   2.9047693604e+02   5.0336610061e+00   0.02087658    0.0174146  80.04  0.002116645    1.329    0.247
        32 -12.7053    184.8618    139.1386   2.9049077114e+02   5.0932192716e+00   0.01281719  0.009386436 -54.84  0.000392345    1.321    0.243
        33 -15.9380     21.0721    130.1067   2.9230415163e+02   6.1427640623e+00    0.1044121   0.06709456 -72.03   0.01065877    1.661    0.398
        34 -13.1821    130.2650    145.6519   2.9115139387e+02   5.3336846845e+00   0.04227608   0.01615385  39.63  0.003411627    2.601    0.615
        35 -14.9668      9.9827    108.9686   2.9230521405e+02   6.4509398152e+00   0.06566432   0.04747526  50.10  0.007172507    1.481    0.325
        36 -12.3943    173.0908    140.2484   2.9063140316e+02   5.1485253906e+00   0.01787535   0.01483578  46.19    0.0020989    1.241    0.194
        37 -13.3947    220.3972    139.7887   2.9009025710e+02   4.8798755807e+00   0.02070022   0.01564865  -1.35  0.002264821    1.560    0.359
        38 -14.0071    238.6801    142.1316   2.8989630213e+02   4.7468352680e+00   0.04154126    0.0304489  19.12  0.004575836    1.453    0.312
        39 -11.8022    243.3153    135.0494   2.8980133998e+02   4.8017506153e+00  0.009214815  0.008346829 -64.08 0.0003865241    1.085    0.078
        40 -13.4851    205.6062    132.8196   2.9021697788e+02   5.0460923363e+00   0.03389485   0.01692027  44.96  0.003040907    2.157    0.536
        41 -14.4040    172.9846    144.9557   2.9066066131e+02   5.0947355086e+00   0.03090718   0.02442295  55.19   0.00352505    1.363    0.267
        42 -12.1316    237.3292    133.6178   2.8986086194e+02   4.8529974784e+00   0.01260121   0.01134593 -26.82 0.0008448554    1.159    0.137
        43 -12.0632    197.2110    133.0617   2.9031396723e+02   5.0919273465e+00   0.01652525   0.01153213 -20.94  0.001698923    1.774    0.436
        44 -14.4436     89.0939    129.0243   2.9152175662e+02   5.7636034432e+00   0.02545485   0.02073736  11.70  0.002953254    1.323    0.244
        45 -12.1367    219.3309    128.2945   2.9003381629e+02   5.0188289473e+00   0.01827316   0.01250366  14.43  0.001657831    1.641    0.391
        46 -11.6371    234.8271    126.3580   2.8984598985e+02   4.9513496755e+00   0.02222688   0.01205831  65.10  0.001798376    2.948    0.661
        47 -11.7519    229.9317    124.5396   2.8989081578e+02   5.0007385834e+00   0.01331969  0.009529478  36.87 0.0005612267    1.405    0.288
        48 -11.8561    143.7351    128.1794   2.9089386803e+02   5.4578177229e+00   0.01209073  0.009792985  16.36 0.0007449007    1.308    0.235
        49 -12.6008    246.5870    143.3471   2.8981365911e+02   4.6869499849e+00   0.01677058   0.01581331  83.86  0.001853837    1.091    0.084
        50 -11.2515    243.9067    127.4874   2.8974947962e+02   4.8856468273e+00  0.009978728  0.006448813  28.50  0.001023676    1.566    0.362
        51 -13.1760    134.0894    124.5351   2.9098207603e+02   5.5557005372e+00   0.01958269   0.01640973 -56.73  0.002317915    1.161    0.139
        52 -10.4584    211.6534    125.3201   2.9010342511e+02   5.0976854243e+00  0.007046148  0.004872131  62.38 0.0007049246    1.732    0.423
        53 -13.9650    132.8947    116.3979   2.9094721425e+02   5.6566588486e+00   0.06309094    0.0192988  34.60  0.004721467    2.994    0.666
        54 -13.1510     75.3553    100.6543   2.9150964751e+02   6.1708224570e+00   0.04410561   0.03428593 -62.39  0.004238782    1.260    0.206
        55 -14.3175     84.6887    113.9660   2.9148240024e+02   5.9631125800e+00   0.02408565   0.01634464 -69.61  0.001768304    1.519    0.342
        56 -13.9276     91.2312    108.8866   2.9137753832e+02   5.9840906370e+00   0.05374813   0.02814271  48.87  0.003655001    2.185    0.542
        57 -15.0590     69.8552    112.6099   2.9164354785e+02   6.0643149518e+00   0.04534515   0.04078512  74.45   0.00555194    1.179    0.152
        58 -15.1182     59.2646     99.8797   2.9168865394e+02   6.2725123320e+00    0.0742223   0.04644314  53.82  0.006468778    1.850    0.460
        59 -11.7504    159.9373    114.4576   2.9062748511e+02   5.5226858379e+00   0.02610606    0.0133598  80.58  0.001699699    4.697    0.787
        60 -10.8303    196.4505    116.5181   2.9022394254e+02   5.2874592985e+00  0.006488702  0.006336123 -62.14 0.0001293142    1.005    0.005
        61 -10.9093    177.2187    116.6281   2.9044358037e+02   5.3975770025e+00  0.006547236  0.004920684  80.45 0.0006853156    1.586    0.369
        62 -13.4749    114.7616    107.4240   2.9110047311e+02   5.8651563353e+00   0.02481322    0.0166015  89.07  0.002468607    1.906    0.475
        63 -10.5723    181.3082    114.6602   2.9038527048e+02   5.3966340943e+00  0.006925496  0.004940017  66.12 0.0002852541    1.686    0.407
        64 -11.4706    142.1301    109.6839   2.9080193963e+02   5.6808585320e+00   0.01099622  0.007927943  47.93 0.0008078008    1.464    0.317
        65 -10.4643    216.6098    109.7542   2.8995412291e+02   5.2487423642e+00  0.006756397  0.004921895 -18.15 0.0006941111    1.665    0.399
        66 -11.9789    205.0276    106.0285   2.9006370320e+02   5.3589171459e+00   0.01121331  0.007689372  61.65  0.001141968    1.746    0.427
        67 -12.9313    185.4937    104.4545   2.9027671520e+02   5.4902928072e+00   0.01302889   0.01184477 -70.21 0.0005527812    1.095    0.087
        68 -10.7773    204.3295    118.6841   2.9014717962e+02   5.2167850045e+00  0.006939728  0.004906006  63.09 0.0006588679    1.679    0.405
        69 -12.6479    242.7676     92.0906   2.8955103087e+02   5.3009289969e+00   0.01779591   0.01476459  80.32  0.001026134    1.341    0.254
        70 -12.6978    244.9757    100.1163   2.8957386877e+02   5.1954672054e+00    0.0376002   0.01881834  49.73  0.003270998    2.366    0.577
        71 -12.0548    250.1694     98.5877   2.8950567426e+02   5.1829646715e+00    0.0285993   0.01025158 -68.20  0.002044531    3.322    0.699
        72 -13.9872     40.6777     99.3033   2.9189737274e+02   6.3861994630e+00   0.04458842   0.02324174  53.17  0.003886807    2.410    0.585
        73 -13.6644     41.5588     89.6718   2.9183002533e+02   6.4924685353e+00   0.04450733   0.03119814 -15.10  0.004598472    1.798    0.444
        74 -14.1515     31.1085     85.9591   2.9192725671e+02   6.5955156158e+00   0.04019483   0.03276415  55.67  0.002921805    1.313    0.238
        75 -14.1521     20.9981     85.6166   2.9204067079e+02   6.6576166142e+00   0.05916992   0.03724964 -16.17  0.005551001    2.229    0.551
        76 -12.3598    117.5232    100.4279   2.9102729644e+02   5.9300600173e+00   0.02163633   0.01153388  50.59  0.001946218    2.205    0.546
        77 -12.2465    126.5849     95.7654   2.9089617876e+02   5.9315748279e+00   0.02795502   0.01875046 -79.38  0.002455289    1.707    0.414
        78 -12.5173    132.4400     93.9470   2.9081857881e+02   5.9187384088e+00   0.01647383  0.009245643  27.31 0.0004851166    1.812    0.448
        79 -12.9863    201.8430     94.7750   2.9003277148e+02   5.5073445566e+00   0.02628403   0.02046512  78.83  0.002928093    1.493    0.330
        80 -12.6726    163.8167     94.0553   2.9046159242e+02   5.7359558498e+00   0.01179894   0.01041409 -81.52  0.001419145    1.172    0.147
        81 -11.9148    217.0411     93.9530   2.8985486085e+02   5.4287079478e+00   0.01611827  0.009913644  31.16  0.001507721    1.625    0.384
        82 -12.5239    184.3925     94.1684   2.9022786546e+02   5.6154850289e+00   0.01124995  0.008410127 -88.73  0.001211409    1.548    0.354
        83 -10.4730    156.7037     93.3316   2.9053833018e+02   5.7854899162e+00  0.006823663  0.004956949  66.74 0.0003858439    1.640    0.390
        84 -11.4770    231.6098     92.2891   2.8967914164e+02   5.3633967871e+00   0.01088466  0.008737916  25.67 0.0004501936    1.276    0.216
        85  -9.6331    110.9421     71.8959   2.9093225972e+02   6.2977613950e+00   0.03014825   0.01485526 -73.16   0.00255683    2.447    0.591
        86 -12.6664    117.1449     89.4281   2.9096604734e+02   6.0593586397e+00   0.03088857   0.02127009  81.40  0.002900978    1.864    0.464
        87 -13.0548    114.0066     80.7731   2.9095024009e+02   6.1774956957e+00   0.03085899   0.02131004  82.02  0.002514932    1.852    0.460
        88 -11.5530     61.2551     92.0014   2.9161905199e+02   6.3521132003e+00  0.009908825  0.008290996 -38.68 0.0004918276    1.224    0.183
        89 -12.3915    169.3511     89.3626   2.9037052931e+02   5.7581182522e+00   0.01921258    0.0163219  87.00  0.002266823    1.278    0.218
        90 -12.4896    175.7253     89.1335   2.9029654004e+02   5.7238474383e+00   0.01433374   0.01221173  35.44 0.0009447944    1.188    0.158
        91 -11.8293    191.4803     89.1520   2.9011719493e+02   5.6323484806e+00   0.01406621  0.007773279  45.23  0.001274193    1.929    0.482
        92 -11.4455    226.8726     86.0063   2.8969550474e+02   5.4634164501e+00   0.01916708  0.009637874 -78.96   0.00154247    2.810    0.644
        93 -11.6075    231.1269     84.4397   2.8963773513e+02   5.4568122063e+00   0.01392719  0.008862733 -86.57  0.001330567    2.022    0.506
        94 -11.8021    107.4616     81.4841   2.9102914007e+02   6.2070907720e+00   0.01030965  0.007782351  65.72 0.0006187891    1.532    0.347
        95 -12.5621    249.6338     81.1800   2.8940772992e+02   5.3869898940e+00   0.02185557   0.01190076 -47.42  0.002074336    1.839    0.456
        96 -11.9983    201.4712     82.5059   2.8996373179e+02   5.6511758691e+00   0.01410479  0.009500274 -55.24 0.0009547449    1.429    0.300
        97 -11.7583    199.1611     80.3444   2.8997712567e+02   5.6895279255e+00   0.02774592   0.01225731  15.63  0.002114781    3.164    0.684
        98 -12.3263    239.8674     72.1224   2.8946467030e+02   5.5482323333e+00    0.0152687   0.01415994  19.38 0.0008571003    1.108    0.098
        99 -11.5574    236.1735     67.7799   2.8948073372e+02   5.6197936075e+00   0.01849752   0.01127857  68.61  0.001377736    2.327    0.570
       100 -10.8885    227.8336    100.8457   2.8977321718e+02   5.2865178333e+00   0.01241703  0.008131398  15.60  0.001259082    1.721    0.419
       101 -12.7376     76.5839     77.9695   2.9136053544e+02   6.4259200213e+00   0.02690536   0.01506816  30.89  0.002455198    1.775    0.437
       102 -11.8730    172.2768    100.8010   2.9040545480e+02   5.6090452879e+00   0.01605546   0.01175647  67.65  0.001489225    1.625    0.384
       103 -12.7756     65.4704     82.1942   2.9151255044e+02   6.4411724723e+00   0.02329413   0.01283654  65.67  0.001918532    2.851    0.649
       104 -13.0431    242.6543     79.1531   2.8947499810e+02   5.4509118860e+00   0.03435137   0.02204731 -67.57  0.003534538    1.590    0.371
       105 -13.5920     64.7713     72.0729   2.9146024928e+02   6.5621640166e+00    0.0307045   0.02312005  38.66  0.003454704    1.343    0.255
       106 -12.2369     59.9985     67.4627   2.9148727790e+02   6.6429406653e+00   0.01784505   0.01226583 -86.23  0.001451203    1.751    0.429
       107 -11.8460    139.4824     71.1802   2.9060246480e+02   6.1410217209e+00   0.01473641    0.0116015 -87.47  0.001061926    1.416    0.294
       108 -11.1424    194.4855     70.4913   2.8997151142e+02   5.8303985893e+00   0.01245264  0.005170693  39.48  0.001030317    2.396    0.583
       109 -11.4504    169.6734     69.9062   2.9025069621e+02   5.9809549964e+00  0.009383871  0.008024205 -68.92 0.0004392467    1.168    0.144
       110 -11.8440    175.3865     67.1497   2.9016912903e+02   5.9796849898e+00   0.01747753   0.01191947 -84.60  0.001783975    1.752    0.429
       111 -11.2345    206.9322     66.6979   2.8980709879e+02   5.8020010277e+00  0.008970613  0.008808577 -19.34 0.0006881549    1.035    0.034
       112 -10.9421    250.2675     66.0313   2.8930994720e+02   5.5581108473e+00  0.009228634  0.008309115 -66.10 0.0004064749    1.096    0.088
       113 -11.5495    157.6714     66.0029   2.9036418214e+02   6.0955398226e+00    0.0118453  0.009067777 -16.33 0.0006508527    1.535    0.348
       114 -11.7036    187.7997     64.1964   2.9001005547e+02   5.9418349950e+00   0.01618369   0.01181184 -51.03  0.001785016    1.337    0.252
       115 -10.8718    179.5910     62.8586   2.9009558603e+02   6.0048633950e+00  0.009388192  0.006292313 -80.86 0.0008316631    1.738    0.424
       116 -12.2676    153.3459     59.9644   2.9037743326e+02   6.1903127706e+00   0.02207054   0.01448899  40.94  0.002310936    1.549    0.354
       117 -11.8127     65.1324     57.2780   2.9136796900e+02   6.7310173286e+00    0.0124378  0.008544541 -51.06  0.001325887    1.417    0.294
       118 -11.1980    193.4224     55.9491   2.8989671571e+02   6.0044333152e+00   0.02228112   0.01029163  63.98  0.001342526    5.323    0.812
       119 -12.6314     34.4624     52.9051   2.9169221141e+02   6.9581838791e+00   0.03851556   0.01449834 -73.38  0.002527583    4.131    0.758
       120 -13.0468    239.5134     51.5181   2.8934547740e+02   5.7880218581e+00    0.0486678   0.01314695  35.86  0.003454884    3.328    0.699
       121 -13.7707    246.0038     50.0799   2.8926303084e+02   5.7669023311e+00   0.03905265   0.01690274 -50.80  0.002384973    2.215    0.549
       122 -14.2825    242.7224     45.6062   2.8927359616e+02   5.8375729492e+00    0.0587872   0.03026702  29.60  0.005505358    1.938    0.484
       123 -11.1501    124.0536     55.3238   2.9068379681e+02   6.4133896733e+00  0.009232198  0.008720979  22.63 0.0007027728    1.082    0.076
       124 -11.6572     75.2998     54.7605   2.9123686802e+02   6.7014694761e+00   0.01347903  0.009376424  11.25  0.001410894    1.646    0.392
       125 -11.5515    146.8625     52.5333   2.9040697743e+02   6.3136477486e+00   0.01595533  0.009884753 -40.24  0.001584371    1.742    0.426
       126 -11.6219    147.9965     47.5514   2.9036428773e+02   6.3646005874e+00   0.01338571    0.0100754 -33.56  0.001388983    1.443    0.307
       127 -13.0765    140.2465     41.2861   2.9041524876e+02   6.4817917350e+00   0.03682449   0.01478417 -62.72   0.00302193    2.440    0.590
       128 -11.0500    127.3189     44.6391   2.9058275049e+02   6.5178806002e+00   0.01051408  0.007383733  64.95 0.0008020158    1.720    0.418
       129 -12.0879    148.2991     41.2706   2.9032331234e+02   6.4353541152e+00   0.01916008   0.01176487 -66.34  0.001422604    1.648    0.393
       130 -12.0095    136.4576     25.4580   2.9036389367e+02   6.6864121144e+00   0.02265923    0.0100675 -67.54  0.001885061    2.433    0.589
       131 -12.3156    144.3083     31.6746   2.9031148757e+02   6.5692200789e+00   0.01524783    0.0103585  63.09  0.001547926    1.795    0.443
       132 -12.7704    141.0084     29.0040   2.9033316895e+02   6.6191463119e+00   0.01942942   0.01651582  46.42  0.001291753    1.210    0.174
       133 -14.8447    130.7349    230.7169   2.9165159129e+02   4.3473016520e+00   0.03457835   0.02342679 -75.68   0.00360451    1.616    0.381
       134 -13.3398    194.5453    213.1537   2.9082129058e+02   4.1817500945e+00   0.02374406   0.01088756 -52.99   0.00210327    2.056    0.514
       135 -15.5209    104.5374    197.4022   2.9175211222e+02   4.8837356076e+00   0.07029013   0.06638686  89.90  0.008190946    1.082    0.076
       136 -13.2407    146.0641     24.5225   2.9024870946e+02   6.6415910124e+00   0.02353374   0.01553164  86.52  0.001746112    1.995    0.499
       137 -12.8918    155.9234     28.2549   2.9015857108e+02   6.5414161543e+00   0.02817779   0.01303714  25.00  0.002453458    2.275    0.561
       138 -12.5909    223.2396    209.1217   2.9047105559e+02   4.0623495281e+00   0.01400997  0.007696425  52.10  0.001265428    2.174    0.540
       139 -13.3987    188.2408    200.3815   2.9081702320e+02   4.3658375030e+00   0.01704876    0.0136607  25.00  0.001848601    1.280    0.219
       140 -13.1273    183.0351    198.5115   2.9086511953e+02   4.4175573442e+00   0.02340628   0.01585714 -47.31  0.002486297    1.468    0.319
       141 -12.0324    182.0136    204.0356   2.9090959899e+02   4.3596075053e+00   0.01269127    0.0100563 -32.83 0.0004502488    1.352    0.260
       142 -12.3288    194.5872    199.7328   2.9074097379e+02   4.3366300792e+00   0.02599979  0.007095126  32.91  0.001849805    3.282    0.695
       143 -13.4246    245.1288    196.9944   2.9015007247e+02   4.0757385029e+00   0.02440454   0.01046448 -59.55  0.002091741    2.196    0.545
