#   1 NUMBER                 Running object number                                     
#   2 MAG_AUTO               Kron-like elliptical aperture magnitude                    [mag]
#   3 X_IMAGE                Object position along x                                    [pixel]
#   4 Y_IMAGE                Object position along y                                    [pixel]
#   5 X_WORLD                Barycenter position along world x axis                     [deg]
#   6 Y_WORLD                Barycenter position along world y axis                     [deg]
#   7 A_WORLD                Profile RMS along major axis (world units)                 [deg]
#   8 B_WORLD                Profile RMS along minor axis (world units)                 [deg]
#   9 THETA_WORLD            Position angle (CCW/world-x)                               [deg]
#  10 FWHM_WORLD             FWHM assuming a gaussian core                              [deg]
#  11 ELONGATION             A_IMAGE/B_IMAGE                                           
#  12 ELLIPTICITY            1 - B_IMAGE/A_IMAGE                                       
         1 -11.8210     93.7904     29.6585   8.2311695222e+01   5.7210961872e+01    0.4113128    0.2164719 -43.05   0.00184055    1.913    0.477
         2 -10.4333    155.8515     15.5018   6.1786978177e+01   4.4594770518e+01     0.317581    0.2918066 -85.92  0.001159558    1.189    0.159
         3 -10.2654     64.3054      5.6821   8.1368569787e+01   6.6128248991e+01    0.1185575   0.09753839 -52.90 0.0003738695    1.629    0.386
         4 -11.6727     56.0394      2.8320   8.3117591870e+01   6.7849535335e+01    0.2949793    0.1443252  22.31  0.001259754    3.094    0.677
         5  -9.5862    160.7315      2.2843   5.6109758181e+01   4.4640921105e+01    0.1843168      0.12735  -7.70 0.0004956332    1.546    0.353
         6  -9.4358    152.4783      1.4479   5.7068215962e+01   4.6901326901e+01    0.1478945    0.1313239  37.42 0.0001011204    1.072    0.067
         7 -11.8983    192.4226    194.2735   1.0065384613e+02   8.9697294544e+00    0.7501347    0.4034408 -62.87  0.002693154    6.327    0.842
         8 -14.0442    162.1049     71.1812   7.9441002969e+01   3.4980555393e+01    0.9613222    0.6162179  33.46  0.002416534    1.795    0.443
         9 -14.3120    165.3482     83.9750   8.2486266079e+01   3.2010028400e+01     1.925984     1.194915  31.06  0.008090493    1.966    0.491
        10 -13.5609    179.1402     75.0678   7.7107189926e+01   3.0190982522e+01    0.8735387    0.5429801  24.30  0.002876134    2.177    0.541
        11 -13.6663    186.1306     85.9403   7.8827307973e+01   2.6738115832e+01     2.596853    0.7866544 -39.31  0.003627341    3.233    0.691
        12  99.0000    240.8560    116.5844   7.7089520256e+01   9.9323459217e+00     10.44235     4.857365 -28.11   0.04607281    2.062    0.515
        13 -11.8110    149.4418    140.9778   9.9526810887e+01   2.5110557978e+01    0.2980196    0.2015238  47.85  0.001552357    1.373    0.271
        14 -10.9406    142.4687    138.3640   1.0049629998e+02   2.6925987701e+01    0.2971138    0.2374568  19.46  0.001627014    1.539    0.350
        15 -11.5795    131.5428     96.8644   9.3714402570e+01   3.7085503932e+01    0.3524766    0.2679649 -45.43  0.001805192    1.307    0.235
        16 -10.8001    139.3820    104.8165   9.3840758932e+01   3.3920173038e+01    0.2949216    0.2111849  -4.96  0.000573208    2.189    0.543
        17 -13.0495    134.6802    108.1792   9.5751005362e+01   3.4224041037e+01     1.308921    0.2977681 -45.38  0.003738953    4.440    0.775
        18 -11.2682    135.0051    120.4645   9.8463565136e+01   3.1760934714e+01    0.3752514    0.1921993 -49.39  0.001222419    2.021    0.505
        19  -9.8812    100.1963    134.2055   1.0917558592e+02   3.5195485176e+01    0.1743222    0.1374152  74.80 0.0003877928    1.269    0.212
        20 -12.0064    167.4877    133.2355   9.4201434049e+01   2.2873602264e+01    0.3953086      0.18239  37.40  0.001565993    2.380    0.580
        21 -10.5668    154.0043    125.7357   9.5406773414e+01   2.6967099881e+01    0.2063053    0.1734654  48.27 0.0006118953    1.132    0.117
        22 -12.0411    135.6523    128.1720   9.9946296878e+01   3.0148190437e+01    0.9272886    0.2398114 -51.85  0.002717835    4.785    0.791
        23 -11.9431    119.8165    111.4605   1.0005330461e+02   3.6450488520e+01    0.8007748    0.4435551  75.92   0.00249955    4.784    0.791
        24 -12.7227    115.1434    102.5236   9.9160229340e+01   3.9144855632e+01     1.120198    0.6437454  39.01  0.005139949    1.875    0.467
        25 -12.0683    118.1693     92.3238   9.5879835968e+01   4.0655539278e+01     0.596208    0.2853085 -51.23  0.002435868    2.123    0.529
        26 -10.7578    113.6023     94.9061   9.7706506798e+01   4.0997271440e+01    0.2513271     0.201041  23.72 0.0003843076    1.510    0.338
        27  -9.3945     86.3549    169.2915   1.1717612883e+02   3.0392268674e+01    0.1044099   0.09474533  -5.36 0.0005493328    1.683    0.406
        28  -9.7483    111.5104    112.5370   1.0231504757e+02   3.7742175389e+01    0.1346327    0.1297647 -84.78 4.143875e-05    1.043    0.041
        29 -11.0218    130.5138     87.1038   9.1384321476e+01   3.9213353019e+01    0.2216834    0.1413997 -44.00 0.0006160559    1.543    0.352
        30  99.0000    150.7406     36.9842   7.0606382554e+01   4.3183742572e+01     8.496332     7.959744 -43.83   0.04640388    1.118    0.106
        31  -9.9783    208.1446     83.3339   7.4114744336e+01   2.1870065340e+01    0.1911835    0.1400714  67.02 0.0004074881    1.575    0.365
        32 -11.1517    107.9787     76.7186   9.4350433316e+01   4.5768649052e+01    0.2649868     0.197505 -20.78   0.00103092    1.659    0.397
        33 -10.1165    218.0132     73.1963   6.9732792811e+01   2.0965181899e+01    0.2061666    0.1597913 -85.41            0    1.711    0.416
        34 -11.8050    216.5966     69.3804   6.8904077009e+01   2.1839534883e+01    0.3020982    0.2267876 -52.36 0.0006824247    1.504    0.335
        35 -12.3415    191.8510     66.2709   7.2148644670e+01   2.8410725551e+01    0.7156182    0.6748392  19.53  0.003547318    1.046    0.044
        36 -10.8192    132.6745    140.5293   1.0302234586e+02   2.8356137096e+01    0.5079114     0.153811 -56.02  0.001562494    4.776    0.791
        37 -10.6600    205.1251     64.6810   6.9414145710e+01   2.5324519830e+01    0.2376144    0.2200824 -50.88 0.0007183293    1.145    0.127
        38  -8.9789    214.2481     63.3076   6.7569751798e+01   2.3254470913e+01    0.1465017    0.1103496  14.76 0.0003543057    1.505    0.336
        39 -11.4393    204.3952     56.5457   6.7166800965e+01   2.6649660591e+01    0.4737803    0.2440275  35.16  0.001782421    2.435    0.589
        40 -10.5891    195.1454     58.2704   6.9199710118e+01   2.8753163658e+01    0.1880799    0.1785811  83.50 0.0002732396    1.135    0.119
        41  -9.4471    154.2667    152.6592   1.0074030490e+02   2.2136139199e+01    0.1287231    0.1017442  85.98 0.0004370251    1.600    0.375
        42 -11.9356    191.2472     53.4857   6.8415881150e+01   3.0430663704e+01    0.2618876    0.2237011 -51.55 0.0005854245    1.246    0.198
        43 -10.9252    153.9691    145.8617   9.9529641029e+01   2.3370696655e+01    0.2112495    0.1781902  20.23 0.0009446129    1.337    0.252
        44  -9.8102    220.6829     44.8488   6.1374609867e+01   2.4074980086e+01    0.1367263   0.09467125  46.55 0.0004898287    1.488    0.328
        45 -10.5259    216.0926     42.7987   6.1405670241e+01   2.5488446108e+01     0.183873    0.1545463  24.19 0.0009550787    1.267    0.211
        46 -12.0470    211.0301     41.0961   6.1606587510e+01   2.6992276222e+01      0.37511     0.200246 -39.52  0.001575819    1.830    0.454
        47 -10.5089    203.7083     41.2718   6.2710946655e+01   2.8856951121e+01    0.1778989    0.1510952  -9.68 0.0006183424    1.202    0.168
        48 -10.7985    143.7509    145.4848   1.0158191002e+02   2.5382963041e+01    0.3084388    0.1853182 -68.72   0.00137919    2.477    0.596
        49 -15.8187     21.9018    187.3873   1.3094769384e+02   3.4575596947e+01     1.963929     1.361957  49.05   0.01571298    1.380    0.275
        50 -10.5456    206.2099     21.0648   5.6207570666e+01   3.0598041440e+01    0.3845375     0.124091 -19.46   0.00120934    3.438    0.709
        51 -11.1657    159.7847     20.1435   6.2793707314e+01   4.3033855281e+01    0.2383638    0.2137641   4.65 0.0002596927    1.126    0.112
        52 -13.7455     45.2806    172.7139   1.2565436651e+02   3.4869488159e+01     1.421251    0.6663184  75.69  0.007791166    2.267    0.559
        53 -10.6637    201.5587     24.7210   5.7932196241e+01   3.1415229537e+01     0.200284     0.138265 -30.13 0.0009492096    1.411    0.291
        54 -13.6769     68.6028    145.0854   1.1798183217e+02   3.7516923964e+01     1.720657    0.6616375  57.66  0.006521787    3.243    0.692
        55 -13.4116     57.0329    166.8412   1.2282408420e+02   3.4645556216e+01    0.3290533    0.3172048  24.25 0.0009812692    1.516    0.340
        56 -15.3642     66.0627    159.5053   1.2022673701e+02   3.4964094016e+01     1.414406     1.137464  -8.29  0.007460157    2.264    0.558
