#   1 NUMBER                 Running object number                                     
#   2 MAG_AUTO               Kron-like elliptical aperture magnitude                    [mag]
#   3 X_IMAGE                Object position along x                                    [pixel]
#   4 Y_IMAGE                Object position along y                                    [pixel]
#   5 X_WORLD                Barycenter position along world x axis                     [deg]
#   6 Y_WORLD                Barycenter position along world y axis                     [deg]
#   7 A_WORLD                Profile RMS along major axis (world units)                 [deg]
#   8 B_WORLD                Profile RMS along minor axis (world units)                 [deg]
#   9 THETA_WORLD            Position angle (CCW/world-x)                               [deg]
#  10 FWHM_WORLD             FWHM assuming a gaussian core                              [deg]
#  11 ELONGATION             A_IMAGE/B_IMAGE                                           
#  12 ELLIPTICITY            1 - B_IMAGE/A_IMAGE                                       
         1 -12.3798     74.6643     51.7596   8.1539150337e+01   5.7235879285e+01     1.358738    0.8140899 -48.44  0.006521039    1.816    0.449
         2 -13.3788     42.9858     46.0168   9.1791037018e+01   6.2757959686e+01     1.025528    0.5852002  43.90 0.0009757807    2.422    0.587
         3 -13.0472    118.3505     38.0575   6.2861312816e+01   5.0697628371e+01      1.29216    0.6570538  49.67  0.003404066    1.845    0.458
         4 -11.9034    137.5988     23.2390   5.3151051858e+01   4.7983196270e+01     0.961913    0.6043326  62.42  0.002666014    1.512    0.339
         5 -10.5996    147.6629     17.4688   4.9317095814e+01   4.6120268159e+01    0.8068354    0.5138382 -10.53  0.003946036    1.888    0.470
         6 -12.2738     60.6329     46.3813   8.4774854938e+01   6.0392956069e+01     1.194053    0.5031275 -44.75  0.005144638    2.249    0.555
         7  -9.3087      6.6645     34.2345   1.0419326016e+02   6.8143743935e+01     1.371026    0.3417744 -51.79  0.006086476    2.595    0.615
         8 -11.1642     14.1710     23.5546   9.6633436958e+01   6.9614097819e+01    0.3869515    0.3670391 -11.12 0.0002484815    1.414    0.293
         9 -10.9362     22.2975      5.4200   8.4021316176e+01   7.1744922926e+01    0.2836617      0.16826 -36.81 0.0008274317    1.579    0.367
        10 -11.8674     26.2595     28.0585   9.2452596539e+01   6.7785898978e+01    0.4934829    0.4084425   7.87  0.002837214    1.288    0.223
        11 -12.1775     22.7115     11.5439   8.6889381405e+01   7.0816010766e+01    0.5044951    0.3378056  -1.41  0.002150175    1.357    0.263
        12 -12.5161     17.0458     12.9933   9.0568913391e+01   7.1136632506e+01    0.7163212    0.4580227 -24.72  0.003521841    1.231    0.187
        13 -11.6319     20.3219     21.9034   9.2827502841e+01   6.9389630035e+01    0.7177998    0.2107678 -45.18  0.003176044    2.701    0.630
        14 -10.9768    178.5538     21.4133   4.5775227551e+01   3.7933917239e+01     0.539501    0.3219965  34.01  0.001949932    2.178    0.541
        15 -10.5830     87.3494      7.4651   5.8898360791e+01   6.1061556267e+01     0.576952    0.3160487  52.38  0.002362141    1.693    0.409
        16 -11.3854     90.7467     20.7399   6.3669175938e+01   5.8934689375e+01    0.6200804    0.3654571 -23.48    0.0025997    1.715    0.417
        17 -11.2917     86.1478     14.3515   6.2296933171e+01   6.0599858377e+01    0.7762614     0.435954  12.28  0.002897655    2.253    0.556
        18 -10.4659     47.1606     18.8963   7.8753398428e+01   6.6773762597e+01     0.366939    0.2682613   4.25  0.002303115    1.227    0.185
        19 -10.1093     32.0352     12.3241   8.2565939863e+01   6.9672697238e+01    0.2042308    0.1741128   7.35  0.000519485    1.277    0.217
        20 -12.1922     48.8889     12.8043   7.5079204411e+01   6.7355053175e+01    0.6941515    0.2988295  39.06   0.00340858    2.311    0.567
        21 -11.8158     35.7921     17.9911   8.3485261793e+01   6.8391632348e+01    0.6279377    0.2997325 -24.41  0.002090884    2.138    0.532
        22 -11.9972     68.1320     18.1349   7.0009534674e+01   6.3559471516e+01    0.4965915    0.4252995   3.02   0.00185734    1.066    0.062
        23 -11.0984    154.0035     25.3618   5.0808701749e+01   4.3668963006e+01     1.169475    0.5188807  55.79  0.004873588    2.000    0.500
        24  -9.3635    120.2743     19.3759   5.5415498542e+01   5.2568986779e+01    0.4298842   0.09309536 -29.98  0.001356055    4.214    0.763
        25 -12.1610    238.0395     15.5631   3.7875005683e+01   2.4377678996e+01    0.5083137    0.3227654  69.97  0.001996244    1.565    0.361
        26 -11.1632    165.0833     17.8595   4.6643073866e+01   4.1711266449e+01    0.4619891    0.2740912  39.17  0.001312909    1.901    0.474
        27  -9.5381    192.0542     16.3979   4.2639740528e+01   3.5119131107e+01    0.4473198    0.2050421  42.91  0.001798586    2.829    0.647
        28 -12.1732    131.8204     14.7890   5.1303064111e+01   5.0290101801e+01     1.256357    0.5760564  73.04  0.004839647    2.693    0.629
        29  -9.5692    141.3373     12.0547   4.8589492209e+01   4.8229828195e+01     0.212382    0.1908803  57.26 0.0005517724    1.010    0.009
        30 -10.4054    186.3861     15.0281   4.2940751368e+01   3.6670209275e+01    0.2621562    0.2098623  62.02 0.0004074766    1.200    0.166
        31 -11.4126    192.4266      7.7610   4.0262040637e+01   3.5921784111e+01     0.590791    0.3710784  15.75  0.002050676    2.519    0.603
        32 -10.3320    226.1576     15.5443   3.8900432729e+01   2.7058720705e+01    0.3789074    0.1830732 -42.14   0.00185932    1.845    0.458
        33 -12.2757    104.5042     12.7011   5.6542074185e+01   5.6869854408e+01    0.5140119    0.4382905 -27.25  0.001975558    1.294    0.227
        34 -11.8918    233.8840      6.9610   3.6268956485e+01   2.6248615876e+01    0.5959658    0.3022795  66.38  0.003105191    1.916    0.478
        35 -12.0759    246.8361      6.6631   3.5239736292e+01   2.3449346127e+01    0.5151365    0.4079433  -7.77  0.002441984    1.781    0.439
        36 -11.4636    241.9671      3.9867   3.5008902871e+01   2.4784693448e+01    0.3244837    0.2752253 -75.34  0.001742221    1.067    0.063
        37 -10.3795    228.0190      3.4921   3.5938778396e+01   2.7929639419e+01    0.3121859    0.2411361 -59.77  0.001763104    1.132    0.117
        38 -11.0642    218.7525      3.3342   3.6649772215e+01   3.0069272247e+01     0.312994    0.2893899 -82.62 0.0009602975    1.134    0.118
        39 -10.2579    223.5304      1.9903   3.5945718488e+01   2.9103792037e+01    0.2903025    0.2010068  88.57  0.000989074    1.305    0.234
        40 -11.3337    211.8559      9.6446   3.8792608325e+01   3.1038284490e+01    0.5068179    0.3272492   5.69  0.001744295    2.560    0.609
        41  -9.6777     94.3104     11.9981   5.8920472815e+01   5.9157130635e+01    0.2015891    0.1706592  55.73 0.0004323054    1.273    0.215
        42  -9.9121    168.9405      9.7320   4.3632028279e+01   4.1564686917e+01    0.3619938    0.1662793  47.86  0.001558428    2.211    0.548
        43  -9.9624    163.3922      6.9375   4.3533253844e+01   4.3216915290e+01     0.541049    0.2593993 -10.06  0.002251911    2.920    0.658
        44 -10.3981     66.0683     10.1614   6.7014798333e+01   6.4873806056e+01    0.3051264    0.1946092  44.24  0.001054676    1.549    0.354
        45 -10.0115     63.1025      6.6618   6.6392468934e+01   6.5779553535e+01    0.2784199    0.1866798   9.27  0.001632981    1.409    0.290
        46 -10.9861     40.9874      5.3759   7.4786806489e+01   6.9430180972e+01    0.4784736    0.2371296  -9.58  0.002278026    2.555    0.609
        47 -10.4283    183.3199      4.6090   4.0399482207e+01   3.8468865457e+01    0.3827815    0.2678356 -28.92  0.001546004    1.552    0.356
        48  -9.8530    154.1407      7.0924   4.4891603318e+01   4.5513864080e+01    0.4253728     0.168553  64.55  0.001765245    2.165    0.538
        49  -9.0719     78.1870      7.4007   6.1618539995e+01   6.2907194012e+01     0.298631    0.1782094  58.46  0.001551787    1.930    0.482
        50 -11.2721     75.3535      3.4028   6.0639609328e+01   6.3844495860e+01    0.6769997    0.2803975  44.70  0.003191015    2.060    0.514
        51 -10.7978    176.5652      5.5156   4.1434994806e+01   4.0059872192e+01    0.4036969    0.2280822  87.62 0.0008749678    1.875    0.467
        52  -9.8243    123.0580      1.1236   4.7992831769e+01   5.3617497513e+01    0.3890784    0.1039219  67.14   0.00126645    3.807    0.737
        53 -10.6184    115.2020      3.3187   5.0369069778e+01   5.5287497831e+01    0.5586668    0.2482832  52.08  0.001521532    1.858    0.462
        54 -11.0707    106.5614      2.0583   5.1725457724e+01   5.7373452962e+01    0.6163318    0.3310913  66.70    0.0019225    1.928    0.481
        55  -9.2043     50.1984      6.4027   7.1310886575e+01   6.7943005347e+01    0.1428858    0.1089819  39.73 0.0003716165    1.483    0.326
        56 -11.7561    133.7337      2.7994   4.6692571048e+01   5.0916365498e+01    0.4131272    0.2692495  53.43  0.001851062    1.329    0.248
        57 -10.5801    142.4129      3.0643   4.5359265065e+01   4.8771397410e+01    0.4264497    0.2574164  54.65  0.001578662    1.440    0.306
        58 -10.4258    206.5869      2.4839   3.7499723223e+01   3.3013986822e+01    0.4701191    0.2192814  85.93  0.002123422    2.220    0.549
        59  -9.2157    170.0072      3.4984   4.1644684642e+01   4.1876870279e+01    0.1914149    0.1011812 -78.56 0.0007410832    2.433    0.589
        60  -9.7769    158.7417      2.1912   4.2699981881e+01   4.4797952388e+01    0.4557866    0.1506046  49.52  0.001732435    2.843    0.648
        61 -10.2944     12.8598      1.8483   8.7340234811e+01   7.3186054293e+01    0.2514903     0.139434  14.85  0.001118518    1.786    0.440
        62 -10.3876     82.2164      1.3154   5.7591964244e+01   6.2671810329e+01     0.198898    0.1017934  51.75 0.0003180238    1.747    0.428
        63 -11.1634      2.9849      1.8289   9.3137643494e+01   7.4002055991e+01    0.3662826    0.1649414   9.66  0.002062999    2.470    0.595
        64 -11.3351     47.5496    147.0584   1.1312544405e+02   3.9081143775e+01    0.5120584    0.3447296 -74.23  0.002190961    1.304    0.233
        65 -10.2193    143.0658    249.8476   1.0543572289e+02   4.0094183757e+00    0.1910578      0.13962  52.48  0.001233202    1.281    0.220
        66  -9.5201    214.9995    151.0236   7.3706548760e+01   8.1813684720e+00    0.1767566    0.1613905  -1.27  0.000758281    1.031    0.030
        67  -9.5349    239.8151    146.8385   6.8321458957e+01   4.2020897646e+00    0.2110821    0.1717379  -4.61 0.0006985873    1.190    0.160
        68 -10.4689    249.4635    142.7402   6.5827101464e+01   3.1286215095e+00    0.5944211    0.2176056 -32.86  0.002314128    2.498    0.600
        69  -9.6917    107.3427    145.9732   9.7188574053e+01   3.0705466207e+01     0.208814    0.1818069 -61.09 0.0004239187    1.117    0.104
        70 -10.9821     33.3134    144.4621   1.1646785027e+02   4.1187129855e+01    0.4153654    0.2730055  47.13  0.002170927    1.610    0.379
        71 -11.2258    133.4013    141.5762   8.9569133433e+01   2.6830194465e+01    0.3266757    0.2875206 -67.77 0.0004396573    1.197    0.164
        72 -12.0438     23.7584    135.0618   1.1781961849e+02   4.4298316047e+01    0.8597738    0.4207149  49.91  0.004307517    2.259    0.557
        73 -12.2824     30.0766    132.8960   1.1585580990e+02   4.4265268843e+01    0.4557639      0.30303  85.81 0.0002950238    1.495    0.331
        74  -9.4589     79.3866    138.2012   1.0316391492e+02   3.7110203756e+01    0.2917871    0.1722746 -65.35  0.001333814    1.646    0.393
        75 -10.0703     81.8051    135.3814   1.0196395367e+02   3.7433991736e+01    0.2928246    0.1477073  33.16  0.001227605    2.197    0.545
        76 -10.4412     47.3068    135.9324   1.1159180760e+02   4.1801979696e+01    0.4590891    0.1428829 -62.73  0.001324069    2.617    0.618
        77 -10.4182     39.7097    137.8492   1.1392690200e+02   4.2143129159e+01    0.2617835      0.23573  -4.96 0.0009968096    1.437    0.304
        78  -9.2111    192.4353    136.4920   7.4813315804e+01   1.5486724185e+01    0.1509159    0.1425925 -18.36 0.0001253525    1.016    0.016
        79  -9.2608    216.5667    135.4607   6.9859717568e+01   1.0643880779e+01    0.1469802    0.1325651 -15.86 6.515178e-05    1.024    0.024
        80 -10.7687     92.7844    129.7372   9.7762895831e+01   3.7066472456e+01    0.4140272    0.2663797 -68.91  0.001860315    1.712    0.416
        81 -10.7202     67.4295    135.7670   1.0601812923e+02   3.9387541124e+01    0.3558794    0.2121571 -45.39 0.0009662696    1.761    0.432
        82  -9.4574    244.6941    134.3520   6.4740249614e+01   5.3527666899e+00    0.1373377    0.1035445 -58.61 0.0007041979    1.710    0.415
        83 -10.2730     74.3529    132.4546   1.0348172084e+02   3.9239581531e+01    0.3117241    0.2231675 -22.79  0.001500202    1.940    0.484
        84 -10.0821     61.9450    132.2100   1.0692414076e+02   4.0972723831e+01    0.3717321     0.313159 -40.13  0.002145239    1.298    0.230
        85  -9.4317     39.0818    132.8163   1.1338757054e+02   4.3425086235e+01    0.2004051    0.1589348  77.06 0.0006485953    1.268    0.212
        86  -9.2646    103.6484    130.8033   9.4985542040e+01   3.4954725991e+01    0.1959416    0.1875283  14.16  0.000385286    1.140    0.123
        87 -10.8955     10.7813    127.1454   1.2035936233e+02   4.7173302900e+01    0.5307494     0.177434 -58.46  0.001569099    2.330    0.571
        88 -10.7740     81.2828    126.1046   1.0025621459e+02   3.9766355353e+01    0.4467846     0.305894 -18.28 0.0007357281    2.205    0.547
        89 -10.0327    239.4884    125.5038   6.3576800877e+01   7.8044991816e+00    0.2180942    0.1729115 -59.76  0.001166183    1.535    0.348
        90  -9.1668    224.0206    126.9279   6.6516803677e+01   1.0637830859e+01    0.2187633    0.1691881 -61.78 0.0005549933    1.622    0.383
        91 -10.3291     22.9757    126.9951   1.1702796212e+02   4.6292647017e+01    0.1860081    0.1511706 -75.12 0.0003048201    1.009    0.009
        92 -10.9601      4.5788    120.5158   1.2130880473e+02   4.9135376253e+01    0.8319726    0.1010295 -58.89  0.002894262    4.026    0.752
        93 -11.5273      2.3175    112.0010   1.2098790214e+02   5.1259828389e+01    0.3819452    0.2669575  75.93  0.001377526    1.467    0.318
        94 -11.6402      3.8680    105.6903   1.1977906048e+02   5.2647603920e+01    0.4601371    0.3449855 -73.89  0.002108355    1.049    0.047
        95 -10.7190     55.5495    123.5028   1.0720972111e+02   4.3889414201e+01    0.4968041    0.3743366 -19.74  0.002138834    1.743    0.426
        96  -9.5230     49.7873    122.9821   1.0879833575e+02   4.4682920571e+01    0.2460651    0.1655701 -25.55  0.001038996    2.020    0.505
        97 -11.3486     45.6634    120.2072   1.0952872197e+02   4.5809930628e+01    0.6529861    0.3330184 -85.88  0.002352339    2.768    0.639
        98  -8.9653     33.6367    126.2911   1.1396003081e+02   4.5532320991e+01    0.1331747    0.0882333  69.34 0.0007027189    1.702    0.412
        99  -9.6700     18.7656    123.8759   1.1779482326e+02   4.7370064676e+01    0.3819953     0.120716 -63.97  0.001639577    2.318    0.569
       100 -11.9345    104.2352    122.0192   9.2822570329e+01   3.6933823535e+01    0.5002412    0.4197522 -45.99  0.001610888    1.152    0.132
       101  -8.8212     94.2650    123.3502   9.5948275340e+01   3.8354184641e+01    0.1510955    0.1112498 -29.17 0.0006831081    1.616    0.381
       102  -9.3234    201.2802    121.2576   6.9345778680e+01   1.6478468430e+01    0.2333567     0.131451  61.86  0.000900808    2.394    0.582
       103  -9.2407    221.2164    120.4009   6.5458576456e+01   1.2364084812e+01    0.1906707    0.1438999  64.00 0.0006319148    1.630    0.387
       104  -9.2497    148.4039    119.8011   8.0588837710e+01   2.8535063132e+01    0.2271132    0.1470951 -32.55 0.0008755407    1.677    0.404
       105  -9.3766     71.7872    120.4431   1.0184731083e+02   4.2529061641e+01    0.1840575    0.1412544  10.49 0.0009386879    1.668    0.401
       106 -10.8178     33.0736    118.9839   1.1302691687e+02   4.7351238731e+01    0.3598513    0.2576394  81.63  0.002050582    1.497    0.332
       107  -9.5455    185.3773    118.8304   7.1938275239e+01   2.0472974760e+01    0.2244883     0.143097 -28.58 0.0009452854    1.677    0.404
       108  -9.6028    113.8049    115.8695   8.8650928468e+01   3.6585729404e+01      0.23846    0.2083237 -20.46 0.0005985286    1.249    0.199
       109  -9.5205     67.5309    114.4917   1.0187676444e+02   4.4559891698e+01      0.36146    0.2507584 -83.53  0.001750897    1.738    0.425
       110  -9.7635     67.4555    110.4983   1.0103950949e+02   4.5534532176e+01     0.343576    0.1909121  35.17  0.001577169    1.976    0.494
       111 -11.2023     42.1871     94.0367   1.0558546455e+02   5.2458081656e+01    0.3871748    0.3240236  83.60  0.001394755    1.389    0.280
       112 -11.6964     17.0821    100.9733   1.1507208847e+02   5.2937218495e+01    0.2883911    0.2439587 -52.87 0.0004049544    1.143    0.125
       113 -11.5665     35.2272     92.6571   1.0763732914e+02   5.3452482995e+01     1.556484    0.8737679 -83.49  0.007063672    2.410    0.585
       114 -11.6968      9.1957     96.6962   1.1691210009e+02   5.4443848720e+01    0.5440678    0.4528304  89.24  0.001733585    1.233    0.189
       115 -12.0287      6.9536     88.5976   1.1639703885e+02   5.6448418776e+01    0.5066479    0.4495309  20.59  0.002056217    1.433    0.302
       116 -13.0251     25.6597    106.8318   1.1333097988e+02   5.0907355028e+01     1.031065     0.783147 -22.32  0.003344837    1.604    0.376
       117 -11.9810     18.7411    106.1402   1.1535162674e+02   5.1597788780e+01    0.2621806     0.202243 -55.45 0.0002416485    1.150    0.131
       118 -11.7710     22.3006     94.9527   1.1238881757e+02   5.3981973507e+01    0.6587551    0.3957258   3.33  0.003103468    2.268    0.559
       119 -12.5552     18.2872     89.7661   1.1279976927e+02   5.5481054859e+01     0.733938    0.3380266 -39.48  0.001140586    2.226    0.551
       120 -11.3960     22.6584    114.0460   1.1534611841e+02   4.9419854147e+01    0.4198591    0.2631721   0.83  0.001961401    2.306    0.566
       121 -11.2023     28.1595    113.1350   1.1357255394e+02   4.9191876712e+01    0.3264421    0.2539212  13.40  0.001514804    1.629    0.386
       122 -11.9670     43.8444     85.2508   1.0302125892e+02   5.4334169225e+01    0.6861244    0.4094768  30.46  0.003570318    1.921    0.479
       123 -10.8710     37.7011     86.1523   1.0538323976e+02   5.4738292014e+01    0.2952334    0.2556568  72.67 0.0008369897    1.403    0.287
       124  -9.0656    126.7714    113.4490   8.4491824874e+01   3.4545553794e+01    0.2111039    0.1512318  29.55 0.0009349641    1.574    0.365
       125 -10.5088    107.4726    111.8808   8.9424064653e+01   3.8712070009e+01    0.5323491     0.365755 -82.74  0.002166945    2.254    0.556
       126 -11.0622    101.9460    109.8016   9.0486515423e+01   4.0214039146e+01    0.6475943    0.5180262   6.17  0.003170351    1.550    0.355
       127  -9.8252     48.7313    112.3764   1.0719274292e+02   4.7379588393e+01    0.2411986    0.2036596 -75.25  0.001200207    1.117    0.105
       128 -10.7974    170.3719    110.5321   7.3017308733e+01   2.5533964954e+01    0.4534737     0.374281 -28.31  0.001415096    1.226    0.185
       129 -11.3942     79.7793    108.5124   9.6796453485e+01   4.4231984459e+01    0.7037023    0.4116223  39.62  0.001863072    1.846    0.458
       130 -10.4915     86.0065    103.9669   9.3771356315e+01   4.4322722731e+01    0.4540409    0.2818847 -23.07  0.001395443    2.358    0.576
       131 -10.0304    120.3548    109.6330   8.5229265863e+01   3.6714550314e+01    0.3179196    0.1868575 -44.29   0.00132161    1.649    0.394
       132 -10.5057    175.8652    107.4763   7.1004834988e+01   2.4874931306e+01    0.4522885    0.2216387 -34.92  0.001681481    2.088    0.521
       133  -9.4987     58.4714    108.4382   1.0338541230e+02   4.7194672575e+01    0.2776254     0.124353 -60.38 0.0006342194    1.995    0.499
       134 -10.2455    157.4125    106.5713   7.4918988885e+01   2.9314706735e+01    0.3991902    0.2906721 -12.65  0.001716936    1.777    0.437
       135 -10.6642    143.6359    106.0975   7.8141630141e+01   3.2527741464e+01     0.397311    0.3136963  78.91  0.001397756    1.642    0.391
       136 -11.6199    145.5623    100.3808   7.6075569634e+01   3.3296115418e+01    0.5850783    0.4908085 -21.74  0.001948398    1.268    0.211
       137  -9.3363     45.6349    105.8813   1.0690241208e+02   4.9281655668e+01    0.1865505    0.1453679 -63.33 0.0003745871    1.108    0.098
       138  -8.6145    167.3304    105.2671   7.2286024375e+01   2.7292290785e+01    0.1573049    0.1230474  13.56 0.0006973409    1.579    0.367
       139  -9.8246    181.4904    103.5986   6.8782123672e+01   2.4321672279e+01    0.4036954    0.2618027 -86.30  0.001429257    3.029    0.670
       140  -9.9083     57.4894    102.9409   1.0250926658e+02   4.8634200422e+01    0.3265601    0.2132974 -65.73   0.00134435    1.467    0.318
       141 -10.2988     90.0271    104.4935   9.2676736950e+01   4.3535053609e+01    0.4482004     0.312798  14.75  0.002013555    1.886    0.470
       142  -9.9038     50.5807    101.6993   1.0446360332e+02   4.9743143410e+01    0.3680369    0.2488989 -26.40  0.001882189    1.788    0.441
       143 -10.5818     52.0112     95.6343   1.0265722556e+02   5.1018933914e+01    0.6382743    0.2944105 -72.12  0.002359657    3.096    0.677
       144  -9.6483     48.3143     90.6700   1.0275559778e+02   5.2599422535e+01    0.2368977    0.1845814 -44.28 0.0009294081    1.141    0.124
       145  -9.4633    120.4879    101.4953   8.2985402820e+01   3.8499603512e+01    0.1558459    0.1482121 -22.00 -5.335675e-05    1.042    0.041
       146 -11.5183     67.2095     95.4836   9.7600327810e+01   4.9132931474e+01    0.4952781    0.4538517 -14.85  0.001626869    1.158    0.136
       147 -10.1790    210.6908     97.6493   6.1668373070e+01   1.8675733056e+01    0.3754085    0.3014916  21.03  0.001888252    1.483    0.326
       148 -11.0768     89.8389     89.4540   8.8667470764e+01   4.6997096777e+01    0.7991613    0.4180211 -30.71  0.003031645    2.493    0.599
       149 -10.1481     77.3322     96.9444   9.4694329321e+01   4.7325625609e+01    0.4888055    0.3064498  47.55  0.002277081    1.857    0.462
       150 -10.5443     82.9710     93.2898   9.1921135148e+01   4.7281329747e+01    0.4357737    0.3216098  26.21  0.001600351    1.512    0.339
       151 -10.6138     76.4521     92.9851   9.3938569281e+01   4.8372565124e+01    0.5598831    0.3810923  -5.38  0.001958027    2.123    0.529
       152 -10.3452     57.2326     97.6198   1.0138901448e+02   4.9929519166e+01    0.2400536    0.2076264  20.60 0.0008706415    1.318    0.241
       153  -9.8156    141.2868     96.0187   7.5909653256e+01   3.5166487506e+01    0.4678759    0.1962175  40.37  0.001571208    2.640    0.621
       154 -10.2159    117.2206     93.5750   8.1652287016e+01   4.0895342296e+01     0.411093    0.3361921  13.68  0.002007034    1.406    0.289
       155 -10.5902    121.6343     89.0580   7.9085809299e+01   4.0930333237e+01      0.51828     0.335365  41.70  0.001908364    1.590    0.371
       156 -10.9134    120.5726     85.0291   7.8168393781e+01   4.1990523565e+01    0.4284758    0.3381636  50.34  0.001557881    1.340    0.254
       157 -10.3828    125.9874     93.4951   7.9195877900e+01   3.9068844123e+01    0.3881596     0.332601  18.63  0.001135883    1.271    0.213
       158 -10.1702    122.4686     93.5291   8.0170970335e+01   3.9810975533e+01    0.3174249    0.2589509 -40.04  0.000743928    1.189    0.159
       159 -11.3017    102.2659     89.9579   8.4972020214e+01   4.4636118097e+01     1.143068    0.7813286 -16.96  0.004970212    1.946    0.486
       160  -9.3850    102.7622     80.2659   8.1899537028e+01   4.6604200744e+01    0.4277785    0.2423167 -21.39  0.001201728    2.711    0.631
       161 -10.7781    113.6630     83.4562   7.9650697386e+01   4.3762269814e+01    0.6036743    0.3825863 -34.15  0.002569597    1.604    0.377
       162  -9.8707    103.3995     75.7611   8.0284704351e+01   4.7402351219e+01    0.3232327    0.2822454  21.80 0.0007289108    1.174    0.148
       163 -10.3415    109.4638     80.4665   7.9952386481e+01   4.5234860844e+01    0.2955375    0.2523092 -13.98 0.0005692345    1.220    0.180
       164 -10.1040    107.3037     77.7106   7.9727861739e+01   4.6231997811e+01     0.269023    0.2293835 -71.36 0.0002824743    1.445    0.308
       165 -10.7870    152.1800     91.2419   7.1857141570e+01   3.3623456733e+01    0.5133577    0.4306231  74.04  0.002233939    1.384    0.277
       166  -9.3469    137.9874     93.0741   7.5899850388e+01   3.6516501909e+01    0.2650403    0.1956248   6.78  0.001134384    1.846    0.458
       167 -10.5707    199.9257     87.7958   6.0997448532e+01   2.2889018647e+01    0.3053069     0.247146 -53.67 0.0003957554    1.253    0.202
       168 -10.6792     64.8211     74.9753   9.2818390583e+01   5.4087141201e+01    0.4445113    0.3234954  -6.22 0.0008221001    1.640    0.390
       169  -9.9924     66.6169     88.6561   9.6039207782e+01   5.0791370372e+01    0.3668242    0.2320103 -23.09  0.001280739    2.037    0.509
       170 -10.3674     67.2909     81.8519   9.3947772969e+01   5.2231617820e+01     0.462472    0.3114686 -32.05  0.002316656    1.509    0.337
       171 -10.8332     79.4480     82.9787   9.0159939797e+01   5.0153778012e+01    0.5963067    0.5095696 -85.68  0.002833122    1.498    0.332
       172 -11.6113     73.5483     77.7973   9.0617106608e+01   5.2203239479e+01    0.6887411     0.478944 -16.43  0.003351947    1.740    0.425
       173 -10.4834    183.8891     86.0910   6.3529486014e+01   2.7014042553e+01    0.6956385    0.3224653 -46.49  0.002559305    2.249    0.555
       174 -10.4597    165.5691     83.6002   6.6593914588e+01   3.1895206855e+01    0.4391129    0.3267177 -50.69   0.00135928    1.403    0.287
       175 -11.3324    143.0587     84.0532   7.1948510203e+01   3.7161941762e+01    0.3755459    0.3538694  40.19 0.0007021561    1.071    0.067
       176 -10.4694    127.3716     82.4373   7.5509559071e+01   4.1040246444e+01    0.4837148    0.2787527 -45.53  0.001872458    1.748    0.428
       177  -9.7781    127.4298     77.2339   7.3874775295e+01   4.2050385073e+01    0.2958941    0.2508658 -80.26  0.000958139    1.483    0.326
       178 -12.8541     52.3325     73.5550   9.6913796651e+01   5.6015210126e+01     0.633686    0.3545495 -62.67 0.0007235048    1.991    0.498
       179 -11.3609     57.8996     77.6527   9.6056998892e+01   5.4425190021e+01    0.6445848    0.3640687 -72.37 0.0004195546    2.915    0.657
       180 -11.3057     47.0081     74.4783   9.9129383091e+01   5.6426550800e+01     0.347194     0.224318 -57.11  0.001841783    1.422    0.297
       181 -10.3460    233.2188     77.6768   5.3155564429e+01   1.6968655940e+01    0.3726379    0.2645157 -30.19   0.00152746    1.361    0.265
       182  -9.3711    230.0353     73.5282   5.2580305563e+01   1.8320752909e+01    0.2030094    0.1405478  65.64  0.001025638    1.585    0.369
       183 -11.8344      1.9527     71.3601   1.1521814875e+02   6.0604057216e+01    0.6879269    0.1457253 -65.91  0.002629105    3.246    0.692
       184 -12.3629      6.4255     62.4795   1.1174809682e+02   6.2339429127e+01    0.6922727    0.3860971 -33.40  0.003764974    1.715    0.417
       185  -9.0988    170.5282     78.0142   6.3921069189e+01   3.1703340705e+01    0.2319387    0.1499514 -36.20  0.000559964    1.524    0.344
       186 -10.7418     91.0910     47.9403   7.4495168463e+01   5.4957598829e+01     0.481438    0.2444842 -27.14  0.001154738    2.153    0.536
       187 -10.1597     98.9586     61.9518   7.7055350794e+01   5.0953796214e+01    0.4361052    0.2825286  -8.11  0.001820277    2.166    0.538
       188  -9.8496     94.6542     76.4956   8.3237200411e+01   4.8919361665e+01    0.5176476    0.3230906  35.88    0.0021571    1.693    0.409
       189  -9.5349    175.0163    246.4987   9.9001953412e+01  -4.3098504119e-01    0.1965107    0.0982282  38.22 0.0008002144    1.620    0.383
       190 -11.7414     85.8422     73.7527   8.5220624121e+01   5.1060926700e+01    0.6844947    0.5569948  44.07  0.003035153    1.364    0.267
       191 -11.0285     79.6114     67.6252   8.5334252209e+01   5.3368784209e+01    0.5655329    0.3931695  44.00  0.002558333    1.617    0.382
       192 -10.6221     84.0552     64.3265   8.2717012892e+01   5.3268917524e+01    0.3868877    0.2317546 -29.27  0.001057911    1.750    0.429
       193 -11.1089     91.3468     62.5859   7.9701605891e+01   5.2291443138e+01    0.5057786     0.358114  54.13  0.001825832    1.729    0.421
       194 -11.5605     90.2445     57.7807   7.8376923821e+01   5.3392721432e+01     0.625201    0.4869024  42.70   0.00293805    1.366    0.268
       195 -11.8774     13.9924     74.6665   1.1142497076e+02   5.9216358760e+01    0.4534187    0.3307166 -51.69  0.001509616    1.085    0.079
       196 -10.3121     14.5042     67.3456   1.0966805718e+02   6.0813960032e+01    0.3249421    0.2659765 -13.38  0.002219827    1.357    0.263
       197  -9.4729    139.4531     77.4655   7.0834000475e+01   3.9264142588e+01    0.1526448    0.1502164 -26.86 4.018962e-05    1.030    0.029
       198 -12.2894    186.1417     69.8593   5.8558441989e+01   2.9268209795e+01     1.112612    0.6457884 -38.94   0.00386421    1.661    0.398
       199  -9.7023    192.4582     65.7605   5.6303371294e+01   2.8383045868e+01     0.287508    0.2212337 -76.56 0.0008443368    1.504    0.335
       200 -10.8932     58.6016     62.8574   9.1329134300e+01   5.7490440964e+01    0.6304439    0.5489115  68.87  0.003706381    1.607    0.378
       201 -11.8944     21.4384     47.0386   1.0143029669e+02   6.4626756843e+01    0.5444717    0.4260337  -4.73   0.00247377    1.336    0.251
       202 -10.6090     22.1618     36.9027   9.7746377964e+01   6.6545405071e+01    0.5892227    0.3122195  47.20  0.002759228    3.597    0.722
       203 -11.8894     40.7796     70.4638   1.0036011340e+02   5.7973253561e+01    0.9633687    0.2603235 -48.21  0.003583227    2.855    0.650
       204 -11.5209     32.3259     72.0234   1.0396885450e+02   5.8434661882e+01    0.5171551    0.2751586  24.37  0.001827016    2.186    0.543
       205 -11.1990     41.0529     57.1108   9.6327519881e+01   6.0778232479e+01    0.4033787    0.3321802  79.91  0.001492686    1.875    0.467
       206 -11.4773     33.7355     58.1187   9.9602053835e+01   6.1303632200e+01    0.5950188    0.3103643 -10.21 0.0007847912    2.923    0.658
       207 -11.8916     28.1264     54.0801   1.0070877548e+02   6.2646520674e+01    0.8700176    0.5705838 -16.76  0.005054375    1.622    0.384
       208 -11.6277     50.8257     61.0694   9.3721751444e+01   5.8850388014e+01    0.3444068    0.3353863  69.73  0.001008736    1.327    0.247
       209 -11.3272     46.1589     58.6667   9.4781627945e+01   5.9894687901e+01    0.4876405    0.2511919 -44.22  0.001450859    1.635    0.388
       210  -9.3973    199.0890    244.5123   9.4247913090e+01  -3.8374221653e+00    0.1912604   0.09773764  37.43  0.001039278    1.621    0.383
       211  -9.6973    124.9630     73.2363   7.3267750262e+01   4.3365966794e+01    0.2798617    0.1900128  50.36 0.0009711005    1.522    0.343
       212 -11.6783    122.7416     68.5179   7.2337514134e+01   4.4742568228e+01     0.600791    0.4224313  36.21  0.002558985    1.471    0.320
       213 -10.6333     20.5823     55.4395   1.0425525191e+02   6.2965280983e+01    0.5215604    0.3818253  83.84  0.002734872    2.137    0.532
       214  -9.8943    162.2906     70.9618   6.3559972641e+01   3.4960449246e+01    0.2945848    0.2568888 -89.54  0.001156393    1.290    0.225
       215  -9.9507    172.2019     68.6049   6.0827415006e+01   3.2918096922e+01    0.3233858    0.2351596  35.19 0.0009976855    1.549    0.355
       216 -10.0141    172.1720     65.2885   5.9853530561e+01   3.3475944740e+01    0.4781736    0.3678714 -66.08  0.002293499    1.502    0.334
       217 -11.4577    219.9166     66.3012   5.2187767082e+01   2.1737029659e+01     0.636215     0.389894  55.86   0.00264515    1.717    0.418
       218  -9.4447    207.7761     68.5799   5.4580946792e+01   2.4231221791e+01    0.2823451    0.1336676  54.43  0.001140227    2.156    0.536
       219 -10.6000     21.2618     65.5597   1.0661869432e+02   6.0748767607e+01    0.2407787    0.2132599  76.59 0.0002102091    1.456    0.313
       220  -9.5686     25.8434     65.4791   1.0480056449e+02   6.0417491864e+01    0.1661016     0.138914 -35.87 0.0004955772    1.094    0.086
       221  -9.6859     53.0898     66.0282   9.4407992856e+01   5.7540275601e+01    0.2578045    0.1816021  42.58  0.001398158    1.736    0.424
       222  -9.3624    202.1178     64.5227   5.4383410884e+01   2.6226719566e+01    0.3301342    0.1804552  64.44 0.0008946402    1.951    0.488
       223  -9.8449    197.9929     62.7070   5.4546943458e+01   2.7511145811e+01    0.3372299     0.254714 -65.48  0.001345428    1.444    0.307
       224 -10.0365    105.8093     63.6215   7.5534851721e+01   4.9268297989e+01    0.2954095     0.209555 -34.01  0.001434608    1.371    0.271
       225 -11.3957    234.2077     61.0074   4.8970685525e+01   1.9290142286e+01      0.53433    0.3893274  63.26   0.00223509    1.471    0.320
       226 -10.2305    159.1339     62.2111   6.1555682753e+01   3.7215236615e+01    0.5195369    0.2297015  45.84  0.001904208    2.332    0.571
       227 -12.1911    120.5831     57.6946   6.9280220614e+01   4.7144277500e+01     1.883796     1.389135 -80.49  0.008391111    2.159    0.537
       228 -12.3924    117.6430     43.5294   6.5048662356e+01   5.0068407215e+01    0.7325031    0.5384475  64.91  0.002774975    1.583    0.368
       229 -11.4636    127.8840    241.4841   1.0731532191e+02   7.6714717007e+00     0.354215    0.3250483  87.92  0.002540303    1.243    0.195
       230  -9.5100    148.1653     60.7734   6.3489021260e+01   4.0145968301e+01    0.4524046    0.1312878  57.11  0.001297959    3.774    0.735
       231 -10.7416    136.0241     55.2528   6.4508816288e+01   4.3973964102e+01    0.8972974    0.4355199 -35.95   0.00358209    2.060    0.514
       232 -11.5485    145.7250     47.1513   5.9595808802e+01   4.2873474666e+01     1.115895    0.4349463 -24.59   0.00370217    3.266    0.694
       233 -10.2962    106.1920     57.8067   7.3401410114e+01   5.0238336802e+01     0.655646    0.2849424 -51.94  0.002135336    3.620    0.724
       234 -10.1806    102.7249     58.6772   7.4750736184e+01   5.0796767217e+01    0.2303703    0.2231992  -1.04 0.0002185799    1.091    0.084
       235  -9.6214     67.9910    240.4802   1.1848939747e+02   1.6433357005e+01    0.1715997   0.09475532  42.27 0.0008345305    1.560    0.359
       236  -8.7450    221.4899    239.5072   8.9407353789e+01  -6.5102998476e+00     0.120903    0.0932175  15.12 3.264833e-05    1.008    0.008
       237 -10.0067    157.2017     20.3993   4.8669715250e+01   4.3421700027e+01    0.4067378    0.1641721  55.46  0.001642368    2.161    0.537
       238 -11.1259    155.8018     41.9863   5.5849061411e+01   4.1108609876e+01    0.5899171    0.4718155  -2.11  0.002886785    1.456    0.313
       239 -11.7104    153.0782     36.0116   5.4441799834e+01   4.2592838212e+01    0.3785614    0.3289483  52.42 0.0003957846    1.094    0.086
       240 -10.4532    155.4872     49.9141   5.8447700941e+01   4.0047722369e+01    0.3546477    0.2779191 -11.61 0.0009932468    1.450    0.310
       241 -11.3904    160.0107     29.9445   5.1234832745e+01   4.1615374317e+01    0.4455934    0.3985557  -3.06  0.001585848    1.237    0.192
       242 -12.2137    164.2205     27.7131   4.9827248423e+01   4.0821834464e+01     0.327662    0.2859854 -22.73 0.0003075365    1.239    0.193
       243  -9.7678    187.8579     55.5975   5.4217993729e+01   3.1096070159e+01    0.2457633    0.2348381  13.60 0.0006506369    1.151    0.131
       244 -10.2199     66.9981     54.5302   8.5345891826e+01   5.7937352010e+01    0.3453704    0.1844687 -47.07  0.001013759    1.838    0.456
       245  -9.9697     68.2507     32.9552   7.6487743355e+01   6.1459605569e+01    0.4249848    0.3297872  35.63  0.002208633    1.349    0.259
       246  -9.3301     65.6866     28.4450   7.5529896430e+01   6.2562933788e+01    0.2381815    0.1221499  39.56 0.0007390814    1.957    0.489
       247 -10.7007    150.3374    238.1172   1.0256037426e+02   4.7010787895e+00    0.2217828    0.2007634 -60.84  0.001534545    1.355    0.262
       248 -11.1635     60.6812     35.9830   8.0656957831e+01   6.2180384811e+01    0.4007269    0.2359485 -31.03  0.001299682    1.555    0.357
       249 -11.4110     56.7349     30.8569   8.0086317527e+01   6.3596087874e+01    0.5083086    0.2893211  19.97  0.001569723    1.985    0.496
       250 -11.2404     47.6943     30.7031   8.3792477083e+01   6.4890504806e+01    0.5762948    0.2514696  26.81   0.00216235    2.595    0.615
       251  -9.1502      6.9432     54.9699   1.0982480075e+02   6.3923828079e+01    0.1450752    0.1067202 -50.39 0.0004166428    1.031    0.030
       252 -10.8132    244.9620     51.0308   4.5350270900e+01   1.8361808041e+01    0.4321284    0.2376409  89.47  0.001951155    2.453    0.592
       253 -10.6309    240.4947     50.3712   4.5686973576e+01   1.9424271673e+01    0.3537293    0.2815139 -23.40  0.001374091    1.390    0.281
       254 -10.0857    205.5179     52.4948   5.0641444532e+01   2.7216710212e+01    0.7572836    0.1282677  55.73  0.002091362    4.821    0.793
       255 -10.5608    201.5305     48.5065   5.0141351014e+01   2.8758561679e+01     0.464509    0.2344372 -37.28  0.002011257    1.873    0.466
       256 -10.9312    200.7200     45.4064   4.9417307821e+01   2.9391597743e+01    0.5577295    0.3271458  77.67  0.002499026    1.922    0.480
       257  -9.6162    176.8885     43.5001   5.2529053479e+01   3.5591804282e+01    0.3066223    0.1816547  68.49  0.001329958    1.733    0.423
       258  -9.8606      2.3405     48.5417   1.1020887697e+02   6.5500502571e+01    0.2259974    0.1861277  -0.10  0.001636611    1.426    0.299
       259  -9.3668    161.6020     47.7472   5.6555762105e+01   3.8837921569e+01    0.2452459    0.1791055 -88.81 0.0003999087    1.698    0.411
       260 -10.2072     13.1637     47.1309   1.0509868475e+02   6.5192257500e+01     0.409645    0.1509691 -34.40  0.001837937    2.690    0.628
       261 -10.1332     17.9011     41.7288   1.0133612372e+02   6.5948808250e+01    0.2893764    0.1724106 -11.71  0.001667196    1.844    0.458
       262 -10.9903    173.6996     47.8752   5.4376952716e+01   3.5777648911e+01    0.5511203    0.4321519  89.24  0.002789822    1.416    0.294
       263 -10.6524    138.8874     44.2389   6.0123907084e+01   4.4968589135e+01       0.5768    0.2411816  40.86  0.002042927    2.728    0.633
       264  -9.2551    132.4805     45.5036   6.2035705634e+01   4.6325193477e+01    0.2862439    0.1353401  51.83 0.0009055596    1.999    0.500
       265 -10.0171    162.6471     43.8806   5.5149512829e+01   3.9126951097e+01    0.3480744    0.1971357  50.08  0.001523269    1.711    0.416
       266 -11.1628     95.2970     41.5090   7.0702255448e+01   5.5164157196e+01    0.8006764     0.375346  53.21  0.003263468    2.450    0.592
       267 -10.9889    198.5567    232.6625   9.2522819364e+01  -2.1451266618e+00    0.3807566    0.2961526  25.38  0.002476541    1.056    0.053
       268  -9.6168     15.0832    233.8482   1.2736729307e+02   2.3749026012e+01    0.1813985     0.120605  87.14  0.001026764    1.236    0.191
       269 -10.6104    247.3560    231.6458   8.3578372878e+01  -9.1980653118e+00    0.1819101    0.1729703  19.70 0.0009524092    1.647    0.393
       270  -9.6571     23.4348    231.6750   1.2582674256e+02   2.3301905954e+01    0.1874871   0.09490105  50.90 0.0007681143    1.569    0.363
       271  -9.8455    167.7563    237.9982   9.9184521766e+01   1.9485456178e+00    0.1413625    0.1064368 -42.02 0.0006651768    1.589    0.371
       272  -9.7084    108.3919    230.2042   1.0979674236e+02   1.2607549419e+01    0.1583619    0.1129948 -83.28 0.0005800221    1.632    0.387
       273 -10.2213    189.0470     42.1389   5.0212557659e+01   3.2728510236e+01    0.3430618    0.1868764 -35.69 0.0009725773    1.796    0.443
       274 -10.5655     81.3922     39.9620   7.4641918459e+01   5.8075422717e+01    0.6723369    0.3445863  38.54  0.003035057    1.948    0.487
       275 -10.8057     77.8484     34.5723   7.3687434896e+01   5.9552410984e+01    0.3967723    0.3206736  36.50  0.001328264    1.272    0.214
       276 -11.0542     82.0806     31.7417   7.1063518405e+01   5.9191466865e+01    0.6936724    0.4417657  35.51  0.001851636    1.511    0.338
       277 -10.3893    231.3993     39.3780   4.4070520580e+01   2.2945349227e+01    0.4046565    0.2279508 -57.57  0.001912115    1.790    0.441
       278  -9.5688    193.8770     39.0002   4.8628749160e+01   3.1948056891e+01    0.2028482    0.1926715 -77.30 0.0003182407    1.026    0.025
       279 -10.9276    176.9812     36.1863   5.0347621717e+01   3.6547614202e+01    0.4204783    0.3490419  17.27  0.001685663    1.441    0.306
       280 -10.1885    171.7499     32.9465   5.0211127358e+01   3.8281031840e+01    0.3352945    0.1941517  87.39  0.001390816    2.278    0.561
       281  -9.6362    133.4936     37.2238   5.8916912962e+01   4.7252219639e+01    0.3871661    0.2518249 -64.76  0.001672424    2.291    0.563
       282  -9.6537    206.9275     37.0342   4.6349527946e+01   2.9004680865e+01    0.2124375    0.1968269 -72.36 0.0007530451    1.021    0.020
       283 -10.8747    138.0154     33.5869   5.6660574980e+01   4.6633993303e+01    0.5495498    0.3331677 -55.82  0.001967075    2.197    0.545
       284  -9.6457     94.9003     35.9790   6.8659839868e+01   5.6072349196e+01    0.2381482    0.1843755  79.35  0.001196361    2.022    0.505
       285 -11.3899    105.9691     20.3920   5.9275003617e+01   5.5724369005e+01    0.3649776    0.2744027 -39.06  0.000545686    1.514    0.339
       286 -12.2976    106.0329     32.7917   6.4153359663e+01   5.4172076559e+01    0.5355555     0.322224  16.17  0.001282185    2.215    0.549
       287 -12.3669    113.1653     25.1185   5.9297469915e+01   5.3558265686e+01    0.8644972    0.3887623  54.26  0.003427065    2.057    0.514
       288  -9.4867    216.2372     32.7982   4.4136583925e+01   2.7316708321e+01    0.3150159    0.1927807   5.71    0.0012849    3.208    0.688
       289 -10.8754    198.2975     29.0363   4.5308268034e+01   3.2123358231e+01    0.4844526    0.4045284 -18.87  0.002263159    1.370    0.270
       290  -9.2370    199.6944     24.6927   4.3968982288e+01   3.2301139312e+01    0.2180988    0.1583177  50.30 0.0006696163    1.477    0.323
       291 -10.0873    239.8994     32.0576   4.1476115547e+01   2.1986834612e+01    0.4060158    0.2888389  56.21  0.002329701    1.588    0.370
       292 -10.6660    189.1947     28.1897   4.6261526812e+01   3.4481442744e+01    0.4996934     0.325234   8.95  0.002250394    2.405    0.584
       293  -9.0833    204.4586     31.1916   4.5116737147e+01   3.0349359600e+01    0.1968323    0.1148128 -45.16 0.0008285852    1.641    0.390
       294 -11.1760    157.4447     55.2987   5.9751629075e+01   3.8739736731e+01    0.6246108    0.4783944 -77.09   0.00239551    1.633    0.387
       295 -12.1151    124.9823     28.0090   5.7552670712e+01   5.0466690112e+01    0.7007124    0.4222415  51.17  0.002382659    1.518    0.341
       296  -9.4448    181.3256    228.2986   9.5124458549e+01   1.2373609673e+00    0.1282713   0.08881231  10.73 0.0007026509    1.632    0.387
       297  -9.4614    221.6842     29.7771   4.2780178394e+01   2.6413484033e+01    0.1935762    0.1636083 -20.09 0.0006563794    1.379    0.275
       298 -10.2628    234.1545    223.0768   8.4409135373e+01  -6.2634783860e+00    0.1968912     0.137131   7.37  0.000771907    1.274    0.215
       299 -10.7805    177.0811     29.8345   4.8455146282e+01   3.7320633935e+01    0.4579639    0.2238944  55.08   0.00181887    1.916    0.478
       300 -11.4163    182.9612     25.2810   4.6285268344e+01   3.6385433868e+01    0.5900014    0.3152771  51.04  0.002475568    1.875    0.467
       301  -9.3616     99.7254     30.3980   6.4997398235e+01   5.5847124789e+01    0.2311777    0.1626639  48.94 0.0007216889    1.398    0.285
       302  -9.5058     98.0374     26.6595   6.3980101600e+01   5.6689983823e+01    0.2874809    0.2257004 -34.89  0.001006908    1.388    0.279
       303 -10.1046    230.6228     26.9732   4.1187079452e+01   2.4697920767e+01    0.3237171    0.1940546 -40.62  0.001161898    1.513    0.339
       304  -9.9635    250.5613     25.7717   3.9098584954e+01   2.0455860796e+01    0.3041784    0.1008143 -34.84  0.001202813    2.565    0.610
       305  -8.6400     41.7162     27.2481   8.4931068074e+01   6.6220760981e+01    0.1002119   0.09751827 -18.98 0.0003119415    1.464    0.317
       306 -10.8121    214.6806     22.9817   4.1835771637e+01   2.8884341506e+01    0.4110225    0.3384704  -3.05  0.002393499    1.578    0.366
       307 -10.5749    211.3580     18.8338   4.1140612848e+01   3.0154276371e+01    0.2189412    0.1966982  76.87 0.0003058286    1.126    0.112
       308  -8.6988    206.2668     25.6511   4.3447774594e+01   3.0585993209e+01    0.1432767   0.09034912 -59.83 0.0003519984    1.617    0.382
       309  -9.1854     45.0693     24.5565   8.2260763573e+01   6.6216479392e+01    0.1879234    0.1412062 -25.05  0.000508719    1.154    0.133
       310  -9.5885    169.0401     23.7994   4.7863079664e+01   4.0060615867e+01    0.2684762    0.1729955  47.68  0.001242078    1.556    0.357
       311 -10.3853     86.0499     23.9405   6.6479248081e+01   5.9484412894e+01    0.1957371    0.1668794  13.68            0    1.023    0.023
       312  -8.6253    209.3241    223.3445   8.8982720084e+01  -2.5205896023e+00     0.132642   0.08548565   6.05 0.0007050413    1.737    0.424
       313  -9.6393     10.1355    217.8360   1.2740574914e+02   2.7279801212e+01    0.1381793    0.1104619 -82.68 0.0007728056    1.318    0.241
       314 -10.3955    164.9778    212.3371   9.5847829680e+01   6.5533140792e+00     0.266871    0.1753043  51.84     0.001393    1.616    0.381
       315  -9.6794     59.5135     23.9771   7.5954544762e+01   6.4206662456e+01    0.1805469    0.1386975 -18.97 0.0004356212    1.160    0.138
       316 -10.1378     60.4808     20.0941   7.3806030427e+01   6.4592902267e+01    0.2823953    0.2186673 -48.76  0.001146312    1.831    0.454
       317  -9.3135    204.5252    208.5068   8.7321721295e+01   4.4654174995e-01    0.1308574    0.1128041  15.59  2.19038e-05    1.040    0.039
       318  -9.5674    153.0945    207.8589   9.7585012395e+01   9.3952983541e+00    0.2072261    0.1737802  58.82 0.0009026173    1.272    0.214
       319  -9.7387     61.0252    206.9135   1.1687669584e+02   2.3865557950e+01    0.1885218    0.1499826  69.96 0.0004820437    1.040    0.039
       320 -10.3737     38.5089     21.9643   8.4048362185e+01   6.7454342206e+01    0.2841193    0.1741527 -22.64  0.001163052    1.452    0.311
       321  -9.7103    238.6724    204.8960   8.0343150587e+01  -4.4967002516e+00     0.285067    0.1394048 -38.43  0.001417612    2.156    0.536
       322  -9.2630    223.5064     22.0488   4.0706141758e+01   2.6922874644e+01    0.2024708    0.1581062  83.15 0.0005743051    1.217    0.178
       323  -9.3053    243.6350    205.6886   7.9618027556e+01  -5.3560979136e+00    0.1341402   0.08190444   5.62 0.0007039125    1.758    0.431
       324  -9.7476     74.1474     19.5345   6.8503788937e+01   6.2305695785e+01    0.2629252    0.1827529  30.21 0.0007861293    1.320    0.242
       325 -10.2251      4.5773    204.2111   1.2768982317e+02   3.0501493535e+01    0.3017411   0.07747148 -67.28  0.001380774    3.254    0.693
       326 -10.8319      6.2078    197.4579   1.2701258739e+02   3.1743685728e+01    0.3869047    0.1157003 -81.42  0.001757952    2.906    0.656
       327 -10.3757    245.8334    200.8685   7.8334862261e+01  -5.0267288027e+00     0.201203    0.1450418   2.95 0.0007563209    1.234    0.190
       328  -8.5968      1.3054    200.3102   1.2808731156e+02   3.1578557731e+01   0.09871211   0.07370192 -62.16 0.0003819602    1.613    0.380
       329 -10.1310    233.7325    197.2286   7.9782344847e+01  -2.6357744576e+00    0.2844854    0.1877106 -27.60  0.001058999    1.438    0.305
       330  -8.7403    195.3270    199.6623   8.7519399583e+01   3.4230025756e+00    0.1268956    0.1089518  76.71 0.0007051696    1.727    0.421
       331  -8.9765     83.6126    195.8142   1.1086913733e+02   2.3133647216e+01    0.1744765    0.1156703 -82.50 0.0005362636    1.585    0.369
       332  -9.8250    169.7403    191.5999   9.1290530823e+01   9.4120044377e+00    0.3491974    0.1967125  30.71  0.001158562    1.835    0.455
       333 -12.0893      4.8382    184.2773   1.2649362374e+02   3.4640414030e+01    0.5647479    0.3955034  73.73  0.003004766    1.142    0.124
       334  -9.2779      6.2885     16.4245   9.7899839466e+01   7.1414349602e+01    0.1751067   0.09844075   6.20  0.000635661    1.881    0.468
       335  -9.8310    239.9383    184.6353   7.6225216204e+01  -1.7749211677e+00    0.2165327    0.1598461 -12.20 0.0006518266    1.222    0.182
       336  -9.6039    250.2769    178.5804   7.3228715860e+01  -2.5369653779e+00    0.3524853    0.1016471 -30.69  0.001216239    3.672    0.728
       337 -10.1414     52.0563    173.7012   1.1535205487e+02   3.2271265006e+01    0.3955579    0.1867016 -89.15  0.001560704    2.674    0.626
       338  -8.9659    230.4641    175.4935   7.6074237258e+01   1.2191853659e+00    0.1368534    0.1165605  -3.84 7.284205e-05    1.009    0.009
       339  -9.5744    247.7170    173.8145   7.2697714093e+01  -1.4162914802e+00    0.4711851    0.1555315  30.27  0.001411728    5.452    0.817
       340  -9.5495     27.9719    175.9740   1.2102088055e+02   3.4374401227e+01    0.2056185    0.1165202  68.07  0.001136026    1.687    0.407
       341  -9.7973     39.5058    173.5050   1.1821044570e+02   3.3743154205e+01    0.2060021    0.1683354  83.23 0.0008099451    1.024    0.023
       342 -10.5582     35.8212    170.0322   1.1869894818e+02   3.4929583943e+01    0.3776017    0.2050465 -87.79  0.001410064    1.756    0.431
       343 -10.4463      8.6954    157.3823   1.2375262059e+02   4.0289863677e+01    0.3054268    0.1601186 -69.83 0.0008083159    1.546    0.353
       344 -11.6726      9.4928    166.9961   1.2433189364e+02   3.8052046668e+01    0.4897524    0.3493749  81.24  0.002254569    1.137    0.121
       345 -11.3786     13.7246    159.4726   1.2277756387e+02   3.9411810569e+01    0.4419554    0.2306282 -74.86  0.001585384    1.536    0.349
       346  -9.3899    198.0156    167.7357   8.0681251510e+01   8.4749605509e+00    0.2012506      0.18017   9.97 0.0007129385    1.043    0.041
       347  -8.7752    156.5061    166.4345   8.9347448975e+01   1.6851765069e+01    0.1464867    0.1400872  30.53 0.0002263271    1.010    0.010
       348 -10.2096     18.6892    164.9873   1.2212423326e+02   3.7729938424e+01    0.2527266     0.234309 -38.74  0.001834448    1.459    0.314
       349 -10.1091    205.1511    163.0458   7.8253546526e+01   7.9480546696e+00    0.2922461    0.2316379  34.81 0.0006668207    1.252    0.201
       350  -9.4017    188.7937    164.0358   8.1791429182e+01   1.0953524518e+01     0.242437     0.162456 -11.33 0.0009607823    1.964    0.491
       351 -10.5128     28.6231    160.2150   1.1938009731e+02   3.7918476978e+01    0.2711473    0.1363137 -67.80    0.0014196    1.666    0.400
       352  -9.4641     79.1547    160.2162   1.0697751314e+02   3.1850225917e+01    0.1999221    0.1526026  76.65 0.0007151186    1.356    0.263
       353  -9.3348    215.4000    158.2867   7.5233575597e+01   6.8263398765e+00    0.2755781    0.1297285 -32.58  0.001120449    2.123    0.529
       354  -8.9066    223.6797    156.6900   7.3336558616e+01   5.5379896868e+00    0.1458351    0.1030177   2.54 0.0004346911    1.645    0.392
       355 -10.7896    104.5449    154.1785   9.9500122311e+01   2.9260621649e+01    0.4085811    0.3269456 -56.68  0.002148311    1.227    0.185
       356  -9.9619     21.9338    155.5880   1.2050489378e+02   3.9609680170e+01    0.2365801    0.1903069  -0.19  0.001525676    1.820    0.451
       357 -12.1872     22.5277    149.4793   1.1974525868e+02   4.0986227101e+01    0.5467122    0.3051517 -38.34  0.001806175    2.542    0.607
       358 -10.5597     15.6794    147.8782   1.2125843741e+02   4.1933970706e+01    0.2771045    0.2299152  58.55 0.0009833403    1.279    0.218
       359 -11.9479     12.9689    138.6264   1.2101030181e+02   4.4311452808e+01      0.80389    0.3950498 -83.56  0.004151368    1.787    0.441
       360 -11.0726     31.6327    153.1796   1.1790738664e+02   3.9278020922e+01    0.4490128    0.2844049 -85.74  0.002541658    1.401    0.286
       361 -11.3982     63.1441    150.6545   1.0959575959e+02   3.6335697654e+01    0.4705587    0.4093985  13.12  0.002709359    1.459    0.315
       362 -10.1662     71.2936    151.2589   1.0757414165e+02   3.5103167982e+01    0.3528231    0.2110286  38.66    0.0016965    1.744    0.427
       363 -11.7293      3.8727    147.3642   1.2404657289e+02   4.2937300134e+01    0.6744051    0.3700023 -80.44  0.003132909    1.426    0.299
       364 -12.2167      3.5133    138.7131   1.2338454358e+02   4.4957656161e+01     0.615779    0.2801912 -80.20  0.003224273    1.769    0.435
       365 -10.1751     46.8189    151.6798   1.1393125939e+02   3.8053273316e+01    0.3056416    0.2685376  32.26  0.001366596    1.358    0.264
