#   1 NUMBER                 Running object number                                     
#   2 MAG_AUTO               Kron-like elliptical aperture magnitude                    [mag]
#   3 X_IMAGE                Object position along x                                    [pixel]
#   4 Y_IMAGE                Object position along y                                    [pixel]
#   5 X_WORLD                Barycenter position along world x axis                     [deg]
#   6 Y_WORLD                Barycenter position along world y axis                     [deg]
#   7 A_WORLD                Profile RMS along major axis (world units)                 [deg]
#   8 B_WORLD                Profile RMS along minor axis (world units)                 [deg]
#   9 THETA_WORLD            Position angle (CCW/world-x)                               [deg]
#  10 FWHM_WORLD             FWHM assuming a gaussian core                              [deg]
#  11 ELONGATION             A_IMAGE/B_IMAGE                                           
#  12 ELLIPTICITY            1 - B_IMAGE/A_IMAGE                                       
         1 -13.0272    200.7046     33.6252   5.8816990468e+01   3.0618313937e+01     1.228174     0.883806   1.00  0.005736516    1.610    0.379
         2 -13.6720    217.9978     15.6537   5.1247473910e+01   2.8198490244e+01     1.297077    0.9344367  24.80  0.006416524    1.671    0.401
         3 -12.1240      2.3480     13.3780   1.1099326378e+02   7.2584067406e+01    0.7424182    0.1517495 -58.24  0.002960666    3.312    0.698
         4 -12.7241      2.6747      3.1367   1.0640401631e+02   7.4514714475e+01    0.5884361    0.5683426 -45.82  0.004867749    1.414    0.293
         5 -11.3741    159.6427    244.6018   1.1213640000e+02   6.7846901793e+00    0.2914159    0.1765381  67.13 0.0009916186    2.350    0.575
         6 -11.4654    185.2024    249.0877   1.0868026351e+02   2.5552670306e+00    0.3321685    0.2205876  34.35  0.002484147    1.185    0.156
         7 -10.0588    175.2788    250.4203   1.1035080075e+02   3.8538279342e+00    0.2042481   0.07521868  40.35 0.0008892979    2.042    0.510
         8 -10.6864    169.0557    249.0840   1.1116023695e+02   4.9015709117e+00    0.2278829    0.1624401  28.09 0.0004391958    1.389    0.280
         9 -11.7350    170.7173    243.9897   1.1033553615e+02   5.2275458728e+00    0.2781011    0.1981809  38.29  0.001171112    1.097    0.089
        10 -11.3829    150.2600    247.4845   1.1390469888e+02   7.8074013575e+00    0.2499716    0.2239517 -73.45  0.002165516    1.470    0.320
        11 -10.9099    143.7528    249.6337   1.1512941269e+02   8.4821976558e+00    0.2283456    0.1423926  55.00  0.001647085    1.365    0.267
        12 -10.6218    122.0670    233.7023   1.1702154596e+02   1.3649502652e+01     0.260907    0.1607625  63.63   0.00153865    1.571    0.364
        13 -12.0498    116.8505    238.4202   1.1830407466e+02   1.3736182734e+01    0.4758661    0.3950467 -48.83   0.00373812    1.714    0.417
        14 -11.8118    132.6642    249.1453   1.1680024812e+02   1.0110486188e+01    0.6991661    0.1825665  45.90  0.003364159    2.766    0.638
        15 -10.8760    115.2662    250.4304   1.1959803739e+02   1.2350460968e+01    0.6200612    0.1621077  42.33   0.00299586    2.907    0.656
        16 -11.1545    110.0759    247.7143   1.2017285652e+02   1.3410132874e+01    0.3857713    0.2703764  80.13  0.003018917    1.529    0.346
        17 -11.8989    122.3567    245.5772   1.1807943165e+02   1.2008113269e+01    0.5164618    0.3426592  72.92  0.002804529    1.653    0.395
        18 -11.8327    125.8649    242.3011   1.1722829669e+02   1.1946060916e+01    0.3582893    0.2946613  75.59  0.001108863    1.284    0.221
        19 -11.4513     99.9426    247.9625   1.2175462336e+02   1.4727958967e+01    0.5850633    0.2370373  48.77  0.003618742    1.776    0.437
        20 -10.4175     96.9945    239.1409   1.2152276865e+02   1.6346503690e+01    0.2441521    0.1583837  60.59 0.0009350739    1.206    0.171
        21 -11.6189    102.5045    240.0554   1.2072614365e+02   1.5479695640e+01    0.3308659    0.3008958 -12.93            0    1.874    0.466
        22 -10.1634    100.4757    235.1381   1.2064064843e+02   1.6454636883e+01    0.2189632    0.1384436  54.35  0.001320029    1.182    0.154
        23 -10.5339     84.0272    241.1476   1.2370839111e+02   1.7746098113e+01    0.3142875    0.1979488  58.52  0.001535196    1.162    0.140
        24 -10.3227     91.8447    241.2926   1.2249991342e+02   1.6717698207e+01      0.21761    0.1595677  44.26   0.00141887    1.342    0.255
        25 -11.2913     88.7431    237.5585   1.2270352495e+02   1.7659910928e+01    0.4561876    0.1917014  53.35  0.002775402    1.831    0.454
        26 -10.6609     84.3752    229.9817   1.2281972051e+02   1.9356455918e+01    0.3023854     0.165279 -66.07  0.002058455    2.090    0.522
        27  -9.7010     90.7794    250.3936   1.2333256810e+02   1.5585701389e+01    0.1952166    0.1207408  44.87  0.001037415    1.349    0.259
        28 -11.3635     86.5857    248.2034   1.2381476060e+02   1.6421439041e+01    0.2952366    0.2276252  35.90 0.0008427477    1.634    0.388
        29 -10.0116     81.5056    247.5066   1.2453894466e+02   1.7158504543e+01    0.2305316      0.12784 -87.39  0.001632494    2.053    0.513
        30 -11.6170     59.8075    246.0213   1.2771574619e+02   1.9991317139e+01    0.3834712    0.2268458  55.20  0.001953991    1.187    0.158
        31 -12.8495      6.0772    186.1177   1.3323638768e+02   3.5551911521e+01      1.09885    0.4553916 -75.79  0.006450638    2.039    0.510
        32 -12.5593     11.3733    206.1989   1.3323921735e+02   3.1487469804e+01     1.009139    0.5612059  29.73  0.006928191    2.532    0.605
        33 -12.8403     41.4742    206.5185   1.2827483620e+02   2.8383143070e+01     1.425158     0.523582  71.08  0.006998509    3.125    0.680
        34 -13.4985     26.9900    247.5532   1.3257684422e+02   2.3347881052e+01     1.350463    0.5651509  41.86  0.009492918    2.030    0.507
        35 -12.4850     43.9598    242.4202   1.2988290586e+02   2.2313738380e+01    0.4991798    0.3147278 -84.45  0.001356132    1.556    0.357
        36 -12.1031     38.5929    237.8311   1.3045702701e+02   2.3589314537e+01    0.5216079     0.223366 -66.56    0.0013607    2.648    0.622
        37 -12.8338     26.2006    225.8840   1.3177406474e+02   2.6759083547e+01    0.3268497    0.2474564  47.77 0.0007205053    1.490    0.329
        38 -14.0781     32.3328    218.9234   1.3047905075e+02   2.7260754934e+01    0.9027863    0.6621039  77.71  0.007645661    1.141    0.123
        39 -12.0351    135.4342    236.4017   1.1512496865e+02   1.1351355088e+01    0.4216492    0.3422385   0.88   0.00310719    1.969    0.492
        40 -11.4424    134.4123    232.1446   1.1485308291e+02   1.2070761561e+01    0.2820044    0.2144174 -34.99  0.001604478    1.965    0.491
        41 -11.4168    143.5557    241.8358   1.1438102020e+02   9.4689781006e+00    0.2672812    0.1789308 -50.94  0.001905787    1.986    0.496
        42 -10.6731    245.4812    242.0003   9.8732395376e+01  -5.3844619221e+00     0.135097   0.09181754 -14.81 0.0009288195    1.611    0.379
        43 -10.2352    162.9428    250.3106   1.1223426162e+02   5.6497817342e+00    0.1600337    0.1099648  50.75 0.0003492065    1.220    0.180
        44  -9.4483     53.8595    240.8569   1.2831865766e+02   2.1438227865e+01    0.1350947    0.1061226  66.59 0.0006387092    1.218    0.179
        45  -9.3283     66.5125    239.4127   1.2630291447e+02   2.0169627224e+01    0.2042006   0.09274407  68.89   0.00121911    2.156    0.536
        46  -9.7349     66.4904    244.0093   1.2659170903e+02   1.9495815454e+01    0.1571542    0.1228667  38.05 0.0008956022    1.659    0.397
        47  -9.5307    173.0090    236.0303   1.0904704710e+02   5.7989674931e+00    0.1256995    0.1038043  39.26 0.0003441341    1.092    0.084
        48 -11.1151    129.1338    235.3491   1.1603682843e+02   1.2406870557e+01    0.3011109    0.1611785  60.69  0.001763222    1.913    0.477
        49  -9.4567     54.6234    235.3170   1.2788700500e+02   2.2188188984e+01    0.1659875   0.08081272  64.98   0.00112323    1.658    0.397
        50  -9.8303    168.9913    233.6671   1.0940794879e+02   6.6868923575e+00    0.2339352    0.1359919  20.19  0.001081735    2.624    0.619
        51 -11.3653     98.9081    223.0882   1.1985029076e+02   1.8465411267e+01    0.3188642    0.1958936  52.07   0.00134775    1.257    0.204
        52 -11.2420    109.5125    232.4969   1.1895016587e+02   1.5594368904e+01    0.3213057    0.1881672  77.35  0.001824613    2.105    0.525
        53 -10.8907    113.4691    230.8057   1.1814886017e+02   1.5282281994e+01    0.2402971      0.18591  55.91  0.001083042    1.035    0.034
        54  -9.8472    156.7000    232.2159   1.1122578411e+02   8.7299974596e+00    0.1472287    0.1353476 -64.10 0.0004851093    1.405    0.288
        55 -10.4170     98.2694    231.0577   1.2065266880e+02   1.7350439024e+01    0.1770762    0.1358793  34.23  0.001324564    1.592    0.372
        56  -9.1914     45.6345    231.1203   1.2903921053e+02   2.3856748390e+01    0.1530173   0.08639673  73.17 0.0009323879    1.418    0.295
        57  -9.8657    250.0111    230.7464   9.6448351784e+01  -5.0740514431e+00    0.1395474   0.07014249  38.12 0.0008854821    1.562    0.360
        58  -9.8467     56.9075    228.6165   1.2712684001e+02   2.2963021639e+01    0.1958005    0.1202186 -84.21  0.000869992    1.578    0.366
        59 -10.7830     79.2494    225.6892   1.2332255097e+02   2.0680394550e+01    0.3034287    0.2059809 -83.57  0.001761485    1.505    0.336
        60  -9.5717     77.1352    220.8043   1.2329281181e+02   2.1724682974e+01    0.1798938    0.1111178  70.15  0.000377867    1.403    0.287
        61  -9.6116     92.3303    226.1136   1.2120681775e+02   1.8896406469e+01    0.1471107    0.1101109  67.47 0.0006170322    1.096    0.088
        62  -9.8330     51.5471    225.3762   1.2777988776e+02   2.4098889767e+01    0.1641357    0.1289701  69.54 0.0004651395    1.176    0.150
        63 -10.3084    117.0359    224.5358   1.1695272189e+02   1.5684426907e+01    0.2418237    0.1869015  32.47 0.0008893377    1.517    0.341
        64  -9.4412     65.0566    224.5325   1.2555220649e+02   2.2637602720e+01    0.1774876    0.1221528 -56.66  0.001276726    2.056    0.514
        65 -10.9021    136.1395    225.5066   1.1385982379e+02   1.2726318647e+01    0.2940832    0.1618286 -52.43  0.001029249    2.288    0.563
        66  -9.2364    164.3171    224.0170   1.0899374096e+02   8.6031071862e+00    0.1431352     0.126024  44.80 0.0003629686    1.126    0.112
        67 -11.5727    135.8512    241.3222   1.1555162471e+02   1.0648994043e+01     0.294648    0.2415854 -17.30  0.001592618    1.964    0.491
        68  -9.7298     87.7386    223.4841   1.2174646314e+02   1.9916266948e+01    0.2108143    0.1270701  67.31  0.001001778    1.477    0.323
        69 -10.4889     70.9212    219.5808   1.2423261671e+02   2.2709691723e+01     0.391426    0.2286366  81.84   0.00265246    1.667    0.400
        70 -10.9611    110.7987    217.5168   1.1730569479e+02   1.7644337940e+01    0.4537529    0.1915533 -56.35  0.002493418    2.805    0.644
        71  -9.6774    245.5214    221.5206   9.5719989853e+01  -3.6190258100e+00    0.1097521   0.08175924  22.31 0.0001807012    1.032    0.031
        72 -10.8068    142.0950    219.5171   1.1217961924e+02   1.2660544937e+01    0.2886816    0.2423074  87.67  0.001490181    1.383    0.277
        73 -11.1177    105.2267    228.2272   1.1926535058e+02   1.6814557725e+01    0.2768947    0.2389828  87.00  0.001772048    1.275    0.215
        74  -9.5041     89.1574    218.7870   1.2110980277e+02   2.0467317081e+01      0.23726   0.08384933  55.87  0.001148996    2.677    0.626
        75  -9.8002    117.9711    215.0110   1.1581130472e+02   1.6980336921e+01    0.1662612    0.1324916  60.81 0.0004186453    1.047    0.045
        76  -9.4891     88.0940    212.7994   1.2076285786e+02   2.1578431185e+01    0.2062928    0.1291963  88.35 0.0009641238    1.685    0.407
        77 -10.4752     63.3753    208.8637   1.2469930482e+02   2.5430418062e+01    0.3848603     0.255826 -60.27  0.002714263    1.875    0.467
        78  -9.7792     63.6774    205.2317   1.2436692503e+02   2.6018894992e+01    0.1439625    0.1116906  82.12 0.0002318241    1.140    0.123
        79 -10.7150     55.3292    208.1150   1.2602420525e+02   2.6526918706e+01    0.5190536    0.2616423  83.97  0.002858712    1.988    0.497
        80  -8.5346    130.7441    211.3611   1.1318149489e+02   1.5605852259e+01     0.111858   0.07761554  73.33 0.0002346764    1.622    0.383
        81  -8.8100    156.3271    208.2319   1.0831820502e+02   1.2010904359e+01    0.1315249    0.1081438 -66.60 0.0002339212    1.517    0.341
        82  -8.9339    134.3886    207.7116   1.1210499465e+02   1.5594644344e+01     0.134738    0.1102986 -43.51 0.0007856725    1.570    0.363
        83  -9.4412    112.2984    208.3093   1.1608286786e+02   1.8874803299e+01    0.1624276     0.139044  64.38 0.0002879935    1.092    0.085
        84  -9.3748    110.5992    205.5216   1.1608161922e+02   1.9578256316e+01    0.1711838    0.1482966  77.64 0.0001122827    1.142    0.124
        85  -8.5244     74.2652    208.6099   1.2279607799e+02   2.4104947500e+01    0.1149718   0.06434205  71.73 0.0006980855    1.705    0.414
        86 -10.0124    246.3606    206.4170   9.3181333765e+01  -2.3144219009e+00    0.2359989   0.06899226  34.11 0.0009617047    3.387    0.705
        87  -9.7842    107.0464    203.8592   1.1653706904e+02   2.0376571178e+01    0.1991143    0.1517698 -66.77 0.0004349351    1.472    0.321
        88  -9.3884     91.1424    205.0416   1.1950388485e+02   2.2452570930e+01    0.2974716    0.1391597  34.56  0.001429905    2.551    0.608
        89 -10.5985     83.7599    201.5694   1.2049202076e+02   2.4058953427e+01    0.2025335    0.1515613  72.18 0.0002338979    1.111    0.100
        90  -9.9558     43.0026    200.2822   1.2761072971e+02   2.9312202162e+01    0.2318523    0.1566788 -55.89  0.001240782    2.075    0.518
        91  -9.8898    250.6205    200.1703   9.1481467191e+01  -2.3490972665e+00    0.1568219   0.09336818  -8.83 0.0007368364    1.721    0.419
        92 -11.9312     55.3390    194.0452   1.2496896353e+02   2.9020009511e+01    0.3865272    0.2414385 -59.49 0.0009628219    1.925    0.481
        93 -10.0946     21.5418    193.6419   1.3093282969e+02   3.2746328571e+01    0.2699687    0.1702148 -80.95 0.0007699893    1.416    0.294
        94 -10.7234     30.8936    193.0291   1.2926509222e+02   3.1919994159e+01    0.3938648    0.2450343 -62.00  0.001409663    1.937    0.484
        95 -10.3875     26.1543    192.8481   1.3008593603e+02   3.2435167555e+01    0.4538518    0.1940136 -81.85  0.002749641    2.034    0.508
        96 -12.9320     14.0301    214.8149   1.3318001015e+02   2.9773136957e+01     1.028367    0.5146791  39.67  0.005129169    1.979    0.495
        97  -8.5028    103.1891    196.4062   1.1641932082e+02   2.2205016669e+01    0.1603805   0.08899356  53.47 0.0003687651    1.537    0.350
        98 -10.1718    249.6734    194.0699   9.0569867237e+01  -1.5871582744e+00    0.2399059    0.1740638   9.40  0.001626892    1.166    0.143
        99  -8.9599    112.3116    194.6492   1.1452769115e+02   2.1137685718e+01    0.1241386    0.0788674  71.62 0.0007045397    1.721    0.419
       100  -8.9104     78.0877    193.8848   1.2079371261e+02   2.6179314878e+01    0.1359419     0.120866  60.67            0    1.270    0.213
       101  -9.5065    191.5275    191.4760   9.9666961944e+01   8.4144392752e+00    0.2045574    0.1780268  31.03  0.000554082    1.040    0.038
       102 -14.1956      7.2787    243.7217   1.3521806703e+02   2.5836848963e+01     1.408059    0.8389134  84.71   0.01239902    1.362    0.266
       103 -10.3084    250.3031    187.8577   8.9367785727e+01  -1.0413724860e+00    0.2712127    0.1318626 -18.24  0.001424343    2.205    0.546
       104  -8.9123     40.6582    189.1154   1.2726090559e+02   3.1604559236e+01    0.1660484    0.1084525  66.62  0.001177984    1.185    0.156
       105  -8.8757     77.0162    188.5305   1.2047155725e+02   2.7297773293e+01    0.1567152   0.09694867  47.71 0.0001609577    1.435    0.303
       106  -8.5487    145.5606    187.4603   1.0735888482e+02   1.6966537950e+01    0.1228954    0.1060878  52.47 8.473792e-05    1.008    0.008
       107  -9.9785     83.6345    186.7173   1.1903204971e+02   2.6733248073e+01    0.1983825    0.1532845  72.02 0.0003261612    1.071    0.066
       108 -11.6066     61.9450    186.0573   1.2307817515e+02   2.9697341684e+01    0.2151901    0.1917178 -87.10 0.0004358937    1.310    0.237
       109  -9.7869     24.3103    184.0556   1.2989221033e+02   3.4249562582e+01    0.1589633    0.1305564  61.88  0.001001726    1.299    0.230
       110  -8.6362     36.3872    182.8059   1.2759700854e+02   3.3251993568e+01     0.145559   0.08241875 -68.71 0.0009414543    1.728    0.421
       111  -9.4708     29.9033    183.2098   1.2881991776e+02   3.3849837776e+01    0.1765987    0.1072534  71.49 0.0008963332    1.282    0.220
       112 -10.5494     71.4047    186.8988   1.2137141875e+02   2.8339612038e+01    0.2477166    0.1894726  38.05 0.0002376618    1.543    0.352
       113  -8.9781     47.4814    179.6911   1.2527293258e+02   3.2628247795e+01    0.1750333   0.09061089  40.62 0.0006718239    1.907    0.475
       114  -8.7929    103.0045    176.0209   1.1399759543e+02   2.5905914080e+01    0.1441825    0.1227043  72.29 -0.005334738    1.017    0.017
       115  -9.9706     65.0877    175.8986   1.2151473692e+02   3.1247574516e+01     0.234151    0.1373276  52.31  0.001427557    1.492    0.330
       116 -10.8125     73.1893    174.0184   1.1971265990e+02   3.0563404175e+01    0.2144056    0.1823255  85.77 0.0003811817    1.119    0.106
       117 -10.7099     19.3278    174.3372   1.3021518283e+02   3.6585871837e+01    0.3080868     0.149806  77.14 0.0007405126    1.733    0.423
       118 -11.6893    240.8284    150.4917   8.3553836904e+01   4.9299755651e+00    0.5222593    0.3627344  11.63  0.002325448    1.435    0.303
       119 -12.1910    248.2947    171.3566   8.6594202488e+01   1.0968039474e+00    0.6724907    0.3923177 -23.83  0.003816975    1.670    0.401
       120 -11.4239    245.0452    162.6154   8.5380543045e+01   2.6764582862e+00    0.4045042    0.2474493 -23.07  0.002150093    1.576    0.366
       121 -10.4565    249.4952    161.4894   8.4457401782e+01   2.0354085570e+00    0.3699015    0.2231751 -26.58  0.002074226    1.603    0.376
       122 -11.3279    247.7548    157.3700   8.3890883973e+01   2.8305551808e+00    0.7896727    0.3643689  56.34  0.003331336    3.249    0.692
       123 -11.3030     59.0097    172.8468   1.2241754852e+02   3.2602981502e+01    0.2679473     0.252739 -46.24 0.0008273502    1.572    0.364
       124 -10.5028     12.5526    173.0576   1.3140507936e+02   3.7452163183e+01    0.2468885    0.1433242 -73.29  0.001531057    1.572    0.364
       125 -12.2494      4.2962    151.4262   1.3174752836e+02   4.2451188405e+01     0.612646    0.2905062  72.71  0.003730573    1.766    0.434
       126 -10.4319     12.2937    154.0098   1.3028635268e+02   4.1269835506e+01    0.2008523     0.127805 -82.63 0.0006163727    1.242    0.195
       127 -11.0216      2.7209    172.5826   1.3319518753e+02   3.8385184468e+01    0.3351298    0.1510487  75.26  0.002096111    1.762    0.432
       128 -12.5446      9.6861    141.8324   1.2999005999e+02   4.4013124094e+01    0.5764262    0.2149745 -74.24 0.0006008667    2.061    0.515
       129 -12.4583      5.6838    141.9628   1.3085675253e+02   4.4299978204e+01    0.4484372    0.3738834  85.20  0.002364322    1.215    0.177
       130 -10.9469      4.9778    167.0508   1.3249544313e+02   3.9271407764e+01    0.2422577    0.1946911  44.02  0.001392838    1.538    0.350
       131 -11.7953      8.9467    166.0451   1.3168722889e+02   3.9136146860e+01    0.3254107    0.2132377  83.27  0.001696501    1.104    0.095
       132 -10.0880     27.5992    171.3780   1.2844889826e+02   3.6367541748e+01    0.2597715    0.1633387 -60.33 0.0008568747    1.847    0.459
       133 -10.0535    166.9215    170.2226   1.0053942439e+02   1.5989256331e+01     0.184331     0.181348  22.68 0.0003368075    1.098    0.090
       134  -8.5694    124.7675    171.3507   1.0898951499e+02   2.3274952275e+01     0.123498   0.09078062  84.76 0.0002509785    1.564    0.360
       135  -9.1724     51.7108    171.0830   1.2370204058e+02   3.3825246856e+01    0.1572405    0.1216014  83.13  0.000551604    1.043    0.041
       136  -8.7990     95.9322    169.0310   1.1451110514e+02   2.8317435868e+01    0.1450535    0.1212724  68.97 0.0009460096    1.031    0.030
       137  -8.6946     90.3261    168.6277   1.1560778707e+02   2.9228280918e+01    0.1343552   0.08159338  74.20 0.0007030671    1.820    0.451
       138 -11.7035     80.9034    165.9091   1.1721093927e+02   3.1116144020e+01     0.505034     0.360314  38.81  0.001691393    1.549    0.354
       139 -10.6148     82.0743    158.3483   1.1600664211e+02   3.2482620586e+01    0.3704017    0.2342852 -72.97 0.0005990064    1.515    0.340
       140 -10.4342     68.2989    166.3028   1.1986027050e+02   3.2736793362e+01    0.2081376    0.1657496  78.36 0.0003406646    1.021    0.020
       141  -8.8565     64.7064    167.2741   1.2070273667e+02   3.3002806713e+01    0.2348158    0.1201657  50.94 0.0004110349    1.757    0.431
       142  -8.4950     38.5317    167.5261   1.2601408490e+02   3.6008963134e+01    0.1158051   0.08451064  77.72 6.953118e-05    1.054    0.051
       143 -10.7156     45.0185    164.6650   1.2446134137e+02   3.5878253322e+01    0.3057716    0.2118024 -39.86  0.001845635    2.443    0.591
       144  -9.1591     43.2674    161.0814   1.2449241123e+02   3.6802800986e+01    0.1625846    0.1176676  84.07 0.0003708894    1.095    0.087
       145 -10.7374     30.9526    162.7926   1.2714852423e+02   3.7748836872e+01    0.3290376    0.1846697  63.47  0.001331188    1.531    0.347
       146  -9.5887     38.0152    163.1175   1.2574752375e+02   3.6953989148e+01    0.2846631   0.09171695  48.11   0.00138371    2.664    0.625
       147  -9.6754     24.0090    161.9834   1.2848009094e+02   3.8591738497e+01    0.1658926    0.1250694  81.32 0.0003863843    1.039    0.038
       148 -12.3053     10.7961    158.2966   1.3086446032e+02   4.0525289013e+01     1.352504    0.3906221  82.54   0.00484559    5.152    0.806
       149  -9.2417     46.5678    156.7318   1.2338869655e+02   3.7334005169e+01    0.1679906    0.0927687 -87.39 0.0009518439    1.651    0.394
       150 -11.1959     25.5933    155.2743   1.2764828024e+02   3.9812248721e+01    0.3747711    0.2394863  19.29  0.002314973    2.543    0.607
       151 -10.3749     32.4856    154.1384   1.2611631794e+02   3.9373006435e+01    0.2384055    0.1676003 -41.35  0.001244628    2.246    0.555
       152  -8.8259    228.3552    155.2257   8.6578581087e+01   6.6261948271e+00    0.1727966    0.1145785 -36.21   0.00045397    1.622    0.383
       153 -13.1673    247.5146    101.5647   7.1245113216e+01   1.0117619110e+01     1.716345    0.7260704 -19.89  0.006504268    2.604    0.616
       154 -11.7162    248.4236    112.9012   7.3876370038e+01   8.4039781215e+00    0.6099266    0.4005623  30.80  0.003134052    1.598    0.374
       155 -11.8480    247.8761    142.5307   8.0738407045e+01   4.6409414478e+00    0.6766829    0.4671032  34.64  0.003575716    1.387    0.279
       156 -12.9254    248.4612    134.0274   7.8772291408e+01   5.6164921163e+00     1.352135    0.6995127 -23.91  0.006476203    1.818    0.450
       157  -9.2815     87.0214    151.2415   1.1395451313e+02   3.3237004638e+01    0.1718729    0.1446636  75.41  0.001092635    1.048    0.045
       158 -11.7155     21.6903    149.1722   1.2798181314e+02   4.1444718936e+01    0.3597304     0.198218  44.28  0.002287146    1.802    0.445
       159 -10.5802     83.0259    149.4206   1.1457771814e+02   3.4201232509e+01    0.2194917    0.1758412 -72.43 0.0003251225    1.177    0.151
       160 -12.1158     68.2364    144.1605   1.1717351142e+02   3.7362415019e+01     0.627795    0.3932039  81.92  0.002819186    1.664    0.399
       161  -9.7054     41.0450    147.5006   1.2365266307e+02   3.9883239755e+01    0.1590463    0.1070059  45.11 0.0005306044    1.546    0.353
       162  -9.9709    235.8504    145.9160   8.3379804187e+01   6.4505952294e+00    0.2110585    0.1573939  11.19 0.0005610138    1.291    0.226
       163  -8.6754     98.2675    146.3385   1.1070900869e+02   3.2542831645e+01    0.1213533    0.1014209 -34.00 0.0003014779    1.597    0.374
       164 -10.2893    133.1249    141.1390   1.0204762828e+02   2.7572371797e+01    0.3403051    0.2144651 -59.95  0.001064689    1.728    0.421
       165 -10.0400     37.4639    141.0226   1.2378432066e+02   4.1649678409e+01    0.2876202    0.1029529  63.53  0.001101331    3.979    0.749
       166 -11.3552     16.7344    139.9979   1.2831556934e+02   4.3819373000e+01     0.303274     0.166637  62.37  0.001646584    1.649    0.393
       167  -9.6927    107.7287    136.1511   1.0680754319e+02   3.3134150635e+01    0.3219983    0.2187422 -22.56  0.001369507    2.711    0.631
       168  -9.2678     59.5287    136.5081   1.1815790699e+02   4.0138380286e+01    0.1258934    0.1032556 -89.19 -2.526409e-06    1.004    0.003
       169 -13.0794      3.7733    125.5742   1.3010374776e+02   4.7928564426e+01     1.081853    0.2904164 -72.74  0.001960173    2.644    0.622
       170 -13.2456      9.3992    113.6528   1.2772228526e+02   5.0137578330e+01    0.8142439    0.3825524  80.45   0.00434179    2.078    0.519
       171 -13.5506      5.7725    108.5565   1.2815685197e+02   5.1522790287e+01     0.831875    0.6305322 -86.55  0.006067264    1.042    0.040
       172  -9.0851     94.7126    133.0262   1.0928668735e+02   3.5939742820e+01    0.1995821    0.1422777 -36.81 0.0006941137    1.860    0.462
       173 -10.6669     44.8149    130.3988   1.2086259849e+02   4.3199573589e+01    0.2861535    0.1515875  68.55 0.0008840663    2.076    0.518
       174 -12.0754     13.3627    127.6147   1.2803794541e+02   4.6765756446e+01    0.3268418    0.1858425 -71.17  0.001643098    1.424    0.298
       175  -9.8832     48.1728    126.0160   1.1947948699e+02   4.3806858512e+01    0.1864297    0.1581553  75.87 0.0003309374    1.137    0.121
       176 -10.3398    239.0275    121.1496   7.7274904880e+01   9.1776196439e+00    0.4138138    0.1969922 -12.65  0.001537927    2.967    0.663
       177 -10.3986     94.7971    150.3586   1.1210882645e+02   3.2248068504e+01    0.3116918    0.2191282  51.72  0.001053727    1.355    0.262
       178 -10.6499     57.5109    147.3690   1.1999439385e+02   3.8030412359e+01    0.3119107    0.2029517  33.87  0.001843234    1.851    0.460
       179 -10.5663    231.8979    116.3257   7.7253786590e+01   1.1318633334e+01    0.2438694    0.1815323 -34.40 0.0005841671    1.326    0.246
       180  -9.9208    167.7837    112.9217   8.8230316389e+01   2.5934646825e+01    0.3109483      0.25172 -89.81 0.0009514459    1.593    0.372
       181 -10.9052    249.5360    150.9864   8.2288111609e+01   3.2886719953e+00    0.4607493    0.2567204 -26.41  0.002328911    1.693    0.409
       182  -8.8291    203.4746    111.5275   8.0915183499e+01   1.8202357071e+01     0.148364     0.136073   2.35 8.520771e-05    1.040    0.039
       183  -9.2776     29.5053    108.9910   1.2198683530e+02   4.9554751288e+01    0.1775747   0.06905572 -53.06 0.0008102462    2.517    0.603
       184 -11.2072     19.0336    106.0042   1.2440425789e+02   5.1123378321e+01    0.3068272    0.1770448  68.14   0.00129532    1.794    0.442
       185 -12.0366     14.8585    102.1056   1.2506616921e+02   5.2326861013e+01    0.3365355    0.2321562  77.77 0.0002961763    1.343    0.255
       186 -11.1408     16.6896     99.2726   1.2421835003e+02   5.2832116083e+01    0.2385314    0.1682571  58.54 0.0001995628    1.510    0.338
       187 -10.2098     20.9893     93.7332   1.2226122215e+02   5.3763849236e+01    0.1633701     0.134629 -77.40 0.0004437568    1.090    0.082
       188  -8.5449     71.7555    100.0468   1.0883077207e+02   4.6780438163e+01      0.16812    0.1019125 -61.75 0.0002770056    1.448    0.310
       189 -10.6587    249.6895    117.9157   7.4880806539e+01   7.4846665069e+00    0.4171857    0.2777534   3.33  0.001592832    1.633    0.388
       190 -12.2226      2.4171     74.2364   1.2517318026e+02   5.9442211460e+01    0.9120321   0.05037424 -71.21  0.002381721    7.228    0.862
       191  -8.9155    184.3682     77.3103   7.5072988921e+01   2.8375146427e+01    0.1655617     0.117527  19.89 0.0007036584    1.764    0.433
       192 -12.1688    200.5001    246.1007   1.0598706802e+02   6.3440728077e-01    0.5419462     0.158577  45.96  0.002598906    2.807    0.644
       193 -11.8699    178.7324    244.2776   1.0911924935e+02   4.0138676627e+00    0.3399396    0.2610133  44.08  0.002660273    1.107    0.096
       194 -10.8590     74.0158    243.9282   1.2544187103e+02   1.8596211012e+01    0.2746047    0.2098421 -75.03    0.0021636    1.574    0.365
