#   1 NUMBER                 Running object number                                     
#   2 MAG_AUTO               Kron-like elliptical aperture magnitude                    [mag]
#   3 X_IMAGE                Object position along x                                    [pixel]
#   4 Y_IMAGE                Object position along y                                    [pixel]
#   5 X_WORLD                Barycenter position along world x axis                     [deg]
#   6 Y_WORLD                Barycenter position along world y axis                     [deg]
#   7 A_WORLD                Profile RMS along major axis (world units)                 [deg]
#   8 B_WORLD                Profile RMS along minor axis (world units)                 [deg]
#   9 THETA_WORLD            Position angle (CCW/world-x)                               [deg]
#  10 FWHM_WORLD             FWHM assuming a gaussian core                              [deg]
#  11 ELONGATION             A_IMAGE/B_IMAGE                                           
#  12 ELLIPTICITY            1 - B_IMAGE/A_IMAGE                                       
         1 -14.8475    156.2344     52.1776   8.0383602872e+01   3.9223839681e+01     1.186125     1.159396   5.79  0.003498548    1.092    0.084
         2 -15.1423    167.2459     23.3763   6.9494391912e+01   4.0122069878e+01     1.069141    0.9503019  76.83  0.003499614    1.026    0.025
         3 -14.0502    191.0083     14.5299   6.3764094674e+01   3.4920664536e+01     0.760701    0.3999834 -78.53  0.003001358    2.334    0.572
         4 -11.1028    197.6676      7.3206   6.1112721250e+01   3.3963213946e+01    0.1453298   0.08796839 -66.33 0.0005021281    1.698    0.411
         5 -13.7498    186.6667    236.5640   1.1587553311e+02   1.8089734809e-02    0.5805588    0.3814341  67.13  0.002549632    2.766    0.638
         6 -13.0035    190.4798    249.1517   1.1698484230e+02  -2.2561670340e+00    0.4060156     0.278571  25.93 0.0007316654    1.258    0.205
         7 -20.5596     86.2328    179.5132   1.2856622619e+02   2.7514169281e+01     14.51017     7.064571 -64.90   0.06650645    2.129    0.530
         8 -12.6102     18.0665    183.3805   1.4413872538e+02   3.5215518675e+01    0.3615147    0.1848563 -55.23  0.002009518    2.314    0.568
         9 -12.4014    196.0229    227.8257   1.1279934192e+02  -3.3406018572e-01    0.1981727    0.1748657  -5.38 0.0005551589    1.230    0.187
        10 -14.3292    238.0809    174.4167   9.5462439613e+01   4.5284711185e-02    0.9447486    0.5031902  34.91  0.004634169    1.852    0.460
        11 -13.8603    229.8964    169.2090   9.5845056484e+01   2.2958051371e+00    0.6181239    0.3178037 -29.99  0.002869148    1.977    0.494
        12 -12.4003    203.6368    174.2616   1.0176048851e+02   6.4722124534e+00    0.5583263    0.3279384 -64.12   0.00203219    3.917    0.745
        13 -13.8194    161.0431    164.2564   1.0860315093e+02   1.6892414380e+01     0.793595    0.5201094 -75.99   0.00322707    2.631    0.620
        14 -13.0396    188.8356    154.1093   1.0051414035e+02   1.2991495898e+01     0.651246    0.4880345  36.10  0.002195466    1.293    0.227
        15  -9.4894    219.3224    155.6329   9.4916216212e+01   6.4638725556e+00    0.1380217     0.112522 -74.22 7.856417e-05    1.794    0.443
        16 -11.7629    207.8510    226.3403   1.1037396604e+02  -2.0913932745e+00    0.1781545    0.1662445  -2.45 0.0004074974    1.269    0.212
        17 -12.7019    174.1488    148.6652   1.0242129302e+02   1.7158064975e+01    0.4629421    0.3471786 -59.51  0.001046446    1.588    0.370
        18 -10.3910    177.8805    156.1322   1.0324387787e+02   1.4933992987e+01    0.2121198    0.1951887  69.37 0.0003103458    1.199    0.166
        19 -11.0324     27.1306    225.4615   1.4515182043e+02   2.5883065386e+01    0.1726174    0.1141101  79.64 0.0005622567    1.208    0.172
        20 -11.0256     13.8325    142.2535   1.4164574480e+02   4.4588872568e+01    0.2002287     0.135145 -75.30 0.0002748176    1.215    0.177
        21 -12.0900      6.2751    222.2073   1.4865898402e+02   2.8633934667e+01    0.2740699    0.1071816 -78.97  0.001588596    2.228    0.551
        22 -11.5565    169.1691    135.6772   1.0056018942e+02   2.0794281721e+01    0.2431265    0.1910459  66.11 0.0007289047    1.437    0.304
        23 -10.8362     14.7068    133.0211   1.4047805787e+02   4.6605718637e+01      0.29425    0.1667291 -34.44  0.001544092    2.570    0.611
        24 -11.2791    150.5394    240.0256   1.2317450742e+02   5.5174821285e+00    0.2517289     0.194854 -56.06  0.001638765    1.652    0.395
        25 -13.3144    160.4996    127.9967   1.0069038103e+02   2.4285123930e+01    0.5095824    0.3969487 -61.11  0.001560675    1.458    0.314
        26 -11.6418    207.5263    219.9475   1.0938655546e+02  -1.1737707094e+00    0.1689979    0.1218322 -31.02 0.0005877278    1.559    0.359
        27 -10.9895    153.0082    236.7343   1.2227205800e+02   5.6081518223e+00    0.2068988    0.1681704  33.44 0.0004764908    1.133    0.117
        28 -11.3781     20.9885    215.4594   1.4567324955e+02   2.8441270312e+01    0.1466723    0.1098009  72.76  0.001086903    1.039    0.037
        29 -12.8243     39.5727    115.5487   1.3112614843e+02   4.8390286288e+01    0.3655845    0.2752239 -21.38  0.001110604    1.737    0.424
        30 -11.3492    231.3425    113.7613   8.3415637498e+01   1.0866780619e+01    0.2554562    0.2487355  13.58 0.0008167017    1.063    0.060
        31 -11.7747    167.5833    112.7843   9.5291343281e+01   2.5674209453e+01    0.4109189    0.3181892  79.70  0.001092472    1.609    0.379
        32 -11.2643    205.1521    110.5808   8.7143474698e+01   1.7230543847e+01    0.3780692    0.2687419  24.29  0.001217509    1.770    0.435
        33 -13.1109    198.7104    238.7601   1.1398210191e+02  -2.2373980797e+00    0.2835417    0.2270406  55.80 0.0008461279    1.586    0.369
        34 -11.7192     38.8911    102.1690   1.2896915920e+02   5.1554921784e+01    0.2471745    0.1869596  23.44 0.0007955428    1.551    0.355
        35 -12.6428    197.8730    218.1476   1.1089372072e+02   7.1465863851e-01    0.2384615    0.1914413 -30.13 0.0006106751    1.420    0.296
        36 -11.3170      9.5946    213.5020   1.4764133502e+02   2.9961328466e+01    0.1548622    0.1133855  87.14 0.0002430666    1.170    0.145
        37 -10.5071     16.3789    210.8596   1.4625464152e+02   2.9805000078e+01     0.169163   0.08522853 -83.33 0.0005472156    1.719    0.418
        38 -13.1080     12.0717    206.2142   1.4678996401e+02   3.1139073761e+01      0.54145    0.2555908  31.08  0.003137354    2.470    0.595
        39  -9.4391     16.2895    202.2766   1.4575854679e+02   3.1508101437e+01     0.131283    0.1044232 -87.81  0.000306277    1.218    0.179
        40 -11.7207    212.1061    236.1583   1.1115970467e+02  -4.0413243335e+00    0.1938845    0.1350316  19.03 0.0007779386    1.277    0.217
        41 -11.5829     16.8485    192.4663   1.4502002458e+02   3.3442321062e+01    0.1757165    0.1326714 -81.83 0.0003646764    1.233    0.189
        42 -14.6333    146.3849     66.2226   8.6898937668e+01   3.9484306734e+01     1.129033     1.011426  48.68  0.001224128    1.076    0.070
        43 -13.2212    198.9863    246.7231   1.1510526344e+02  -3.2920692170e+00     0.538793    0.3070399  56.62  0.002716726    2.707    0.631
        44 -13.6259    160.3447     43.3192   7.6820080356e+01   3.9431831204e+01    0.5413703    0.5059857  -9.08 0.0008176163    1.183    0.155
        45 -11.7059     13.4274     59.8614   1.2917815885e+02   6.2967472809e+01    0.1974444     0.179715 -43.31 0.0004092141    1.136    0.120
        46 -10.7788    187.6490     30.7071   6.8666984267e+01   3.3952037215e+01    0.1471933    0.1016784  40.31 0.0007030243    1.677    0.404
        47 -11.3078    156.8567    247.7413   1.2297306241e+02   3.3446734471e+00    0.1989274    0.1732475 -29.30 0.0006218849    1.479    0.324
        48 -13.6334    187.9624    240.6900   1.1623878880e+02  -7.5184272647e-01    0.6127367    0.2118125  43.68   0.00270003    2.415    0.586
