#   1 NUMBER                 Running object number                                     
#   2 MAG_AUTO               Kron-like elliptical aperture magnitude                    [mag]
#   3 X_IMAGE                Object position along x                                    [pixel]
#   4 Y_IMAGE                Object position along y                                    [pixel]
#   5 X_WORLD                Barycenter position along world x axis                     [deg]
#   6 Y_WORLD                Barycenter position along world y axis                     [deg]
#   7 A_WORLD                Profile RMS along major axis (world units)                 [deg]
#   8 B_WORLD                Profile RMS along minor axis (world units)                 [deg]
#   9 THETA_WORLD            Position angle (CCW/world-x)                               [deg]
#  10 FWHM_WORLD             FWHM assuming a gaussian core                              [deg]
#  11 ELONGATION             A_IMAGE/B_IMAGE                                           
#  12 ELLIPTICITY            1 - B_IMAGE/A_IMAGE                                       
         1 -14.6491     87.3880     64.6518   1.0211286444e+02   5.2544360628e+01     1.706918    0.9798219 -13.24  0.006799824    2.943    0.660
         2 -15.6471      7.0884     69.9671   1.3135235111e+02   6.0672285710e+01     1.389681    0.6872986 -59.70  0.004270498    1.593    0.372
         3 -14.3096    159.1512     44.4852   7.7602851512e+01   4.0147198452e+01     2.196271    0.4651564  51.24   0.00640503    4.055    0.753
         4 -15.2446    119.7861     54.7545   8.9594812539e+01   4.7833105365e+01     1.090913    0.7509205  42.50  0.001869694    1.392    0.282
         5 -15.0326    166.3878     30.0954   7.2171756879e+01   4.0233186877e+01     1.153542    0.8327275  58.78  0.003167499    1.247    0.198
         6 -15.3990    146.7042     30.5893   7.5829289517e+01   4.4960179916e+01     1.639597     1.064317  73.44  0.008170761    1.631    0.387
         7 -15.6718    122.2963     37.3046   8.3228934380e+01   4.9774807101e+01     2.024004    0.9886218  45.91  0.006770945    1.879    0.468
         8 -13.7187    232.3116      2.3231   5.7568568342e+01   2.7568427095e+01     1.404385    0.3393596  64.01  0.005485614    3.373    0.704
         9 -15.2966    212.2840     41.1185   6.8343281064e+01   2.7496658437e+01     2.126913     1.133363  71.99   0.00985696    1.815    0.449
        10 -14.2211    215.3626     20.8132   6.3202134895e+01   2.9383142355e+01    0.7857146    0.5250971 -26.79  0.003706073    1.857    0.461
        11 -14.2777    218.9886     15.0930   6.1526184828e+01   2.9201975584e+01    0.8644841    0.5679997  52.96  0.004120862    1.727    0.421
        12 -15.4117     42.3814      8.1940   9.6629937916e+01   6.7523391838e+01     1.788343     1.093165   8.66   0.01095357    1.568    0.362
        13 -13.8283      8.2671      3.1183   1.0944697432e+02   7.1796433777e+01    0.8132787    0.6295472  31.67  0.005152333    1.905    0.475
        14 -14.2394     25.1026     31.3633   1.1324572324e+02   6.6345852004e+01    0.8261037     0.634986 -61.10  0.005053372    2.012    0.503
        15 -15.2073      8.3023     29.3913   1.1976743047e+02   6.7998282219e+01    0.8631143    0.7192416  19.52  0.006869043    1.523    0.343
        16 -15.6078     13.6344     20.5782   1.1419655576e+02   6.8967983801e+01     1.325529    0.6522709 -16.35  0.007549284    2.225    0.551
        17 -15.1751    190.7948     25.4631   6.7290589678e+01   3.4771213204e+01     1.516142     1.064119 -71.79  0.007699871    1.467    0.318
        18 -13.2962    222.7086     21.4411   6.2565534400e+01   2.7576262836e+01    0.5049445    0.4204983  27.33  0.001365959    1.781    0.438
        19 -15.9108     99.8114     13.0550   8.0256449261e+01   5.7291032275e+01     1.447008    0.7638063  49.32  0.003473176    1.620    0.383
        20 -14.0549    214.9674      9.5235   6.0678755898e+01   3.0773436049e+01    0.8664169    0.5032338  61.19  0.003860475    1.647    0.393
        21 -12.5168    202.3810     11.4874   6.2441125407e+01   3.3547729305e+01    0.3006766    0.2367951 -71.50   0.00052081    1.172    0.147
        22 -11.9759    162.0759      8.7942   6.6836111094e+01   4.3580335901e+01     0.274669    0.1781931 -74.23  0.001427777    1.816    0.449
        23 -12.0873    153.5594      8.2330   6.7952770470e+01   4.5677899467e+01    0.2485122    0.1995018  64.04 0.0004414851    1.060    0.057
        24 -11.9812    125.9902      8.9684   7.2988530075e+01   5.2035948519e+01    0.2513391    0.2037475  64.06  0.001015833    1.154    0.134
        25 -12.5114    120.6688      3.8044   7.2314854998e+01   5.3666251046e+01    0.5320613    0.3048549 -85.64  0.002317153    3.188    0.686
        26 -11.5053     67.8950      3.6521   8.5557801224e+01   6.4118892879e+01    0.2374997    0.1677485  13.46  0.001568317    1.256    0.204
        27 -12.1234     26.8068      3.8571   1.0116761971e+02   6.9906869862e+01    0.2316045    0.1443707  18.05 0.0006694653    1.421    0.296
        28 -10.8739    192.8154      2.8547   6.1416836989e+01   3.6728771112e+01    0.1769233    0.1296377 -70.81 0.0004391988    1.309    0.236
        29 -12.3778     80.8053      1.9298   8.1004040134e+01   6.1977105418e+01    0.5377182    0.1406987  49.86  0.002244121    2.948    0.661
        30 -13.8237    187.4182     12.8719   6.4524233302e+01   3.7016338724e+01    0.7155532    0.5350412  48.04   0.00305505    1.463    0.316
        31 -10.8806     62.4845      1.5145   8.6387672727e+01   6.5210907311e+01    0.1935785    0.1376551   8.76  0.001306304    1.235    0.191
        32 -11.3795     59.4858      1.5352   8.7396179487e+01   6.5693379107e+01     0.233143     0.145237  32.21  0.001190082    1.345    0.257
        33 -12.8227    194.5349    176.9678   1.0388867468e+02   6.6177000926e+00    0.5211338    0.3985308 -56.49  0.001598801    1.467    0.318
        34 -13.1619     57.0888    246.9590   1.4226040587e+02   1.6778682350e+01    0.7106038    0.4133425  34.76  0.004083536    2.172    0.540
        35 -11.4607     41.3031    250.0985   1.4518234457e+02   1.8241827064e+01     0.203069    0.1344075 -83.25  0.001399444    1.360    0.265
        36 -11.5146     40.4313    245.7739   1.4502267431e+02   1.9169478486e+01    0.2257367   0.09558926 -74.14  0.001231888    2.186    0.543
        37 -13.5068     30.0299    169.5355   1.4029033555e+02   3.6641807365e+01    0.7760322    0.6463029 -72.04  0.001558097    1.189    0.159
        38 -14.1065     27.0164    245.0864   1.4720580838e+02   2.0918678364e+01    0.9882548    0.5390407 -89.62  0.006366906    1.523    0.343
        39 -13.9318      9.7425    210.5627   1.4789335397e+02   2.9673166909e+01     1.554524    0.5762317  52.38  0.008304733    2.334    0.572
        40 -12.9750     16.6791    196.2449   1.4555958738e+02   3.2021247547e+01    0.9984959    0.2147796 -67.51  0.004040162    3.392    0.705
        41 -13.4089     22.5066    181.0900   1.4308195131e+02   3.4780106370e+01     0.534499    0.3702053 -77.59  0.002168305    1.171    0.146
        42 -14.0782     25.7047    227.5114   1.4625043011e+02   2.4510973087e+01    0.9638057     0.308953 -67.13  0.004704755    2.736    0.634
        43 -13.6543     20.4727    224.4336   1.4694687237e+02   2.5713797223e+01    0.4901603    0.3654118 -71.95  0.002160608    1.454    0.312
        44 -14.7568      8.6430    183.2831   1.4608859749e+02   3.5605999554e+01     1.065567    0.8307073  74.06  0.007727551    1.166    0.142
        45 -15.0096     15.6800    175.4457   1.4397972742e+02   3.6702769512e+01     2.255429     1.085011  76.95   0.01036709    2.201    0.546
        46 -14.2928      9.2327    245.7434   1.5009027692e+02   2.2769373064e+01    0.7562641    0.3849361  63.81   0.00322762    1.475    0.322
        47 -12.8813    131.5673    173.2494   1.1708148078e+02   2.0306481894e+01    0.5683877    0.4680694 -67.70  0.002943114    1.228    0.186
        48 -13.7921    124.1131    166.6914   1.1758709641e+02   2.3264469523e+01    0.8532181    0.5557581 -71.70  0.003594254    1.789    0.441
        49 -13.2252    122.5182    154.9333   1.1563136073e+02   2.6320915637e+01     0.753907    0.4429028 -47.58   0.00323213    1.732    0.423
        50 -12.3469     48.8209    181.0666   1.3745007737e+02   3.1851517744e+01    0.5178735     0.270607 -61.50  0.002656711    1.741    0.426
        51 -11.2086    177.3891    167.2399   1.0547351398e+02   1.2162030464e+01    0.2115145    0.1435575 -55.43 0.0008992424    1.603    0.376
        52 -11.3588    101.9895    161.1678   1.2192129811e+02   2.8650491494e+01    0.2308836    0.1791329   2.85  0.001085728    2.014    0.503
        53 -11.3462     27.6188    158.8159   1.3962360866e+02   3.9360814570e+01    0.3210413    0.1910974 -73.72  0.001798346    1.360    0.265
        54 -12.0592     25.2161    156.1804   1.3987435795e+02   4.0202925171e+01    0.3842156    0.2727844 -32.33  0.002271778    2.025    0.506
        55 -11.5700    155.1628    157.5157   1.0836437143e+02   1.9013110986e+01    0.3851607    0.2490416  67.66  0.001564369    2.027    0.507
        56 -12.6483     77.7259    157.2348   1.2725422969e+02   3.3548815612e+01    0.4562377    0.3249452  41.37  0.001279615    1.502    0.334
        57 -13.3890     74.1872    153.4815   1.2750732026e+02   3.4975787383e+01    0.6404943    0.5620648  16.89  0.002902815    1.465    0.317
        58 -13.1562    208.5019    154.4633   9.6227812564e+01   8.1326763730e+00    0.7522963    0.5462316  49.44  0.003670604    1.427    0.299
        59 -11.4970     55.4806    156.0790   1.3259245528e+02   3.6896136132e+01    0.3469709    0.2413738 -16.69  0.001690404    2.550    0.608
        60 -12.3752     85.7963    153.2268   1.2452134092e+02   3.3264633318e+01     0.563716    0.3318362 -48.72  0.002592247    1.735    0.424
        61 -11.9084     41.2820    152.6461   1.3558633604e+02   3.9385219712e+01     0.482433    0.1980669 -74.87  0.002014533    2.457    0.593
        62 -11.7906    145.6623    151.6755   1.0931889810e+02   2.2350518938e+01    0.2461404    0.1975512  -3.63  0.001122675    1.740    0.425
        63 -12.2786    103.3111    150.0687   1.1946230512e+02   3.1067545409e+01    0.4255018    0.3360084 -34.34  0.001516273    1.522    0.343
        64 -11.9028      2.9673    249.9769   1.5127030871e+02   2.2636923698e+01    0.2738944    0.1484044  59.78  0.001942818    1.387    0.279
        65 -12.4205    244.2099    147.3447   8.8133856049e+01   2.2243866193e+00    0.3862499    0.2417676 -42.27  0.001894939    1.470    0.320
        66 -10.8018     60.3010    149.4539   1.3036137624e+02   3.7863148997e+01    0.1709219    0.1229848  54.01 0.0005176415    1.467    0.318
        67 -11.8929     63.2069    146.6695   1.2915986610e+02   3.8148066817e+01    0.1994659    0.1596963 -78.53   0.00109708    1.127    0.113
        68 -10.8327     38.2354    145.8002   1.3538631071e+02   4.1328321981e+01    0.1753269    0.1321031 -52.10 0.0006005905    1.347    0.258
        69 -11.5103     44.8839    145.1214   1.3360859815e+02   4.0765813632e+01    0.1957061    0.1392374 -43.13 0.0005373692    1.594    0.373
        70 -11.2099    162.5942    141.7715   1.0310506211e+02   2.0879663836e+01     0.316408     0.151246 -42.13  0.001153026    2.155    0.536
        71 -11.3838    149.4112    140.9562   1.0600274075e+02   2.3972247748e+01    0.4294358    0.3040307  77.95  0.001805182    1.901    0.474
        72 -12.5212     42.6416    139.9365   1.3339804267e+02   4.2241577347e+01    0.3309941    0.2464938 -34.81  0.001324082    1.662    0.398
        73 -12.7956     45.6120    135.2390   1.3187531015e+02   4.3025926470e+01    0.5063471    0.3877431 -44.18  0.002998095    1.393    0.282
        74 -12.9445    246.5321    133.6944   8.4776861482e+01   4.2122586440e+00    0.5580425    0.3823183 -50.09  0.002841927    1.421    0.296
        75 -14.3765    232.1186    130.2493   8.6410834548e+01   7.7759317086e+00     1.036847    0.8786451 -47.17  0.005681606    1.104    0.095
        76 -12.6911     62.5602    134.7210   1.2723912264e+02   4.1094972522e+01     0.504153    0.3864999 -71.11  0.002377029    1.182    0.154
        77 -13.8219    135.0677    103.2074   1.0006874243e+02   3.5466207954e+01     2.259447    0.4810619  49.73  0.005414978    5.311    0.812
        78 -13.1410    137.1512     96.2017   9.7617133626e+01   3.6457785759e+01    0.5285569    0.3988296 -55.58  0.001450488    1.399    0.285
        79 -15.1721    104.9826    122.8976   1.1310907237e+02   3.7199385007e+01     2.053886     1.341614  38.78  0.009452938    1.631    0.387
        80 -14.2414     90.2024    109.3244   1.1396900469e+02   4.2922487481e+01      1.42452    0.8357834  25.31  0.006108826    2.235    0.553
        81 -11.7224    137.4104    133.1200   1.0708639498e+02   2.8344038769e+01    0.3889816    0.2256096  35.00  0.001001348    2.011    0.503
        82 -13.2938    132.8605    128.9497   1.0722893685e+02   3.0262182874e+01    0.9677814    0.4873154 -40.90  0.003645463    2.131    0.531
        83 -15.5779    105.5387    108.9597   1.0951243816e+02   4.0273943159e+01     2.157806     1.538754 -46.29   0.01044922    1.345    0.256
        84 -11.0805     57.9806    128.0174   1.2725182598e+02   4.3275542139e+01    0.2517361    0.1755385 -62.19 0.0008363286    1.247    0.198
        85 -11.2629     60.5029    124.8307   1.2593927316e+02   4.3708954146e+01    0.2548029    0.2110789  11.20  0.001469862    1.519    0.342
        86 -14.3032     28.0704    124.0677   1.3481460859e+02   4.7393627566e+01     2.260127     0.347046 -51.07  0.006825844    5.104    0.804
        87 -13.3718     62.1039    102.2947   1.2064555798e+02   4.8696059721e+01     1.276564    0.5069253 -59.35  0.005029467    2.505    0.601
        88 -14.4001      2.6149     96.9097   1.3779517779e+02   5.5300632218e+01     1.326464    0.4670286 -71.27  0.006103883    2.501    0.600
        89 -14.9266     18.1060    110.7563   1.3548626025e+02   5.1241971763e+01     1.028083    0.8673531 -26.44  0.003921796    1.387    0.279
        90 -15.7285     25.4125     94.6670   1.3041174526e+02   5.4237626682e+01     1.972771     1.316578 -16.87   0.01164935    1.869    0.465
        91 -11.3028    184.8997    124.1155   9.3941670340e+01   1.9548751275e+01    0.2782241    0.2326997  79.28 0.0006586242    1.329    0.247
        92 -11.9892    181.0772    121.1856   9.4025893431e+01   2.1047620293e+01    0.4305044    0.2552738  49.10  0.001239987    1.705    0.413
        93 -13.3289     85.6153    115.3907   1.1675257922e+02   4.2290988845e+01     1.004028    0.5622829  19.72  0.003940913    2.869    0.651
        94 -14.3706     48.5149     96.2918   1.2347604932e+02   5.1666084787e+01     1.589315     1.240424  19.72  0.009623395    1.494    0.330
        95 -12.5916      4.0317    119.9430   1.4068228854e+02   5.0154822722e+01    0.4270293    0.2117387  20.21  0.002152817    2.672    0.626
        96 -11.6452     51.7001    116.9760   1.2690927718e+02   4.6621985842e+01    0.4143451    0.2195397 -76.29  0.001792428    2.384    0.581
        97 -10.7159    192.9854    117.4937   9.0653103383e+01   1.9005149517e+01    0.2204102    0.1380122  79.12 0.0008101637    2.514    0.602
        98 -12.5642    176.7618    111.2786   9.2449227557e+01   2.4103848750e+01    0.4823809    0.4176576 -17.75  0.002195166    1.342    0.255
        99 -12.4884     45.6368    110.2882   1.2735758918e+02   4.8841196675e+01    0.5390598     0.318908 -43.71   0.00281302    1.615    0.381
       100 -12.6915    120.6432    111.3256   1.0599472500e+02   3.6780001391e+01    0.4968712    0.3357415  70.42  0.001877663    2.054    0.513
       101 -13.1253    223.4599    128.5852   8.7543458396e+01   9.9332681842e+00     0.699378    0.4651145 -65.49  0.003094468    1.933    0.483
       102 -13.1671    248.9633     98.2146   7.6562273964e+01   9.9860745166e+00    0.6152494    0.2686714 -42.76  0.002577977    2.006    0.501
       103 -11.0383    161.3310     96.9899   9.2072199161e+01   3.0673500736e+01    0.3839585     0.153369  51.28  0.001306002    2.487    0.598
       104 -12.5645    127.9978     95.9367   9.9893518461e+01   3.8529402396e+01    0.4029965    0.2342067  58.46  0.001624955    2.039    0.510
       105 -11.2301     76.0868     95.6942   1.1471503225e+02   4.8193479910e+01    0.2121345    0.1782147 -56.31 0.0001837467    1.161    0.139
       106 -13.9100    188.4695     84.4125   8.3102480768e+01   2.6443304488e+01     1.472023    0.7483364  59.16  0.001230769    1.995    0.499
       107 -15.1091    161.0065     80.6805   8.7643778883e+01   3.3861432793e+01     2.056002     1.378818  21.87   0.00331844    2.277    0.561
       108 -14.9176    170.4350     77.1254   8.4669663937e+01   3.2192989804e+01     1.131859    0.8821355  48.45   0.00462432    1.293    0.226
       109 -13.3168    134.8793     79.5851   9.3426866392e+01   4.0220601508e+01    0.9887298    0.5222672  44.20  0.002659402    1.903    0.474
       110 -12.0184    125.4854     86.4932   9.7864090409e+01   4.0976097291e+01      0.41954    0.3346203  53.90  0.002108449    1.292    0.226
       111 -12.9427    132.6610     85.9389   9.5842756815e+01   3.9509127525e+01    0.5438813    0.3602203  54.27  0.002461951    1.559    0.359
       112 -12.1974     89.9655     87.0773   1.0812148122e+02   4.7782156197e+01    0.4392636    0.3390059  43.74  0.002172683    1.390    0.280
       113 -10.6192     78.9700     87.5111   1.1162257208e+02   4.9493595380e+01    0.1957408    0.1372555  35.97 0.0004294837    1.530    0.347
       114 -13.0988    241.7930     84.0003   7.4385577342e+01   1.3952769129e+01    0.5366444    0.2858977  70.14  0.002146943    2.213    0.548
       115 -13.7073    238.0281     80.3295   7.4073727505e+01   1.5403064584e+01    0.8554363    0.4611644  63.42  0.003904441    1.965    0.491
       116 -11.5001     97.9115     83.8777   1.0481857187e+02   4.7020984017e+01    0.2802956     0.204131  87.66 0.0009513227    2.309    0.567
       117 -14.2402     64.3887     58.4337   1.0765011404e+02   5.7277557087e+01     1.483717     0.700922 -36.70  0.006957722    2.002    0.500
       118 -13.1918     38.3962     68.1025   1.1976708806e+02   5.8600927009e+01    0.8614807    0.3602128  26.39  0.004109125    2.733    0.634
       119 -14.3841     51.2665     68.5867   1.1536547886e+02   5.7101465957e+01    0.9488869    0.7739984 -59.16  0.005931981    1.384    0.277
       120 -13.5586     75.5610     73.8691   1.0876055138e+02   5.2766707780e+01     1.091447      0.58034  29.53  0.005027497    2.131    0.531
       121 -13.8736    170.8939    242.1671   1.2031172727e+02  -7.2466170386e-01     1.009168    0.6032774  35.50  0.005364208    1.516    0.340
       122 -13.6903     56.7490     78.6217   1.1634057818e+02   5.4443741936e+01    0.5822439    0.3948396 -21.22  0.003124402    1.655    0.396
       123 -13.8848     60.8483     75.3844   1.1405766095e+02   5.4569335169e+01    0.7516079    0.3996575 -44.49  0.001077381    1.661    0.398
       124 -12.4932    145.0158    231.2084   1.2379744491e+02   5.7509104428e+00    0.3651572    0.2147601 -41.28  0.001804593    2.182    0.542
       125 -12.1687      5.9052     50.8847   1.2722189594e+02   6.4418631010e+01     0.314377    0.1775626 -45.18  0.001065765    1.310    0.237
       126 -14.1138    198.2555     70.7864   7.7824346008e+01   2.6401635501e+01     1.099085    0.6775144  42.26  0.003211179    1.946    0.486
       127 -13.8246    213.6229     78.7052   7.7305247936e+01   2.1331427821e+01     1.174152    0.6259891  79.24   0.00442081    2.721    0.632
       128 -12.2011    219.5320     74.9749   7.5487597161e+01   2.0557765411e+01    0.3206544     0.271439 -61.37 0.0005309593    1.089    0.081
       129 -12.1627    113.8092     80.6061   9.9288235275e+01   4.4577774340e+01    0.4242317    0.3665543 -39.12  0.001532747    1.146    0.127
       130 -11.9231     90.8609     80.1596   1.0583873954e+02   4.9022408382e+01    0.3979185    0.3218968 -11.23  0.001950483    1.350    0.259
       131 -12.7439     41.8364     77.7345   1.2114622201e+02   5.6324036655e+01    0.3856442    0.2233077 -51.08 0.0008625198    1.460    0.315
       132 -12.4358    241.8236     72.0972   7.1705444227e+01   1.5910962982e+01    0.5061671    0.2824568 -73.18   0.00214317    2.407    0.585
       133 -13.7745    133.3904     67.4997   9.0169813112e+01   4.2721734317e+01     1.214148    0.8301617  38.99  0.004240984    1.501    0.334
       134 -13.0542    111.9857    155.9244   1.1844090646e+02   2.8093254231e+01    0.7871162    0.4503405  75.60  0.002728582    3.202    0.688
       135 -13.0071    236.2620    229.8560   1.0592149319e+02  -9.8366917917e+00    0.3157715    0.2247723  54.96    0.0017975    1.990    0.497
       136 -12.9457     45.5340    208.6250   1.4104016324e+02   2.6096179978e+01     0.476888    0.2327641  78.51  0.002293061    2.258    0.557
       137 -13.3287     57.4424    202.6320   1.3804992116e+02   2.5865293587e+01     1.040872    0.3003657 -68.01  0.003991727    3.237    0.691
       138 -12.9021     52.8757    214.2860   1.4014968719e+02   2.3940785275e+01    0.4004355    0.2304891  69.70  0.001688613    1.604    0.377
       139 -11.8843    100.5507     64.3024   9.8012813876e+01   5.0198237920e+01    0.4257426     0.322373  12.86  0.002223679    1.503    0.334
       140 -14.1778    178.0394     57.3131   7.7750963143e+01   3.3587726602e+01    0.8651975    0.6460038 -62.04  0.002506578    1.431    0.301
       141 -13.4660     78.8747     61.1322   1.0368154022e+02   5.4598848631e+01    0.5637516    0.4593981  -6.23  0.003325343    1.218    0.179
       142 -12.4296     82.4013     57.2018   1.0124335649e+02   5.4693097674e+01    0.3356721    0.2436801 -37.79  0.001754167    1.343    0.255
       143 -12.8232     39.2206     60.4985   1.1728778546e+02   5.9973039027e+01    0.3038274    0.2571346  53.84  0.002003335    1.672    0.402
       144 -12.4756     24.5646     60.1560   1.2260982659e+02   6.1385715616e+01    0.2956639    0.1819486 -45.59 0.0009071833    1.291    0.225
       145 -13.2018    248.7389     51.5158   6.6364950255e+01   1.7564581556e+01    0.6590234    0.4248051 -35.16  0.002758751    1.645    0.392
       146 -12.1905    230.1771     55.2418   6.9374967726e+01   2.1201695659e+01    0.4869429    0.2617941  76.83  0.002198238    2.027    0.507
       147 -11.8244    158.0549     63.7709   8.3446221820e+01   3.7505553998e+01     0.412793    0.1954804 -47.29  0.001593065    2.324    0.570
       148 -13.6802     67.0294     48.9816   1.0354595238e+02   5.8499340794e+01    0.6707891    0.4902713 -39.16  0.003998084    1.357    0.263
       149 -11.8156     86.2383     49.5900   9.7432039729e+01   5.5270913661e+01    0.2458622    0.1983183  -8.80 0.0005730982    1.209    0.173
       150 -13.3472     68.6423    221.0659   1.3775999247e+02   2.0343399663e+01     0.733062    0.3063501 -63.00  0.003494692    2.336    0.572
       151 -14.2635     62.9945    214.9051   1.3823010879e+02   2.2441754886e+01     1.191763    0.5791142 -72.91   0.00600866    1.961    0.490
       152 -14.3561     95.1962    236.6720   1.3430488830e+02   1.3170409761e+01     1.147532    0.6423573  67.91  0.003950761    1.870    0.465
       153 -14.1969     97.1077    217.5433   1.3166435943e+02   1.6722203338e+01    0.6642263    0.5482154  32.13  0.003963009    1.506    0.336
       154 -14.4117    101.2831     50.0892   9.3089886039e+01   5.2382911601e+01     1.004899    0.6394142  61.42  0.003031247    2.057    0.514
       155 -13.7191      8.8740     42.8039   1.2378077713e+02   6.5696748307e+01    0.7373732    0.6211402  46.46  0.005556121    1.787    0.440
       156 -12.6581    147.1830    238.7283   1.2443885702e+02   4.0164995356e+00    0.4091262    0.2789738 -88.18   0.00165262    2.118    0.528
       157 -11.9226     85.3174    215.9684   1.3387493606e+02   1.8929428710e+01    0.2993972    0.1753835  46.64  0.001532199    1.557    0.358
       158 -12.7528    185.2616    213.0848   1.1272550289e+02   1.6448190267e+00     0.354821    0.1921545 -41.96  0.001646627    2.027    0.507
       159 -13.3354     34.0320     32.8384   1.1010038682e+02   6.5236930248e+01    0.4763758    0.3600848  45.96  0.002658085    2.026    0.507
       160 -10.7831    157.5231    213.4947   1.1849421689e+02   6.7835807299e+00    0.1403201    0.1252009  53.48 0.0001393998    1.032    0.031
       161 -11.7031    136.7811    211.4087   1.2251234643e+02   1.1066488793e+01    0.2470943    0.1963534 -63.63  0.001074497    1.356    0.263
       162 -11.1783     39.6803    210.9761   1.4238836213e+02   2.6309918972e+01    0.2783209    0.1280887  48.21  0.001476936    1.957    0.489
       163 -11.8935     25.4311     43.2510   1.1720685236e+02   6.4370665859e+01    0.2185229   0.08720572 -44.83 0.0006779348    2.007    0.502
       164 -11.9658     80.1999    208.6091   1.3404254363e+02   2.1295730675e+01    0.3251186    0.1827926  64.60  0.001600839    1.802    0.445
       165 -13.1026    242.7889     36.2706   6.3736244305e+01   2.1050447753e+01     0.817637    0.3531859  78.33  0.003286164    2.553    0.608
       166 -11.3175    245.4848     31.0301   6.2360997119e+01   2.1155611247e+01    0.2814662    0.1731248 -40.08  0.001548841    1.606    0.377
       167 -12.4099     70.4500     36.6354   9.7916061946e+01   5.9857362895e+01     0.303018    0.2323038   5.34 0.0009414749    1.228    0.186
       168 -12.7176    105.1616     35.3031   8.6889631249e+01   5.3692800196e+01    0.5291338     0.298414 -20.01  0.002535962    2.045    0.511
       169 -11.6119     51.4942     36.4282   1.0461324214e+02   6.2633243481e+01     0.486249    0.1513804  41.72  0.001947243    3.849    0.740
       170 -13.1678     56.0758     27.6719   9.9551929173e+01   6.3259473195e+01    0.4532937    0.2810995  33.49  0.001725535    1.575    0.365
       171 -11.5536     45.4520     36.5079   1.0693984380e+02   6.3381404488e+01     0.238858     0.160454 -20.90 0.0007003323    1.328    0.247
       172 -12.5960     47.0177     32.4813   1.0482747360e+02   6.3792765012e+01    0.4372094    0.2471686   3.43  0.002223089    2.303    0.566
       173 -12.9626     75.8811     37.4998   9.6424313346e+01   5.8851119591e+01     0.347094    0.2645285  34.53 0.0008987894    1.280    0.219
       174 -10.6296     89.2937     30.3180   8.9564676789e+01   5.7437450155e+01     0.131925   0.08908191  14.76 0.0002398511    1.605    0.377
       175 -10.8238    149.9909    206.5325   1.1891906948e+02   9.5743857361e+00    0.2235472    0.1296709  42.38  0.001028531    1.589    0.371
       176 -11.5011     70.7863     16.9854   9.0149461843e+01   6.2291918752e+01      0.19588    0.1500932  29.74  0.000424193    1.156    0.135
       177 -11.2774     65.2930     24.2470   9.4909469423e+01   6.2327799393e+01     0.305967    0.1772203  -0.31  0.001564045    2.180    0.541
       178 -10.7436    163.4953    225.4917   1.1921206330e+02   3.4481460763e+00    0.1357985    0.1194106  42.08 0.0003573574    1.027    0.027
       179 -12.7988     41.7070    201.0038   1.4106886237e+02   2.8226617273e+01    0.2563875    0.1856391  81.24  0.001463256    1.119    0.106
       180 -12.9489     39.4507    195.2330   1.4096091642e+02   2.9771174869e+01    0.4668123    0.3236755  84.75  0.002145524    1.197    0.164
       181 -11.3921    213.1878    200.7424   1.0489481017e+02  -1.3751604618e+00    0.2721538    0.2449111 -35.33  0.001632612    1.186    0.157
       182 -13.1923    164.5954    194.8083   1.1372717738e+02   9.1011524594e+00    0.7761045    0.4447483 -66.08  0.003120599    2.580    0.612
       183 -12.8957    201.3463    192.0959   1.0555338801e+02   2.3922269588e+00    0.4763608    0.3568211 -29.13  0.001908695    1.415    0.293
       184 -11.4109     76.0144     23.8561   9.1191328913e+01   6.0612765910e+01    0.2899066    0.1728888  54.48  0.001537126    2.069    0.517
       185 -10.8580    107.5143    193.0528   1.2601228381e+02   2.0279236727e+01    0.2115613    0.1342439 -60.19  0.001029525    1.588    0.370
       186 -13.1708     98.1014    187.1442   1.2721940158e+02   2.3231699127e+01     0.489745      0.41574 -52.44  0.002782263    1.336    0.251
       187 -12.3732    111.0439    182.4953   1.2351176442e+02   2.2047619916e+01     0.527224    0.3496915   5.54  0.001958891    3.599    0.722
       188 -11.9680    198.5548    183.0105   1.0430368473e+02   4.6402336692e+00    0.3061194    0.2165915  40.38  0.001517973    1.377    0.274
       189 -11.6540    122.5576    181.7799   1.2073500904e+02   2.0097483033e+01    0.5115038    0.2907673  80.46   0.00176116    3.401    0.706
       190 -13.2399     85.2168    180.0426   1.2908853085e+02   2.6976451499e+01     0.521455    0.3417215  86.03  0.002548383    1.699    0.411
