#   1 NUMBER                 Running object number                                     
#   2 MAG_AUTO               Kron-like elliptical aperture magnitude                    [mag]
#   3 X_IMAGE                Object position along x                                    [pixel]
#   4 Y_IMAGE                Object position along y                                    [pixel]
#   5 X_WORLD                Barycenter position along world x axis                     [deg]
#   6 Y_WORLD                Barycenter position along world y axis                     [deg]
#   7 A_WORLD                Profile RMS along major axis (world units)                 [deg]
#   8 B_WORLD                Profile RMS along minor axis (world units)                 [deg]
#   9 THETA_WORLD            Position angle (CCW/world-x)                               [deg]
#  10 FWHM_WORLD             FWHM assuming a gaussian core                              [deg]
#  11 ELONGATION             A_IMAGE/B_IMAGE                                           
#  12 ELLIPTICITY            1 - B_IMAGE/A_IMAGE                                       
         1 -15.4902    245.6933     63.2281   6.6257503292e+01   1.7002891844e+01     1.831314     1.242162 -41.98   0.01022504    1.404    0.288
         2 -14.3972    247.3418     44.6862   6.2228567402e+01   1.9406082505e+01     1.217438    0.7139616  43.40  0.005876752    2.812    0.644
         3 -10.2045    250.5284     25.5059   5.8111131840e+01   2.1324420006e+01    0.1235772   0.09665681 -73.57 6.015496e-05    1.020    0.020
         4 -10.3436    224.8053    250.1084   1.0796915342e+02  -1.1208961335e+01    0.1712958    0.1566433  20.21  0.001053482    1.266    0.210
         5 -10.7000    209.4283    249.7415   1.1076953024e+02  -8.8369183661e+00    0.2479126    0.2043871  20.37  0.001494964    1.021    0.020
         6 -11.0742    191.8002    249.2094   1.1404276804e+02  -5.9669592733e+00    0.3278921    0.2388998  68.42  0.001781123    2.188    0.543
         7 -10.5026    175.9958    247.4529   1.1684181663e+02  -3.0901373205e+00    0.2272087     0.188438 -73.79  0.001386028    1.636    0.389
         8 -11.4285    246.7688    241.1892   1.0249210841e+02  -1.3125453987e+01     0.330298    0.2471467 -57.09  0.001953597    2.362    0.577
         9 -11.0219    225.2412    243.2107   1.0673380587e+02  -1.0302472909e+01    0.2524141    0.2447657 -60.64  0.001438664    1.502    0.334
        10 -10.3521    201.8789    242.5824   1.1103504320e+02  -6.5726172533e+00    0.2285364     0.172981 -61.89  0.001308102    1.965    0.491
        11 -10.6013    250.1843    245.7172   1.0267047975e+02  -1.4195601212e+01    0.2175376    0.1569321 -34.44  0.001018306    1.520    0.342
        12 -10.3649    239.9990    240.5112   1.0358130542e+02  -1.2080877116e+01    0.2094096    0.1665853 -47.67  0.001341523    1.741    0.426
        13 -10.0808    214.0980    241.0695   1.0845360366e+02  -8.2828530256e+00    0.1754121    0.1568713  75.36 0.0009768467    1.684    0.406
        14 -10.4572    183.4871    240.1568   1.1422384935e+02  -3.1504540836e+00    0.2753001    0.2165289 -83.31  0.001535334    1.977    0.494
        15 -10.1006    219.8208    240.1071   1.0721411492e+02  -9.0276353445e+00    0.1734408    0.1674217  21.78  0.001117436    1.315    0.239
        16 -10.4716    159.1375    239.2504   1.1894448351e+02   1.1729129232e+00    0.2440255    0.1754201  88.93   0.00124752    2.127    0.530
        17 -11.4904    230.8015    236.7511   1.0459898196e+02  -1.0202615933e+01     0.360721     0.292822  67.21  0.001883701    2.123    0.529
        18 -11.1613    191.0983    236.0757   1.1205549271e+02  -3.7592641487e+00    0.4709823    0.3269688 -77.57  0.002214824    2.900    0.655
        19 -10.4454    176.5047    236.0176   1.1494590504e+02  -1.2631954356e+00    0.3135953     0.131949 -46.47  0.001347764    2.668    0.625
        20 -11.3023    216.2956    233.8484   1.0680086705e+02  -7.5315674876e+00    0.3455131    0.3139259  70.00  0.001717961    1.575    0.365
        21  -9.7648    170.4973    235.4729   1.1606607274e+02  -1.2987634141e-01    0.1331085    0.1177755  36.49 0.0008100337    1.012    0.012
        22 -11.5557    236.4028    229.7149   1.0233313389e+02  -1.0008662999e+01    0.4013049    0.3637194 -84.93  0.002089092    1.825    0.452
        23 -10.7007    229.1874    228.1747   1.0338244054e+02  -8.6814083052e+00    0.2584967    0.1905832 -41.78  0.001147256    1.531    0.347
        24 -11.9607    247.6590    226.4303   9.9721511789e+01  -1.1179847353e+01    0.3648711    0.3441825 -79.63  0.001808951    1.708    0.415
        25 -12.4138    247.8814    216.6749   9.7894346369e+01  -9.7666860491e+00    0.6581926    0.3379689 -38.51  0.003057064    1.875    0.467
        26 -11.2200    247.1723    206.9159   9.6184723116e+01  -8.1522841170e+00    0.4463288     0.244116 -50.74  0.001642875    2.478    0.596
        27 -11.5042    242.7144    200.8587   9.5813435105e+01  -6.4842787473e+00    0.4137718    0.2673394 -35.97  0.001592114    1.439    0.305
        28 -10.4894    211.8094    227.5588   1.0655439696e+02  -5.8172107685e+00      0.23915    0.1837955 -40.86  0.001029792    1.428    0.300
        29 -11.2203    205.0026    235.6435   1.0927063069e+02  -5.9944243484e+00    0.3682968    0.2996948  88.97  0.002083139    2.086    0.521
        30 -10.3375    223.1145    226.7133   1.0425382382e+02  -7.5061858164e+00    0.2051043    0.1736346 -39.74  0.001029683    1.360    0.265
        31 -10.3927    198.9892    226.8230   1.0892185118e+02  -3.5548657171e+00    0.2216556    0.1758536 -58.30   0.00126396    1.633    0.388
        32 -10.2203    190.5382    226.2679   1.1050346765e+02  -2.0094353530e+00    0.2367859    0.1318402 -48.55  0.001130066    2.052    0.513
        33 -10.6367    205.9052    225.1872   1.0727756152e+02  -4.4504371005e+00    0.2989311    0.1828224 -51.26  0.001497701    2.040    0.510
        34 -10.9474    217.0445    223.4884   1.0482366194e+02  -6.0178683915e+00    0.3442912    0.2353409 -61.03  0.001502929    2.363    0.577
        35 -10.4203    180.4588    223.4479   1.1205229630e+02   2.5712618978e-01    0.2643511    0.1346826 -46.03   0.00119849    2.138    0.532
        36 -11.4122    248.6123    233.5551   1.0082866138e+02  -1.2330753987e+01    0.4211767    0.3248543  60.00  0.002491768    2.304    0.566
        37 -11.8383    238.4623    220.0461   1.0020502369e+02  -8.8633592285e+00    0.4190972    0.3177921 -48.62   0.00181519    1.669    0.401
        38 -11.5904    227.5698    220.5717   1.0230620190e+02  -7.2481065590e+00    0.3768268    0.3410361 -48.14  0.001759229    1.408    0.290
        39  -9.9199    186.0000    221.9461   1.1066547634e+02  -4.5629762039e-01    0.2111708   0.07744914 -45.04  0.000801342    2.935    0.659
        40 -10.8046    202.1068    218.7642   1.0687211220e+02  -2.7180810416e+00    0.3481377    0.1924972 -44.80  0.001671529    1.944    0.486
        41 -10.7987    193.3859    218.9153   1.0863809907e+02  -1.2224128077e+00    0.3277119    0.2377312 -65.04  0.001676138    1.968    0.492
        42 -10.6013    210.8161    218.5842   1.0513252333e+02  -4.1759030005e+00    0.2538159    0.1901402 -43.52  0.001286328    1.456    0.313
        43 -11.5650    217.5856    213.1358   1.0281856397e+02  -4.4011242325e+00     0.531828     0.310651 -52.09  0.002528454    2.207    0.547
        44 -10.1977    170.5677    216.7312   1.1293203050e+02   3.2841098368e+00    0.2582622    0.1344876 -42.76  0.001142843    2.091    0.522
        45 -11.3874    232.9298    212.8571   9.9880170119e+01  -6.8708749618e+00     0.374081    0.2760112 -38.52  0.001377771    1.388    0.279
        46  -9.8477    225.5750    213.0135   1.0127852161e+02  -5.7073528670e+00     0.245222     0.157606 -38.83 0.0008771304    1.555    0.357
        47 -10.9299    225.4527    207.7044   1.0029770952e+02  -4.8053988086e+00     0.298082    0.2686343 -46.80  0.001729159    1.321    0.243
        48 -11.6059    240.5296    208.4820   9.7667801068e+01  -7.3714017942e+00    0.5276557    0.3042717 -55.22  0.002167299    2.791    0.642
        49 -10.7560    235.2287    203.3217   9.7642463195e+01  -5.6847884519e+00    0.3089924    0.1944581 -45.41  0.001029521    1.708    0.415
        50 -11.4461    237.1542    197.9466   9.6247780862e+01  -5.1034060998e+00    0.3855014    0.2237394 -41.74  0.001364759    1.685    0.407
        51 -11.3732    236.9586    187.3741   9.4189317141e+01  -3.2654120514e+00    0.4447143    0.1888082 -42.23  0.001617383    2.231    0.552
        52 -10.8613    234.8093    181.5691   9.3404657904e+01  -1.8765561701e+00    0.3599327    0.2185435 -31.33  0.001274463    1.582    0.368
        53 -10.0499    209.6988    212.0599   1.0414511666e+02  -2.8722929664e+00     0.190594    0.1690595 -16.16  0.000882538    1.091    0.083
        54 -10.2924    176.8334    211.0079   1.1060889993e+02   3.2240458857e+00    0.2229736    0.1673952 -81.41  0.001084186    1.978    0.495
        55  -9.9981    160.7618    211.0106   1.1400702056e+02   6.2101591274e+00    0.1843523    0.1203652 -49.45 0.0008885553    1.640    0.390
        56 -10.1630    192.9900    209.9969   1.0709297509e+02   4.5468111453e-01    0.2096281    0.1752803  86.32 0.0009085948    1.674    0.402
        57 -10.3889    217.2359    204.5606   1.0126027720e+02  -2.8731356880e+00    0.2543738    0.1793785 -38.36  0.001087957    1.408    0.290
        58 -10.3787    197.6088    204.0127   1.0503143372e+02   7.1779431722e-01    0.3062663    0.1322989 -42.91  0.001235903    2.366    0.577
        59 -10.3183    205.9886    208.0045   1.0411289845e+02  -1.5121000913e+00    0.2146488    0.1984447   1.91  0.001157121    1.023    0.022
        60 -11.1139    250.1483    200.1104   9.4357660306e+01  -7.5282536370e+00    0.4311592    0.1747199 -44.48  0.001837186    2.586    0.613
        61 -12.3817    241.3438    180.1456   9.1947672656e+01  -2.7523567532e+00     0.775667    0.2905436 -46.22  0.002963516    2.794    0.642
        62 -11.8199    246.3284    193.3239   9.3703287852e+01  -5.8212658279e+00    0.3745664    0.3188331 -46.43  0.001504728    1.348    0.258
        63 -11.3405    243.8241    188.1078   9.3111555927e+01  -4.5394147025e+00    0.2576738    0.2244204 -33.75 0.0009402195    1.148    0.129
        64 -10.5031    223.5537    201.3523   9.9433911758e+01  -3.4029188908e+00    0.2533091    0.1664161 -39.95 0.0008259323    1.500    0.333
        65  -9.5232    220.3300    199.6839   9.9722112228e+01  -2.5567249304e+00    0.1282965    0.1111419 -88.52 0.0006740401    1.681    0.405
        66 -10.6857    210.5140    201.2335   1.0192469879e+02  -1.1042171624e+00      0.31459    0.2229711 -63.84  0.001506121    2.063    0.515
        67 -11.4034    224.0937    192.4356   9.7577447508e+01  -1.9333048352e+00    0.3784889    0.2472474 -47.59  0.001263323    1.637    0.389
        68 -10.2647    226.6399    197.3105   9.8062893214e+01  -3.2309156814e+00    0.2317682    0.1921501 -71.67 0.0009238616    1.755    0.430
        69 -10.2376    215.4345    197.7024   1.0027614130e+02  -1.3453087784e+00    0.2525879     0.128881 -45.81  0.001110374    2.044    0.511
        70 -10.3177    202.0278    197.4929   1.0288125750e+02   1.1196904110e+00    0.2644446    0.1990263 -57.75  0.001343887    1.608    0.378
        71  -9.7550    184.3107    196.6674   1.0635938383e+02   4.6057578092e+00    0.1424984     0.115608  85.28 0.0005581692    1.675    0.403
        72 -10.9138    230.9801    193.6428   9.6531291335e+01  -3.3360668195e+00    0.3272101    0.1826754 -38.03   0.00106305    1.690    0.408
        73 -10.1844    219.5481    194.3343   9.8819108804e+01  -1.4710065630e+00    0.2488257    0.1284255 -44.94 0.0009047394    1.974    0.493
        74 -10.2582    209.2766    194.5847   1.0086529049e+02   3.3035559864e-01     0.250366     0.166307 -50.01  0.001166963    1.658    0.397
        75  -9.6872    194.3349    194.6478   1.0388509510e+02   3.0951570786e+00    0.1437868    0.1155748  87.88 0.0005817297    1.788    0.441
        76 -10.7378    215.1938    190.5637   9.8906076510e+01  -6.5769637597e-03    0.4034939    0.1849826 -39.74  0.001685905    2.124    0.529
        77  -9.9024    198.7597    191.0098   1.0225999852e+02   2.9592312399e+00    0.1910269    0.1181776 -42.31  0.000884105    1.615    0.381
        78  -9.9636    210.3591    189.1621   9.9568711943e+01   1.1389336148e+00    0.2012977    0.1274742 -49.97  0.000944044    1.721    0.419
        79 -10.8764    229.9785    187.0732   9.5403300066e+01  -2.0107982052e+00    0.3173243     0.188304 -46.30  0.001103551    1.735    0.424
        80 -10.9051    229.0932    200.1540   9.8160746908e+01  -4.1367854369e+00    0.3055286    0.2237471 -20.54  0.001197256    1.346    0.257
        81 -11.1919    249.8048    184.4987   9.1350759416e+01  -4.9067756329e+00    0.4547699    0.1985654 -41.05  0.001774155    2.087    0.521
        82 -11.3081    247.7952    177.5573   9.0299905227e+01  -3.3921909769e+00    0.5258768    0.1697739 -41.99   0.00195223    2.817    0.645
        83 -10.4763    223.8910    183.6846   9.5851345838e+01  -3.2135243672e-01    0.2743381     0.193959 -45.74  0.001064016    1.434    0.303
        84  -9.9113    217.8445    183.5533   9.6974093424e+01   8.0372061503e-01    0.2355387    0.1602273 -43.44  0.000895981    1.445    0.308
        85 -10.4507    203.3572    183.4600   9.9801936461e+01   3.5423630564e+00     0.289185    0.1735545 -45.30  0.001135971    1.667    0.400
        86 -10.6542    210.9473    182.3118   9.8058483767e+01   2.3210460597e+00    0.3358438     0.202444 -40.74  0.001486182    1.605    0.377
        87 -10.6791    230.2659    180.1807   9.3949319494e+01  -8.2764432580e-01    0.3406223    0.1708559 -37.67  0.001233945    1.868    0.465
        88 -10.2856    225.5115    179.0547   9.4598141129e+01   2.3260944430e-01    0.2154536    0.1294792 -39.67 0.0009528854    1.562    0.360
        89 -10.5324    219.0226    177.7994   9.5562725678e+01   1.6600485515e+00    0.2692164    0.1939001 -39.53  0.001384448    1.319    0.242
        90 -10.0899    183.5024    183.0110   1.0381593834e+02   7.5107824097e+00    0.2288861    0.1446401 -45.92  0.001033478    1.596    0.374
        91  -9.9305    197.6096    176.7839   9.9583778589e+01   5.9755010846e+00    0.2099232    0.1359526 -52.40 0.0009481375    1.668    0.400
        92 -10.4266    101.0271    175.9954   1.2150809274e+02   2.5073065749e+01    0.2112779    0.1936075 -89.27  0.001172949    1.010    0.010
        93 -10.3731    232.9059    174.7378   9.2346862143e+01  -3.1397828356e-01    0.2585305    0.1847694 -36.45  0.001030462    1.283    0.220
        94  -9.6889    210.4831    175.4985   9.6734446890e+01   3.7161478785e+00    0.1433641    0.1357676 -21.69 -2.25042e-05    1.019    0.019
        95 -11.1095    225.3827    173.1122   9.3388255048e+01   1.3549293674e+00    0.3301467    0.2760241 -43.24  0.001287771    1.176    0.150
        96  -9.4707    215.6622    173.2950   9.5265050400e+01   3.1476159694e+00    0.1392509    0.1154865 -85.27 0.0007029315    1.651    0.394
        97 -11.2449    250.3083    152.6991   8.4750310485e+01   5.5354881489e-01     1.032354    0.1513412 -43.37  0.002516817    6.186    0.838
        98 -10.5438    247.2591    143.9294   8.3392587070e+01   2.6869327567e+00    0.3091531     0.180935 -41.79  0.001046059    1.493    0.330
        99 -11.5666    245.9525    168.6451   8.8793085908e+01  -1.5213276841e+00      0.50859    0.2241997 -41.61  0.001590389    2.035    0.508
       100 -10.7225    246.7404    162.4130   8.7368529227e+01  -5.5159775310e-01    0.3261836    0.1796437 -46.41  0.001249757    1.738    0.425
       101 -11.0741    245.6281    157.4041   8.6508462435e+01   5.4391513674e-01    0.3848403    0.2346197 -41.33  0.001186164    1.455    0.313
       102 -11.5103    243.4567    139.7409   8.3111460365e+01   4.1627943817e+00    0.4952442    0.2277475 -41.47  0.001423416    1.908    0.476
       103 -11.5086    242.0200    133.3541   8.1963555884e+01   5.6130335370e+00    0.4730105    0.2157761 -39.59  0.001355615    1.956    0.489
       104 -10.9530    241.6970    153.3597   8.6315343870e+01   1.9923668772e+00    0.3372046    0.2320738 -45.34  0.001066333    1.339    0.253
       105 -11.3136    243.8689    148.8228   8.4987401850e+01   2.4215867520e+00     0.410279    0.2346194 -40.03  0.001295609    1.544    0.352
       106 -10.5285    237.3649    169.3795   9.0436645679e+01  -1.4115618553e-01    0.3012784    0.1496323 -44.21  0.001323873    1.895    0.472
       107 -10.1305    205.2656    169.4141   9.6477395852e+01   5.9282516987e+00    0.2605613    0.1786129 -60.67  0.001185169    1.804    0.446
       108 -10.7964    218.6668    168.1487   9.3602050787e+01   3.5580651313e+00    0.3479627    0.2438898 -41.13  0.001253356    1.344    0.256
       109 -10.0202    229.2574    166.0075   9.1181604352e+01   1.9593089969e+00    0.2103401    0.1675889 -37.72  0.001083601    1.154    0.133
       110 -10.3059    191.5142    165.5079   9.8437791507e+01   9.5040925309e+00    0.3185949    0.1452561 -43.97   0.00120378    2.141    0.533
       111 -11.1147    233.8328    163.9450   8.9923095975e+01   1.4941534692e+00    0.3208481    0.1685888 -46.53  0.001122934    1.851    0.460
       112 -10.7341    239.9609    163.6867   8.8792475685e+01   4.2506817080e-01    0.3245155    0.1875741 -47.84  0.001077725    1.717    0.417
       113 -10.9305    237.8225    158.3791   8.8043956300e+01   1.7848213122e+00     0.356638    0.2267725 -36.55  0.001203427    1.429    0.300
       114 -10.7156    213.0807    162.9886   9.3563130642e+01   5.6472029431e+00    0.3583161    0.2052528 -41.53  0.001586839    1.650    0.394
       115 -10.1582    221.4281    161.7077   9.1704537094e+01   4.2607160886e+00    0.2704154    0.1309478 -44.75  0.001040258    1.961    0.490
       116 -10.3660    205.4203    161.7340   9.4787557286e+01   7.4303937138e+00    0.2898941    0.1373577 -46.31  0.001130349    2.068    0.516
       117 -10.1620    196.7787    156.9883   9.5479410804e+01   1.0174103185e+01    0.2127361     0.120086 -42.90 0.0008829352    1.706    0.414
       118 -10.3253    221.2914    152.0509   8.9630563654e+01   6.1509170304e+00    0.2744176    0.2012578 -42.06  0.001063127    1.262    0.207
       119 -10.1257    216.2079    156.1884   9.1485737968e+01   6.3583587549e+00     0.207073    0.1678196 -61.26 0.0009273061    1.370    0.270
       120 -10.6614    233.1343    153.4202   8.7801489859e+01   3.5841437924e+00    0.3191254    0.1795968 -42.29  0.001280053    1.611    0.379
       121 -10.6009    226.4933    157.0493   8.9768564602e+01   4.1715202922e+00    0.3711976    0.1316664 -41.57  0.001325888    2.587    0.613
       122 -10.0789    215.4710    148.9608   9.0029010395e+01   7.9281738915e+00    0.2349479    0.1369735 -43.53  0.001030089    1.601    0.375
       123 -10.5321    228.4620    150.9200   8.8085595300e+01   4.9560262809e+00    0.4311632    0.1323809 -36.59  0.001339435    3.482    0.713
       124 -11.5702    234.8643    146.5293   8.6012233964e+01   4.5448996425e+00    0.4617482    0.2862574 -44.92  0.001646544    1.473    0.321
       125 -10.5081    223.2496    146.4250   8.8034314762e+01   6.8489608189e+00    0.2853329    0.1924873 -40.42  0.001002004    1.364    0.267
       126 -10.8657    230.0231    140.6978   8.5571524226e+01   6.5938440827e+00    0.4003845     0.190145 -43.51  0.001467975    1.907    0.475
       127 -14.9640    237.3920     75.5833   6.9932587581e+01   1.6810183568e+01     1.350564    0.6021523 -36.01  0.005688433    2.286    0.563
       128 -13.4518    246.0309     84.6274   7.0782679022e+01   1.3473853175e+01     1.138988     0.695812  27.52  0.004414697    3.950    0.747
       129 -14.3847    241.8248    110.4031   7.6980152010e+01   9.8450703438e+00     1.694743    0.4960427 -45.15  0.005773069    3.006    0.667
       130 -11.7750    233.0747    129.1395   8.2496888640e+01   8.1682780151e+00    0.3548992    0.1933935 -41.39  0.001306093    1.647    0.393
       131 -10.1806    225.5384    133.0195   8.4641147994e+01   8.9687479486e+00     0.230482    0.1334621 -40.80 0.0008488385    1.579    0.367
       132 -11.0350    221.0692    128.3546   8.4366285916e+01   1.0798283454e+01    0.2693551    0.1934659 -34.12  0.001316022    1.382    0.276
       133 -10.2211    212.0000    129.0121   8.6143897798e+01   1.2605148399e+01    0.2522285   0.08078584 -41.39 0.0007980528    2.912    0.657
       134  -9.6150    192.6508    129.3155   8.9933742308e+01   1.6807464324e+01    0.1611064     0.120617 -81.45  0.000704732    1.727    0.421
       135 -11.3130    227.9889    124.7901   8.2372132458e+01   1.0032128780e+01     0.276206    0.1939514 -42.43  0.001346212    1.291    0.226
       136 -11.6297    241.8342     92.5417   7.3060892427e+01   1.3001073595e+01    0.3548088    0.2348507 -31.99  0.001048818    1.645    0.392
       137  -9.7730    212.5200    122.5052   8.4537373366e+01   1.3771821508e+01    0.1504424    0.1387305 -54.83 0.0008103297    1.004    0.004
       138 -12.7074    230.7348    115.1978   7.9759712194e+01   1.1259926863e+01    0.5741249    0.1720575 -45.58  0.001885731    3.054    0.673
       139 -11.7237    248.6445     72.3824   6.7846340976e+01   1.4939058915e+01    0.6315936    0.4137942  -9.22   0.00262398    3.555    0.719
       140 -13.4173    245.9663    101.9951   7.4547000178e+01   1.0499710790e+01     1.465187    0.4549631 -51.54  0.004617532    3.819    0.738
       141 -12.9103    243.9990     81.5597   7.0382733477e+01   1.4411711330e+01     1.053887    0.6200256  25.94  0.003408853    5.733    0.826
       142 -10.9282    222.4008    104.2218   7.8594538306e+01   1.5085225265e+01     0.216719    0.1231924 -49.89 0.0008954676    1.651    0.394
       143 -11.6162    248.7932     96.8749   7.3052423629e+01   1.0818931171e+01    0.4202938    0.2327144 -38.64  0.001357697    1.666    0.400
       144 -11.7057    230.4381    102.6996   7.6981838656e+01   1.3618776683e+01    0.2762292    0.1239062 -44.08 0.0008420806    1.987    0.497
       145 -11.9978    235.1911     95.2777   7.4603496983e+01   1.3927607512e+01    0.2837233    0.1864673 -47.51 0.0009993375    1.348    0.258
       146 -10.7845    242.3554    247.8114   1.0440937809e+02  -1.3403334512e+01    0.2195307    0.1874909  -0.82  0.001069587    1.146    0.127
       147 -10.9893    233.1649    247.0648   1.0593473102e+02  -1.2005679667e+01     0.265735    0.2374306  33.92  0.001265709    1.386    0.278
       148 -10.0148    215.3042     79.3541   7.3883478746e+01   2.1115811032e+01    0.1372918    0.1157687  11.64 0.0006709439    1.711    0.416
       149 -11.8955    248.3679     89.5263   7.1531587376e+01   1.2164512717e+01    0.8111021    0.3336476 -28.65  0.002615536    4.319    0.768
       150 -12.2782    247.7103    129.3243   8.0198595812e+01   5.2555535453e+00    0.8899922    0.2359138 -43.76  0.002922312    3.265    0.694
       151  -9.9460    211.4987     75.5060   7.3544607569e+01   2.2647788741e+01    0.1437127    0.1300261 -73.55 0.0004284167    1.025    0.024
       152  -9.8157    201.2885     77.3568   7.5599012221e+01   2.4732166548e+01    0.1402375    0.1175308  12.17 0.0005173269    1.680    0.405
       153 -10.0551    163.3807     70.7760   8.0739380185e+01   3.4990740789e+01    0.2065888    0.1438689 -25.81 0.0009546072    1.696    0.410
       154 -10.2037    222.3069     70.3266   7.0766455534e+01   2.1017889277e+01    0.1298068    0.1124604  18.83 0.0004764374    1.652    0.395
       155 -12.8440    248.4284    120.5153   7.8195110081e+01   6.7096170697e+00      2.06877    0.2174989 -43.42  0.004532986    7.369    0.864
       156 -10.9304    238.3109    140.2635   8.4069748071e+01   5.0506327019e+00    0.2523276    0.1815799 -42.01 0.0008652196    1.236    0.191
       157 -10.4253    203.3965     65.7440   7.2413994937e+01   2.6156107314e+01    0.1919962    0.1371831 -28.55 0.0009493622    1.653    0.395
       158  -9.6401    181.6703    141.3443   9.5062914831e+01   1.6720694066e+01    0.1634227    0.1231475 -82.33 0.0007050654    1.751    0.429
       159 -10.9995    206.8941     57.8450   6.9987563662e+01   2.6564141662e+01    0.2040184    0.1937275  51.01 0.0008462326    1.270    0.212
       160 -10.0606    224.2782    140.0133   8.6426813793e+01   7.8800844269e+00    0.2171905    0.1742407 -41.91 0.0008219028    1.140    0.123
       161 -10.3669    218.5606    137.7629   8.6947721885e+01   9.4928124977e+00    0.2849889    0.1369776 -38.17  0.001126626    2.000    0.500
       162 -11.9831    238.1966     42.2270   6.2652741661e+01   2.1717784371e+01     0.234643    0.1930204  34.59  0.001058912    1.859    0.462
       163 -10.1496    234.3304     39.3047   6.2439394958e+01   2.2970306996e+01    0.1175136   0.09934549  42.69 0.0004667578    1.656    0.396
       164 -14.0604    239.9777    124.0275   8.0253529824e+01   7.7332349396e+00     1.735328    0.6121271 -54.10  0.005054469    4.485    0.777
       165 -10.6432    242.3230     37.3335   6.1220540822e+01   2.1500024405e+01     0.114003   0.09921915  38.53 0.0004364847    1.706    0.414
       166 -10.0399    208.5133    138.0038   8.8867458526e+01   1.1562738234e+01    0.2412797    0.1408275 -43.39  0.001035822    1.605    0.377
       167 -11.5798    234.4775    134.9986   8.3558209691e+01   6.7859056400e+00     0.434732    0.2489708 -46.01   0.00153294    1.588    0.370
