#   1 NUMBER                 Running object number                                     
#   2 MAG_AUTO               Kron-like elliptical aperture magnitude                    [mag]
#   3 X_IMAGE                Object position along x                                    [pixel]
#   4 Y_IMAGE                Object position along y                                    [pixel]
#   5 X_WORLD                Barycenter position along world x axis                     [deg]
#   6 Y_WORLD                Barycenter position along world y axis                     [deg]
#   7 A_WORLD                Profile RMS along major axis (world units)                 [deg]
#   8 B_WORLD                Profile RMS along minor axis (world units)                 [deg]
#   9 THETA_WORLD            Position angle (CCW/world-x)                               [deg]
#  10 FWHM_WORLD             FWHM assuming a gaussian core                              [deg]
#  11 ELONGATION             A_IMAGE/B_IMAGE                                           
#  12 ELLIPTICITY            1 - B_IMAGE/A_IMAGE                                       
         1 -12.9585    201.8602     33.9154   6.0669326465e+01   3.1151075361e+01    0.7695667    0.6839393 -69.88  0.004194947    1.164    0.141
         2 -12.1439      2.8791     25.6091   1.1141047518e+02   6.9025161558e+01    0.4854355    0.1605852 -44.68  0.002526071    2.525    0.604
         3 -12.5121      3.5163      4.8128   1.0268608273e+02   7.1739453408e+01    0.6231176    0.4066829 -22.82  0.004759207    1.275    0.216
         4 -13.4669    220.4565     15.6282   5.5001092022e+01   2.9323815466e+01    0.8238398    0.7191908  69.66   0.00426548    1.385    0.278
         5 -11.6917      3.4525     19.3919   1.0878901121e+02   6.9872036713e+01    0.4050225    0.2037438  37.81  0.002315489    3.067    0.674
         6 -10.2720     74.4576    243.4818   1.3166127176e+02   1.3175352322e+01    0.3217027    0.2670912 -70.35  0.001276577    1.287    0.223
         7 -11.1821    177.0240    249.7200   1.1106843630e+02  -4.3616364873e+00    0.5287583    0.2100607  28.31  0.002037338    2.963    0.662
         8 -10.6480    162.7119    250.0970   1.1406802321e+02  -2.1469664703e+00    0.3268349    0.1995196  42.75  0.001132801    1.515    0.340
         9 -11.1261    143.1154    248.9288   1.1797833020e+02   1.2498876024e+00    0.3933702     0.248515  63.36  0.001897658    2.126    0.530
        10 -11.7701    118.6482    236.7832   1.2146660466e+02   7.6776487357e+00    0.7764369    0.5027808 -14.16  0.003157832    3.297    0.697
        11 -10.7091    109.8732    247.8623   1.2481638197e+02   6.8500184608e+00     0.339503     0.276329  62.16  0.002047067    1.146    0.127
        12 -12.7910    124.6156    245.1801   1.2135267035e+02   5.0005472109e+00    0.8859937    0.8247122 -42.99  0.005616567    1.237    0.192
        13 -11.2468    100.3562    247.8674   1.2680455377e+02   8.3512280518e+00    0.5941589    0.3408863  47.38  0.002929903    1.527    0.345
        14 -10.1651     81.2919    248.4740   1.3080200210e+02   1.1131911471e+01    0.3401587    0.2020315 -71.28  0.001279005    1.778    0.437
        15 -10.3637     84.3400    230.1412   1.2804523517e+02   1.4584662504e+01    0.4498752    0.2210205 -60.42  0.002077151    2.066    0.516
        16  -9.9502     90.7981    250.3731   1.2907150686e+02   9.3173998334e+00    0.3195877    0.2222478  39.77  0.001340114    1.354    0.262
        17 -11.2092     86.7510    247.9834   1.2963161833e+02   1.0417134040e+01    0.4837416    0.3748893   7.68 0.0009208134    2.004    0.501
        18 -11.0773     83.2667    240.4816   1.2950237130e+02   1.2508288731e+01    0.7761415     0.280264  51.48  0.003022225    2.798    0.643
        19 -10.3399     91.4813    241.4943   1.2789552224e+02   1.1043611317e+01    0.2691042    0.2378583  71.60 0.0009757548    1.047    0.045
        20 -11.2359     88.2459    237.6443   1.2811829681e+02   1.2356922705e+01    0.6261997    0.3200689  54.61  0.002539282    1.925    0.481
        21  -8.5247     63.2802    250.3292   1.3460051508e+02   1.3332639196e+01    0.1098974   0.09734077 -41.34 0.0002952578    1.601    0.376
        22  -8.8954     56.4525    250.5130   1.3595377558e+02   1.4227735739e+01    0.1731312    0.1413002  73.26 0.0008276558    1.036    0.035
        23 -11.0748     59.8614    245.9091   1.3485516511e+02   1.4723871346e+01    0.4652573    0.2982436  51.65  0.002055682    1.346    0.257
        24 -10.7221     68.3862    245.6856   1.3312594440e+02   1.3583073963e+01    0.4178812    0.2157488  57.73  0.001498417    1.838    0.456
        25 -10.3872     50.8768    249.1918   1.3691667585e+02   1.5243685629e+01    0.3128209    0.2851261  -2.47  0.001631277    1.710    0.415
        26 -12.0102     29.1204    233.6858   1.3983098481e+02   2.1252938625e+01     1.363817     0.742506  20.46  0.006556584    3.152    0.683
        27 -11.3779     48.7701    217.9291   1.3434949752e+02   2.2382380721e+01    0.9629711     0.432116  41.93  0.003125014    2.087    0.521
        28 -12.7189      6.3257    214.9398   1.4284830544e+02   2.7833042381e+01    0.9578422    0.8997223  36.28  0.004103094    1.476    0.322
        29 -12.1993      9.8735    206.8048   1.4151066587e+02   2.9335321155e+01     1.453988    0.7260513  10.95  0.006133555    4.544    0.780
        30 -13.0098     40.4260    244.2859   1.3851232861e+02   1.7612349845e+01     1.071301    0.8981979  82.10  0.004633404    1.123    0.109
        31 -14.1407     29.9824    218.6689   1.3838121138e+02   2.4498405100e+01     1.679088     1.242953 -39.43   0.00987855    1.991    0.498
        32 -11.8747    179.9862    243.7006   1.0949733323e+02  -3.7912057991e+00     0.561395     0.245133  32.69  0.002437328    2.201    0.546
        33 -10.3525    164.8308    242.5496   1.1245439753e+02  -1.1337450752e+00    0.3097208    0.1933982 -70.29  0.001391733    2.740    0.635
        34 -11.2736    115.9945    249.0496   1.2368675322e+02   5.6354899717e+00    0.5538876    0.5102819 -80.53  0.003566667    1.177    0.150
        35 -10.9152     97.1740    239.1328   1.2640012801e+02   1.0654400858e+01    0.3757606    0.2884372 -75.78  0.002095852    1.360    0.265
        36 -11.8037    102.6812    239.6880   1.2529499690e+02   9.6666222144e+00    0.6224506    0.4427249 -28.37 0.0005025637    2.178    0.541
        37 -10.8878    101.3657    235.6910   1.2506105222e+02   1.0718956136e+01    0.3186227    0.2167093  74.87 0.0008835407    1.685    0.407
        38 -10.7577    136.2267    225.0313   1.1584471779e+02   7.1502606309e+00    0.7716522    0.1900178 -50.18  0.002391759    4.178    0.761
        39 -11.3479    135.6215    241.1872   1.1844044849e+02   3.9699518195e+00    0.2880984    0.2033049 -46.63  0.001117114    1.584    0.369
        40 -11.9513    135.4782    236.3618   1.1775709817e+02   4.9522648988e+00    0.4767471    0.3841253  15.85  0.002660842    1.418    0.295
        41 -12.7222     26.4619    247.4816   1.4138935115e+02   1.8628527763e+01    0.9068244    0.6852737  39.30  0.006119337    1.521    0.343
        42  -8.6041     66.5960    239.7888   1.3288509834e+02   1.5087970693e+01     0.177299      0.11038 -87.75 0.0007336431    1.663    0.399
        43  -8.6151     60.9560    239.0000   1.3395836116e+02   1.6044395523e+01    0.2028719    0.0666273  36.51 0.0007996499    2.923    0.658
        44 -13.7971      6.0602    245.3337   1.4492010804e+02   2.1316084705e+01     1.905039    0.9492905 -78.80   0.01130565    1.702    0.412
        45 -10.9828    134.0000    232.9536   1.1756500890e+02   5.8920182778e+00    0.3237602    0.1988155 -52.75  0.001124829    1.763    0.433
        46 -11.1430    113.3909    230.9401   1.2179203461e+02   9.7743184389e+00    0.4267783    0.3133648  41.47  0.001745494    1.264    0.209
        47 -10.6605    110.4767    233.9604   1.2285142349e+02   9.6124382903e+00     0.517517    0.2749873  79.98    0.0016999    4.485    0.777
        48 -11.2692    105.5878    228.7063   1.2320059656e+02   1.1538960553e+01    0.3753248    0.2893105  47.47  0.001779348    1.188    0.158
        49  -8.8698    156.3056    232.6441   1.1267590679e+02   2.1581245717e+00    0.1378064    0.1066721  73.30 0.0007040918    1.719    0.418
        50 -10.2352    250.0000    230.5017   9.3751969041e+01  -1.1855020695e+01    0.2638962   0.06051172 -40.57 0.0009381996    3.963    0.748
        51 -10.7926    143.0170    240.9561   1.1682492258e+02   2.7822625554e+00    0.2362136    0.1845663 -51.61  0.001339809    1.416    0.294
        52 -11.9066     21.8142    219.7876   1.4014215274e+02   2.5156810323e+01    0.3095199     0.253253  66.57 0.0004424216    1.151    0.131
        53  -9.5236     56.7721    228.5882   1.3376110442e+02   1.8903116730e+01    0.2886623    0.1586403 -73.62 0.0008921584    1.751    0.429
        54 -10.8014     79.3352    225.7196   1.2859324471e+02   1.6326929572e+01    0.4686771    0.2842148 -78.87   0.00231837    1.769    0.435
        55  -9.1797     77.0708    220.6737   1.2846910103e+02   1.7810153683e+01    0.2117163    0.1619518  71.38 0.0003802202    1.232    0.188
        56 -12.7728     24.0248    225.2240   1.4014630373e+02   2.3696324588e+01    0.4293704    0.3785469 -17.28 0.0008181521    1.803    0.445
        57  -9.0627     92.3443    226.0438   1.2577067018e+02   1.4251722721e+01    0.1935079    0.1665117  87.08 0.0004879583    1.112    0.101
        58  -9.5711    117.2398    224.5197   1.2000565076e+02   1.0512708839e+01    0.2480463    0.1946045 -63.60   0.00070059    1.344    0.256
        59  -9.1772     65.1435    224.0285   1.3148245795e+02   1.8775430102e+01    0.3831741    0.1295044 -51.97  0.001408724    3.489    0.713
        60 -10.6794    198.0897    245.6915   1.0616711472e+02  -6.9435175723e+00    0.2507702     0.148333  29.49  0.001223914    1.567    0.362
        61  -8.4376    164.3723    224.1567   1.0952015876e+02   2.4406241143e+00    0.1792558    0.1336243 -60.66 0.0003558872    1.591    0.371
        62  -8.6646    132.2919    224.3523   1.1661340987e+02   7.9739834265e+00    0.1397261    0.1105797 -13.45 0.0003193615    1.677    0.404
        63 -10.6053     98.6132    222.8413   1.2394228635e+02   1.3966105399e+01     0.303459    0.2652355  64.97  0.000982622    1.038    0.037
        64  -9.1902     87.4861    223.6753   1.2653793004e+02   1.5542203145e+01     0.248019    0.1435028  57.95  0.001162308    1.768    0.435
        65 -10.2432     70.8486    219.3921   1.2969151060e+02   1.9019616445e+01    0.4542553    0.3135361  83.87  0.002415827    1.473    0.321
        66  -9.9405    141.6335    219.5593   1.1374988906e+02   7.3595713401e+00    0.3452491    0.2644234 -53.47  0.001398034    1.384    0.277
        67  -9.4450     91.1522    219.5926   1.2517527583e+02   1.5892404186e+01    0.3726624    0.1782661  35.97  0.001597348    2.097    0.523
        68  -9.2875    246.3233    219.3281   9.2393331292e+01  -9.6207736889e+00    0.1313187   0.08451317  -8.88 0.0004272876    1.694    0.410
        69  -8.1166    156.2477    218.6637   1.1034878727e+02   4.9676884687e+00    0.1352175    0.1111649  84.27 0.0002420165    1.558    0.358
        70  -9.5940    117.5660    215.2250   1.1851227764e+02   1.2509192538e+01    0.3164833    0.2457117   1.40  0.001075124    1.823    0.452
        71  -9.1517    111.6731    215.1531   1.1985474547e+02   1.3532693458e+01    0.2331401    0.1777326  49.56 0.0003187712    1.237    0.192
        72  -9.2897     87.9184    212.6640   1.2496034883e+02   1.7999231634e+01    0.2874585    0.1836211  68.19  0.001330783    1.761    0.432
        73 -10.5098     56.3114    209.5157   1.3175980861e+02   2.3357384650e+01    0.5965547    0.3069654 -87.14   0.00258682    2.305    0.566
        74  -9.2864     63.8178    205.1915   1.2952491664e+02   2.3358485906e+01    0.2060352    0.1619682  81.66 0.0002967417    1.179    0.151
        75  -8.6323    134.4181    207.7804   1.1340101073e+02   1.1206656639e+01     0.200561    0.1361738 -41.89 0.0007521501    1.614    0.380
        76  -8.5169    112.3204    208.6694   1.1869260678e+02   1.4902364752e+01    0.1530553    0.1076703  72.61 0.0007048716    1.693    0.409
        77  -8.3256     74.2672    208.3398   1.2752065482e+02   2.1102803032e+01    0.1327129    0.1048589 -39.93  0.000325256    1.599    0.374
        78 -10.7265    106.8698    203.5415   1.1915831367e+02   1.7030185883e+01     0.278725     0.233239 -68.40 0.0002147626    1.194    0.163
        79  -8.2230     89.2871    205.2834   1.2358877070e+02   1.9520708463e+01    0.1317718    0.1124418 -26.41 0.0002524451    1.526    0.345
        80 -10.0905     63.1056    208.7448   1.3013109686e+02   2.2611160917e+01    0.3550528    0.3229107   4.36  0.001311083    1.485    0.326
        81 -10.1046      3.5192    178.9987   1.4049349973e+02   3.6400888613e+01    0.2982092    0.1886712  26.28  0.001764073    1.987    0.497
        82  -9.4953      2.6099    201.7640   1.4260343650e+02   3.1164928362e+01    0.2767514    0.1016191 -75.18  0.001291196    2.190    0.543
        83  -9.4880      3.2984    198.1260   1.4217584712e+02   3.1940451528e+01    0.2443403    0.1963544  62.97 0.0008586687    1.237    0.192
        84 -10.4304      3.6432    186.9037   1.4116997359e+02   3.4525022241e+01    0.3272895     0.264231  85.65  0.001843386    1.072    0.067
        85  -9.1948      1.4731    182.5298   1.4126658379e+02   3.5734208429e+01    0.2421244    0.1269651 -79.71 0.0005857799    1.537    0.350
        86  -9.8198      5.1760    194.6010   1.4149334064e+02   3.2591221349e+01    0.2128342    0.1784496  21.74   0.00144612    1.627    0.386
        87 -10.2577      1.5497    191.9001   1.4204165219e+02   3.3535007020e+01    0.4459117     0.143372 -77.02   0.00085949    2.600    0.615
        88  -9.0901     83.8188    201.6596   1.2435460937e+02   2.1248856463e+01    0.1959009     0.167736  68.91 0.0003665813    1.096    0.088
        89 -10.1911     74.9860    200.1388   1.2623715517e+02   2.2962210917e+01    0.2388728    0.1902851 -80.73 0.0003868219    1.180    0.152
        90  -8.2474     96.6915    199.2702   1.2091291455e+02   1.9755955315e+01     0.147683     0.105439  69.45   0.00014146    1.542    0.352
        91 -11.6243     54.0310    193.6760   1.3035191605e+02   2.7473148642e+01    0.4873042    0.3391627 -57.09  0.001184848    1.430    0.301
        92  -9.7472    249.7715    194.3541   8.7145871796e+01  -5.9470790194e+00    0.2474048    0.1986888   0.27   0.00153421    1.275    0.216
        93  -9.6348     33.8952    192.3156   1.3490315663e+02   3.0252678602e+01    0.3287325    0.1963104  82.81 0.0005360325    1.712    0.416
        94  -9.1217     25.8196    192.6605   1.3678284302e+02   3.1048852198e+01    0.2164516    0.1527266  53.45 0.0009664147    1.411    0.291
        95  -9.1022     21.5899    192.5696   1.3772505911e+02   3.1508513507e+01    0.3250334    0.1867252  67.58  0.001076338    1.769    0.435
        96  -9.2380    191.5766    191.7248   9.7662001551e+01   4.1417373753e+00    0.2285964    0.1968624 -31.13 0.0006343488    1.117    0.104
        97  -8.5354     72.4697    192.6204   1.2577321068e+02   2.5169375843e+01     0.139099     0.127668  85.09 0.0001060067    1.045    0.043
        98  -9.4779     30.5481    193.4180   1.3578949433e+02   3.0358361752e+01    0.1773913    0.1654171  58.49 4.607572e-06    1.249    0.199
        99  -8.4869     15.0011    190.0249   1.3894853392e+02   3.2763876518e+01    0.1556941    0.1173438 -83.56 0.0004265556    1.066    0.062
       100  -9.9854    250.2464    187.5583   8.5768989219e+01  -4.8398138537e+00    0.2951566    0.1343267 -31.82  0.001298097    2.205    0.546
       101  -8.9508     76.5678    187.3006   1.2397463520e+02   2.5872310755e+01    0.3025319    0.1376386 -70.02  0.001147617    2.425    0.588
       102  -9.8869      9.5820    186.7645   1.3984871485e+02   3.4039324439e+01    0.3482783    0.1705206  83.39  0.001665337    2.132    0.531
       103  -9.9746     71.0910    187.0993   1.2530245666e+02   2.6735170714e+01    0.2833831    0.1887193  42.92 0.0003408378    1.521    0.343
       104 -11.4945     60.5480    185.6848   1.2770344309e+02   2.8573668269e+01    0.2942375    0.2437358 -52.69 0.0005298518    1.285    0.222
       105  -9.3814    107.0206    185.5689   1.1609140434e+02   2.1317172516e+01     0.211862    0.1963374 -76.61  0.000325155    1.044    0.042
       106  -9.2887     24.5010    184.0410   1.3617619133e+02   3.3264428141e+01    0.1904166    0.1650458  72.59  0.001066474    1.147    0.128
       107 -10.1032     37.1427    180.3414   1.3273481424e+02   3.2813026261e+01     0.328125     0.186166 -56.44  0.001402006    1.652    0.395
       108  -9.4931     27.0599    179.7303   1.3509310164e+02   3.4051318457e+01     0.236894    0.1571052 -69.36 0.0002283935    1.276    0.217
       109 -11.4265    248.5466    172.5124   8.3136014045e+01  -1.9099772404e+00    0.4910779    0.3527515 -22.03  0.002757653    1.429    0.300
       110 -10.4804     71.9529    173.5608   1.2297581960e+02   2.9995999742e+01    0.2542957    0.2450053  85.50 0.0004114626    1.095    0.087
       111 -10.2775     57.1418    173.4532   1.2678685787e+02   3.2086827310e+01    0.3374132    0.2314099  49.78   0.00135048    1.516    0.340
       112  -9.5665     18.4335    172.5937   1.3636035597e+02   3.6637590148e+01    0.3251509    0.1736903  69.33  0.001553336    2.173    0.540
       113  -9.9497     12.2179    173.1192   1.3790422280e+02   3.7070772890e+01    0.3444745    0.1221072 -62.57  0.001413749    2.208    0.547
       114 -10.4208      2.3604    172.3712   1.4014007230e+02   3.8067581593e+01     0.344996    0.2071046  83.43  0.001342697    1.558    0.358
       115 -10.5903      5.3137    167.2985   1.3894638675e+02   3.9045815146e+01    0.2725829    0.2098479 -63.72  0.001191056    1.198    0.165
       116 -11.7468     12.4792    167.0986   1.3719712363e+02   3.8503381289e+01    0.5699227    0.3818642 -76.36  0.002483982    1.212    0.175
       117 -10.5455      8.6939    165.6636   1.3796217776e+02   3.9166759743e+01     0.379964    0.1454134 -57.96  0.001742477    2.161    0.537
       118  -9.6801     27.4399    171.5683   1.3403981204e+02   3.6014137091e+01     0.351124    0.1936766 -43.32 0.0004784777    2.172    0.540
       119  -9.0360     51.8203    171.1220   1.2781127793e+02   3.3358051104e+01     0.207152    0.1709146  78.48  0.000532358    1.191    0.160
       120 -10.3821     44.0206    166.1987   1.2911593473e+02   3.5540319319e+01    0.5629064    0.2142265 -49.78  0.002179542    2.646    0.622
       121  -9.6217     38.9193    167.7165   1.3064784233e+02   3.5745240616e+01    0.2204852    0.1664209 -74.51 0.0004889966    1.145    0.127
       122 -11.4047     79.8786    165.6878   1.1954525250e+02   3.0785233517e+01    0.5183713    0.4405079  10.36  0.001736549    1.457    0.313
       123  -9.9172     68.2721    166.3330   1.2274715626e+02   3.2352993474e+01    0.2538719    0.2154491 -87.02 0.0003139083    1.139    0.122
       124 -11.8009    245.3024    162.3575   8.1663221496e+01   4.6100207349e-01    0.5606942    0.2220518 -47.50  0.002287096    2.341    0.573
       125 -10.4310    249.4327    161.6883   8.0862406607e+01  -8.9956231447e-02    0.3172975    0.1938907 -49.08  0.001643277    1.514    0.339
       126 -11.3305    245.9923    156.6760   8.0418435144e+01   1.3930088550e+00    0.6583499    0.3849565  68.69  0.002762699    3.337    0.700
       127  -9.5789     29.7703    165.1703   1.3265035695e+02   3.7356146804e+01    0.1808322    0.1381633 -50.90  0.000557106    1.337    0.252
       128  -9.6022     66.8977    161.4967   1.2229415768e+02   3.3770391674e+01     0.255009    0.1779354 -50.04 0.0003184316    1.399    0.285
       129  -9.6591     23.9724    162.0098   1.3372645573e+02   3.8707553914e+01    0.1968419    0.1632546 -71.67 0.0003712054    1.046    0.044
       130  -9.1441     28.7025    161.0298   1.3238123496e+02   3.8488032526e+01    0.1874482    0.1427339 -71.12 0.0002506104    1.101    0.092
       131  -9.8040     81.7302    157.9199   1.1761789368e+02   3.2455030210e+01    0.4488408    0.2303109 -73.60   0.00108133    2.624    0.619
       132 -11.2598      9.9678    157.2145   1.3670869272e+02   4.1103949117e+01    0.3671373    0.2052389  71.69  0.001573685    2.091    0.522
       133  -8.9235     46.2880    156.0671   1.2698725994e+02   3.7813062880e+01    0.1972629    0.1589516 -68.97 0.0003110045    1.084    0.077
       134 -11.1765     23.9229    155.2350   1.3285909267e+02   4.0379029498e+01    0.4454442    0.2577049  26.44  0.002320237    2.069    0.517
       135  -8.7863     32.5187    153.5226   1.3033022117e+02   3.9962214846e+01    0.1359216    0.1149908 -72.21 3.161991e-05    1.002    0.002
       136 -11.7557    244.1840    121.1657   7.3522579076e+01   8.2532726541e+00    0.5476626    0.3464102 -63.29  0.002760835    1.727    0.421
       137 -10.8412    249.5943    150.8405   7.8685326068e+01   1.8642596241e+00    0.4623195    0.2255114 -44.83  0.002160943    1.737    0.424
       138 -11.8222    247.9601    142.3339   7.7237452915e+01   3.7015941183e+00    0.6655313    0.5272178  43.20  0.003945925    1.506    0.336
       139 -12.7902    248.1758    134.3857   7.5608882148e+01   5.1218154740e+00      1.31082    0.6890365 -37.33  0.006220031    1.770    0.435
       140 -10.0995     94.0408    150.2825   1.1272366904e+02   3.2343430267e+01    0.3200857    0.2677226  48.14 0.0009022682    1.245    0.197
       141  -8.8386     86.9904    151.2248   1.1486416558e+02   3.3291031487e+01    0.1994159    0.1897641 -79.82            0    1.030    0.029
       142 -10.8286     22.4609    149.4762   1.3246835567e+02   4.1927199118e+01    0.3362275    0.2126909  43.20  0.001835801    1.778    0.438
       143  -9.4433     81.7797    148.8869   1.1584600561e+02   3.4716392596e+01    0.3317835    0.2114704  49.23   0.00149762    1.712    0.416
       144 -11.5195     68.0673    144.1425   1.1879375497e+02   3.7969846096e+01    0.7179186    0.4980815  88.60  0.002971616    1.840    0.457
       145  -9.9484     12.3099    153.9700   1.3572681847e+02   4.1700861400e+01    0.1911556    0.1403801 -70.50 0.0008181671    1.099    0.090
       146 -11.5299      2.3683    143.5418   1.3706781691e+02   4.4950340295e+01    0.5547184    0.2220308 -75.11  0.002312055    2.152    0.535
       147 -11.9947      5.6098    141.7867   1.3599078281e+02   4.5144079198e+01    0.6491005    0.2468215 -79.03  0.002661105    2.718    0.632
       148 -11.6438      8.6803    144.3201   1.3548670785e+02   4.4313934741e+01    0.4065827    0.1610056 -72.28  0.001812131    2.130    0.530
       149 -10.7986      9.5224    141.4654   1.3489363823e+02   4.4936977718e+01     0.261379    0.1768519 -59.60 0.0007725283    1.222    0.182
       150  -8.9974    236.1042    145.8533   7.9828993345e+01   5.1281128457e+00    0.1851507    0.1541667 -22.31 0.0005033615    1.296    0.228
       151  -8.6348     97.4822    146.4223   1.1095964888e+02   3.2703762790e+01    0.1518055    0.1448837 -44.54  0.000144067    1.066    0.062
       152  -9.9057    133.2488    141.0941   1.0020966113e+02   2.7120870337e+01    0.3404722    0.2586997 -63.50 0.0008694677    1.403    0.287
       153 -10.9409     16.7719    140.1428   1.3272353444e+02   4.4689632695e+01    0.2989595    0.2287864  60.43 0.0005279607    1.482    0.325
       154  -9.0283     36.9866    140.0444   1.2699235417e+02   4.2833332914e+01    0.1712848    0.1383548 -64.46 0.0006130424    1.062    0.058
       155  -9.4047    107.2390    135.7927   1.0588511291e+02   3.3524038254e+01    0.4100713    0.2653086 -15.01  0.001357244    2.734    0.634
       156  -9.1553     94.0528    133.1351   1.0898119194e+02   3.6555692425e+01    0.2237257    0.1961045 -21.45 0.0003171688    1.256    0.204
       157 -11.1720      2.2331    131.1889   1.3555491699e+02   4.7886352943e+01    0.5298868    0.1925406 -64.57  0.002443923    2.024    0.506
       158 -11.9503      2.2222    121.6537   1.3424655774e+02   5.0117399633e+01    0.6545905    0.1616487 -67.02  0.002491684    3.034    0.670
       159 -11.5037      5.5047    120.5077   1.3310908258e+02   5.0176914153e+01     0.288711    0.2546673 -63.36  0.001608234    1.103    0.094
       160 -10.0039     44.1984    129.8753   1.2306725608e+02   4.4539738379e+01    0.2065153    0.1752285 -84.26  0.000563336    1.238    0.192
       161 -10.6367     13.0254    127.9848   1.3201722243e+02   4.7896797266e+01    0.2099271    0.1241396 -41.06 0.0009198788    1.688    0.407
       162 -11.5813      8.3820    126.3106   1.3312118462e+02   4.8626292853e+01    0.3544241    0.1563284 -62.34   0.00174046    1.730    0.422
       163  -9.5476     59.6324    146.4611   1.2163869163e+02   3.8551635943e+01    0.3440735    0.1753684 -35.84  0.001325475    2.685    0.628
       164  -8.5477     47.7077    126.3293   1.2131730992e+02   4.4996058279e+01    0.1366279    0.1041467  80.70 0.0002355598    1.626    0.385
       165  -9.0728     54.1295    151.7798   1.2412744862e+02   3.7930982036e+01    0.2700804    0.1507903 -42.58 0.0006952904    1.954    0.488
       166 -12.5908     14.3994    100.8740   1.2695702236e+02   5.4054594064e+01    0.5923579    0.3628492  -7.27  0.002750807    2.022    0.505
       167 -12.7014    248.1288    101.1688   6.8947483144e+01   1.1074440181e+01    0.9801378    0.5107868 -41.75  0.004823994    1.704    0.413
       168 -11.8202    247.7576    112.8931   7.1345884326e+01   9.0837648037e+00    0.5039268    0.4234342  55.74  0.003116023    1.406    0.289
       169  -8.3425     50.3218    122.6559   1.1977001898e+02   4.5568641562e+01    0.1403377    0.1054062  77.98 0.0007050119    1.730    0.422
       170  -9.3623    167.7226    112.9818   8.5228605628e+01   2.5846450597e+01    0.2766305    0.2101716  88.05  0.001274242    1.630    0.387
       171  -8.9815     59.8296    107.8415   1.1344615136e+02   4.7820423340e+01    0.1781046    0.1628438  88.49 0.0002650448    1.289    0.224
       172 -12.4612     14.3320    117.6414   1.2998705806e+02   5.0233190315e+01    0.9224612    0.2899588  43.95  0.003303905    4.748    0.789
       173 -10.5811    231.9408    116.6341   7.4404135859e+01   1.1405622715e+01    0.2791457    0.1810815 -51.64 0.0006496141    1.370    0.270
       174  -8.3734     71.7261    100.2846   1.0770376777e+02   4.7798053149e+01    0.1301751    0.1120655  85.68 0.0002393985    1.505    0.336
       175 -11.5586      2.0767     91.6968   1.2936718219e+02   5.6855457872e+01    0.7402742          nan -63.84  0.001473669   11.991    0.917
       176 -12.5032      8.8142    112.3491   1.3081497916e+02   5.1844564926e+01    0.4443161     0.320488 -81.57  0.001788688    1.431    0.301
       177  -9.8631    249.8129    117.8098   7.2047911331e+01   7.8313516252e+00    0.2455885    0.1858302 -54.57 0.0006453831    1.130    0.115
       178 -10.9443      2.4172     75.7038   1.2598585566e+02   6.0184680029e+01    0.2904674    0.1431349 -67.25  0.001512623    2.104    0.525
       179 -11.2362      2.1011     58.4516   1.2196517744e+02   6.3564305058e+01    0.4292325   0.07239175 -55.09  0.001611612    3.885    0.743
       180 -11.2407      2.1889     45.2148   1.1822491396e+02   6.5933327142e+01    0.3683761   0.09556705 -53.89  0.001578899    3.337    0.700
       181  -9.5289    238.0099    249.5040   9.9195989855e+01  -1.3133698745e+01    0.1499058    0.0999328  51.33 0.0006992609    2.538    0.606
       182 -10.6722    169.2940    248.7519   1.1250172017e+02  -2.9664586925e+00     0.326201    0.2257196  14.37 0.0007806883    1.620    0.383
       183 -10.8037    170.8752    244.0697   1.1143650450e+02  -2.3928021170e+00    0.2215338    0.2086426  86.75  0.000852909    1.319    0.242
       184 -11.3977    150.1974    247.3879   1.1626692055e+02   3.7702374784e-01     0.401224    0.3119158 -42.38   0.00229809    1.438    0.305
