#   1 NUMBER                 Running object number                                     
#   2 MAG_AUTO               Kron-like elliptical aperture magnitude                    [mag]
#   3 X_IMAGE                Object position along x                                    [pixel]
#   4 Y_IMAGE                Object position along y                                    [pixel]
#   5 X_WORLD                Barycenter position along world x axis                     [deg]
#   6 Y_WORLD                Barycenter position along world y axis                     [deg]
#   7 A_WORLD                Profile RMS along major axis (world units)                 [deg]
#   8 B_WORLD                Profile RMS along minor axis (world units)                 [deg]
#   9 THETA_WORLD            Position angle (CCW/world-x)                               [deg]
#  10 FWHM_WORLD             FWHM assuming a gaussian core                              [deg]
#  11 ELONGATION             A_IMAGE/B_IMAGE                                           
#  12 ELLIPTICITY            1 - B_IMAGE/A_IMAGE                                       
         1 -14.1097    192.1581    128.8791   2.8151886490e+01   1.7247675379e+01     5.179404     1.723657 -41.07 0.0007467725    2.821    0.646
         2 -13.7637    209.4372     90.4286   1.6581436912e+01   2.0573954432e+01     2.246349     1.521491 -35.66  0.008218599    1.402    0.287
         3 -13.2958    229.6704     81.8615   1.1999816112e+01   1.7936414409e+01      2.37154    0.6493561 -44.66  0.001586381    3.046    0.672
         4 -14.4247    224.8424    138.6632   2.4640220383e+01   9.6797697802e+00     3.446855     1.563974 -50.47   0.01006052    2.601    0.615
         5 -14.7257    241.2893     71.7994   8.5590839648e+00   1.7248070340e+01     7.579161     1.249462 -37.02   0.01564552    4.606    0.783
         6 -13.6545    248.1331    132.6691   2.0081459968e+01   6.9448033611e+00     2.465049    0.3222754 -39.76  0.002516408    5.872    0.830
         7 -14.6140    228.7471    114.8390   1.9165314866e+01   1.2898021517e+01     8.327215     1.019661 -41.18  0.009029413    6.196    0.839
         8 -10.7459    206.3925      2.8065   3.5620182986e+02   3.3305941009e+01    0.4773895    0.2119876  60.13  0.002328873    2.501    0.600
         9  -9.8794    182.0168      3.9872   3.5827637072e+02   3.8842008489e+01    0.4037985    0.1432998 -45.13  0.001767123    2.396    0.583
        10 -10.5747    192.5281      3.1684   3.5724782500e+02   3.6435591631e+01    0.3209229    0.2704336 -71.37  0.002125428    1.095    0.086
        11  -8.0901    153.3216    232.0495   5.4764395867e+01   4.9819906664e+00    0.1696914    0.1480951   9.27  0.000734844    1.104    0.094
        12 -10.3029    232.8645    240.9346   4.1070937320e+01  -6.2028934240e+00    0.6266509    0.2896087 -30.26  0.003780033    2.023    0.506
        13 -11.7682    247.0115    247.1042   3.9680490125e+01  -8.3599055036e+00     1.566037    0.6284449 -36.19  0.009302363    2.461    0.594
        14 -11.5537    235.6659    248.2182   4.1660292717e+01  -7.3475467841e+00     1.251561     0.474462  31.34  0.007076006    2.390    0.582
        15  -8.1032    162.6088    222.2283   5.1441575353e+01   5.2770915570e+00    0.2235058    0.1566148 -30.32  0.001308556    1.560    0.359
        16  -7.3839    140.9900    221.2371   5.5948788994e+01   8.5952271923e+00    0.1777038   0.09459446  32.95 0.0008719438    1.587    0.370
        17  -8.8156    240.6716    217.7540   3.6273307460e+01  -4.1924271975e+00    0.2857943    0.1465361 -28.54  0.001163292    1.719    0.418
        18  -8.3768    234.5182    216.0588   3.7005043147e+01  -3.2685055996e+00    0.1945368   0.09723984 -38.25 0.0004847729    1.979    0.495
        19  -8.0282    169.1097    215.2145   4.9042261050e+01   5.5004810039e+00    0.2166039     0.175964 -88.41  0.001236222    2.113    0.527
        20  -7.4798    143.5294    216.5457   5.4731837267e+01   9.0574957862e+00    0.1327459    0.1126336  29.22 8.532061e-05    1.042    0.040
        21  -8.0312    246.7975    212.9698   3.4542616509e+01  -4.2684378679e+00    0.2867866    0.1326842  29.09  0.001664149    2.144    0.534
        22  -8.1112    230.3368    212.2650   3.7090925783e+01  -2.2681514181e+00    0.2409623    0.1133712   6.74 0.0009692574    4.015    0.751
        23  -7.8099    236.6678    209.5249   3.5603685083e+01  -2.6557932247e+00    0.1642675    0.1292973 -43.75 0.0006155988    1.730    0.422
        24  -9.8963    235.0911    195.8786   3.3596383405e+01  -5.9348837731e-01      0.69226    0.2860167  31.07  0.002463939    2.539    0.606
        25  -8.4858    245.3321    193.1008   3.1501258773e+01  -1.4743090824e+00    0.4083461     0.233664 -34.25  0.002516705    1.531    0.347
        26  -9.9204    250.1300    201.6927   3.2198085017e+01  -3.1893492855e+00    0.4828725     0.214732 -27.72  0.002644799    2.029    0.507
        27  -9.6271    244.3519    200.5440   3.2902038606e+01  -2.3641034048e+00    0.6180969    0.3572854 -56.44  0.002700899    4.754    0.790
        28  -9.1574    123.9887    206.0095   5.7717219232e+01   1.4045109488e+01    0.1991252      0.17234  34.12            0    1.008    0.008
        29  -7.3173    237.5056    205.5179   3.4813503222e+01  -2.2177292748e+00    0.1133166   0.09105286  -8.37 1.952876e-05    1.074    0.069
        30  -9.2257    197.3047    204.0224   4.1635480707e+01   3.2563771702e+00     0.281626    0.2428829  41.92 0.0009589841    1.447    0.309
        31  -7.8265    214.2966    192.6539   3.6576622474e+01   2.6352536050e+00    0.2820219    0.1445167 -52.42  0.001037575    3.043    0.671
        32  -8.0697    217.2713    203.8514   3.7952463833e+01   5.5797805013e-01     0.216733     0.162049  25.02  0.001096328    1.296    0.228
        33  -9.7471    218.7321    198.7656   3.6842650517e+01   1.1114126369e+00    0.2630421    0.2404724 -21.93 0.0003457704    1.317    0.241
        34  -8.0239    207.1796    202.3052   3.9505583012e+01   2.1453868398e+00    0.2393454    0.1686576 -17.24  0.001258104    1.336    0.251
        35  -8.7380    210.2332    198.5363   3.8314307351e+01   2.2992060441e+00    0.6338785    0.2166098 -48.88  0.002288154    4.544    0.780
        36  -8.0240    167.3848    202.2237   4.7359158967e+01   7.9829622363e+00    0.2418463    0.1216238 -41.65  0.001136835    2.115    0.527
        37  -8.9727    161.7029    201.5293   4.8463573482e+01   8.9862801122e+00    0.2737352    0.2091019  10.94 0.0009531148    1.303    0.232
        38  -7.7795    150.7933    201.5724   5.0869912409e+01   1.0689808492e+01    0.1888547    0.1148305  42.42 0.0003679219    1.580    0.367
        39  -8.0766    139.3487    200.8651   5.3362370733e+01   1.2639935280e+01    0.2464751    0.1345314 -62.24  0.001081535    2.512    0.602
        40  -7.9060    177.8088    198.5281   4.4573653587e+01   7.0276331685e+00    0.2181381    0.1734437  76.88  0.001173759    2.160    0.537
        41  -9.6881    200.3321    193.7261   3.9317974946e+01   4.4580014190e+00    0.6104248    0.4019743 -68.81  0.002645551    3.786    0.736
        42  -9.2360    187.6581    196.3092   4.2211719530e+01   5.9114933915e+00    0.4341096    0.3426522 -82.03  0.002338312    2.352    0.575
        43  -7.9169    188.6539    192.3051   4.1326156092e+01   6.4332955967e+00    0.1779902    0.1599337  71.00 0.0007664133    1.608    0.378
        44  -7.7106    195.4124    196.1795   4.0676360038e+01   4.7813516076e+00    0.1657944     0.118145 -49.56 0.0008960299    1.716    0.417
        45  -7.3405    219.6811    194.3130   3.5917521068e+01   1.6453739150e+00    0.1038167   0.09924618 -80.05 0.0007037064    1.648    0.393
        46  -8.0604    224.8035    193.3173   3.4867016191e+01   1.1058190541e+00    0.1680402    0.1467322  34.21  0.001160935    1.440    0.305
        47  -8.3222    167.9193    192.6523   4.5654065002e+01   9.6125488953e+00    0.2509466    0.2007715 -49.16  0.001325313    1.428    0.300
        48  -8.8212    139.0090    192.0064   5.2047898878e+01   1.4446763429e+01    0.2194785    0.1663682  65.57  0.000792702    1.695    0.410
        49  -7.9280    205.4160    191.5534   3.7992707147e+01   4.0669515205e+00    0.2204205    0.1141515  39.93  0.000880909    2.019    0.505
        50  -8.7460    172.9790    190.5228   4.4215045020e+01   9.1896453047e+00    0.3003387    0.2270731  61.62   0.00122307    1.889    0.471
        51  -8.3096    219.5231    189.4286   3.5098063764e+01   2.4023068972e+00    0.2194915     0.184567 -32.57  0.000794366    1.274    0.215
        52  -7.5661    215.6623    187.3177   3.5401810722e+01   3.2655620081e+00    0.1615551    0.1250884  45.72 0.0007509547    1.646    0.393
        53  -7.8879    202.5131    250.5309   4.7690575009e+01  -4.0017105282e+00    0.1135802   0.08446404   8.99 9.395447e-06    1.007    0.007
        54 -14.2977    248.8985    110.3974   1.5608118172e+01   1.0192495906e+01    0.8591101    0.3463606 -34.03   0.00395684    2.208    0.547
        55 -12.4524    241.6729    107.0563   1.5830451834e+01   1.1895966074e+01    0.2581775     0.243167 -10.60 0.0003431668    1.214    0.176
        56 -12.9164    233.4538    129.9721   2.1594767360e+01   9.6699293992e+00    0.4676227     0.353979 -60.62 0.0003248594    1.582    0.368
        57 -13.9504    237.6978    126.3246   2.0259058685e+01   9.5558060879e+00     0.608692    0.4965153 -60.95  0.003885344    1.409    0.290
        58 -13.4249    244.2291    122.7607   1.8660790270e+01   9.0600358157e+00    0.5811793    0.3752732 -36.21  0.002477235    1.283    0.220
        59 -14.2393    246.1930     86.6888   1.1126394510e+01   1.4191059442e+01    0.6740531    0.4738422 -35.20  0.003278722    1.267    0.211
        60 -14.4473    243.6985     96.6695   1.3457864785e+01   1.3133733305e+01    0.8909771    0.2989354 -37.07  0.003763905    2.486    0.598
        61 -13.5651    248.8724     98.1839   1.3162964668e+01   1.2027517719e+01    0.3799199    0.2391768 -41.13  0.000741115    1.278    0.217
        62  -8.4373    161.4800    189.5019   4.6511804212e+01   1.1236284654e+01    0.1372396    0.1233763  14.93 0.0008103545    1.002    0.002
        63 -10.3136    130.5274    188.3274   5.3483712599e+01   1.6605889363e+01    0.3855813     0.254541  47.31   0.00189056    1.495    0.331
        64 -10.0671    167.2489    184.9533   4.4463034766e+01   1.1140740624e+01    0.3963673    0.2593177 -48.72  0.001144701    1.675    0.403
        65  -8.4906    190.4056    185.0116   3.9695551077e+01   7.4039739142e+00    0.2888296    0.2214166  72.19  0.001026988    2.302    0.566
        66  -7.4202    182.6366    185.2765   4.1295651131e+01   8.5834982401e+00    0.1257883    0.1048833  63.76 0.0007008158    1.669    0.401
        67  -8.2256    193.0517    248.4840   4.9142986946e+01  -2.6208314236e+00    0.2097861    0.1334612 -14.27  0.001084933    1.615    0.381
        68  -8.9821    211.3581    183.3735   3.5464926579e+01   4.5040455231e+00    0.3072886    0.2394594 -14.64  0.001457073    1.160    0.138
        69  -9.9768    159.9349    181.7735   4.5503926822e+01   1.2968005830e+01    0.3939549    0.2846509  70.59  0.001871617    2.197    0.545
        70 -11.1227    123.2325    180.9671   5.4092323160e+01   1.9405171094e+01    0.7152113    0.2439531 -51.14  0.002520938    3.092    0.677
        71  -9.8826    183.2369    169.1214   3.8189559467e+01   1.1394355856e+01    0.4204873    0.2754173 -33.57 0.0006473364    1.526    0.345
        72  -9.9996    179.1407    166.1230   3.8452346515e+01   1.2655074294e+01    0.2899649      0.24511  66.22  0.001611698    1.531    0.347
        73  -8.1939    182.8328    181.0174   4.0489056138e+01   9.3075326188e+00    0.2421803      0.19309 -63.22  0.001136298    1.701    0.412
        74  -9.7346    183.0805    176.5726   3.9623329108e+01   1.0064484837e+01      0.36355    0.3197429 -80.84  0.002076802    1.590    0.371
        75 -10.7146    151.9518    177.3873   4.6529030290e+01   1.5202775636e+01    0.4829096      0.27953 -30.23  0.002090169    2.190    0.543
        76  -9.1501    175.5548    178.5097   4.1534214447e+01   1.0959336614e+01    0.2420322    0.2226752   3.99 0.0008294025    1.022    0.022
        77  -8.8211    210.5686    176.7326   3.4401574549e+01   5.6894662138e+00    0.3386216    0.2050895 -34.13   0.00160372    1.531    0.347
        78  -9.8198    164.0060    177.0204   4.3744124633e+01   1.3194316674e+01    0.3114596     0.259603 -63.89  0.001686605    1.481    0.325
        79  -9.7089    165.1662    173.1758   4.2778259886e+01   1.3739447155e+01    0.3068909    0.2127059 -52.53  0.001284236    1.614    0.381
        80  -8.2738    110.3036    178.3346   5.6990097346e+01   2.2172416045e+01    0.1459427    0.1142806 -14.06 0.0004945147    1.663    0.399
        81 -10.7329    159.2939    161.5635   4.1864493384e+01   1.7100579003e+01    0.6451408    0.2791359 -46.36  0.002520829    2.361    0.577
        82 -10.1612    159.6816    174.5059   4.4243681989e+01   1.4433276522e+01    0.3891805    0.2734036 -41.93  0.001992098    1.472    0.320
        83  -9.9228    158.3398    169.3038   4.3574550458e+01   1.5706791442e+01    0.3460677    0.3120379  58.19  0.001695077    1.244    0.196
        84 -10.8299    143.6328    171.2312   4.7367288471e+01   1.7935973589e+01    0.4957546    0.3154955 -70.31   0.00211839    2.345    0.574
        85 -11.7074    138.0757    171.8491   4.8826387727e+01   1.8795108945e+01     1.141006    0.2924287 -46.83  0.003415488    4.106    0.756
        86 -11.1479    133.5222    147.4089   4.5238327618e+01   2.5040675624e+01    0.5769482    0.3702839 -48.35  0.002223597    1.607    0.378
        87 -11.1691    140.7814    141.2517   4.2090180281e+01   2.4990389313e+01    0.7363091    0.3615722 -62.27  0.002507588    3.021    0.669
        88 -11.5188    141.9346    127.9783   3.8828807187e+01   2.7698334145e+01     1.025568    0.4684788 -33.47  0.003280247    3.300    0.697
        89 -10.5919    138.0140    153.2116   4.5280952965e+01   2.2874521647e+01    0.4443347    0.3405467 -66.00  0.002076764    1.506    0.336
        90  -9.0962     47.4490    171.9404   7.3607636536e+01   3.2961033335e+01    0.2448102    0.1993824  27.52 0.0004980685    1.302    0.232
        91  -8.2307    181.0703    249.1457   5.1490400122e+01  -1.2451167262e+00     0.186918    0.1249647   7.98 0.0009602511    1.361    0.265
        92 -10.4676    128.9522    169.1721   5.0616346888e+01   2.1005060886e+01    0.4085598    0.2273888 -63.95  0.001662925    2.302    0.566
        93  -9.9012    112.6603    170.3705   5.5061957837e+01   2.3598718899e+01    0.2921257    0.2421297 -84.03  0.001428077    1.375    0.273
        94 -10.1221    169.8458    169.1759   4.1004132222e+01   1.3697419824e+01    0.2666353    0.2204717  -1.77  0.001470261    1.277    0.217
        95  -9.0149     88.1371    169.8506   6.1701670262e+01   2.7792484329e+01    0.2343572    0.1888445  62.30   0.00038993    1.223    0.183
        96 -11.1297    152.3059    164.7502   4.4093921377e+01   1.7725003371e+01     0.598437    0.3343056 -43.09  0.002635477    1.860    0.462
        97  -8.6867    165.1413    167.6316   4.1734990470e+01   1.4828773281e+01    0.2404761    0.1978243 -55.13  0.001246614    1.364    0.267
        98 -12.0345    141.0584    147.3170   4.3309781685e+01   2.3591604857e+01     1.306527    0.7019866 -71.44   0.00403565    4.092    0.756
        99 -10.6034    162.9346    148.4636   3.8381051887e+01   1.9092180917e+01    0.6068266    0.3171477 -52.33  0.002495029    2.105    0.525
       100 -10.4100    168.1495    158.4831   3.9282248744e+01   1.6093429157e+01    0.3086406    0.3046003  67.58  0.001045746    1.127    0.113
       101  -7.9995    101.3261    164.3092   5.7123961819e+01   2.6971460645e+01    0.1497397    0.1189201 -13.17 0.0007038718    1.656    0.396
       102 -11.0424    131.4542    159.4243   4.8166381929e+01   2.2723652504e+01    0.6203542    0.2763494 -58.68  0.002222096    2.756    0.637
       103  -8.1569    175.9835    244.6212   5.1868602148e+01   2.7374966603e-02    0.2184375    0.1415383 -18.17   0.00133154    1.706    0.414
       104 -11.4672    156.5908    138.0131   3.7576934320e+01   2.2512936488e+01    0.6987756    0.5067021 -60.08   0.00331303    1.557    0.358
       105 -10.4981    152.9638    156.7386   4.2364853604e+01   1.9274913676e+01    0.4804523    0.2879243 -43.05  0.002156436    1.715    0.417
       106 -10.2048    156.8223    153.4794   4.0808026150e+01   1.9226151678e+01    0.3452188    0.2908167  46.21  0.001835335    1.199    0.166
       107 -11.4193    154.6974    146.9793   3.9950208830e+01   2.0997336721e+01    0.6650682    0.4566998 -36.75  0.003133309    1.536    0.349
       108  -9.3637    114.0735    158.1545   5.2520333584e+01   2.6204849175e+01    0.2365139    0.2113547   0.82  0.001230691    1.277    0.217
       109  -8.1166     99.7672    157.0231   5.6310309480e+01   2.9006541601e+01    0.2017819    0.1282318 -60.35 0.0008850337    1.655    0.396
       110  -9.9433    123.9353    152.3625   4.8753537434e+01   2.5741009526e+01    0.2623746    0.2201129 -73.09  0.001064346    1.323    0.244
       111 -11.3625    147.2851    148.6914   4.2069275464e+01   2.2076538932e+01    0.9236295    0.2711512 -46.80  0.002852024    3.457    0.711
       112 -10.2740    125.2000    160.6007   5.0006274987e+01   2.3611258703e+01    0.3044525    0.2519923 -20.32  0.001532354    1.430    0.301
       113  -9.0788    124.8799    142.2624   4.6440912638e+01   2.7910002907e+01    0.2986241    0.2014704 -25.29  0.001232687    2.070    0.517
       114  -9.7008    165.9662    139.1163   3.5708476713e+01   2.0408704316e+01    0.4730543    0.2986449   7.81  0.001756218    3.040    0.671
       115  -9.5584    114.5374    139.8414   4.8787642040e+01   3.0490819726e+01     0.364332     0.216829  27.64  0.001452331    1.965    0.491
       116 -11.1707    169.8638    147.9084   3.6742035881e+01   1.7877079734e+01    0.7083071    0.3170252 -50.02  0.002735724    2.405    0.584
       117 -11.6125    141.2249    157.9174   4.5420189311e+01   2.1231634042e+01    0.8526867    0.3533496 -38.59  0.002900212    3.073    0.675
       118  -9.5045    164.3192    133.6603   3.4864930417e+01   2.1854065535e+01     0.304712    0.2305892  57.58 0.0009031054    1.453    0.312
       119  -9.4227    167.2952    130.8997   3.3594148074e+01   2.1811225189e+01    0.3196468     0.253708  63.07  0.001608985    1.427    0.299
       120 -10.3598    153.1931    129.3977   3.6429803023e+01   2.5034842006e+01    0.4341879    0.2630141 -32.48  0.001298195    1.956    0.489
       121 -10.1785    146.9904    129.4273   3.7917570566e+01   2.6322631308e+01    0.3933364    0.2764867 -28.32   0.00175294    1.716    0.417
       122 -10.9919    176.1107    122.6008   2.9852390439e+01   2.1653876525e+01     1.085496    0.4935631 -29.11  0.003587005    3.417    0.707
       123  -9.0129    196.3938    243.4982   4.7834426021e+01  -2.3629341733e+00    0.2875675    0.1570934  14.53  0.001497113    1.764    0.433
       124  -9.1593    159.6202    127.9583   3.4619627945e+01   2.3998279653e+01    0.3478133      0.14202 -44.71  0.001245078    2.425    0.588
       125  -9.7300    136.8207    125.2882   3.9497274932e+01   2.9373026513e+01    0.3860158    0.1845952 -38.56  0.001376395    2.446    0.591
       126  -9.4612    131.5971    124.6405   4.0708376906e+01   3.0619528025e+01    0.3573166    0.1872864 -34.45  0.001273142    2.536    0.606
       127 -10.2680    165.3239    124.5043   3.2557356574e+01   2.3517772204e+01    0.5334445    0.3479962 -62.72   0.00232107    1.909    0.476
       128  -8.4589    121.6122    125.2597   4.3570306117e+01   3.2554457142e+01    0.2223988    0.1478168 -41.68 0.0007424913    1.619    0.382
       129  -9.6702    157.0553    120.6364   3.3486877847e+01   2.6066229246e+01    0.5225443    0.2117493 -37.29  0.001745474    2.886    0.653
       130 -10.1650    151.2268    120.8188   3.4881517385e+01   2.7278320257e+01    0.4108771    0.3079444  30.77 0.0008324264    1.509    0.337
       131  -9.7750    170.6619    117.6983   2.9826554544e+01   2.3760047628e+01    0.6491722    0.2963782 -42.24  0.002522677    2.130    0.530
       132  -9.4840    175.6921    111.7376   2.7385987429e+01   2.3854803016e+01    0.3969864    0.2774141   5.87    0.0016703    2.433    0.589
       133 -10.0698    140.3843    115.9649   3.6343517159e+01   3.0676473972e+01    0.4308465    0.2320561 -55.97  0.001651484    2.097    0.523
       134  -8.3118    158.5279    112.4957   3.1184705376e+01   2.7431549739e+01    0.2522772    0.2063261  38.78 0.0008375386    1.298    0.229
       135  -9.1376    161.7156    110.6308   3.0023437117e+01   2.7110500610e+01     0.272251    0.2030104  38.21 0.0009315108    1.462    0.316
       136  -8.2792    134.4790    115.9748   3.7858070816e+01   3.1959648055e+01    0.2218527    0.1374032 -71.99 0.0008093226    2.464    0.594
       137  -9.4535    152.9676    113.2376   3.2631150558e+01   2.8500392086e+01    0.3471371    0.2794476  -5.40  0.001640869    1.648    0.393
       138  -9.6823    154.7477    106.5433   3.0548915199e+01   2.9492066345e+01    0.4552243    0.2761594 -42.52  0.001378565    1.644    0.392
       139  -9.7980    146.6591    112.5913   3.3961106807e+01   3.0028182060e+01    0.3726888    0.2464826 -42.77  0.001051546    1.530    0.346
       140  -9.0441    169.9981    106.5052   2.7261979183e+01   2.6106472793e+01    0.3971288    0.2980739  41.67   0.00195593    1.439    0.305
       141 -13.4074    236.0545    106.1553   1.6363911182e+01   1.3000305169e+01    0.7007194    0.3998132 -24.21  0.001493487    2.080    0.519
       142  -7.7023    108.4816    110.5277   4.3825000317e+01   3.8761430358e+01    0.1580734    0.1531446  68.10 9.116549e-05    1.011    0.011
       143  -8.5333    178.9316    105.4104   2.5232018529e+01   2.4366103718e+01    0.5258763     0.189927 -37.94  0.001801519    2.832    0.647
       144  -8.9644    168.4975    109.9940   2.8425636515e+01   2.5750844676e+01     0.377012    0.2445166 -15.30  0.001489977    2.546    0.607
       145 -10.0563    163.0015    115.1640   3.0849777137e+01   2.5911367694e+01    0.4632921    0.3559113 -19.34  0.001675035    1.613    0.380
       146  -7.4743    141.6458    104.6878   3.3170875722e+01   3.2834558916e+01    0.1586154    0.1262674   8.11 0.0007044717    1.732    0.422
       147  -8.8386    174.4426     99.6918   2.4691629415e+01   2.6431828382e+01    0.5174404    0.1994352 -32.96  0.001651332    3.395    0.705
       148  -7.4540    149.4882    100.4933   3.0196876780e+01   3.1926243540e+01    0.1526522    0.1491704 -85.52 0.0001407596    1.031    0.030
       149  -8.6991    180.4878     97.6494   2.3043907796e+01   2.5474840106e+01    0.4719283    0.3071462 -11.19  0.001883794    2.734    0.634
       150  -8.1129    129.1612     96.7860   3.4264048197e+01   3.7370652076e+01    0.2155572    0.1934055   3.49 0.0007863861    1.345    0.256
       151 -13.1998    225.2632    124.0701   2.1594585333e+01   1.2002505844e+01    0.5831293     0.508194  -5.15  0.002965472    1.252    0.201
       152  -9.2389    164.8603     93.3331   2.4977708505e+01   2.9809802063e+01    0.2914108    0.2433842 -24.66  0.001482493    1.375    0.273
       153  -7.2549     60.6793     91.3014   5.5732561707e+01   5.2268730947e+01    0.1538556    0.1138298  67.50 0.0005817203    1.627    0.385
       154 -13.8878    241.2786    140.4220   2.2530916765e+01   6.7989019444e+00     2.920279      1.61882   5.76   0.01054248    5.136    0.805
       155  -9.0918    181.2744     89.0002   2.0749781803e+01   2.6872681338e+01    0.2836054    0.2129871  56.69 0.0008479992    1.386    0.279
       156  -7.1524    158.6526     89.6932   2.5305510458e+01   3.1948939314e+01    0.1517049    0.1219346  16.15 0.0007043005    1.701    0.412
       157  -7.8764    142.3066     89.3567   2.8885358511e+01   3.5864343158e+01    0.1558927    0.1261316   5.51 0.0005015814    1.724    0.420
       158  -8.1257    150.7736     86.9498   2.6268195375e+01   3.4336984060e+01    0.2047527    0.1255089 -41.41 0.0008715239    1.642    0.391
       159 -13.6054    217.8286    110.8260   1.9898081000e+01   1.5533978121e+01     1.410787     1.032038 -27.02 0.0006674933    1.395    0.283
       160 -13.4837    223.5260     92.6776   1.5134557083e+01   1.7422462989e+01      1.71737    0.7825221  54.99  0.004528311    2.481    0.597
       161  -9.8357    185.6077     78.8698   1.7458570451e+01   2.7664703493e+01    0.4147998    0.2873515 -56.12  0.001067982    1.405    0.288
       162  -9.0549    176.0341     80.8058   1.9586079606e+01   2.9527070990e+01    0.2418747    0.2038278 -43.00 0.0002389338    1.172    0.147
       163  -8.1537    157.8357     80.9813   2.3115351723e+01   3.3788810760e+01    0.2447217    0.1842873  -2.03  0.001080897    2.070    0.517
       164  -8.2374    142.9276     76.8852   2.5193718302e+01   3.8155908678e+01    0.3864022    0.1881205 -41.57  0.001299122    2.070    0.517
       165  -9.3997    206.4653    240.0368   4.5502929073e+01  -3.1138959752e+00    0.3708605    0.1893701  31.05  0.002187663    1.719    0.418
       166  -8.1296    175.1313     75.3365   1.8313291824e+01   3.0692017670e+01    0.2256269    0.1945767 -36.54 0.0004456244    1.225    0.184
       167  -7.6963    122.4844     76.4636   3.0170970201e+01   4.3168430147e+01    0.1554263    0.1484292  70.52 0.0002224987    1.020    0.019
       168  -9.3145    212.4022     74.7141   1.2546154410e+01   2.2493884099e+01    0.2368594    0.2212656 -38.00 0.0002387815    1.190    0.160
       169  -8.6553    158.0124     74.2664   2.1216960239e+01   3.4971921002e+01    0.2732737    0.2457445  -6.84 0.0004505341    1.384    0.277
       170  -8.7598    161.4978     71.5306   1.9771672871e+01   3.4611668448e+01    0.2479077    0.2293589  86.30 0.0001917073    1.038    0.037
       171  -7.9053    128.4668     72.9123   2.7505457151e+01   4.2428902706e+01    0.2306695    0.1527172 -42.60 0.0006690113    1.554    0.357
       172  -7.9089    170.2910     70.0038   1.7736572158e+01   3.2754303719e+01    0.2094384    0.1824381 -50.22 0.0006064711    1.123    0.109
       173  -8.3644    196.6328     68.7264   1.3247421420e+01   2.6847942487e+01    0.3127149    0.2034858 -65.59  0.001082573    1.630    0.386
       174  -7.2788    139.3339     67.3153   2.3171545904e+01   4.0808380778e+01    0.1529512    0.1208943  23.21 0.0005678727    1.688    0.408
       175  -9.2858    203.6873     65.1054   1.1408126861e+01   2.5851712539e+01    0.3469738    0.2573968  73.91 0.0009376283    1.400    0.286
       176  -8.7811    221.1003     62.4710   8.6922066779e+00   2.2546835935e+01    0.2615504    0.1663366 -40.03 0.0008781165    1.392    0.282
       177 -10.1157    188.2117     60.8060   1.2451929118e+01   3.0014038648e+01    0.2533383    0.2211881 -77.13  0.000256649    1.045    0.043
       178  -7.8056    171.4894     61.9791   1.5346192127e+01   3.3798319635e+01    0.2057935     0.138536 -39.42 0.0003821031    1.474    0.322
       179 -12.7286    250.3465    141.8933   2.1547537389e+01   5.2333931331e+00    0.6452849    0.2394166 -33.64 0.0004849969    2.390    0.582
       180  -8.9887    195.4926     58.5260   1.0870321405e+01   2.8689067664e+01    0.3568527     0.225495 -81.48   0.00145303    1.828    0.453
       181  -7.3211    210.3089     59.2994   9.2004536097e+00   2.5286887404e+01    0.1202366    0.1056517  20.00 0.0007010382    1.598    0.374
       182  -7.6915     63.4343     55.4545   4.3543284622e+01   6.0104189225e+01    0.1405416    0.1369163  22.84 7.454678e-05    1.046    0.044
       183  -8.9528    218.0997     52.9133   6.8416091330e+00   2.4549004343e+01    0.2409145    0.2028692 -30.04 0.0004762539    1.363    0.266
       184 -13.6631    240.0043    113.1762   1.7291484382e+01   1.1230677423e+01    0.5830438    0.4260447 -24.59  0.001012465    1.375    0.273
       185 -13.3672    237.4314     88.5428   1.2507897005e+01   1.5473484930e+01    0.4594647    0.3088487 -42.68   0.00052443    1.229    0.186
       186  -9.4975    226.4752     40.6524   3.2633204722e+00   2.4477493698e+01    0.2132602     0.182528 -82.03 0.0008180275    1.161    0.139
       187  -7.9021    215.1610     41.3493   4.4744058747e+00   2.6770546801e+01    0.1771844     0.109513  88.78 0.0009426694    1.671    0.402
       188 -13.8418    241.1578    150.1808   2.4419398494e+01   5.3205524984e+00     1.583962    0.8430554 -48.43  0.007445605    2.049    0.512
       189  -7.5636    186.4880    239.9977   4.9206535559e+01  -6.5620995629e-01    0.1647874   0.08592648 -18.07 0.0008103533    2.584    0.613
       190  -8.6806    225.0344     33.5481   1.8122717690e+00   2.5696246838e+01    0.1950013    0.1419699 -50.45 0.0006184949    1.147    0.128
       191  -9.4879    219.8323     33.4997   2.2440916828e+00   2.6797581057e+01    0.3274675     0.200946  51.19  0.001762478    2.147    0.534
       192 -13.4170    240.3321     80.7438   1.0537986343e+01   1.6115518326e+01    0.5626854    0.3650149  57.11 0.0005384319    1.826    0.452
       193  -9.4135    215.6522     24.8324   6.1966516639e-01   2.8777534059e+01    0.2245357    0.1498288  51.74  0.001202819    1.963    0.491
       194 -12.7928    250.0776    119.3660   1.7235453320e+01   8.6541660139e+00    0.5912731    0.1863443 -36.46  0.000356225    2.657    0.624
       195  -8.8662    208.2529     22.4110   6.6850011880e-01   3.0698034283e+01    0.1814803     0.103746 -84.89 0.0008531675    1.701    0.412
       196  -7.8667    194.4807     21.5305   1.6771436585e+00   3.3948344972e+01      0.13067    0.1105434 -75.44 2.660702e-05    1.055    0.052
       197  -8.6143    223.0901    225.7321   4.0441189769e+01  -3.2017464950e+00     0.379332    0.1539989  20.98  0.001777934    2.863    0.651
       198  -8.0527    214.0747    231.3483   4.2866546251e+01  -2.8746535151e+00    0.1957054    0.1277348 -19.02 0.0009456028    1.415    0.293
