#   1 NUMBER                 Running object number                                     
#   2 MAG_AUTO               Kron-like elliptical aperture magnitude                    [mag]
#   3 X_IMAGE                Object position along x                                    [pixel]
#   4 Y_IMAGE                Object position along y                                    [pixel]
#   5 X_WORLD                Barycenter position along world x axis                     [deg]
#   6 Y_WORLD                Barycenter position along world y axis                     [deg]
#   7 A_WORLD                Profile RMS along major axis (world units)                 [deg]
#   8 B_WORLD                Profile RMS along minor axis (world units)                 [deg]
#   9 THETA_WORLD            Position angle (CCW/world-x)                               [deg]
#  10 FWHM_WORLD             FWHM assuming a gaussian core                              [deg]
#  11 ELONGATION             A_IMAGE/B_IMAGE                                           
#  12 ELLIPTICITY            1 - B_IMAGE/A_IMAGE                                       
         1 -15.1309      8.9572    206.6222   1.4912984993e+02   3.1279677395e+01     9.883644     4.495843 -85.66   0.03144774    1.785    0.440
         2 -13.3135      3.7626     13.2438   1.2154058232e+02   7.2567024290e+01     2.243624    0.4712205 -49.68  0.009821567    3.093    0.677
         3 -13.5982    205.7606     10.2696   6.3719087011e+01   3.2503251395e+01     1.598128     1.126091  35.77  0.008303303    1.797    0.443
         4 -13.2361    191.9643     29.1725   7.0698204970e+01   3.3888686678e+01       1.3144     1.229566 -84.34  0.007056233    1.009    0.009
         5  -9.9975    199.1715    246.1473   1.1876651145e+02  -2.5563697520e+00    0.1541399    0.1236864  49.46   0.00108628    1.356    0.262
         6 -10.7035    124.5766    250.1569   1.3218305198e+02   8.5998503764e+00    0.5218111   0.07304266  44.71  0.001686893    4.939    0.798
         7 -11.2794     34.8867    244.8870   1.4682682702e+02   2.1592514014e+01    0.4662246    0.3603261 -54.00  0.003549869    2.161    0.537
         8 -10.6519      8.5325    250.3371   1.5113155828e+02   2.3493751990e+01    0.3273783    0.1335863  44.53  0.001864063    1.958    0.489
         9 -10.7163      2.1059    248.7579   1.5202326815e+02   2.4388252532e+01    0.3418901    0.2152532 -88.71  0.002184471    1.391    0.281
        10 -11.8277      1.8998    240.5397   1.5175813322e+02   2.5791498847e+01    0.5425183    0.1579477 -77.78  0.003045624    2.944    0.660
        11 -10.1083    128.5853    245.2504   1.3096847109e+02   8.7249634910e+00    0.1882008    0.1129766 -65.38  0.001141562    2.112    0.527
        12 -10.3643     97.1234    245.6423   1.3649963407e+02   1.3389003147e+01     0.180135    0.1305002  76.83 0.0005468727    1.303    0.232
        13  -9.2343     82.6745    243.3209   1.3878917332e+02   1.5816925769e+01    0.1203078   0.06485366  65.30 0.0004683816    1.682    0.405
        14 -11.9286     11.0212    239.3581   1.5031447485e+02   2.5099068220e+01    0.4335545    0.1581669  65.14  0.001563402    2.119    0.528
        15 -10.1797    234.8696    239.4899   1.1180444738e+02  -7.2121818009e+00    0.1936962    0.1491189 -47.37  0.001318057    2.045    0.511
        16 -10.5722    248.9516    248.5036   1.1091244439e+02  -1.0142991732e+01    0.2263084    0.1658073   3.96  0.001700489    1.197    0.165
        17  -8.9958    110.3224    225.3162   1.3209981711e+02   1.4822506406e+01    0.1080484   0.09439502  13.91 0.0006165009    1.664    0.399
        18 -10.2455    102.5245    224.9987   1.3351762843e+02   1.6079357562e+01    0.3740439    0.1049392  52.17  0.001397131    3.552    0.718
        19 -10.4695    173.6169    222.1355   1.1985869976e+02   4.8539009784e+00    0.3094211    0.2327541  47.32  0.001619267    1.176    0.149
        20  -9.9107    230.5313    231.9986   1.1135257651e+02  -5.7273115248e+00      0.20987    0.1927736 -52.53 0.0009426101    1.695    0.410
        21  -8.7543     94.7421    216.7718   1.3410828605e+02   1.8744554329e+01    0.1724286    0.1146899  69.05 0.0005684405    1.388    0.280
        22  -8.7373    152.5348    212.9708   1.2249044326e+02   9.9438829676e+00     0.161644    0.1278548 -56.69 0.0003725598    1.483    0.326
        23  -9.2706     34.6097    202.5942   1.4424341377e+02   2.9429893803e+01    0.1817856    0.1446867  62.30 0.0006744055    1.212    0.175
        24 -10.0481    228.5059    228.0134   1.1105703497e+02  -4.9526516595e+00    0.2945197    0.2082749 -55.02  0.001740447    2.504    0.601
        25 -11.2936     65.3664    198.1344   1.3791724463e+02   2.6563124129e+01     0.312495    0.2268441 -50.96  0.001179907    1.848    0.459
        26  -9.8059    192.6041    194.2559   1.1175966756e+02   5.7869712058e+00    0.5851188    0.2888674 -61.38  0.001810318    6.037    0.834
        27  -8.8797     51.2857    197.0796   1.4060507779e+02   2.8586141572e+01    0.1632864    0.1200121  79.34 0.0003762614    1.084    0.078
        28 -11.5263     70.9640    190.3735   1.3597610646e+02   2.7397473370e+01    0.2503634    0.2153582 -74.47 0.0005191587    1.275    0.215
        29 -12.4463     40.0078    232.6189   1.4528256755e+02   2.3141433645e+01    0.2735956    0.2120011 -82.98 0.0007406624    1.380    0.275
        30  -8.9878    102.4934    178.5515   1.2774359903e+02   2.5113256503e+01    0.2233793    0.1485499  70.69 0.0005862064    1.594    0.373
        31 -13.0036     67.4594    175.6975   1.3504975476e+02   3.1004902706e+01    0.4554021    0.2683588 -47.79  0.001561581    2.227    0.551
        32 -10.7141     80.3948    177.6491   1.3246139228e+02   2.8750929300e+01    0.2277692    0.2027714  84.99 0.0003765105    1.114    0.102
        33 -11.6162     87.5464    168.3610   1.2959982350e+02   2.9700145794e+01    0.5965466    0.5112579  64.69  0.003668495    1.093    0.085
        34 -14.3392     45.9980    225.1197   1.4376871976e+02   2.3792174891e+01     1.541027     1.508898  -7.35   0.00589651    1.762    0.433
        35  -9.6877     99.7509    152.1350   1.2415613689e+02   3.1358819604e+01    0.2803886    0.2548442 -41.68 0.0009886057    1.313    0.239
        36  -8.9280    102.4326    148.0770   1.2278181939e+02   3.1820900782e+01    0.2902852    0.2021279 -37.58 0.0005366635    1.842    0.457
        37 -11.7319     88.3198    151.5505   1.2682052005e+02   3.3355179178e+01    0.2726033     0.240362 -52.40 0.0006288272    1.278    0.218
        38 -12.5146     66.6045    143.3385   1.3086909706e+02   3.8435222776e+01     1.061873    0.5799277  76.05   0.00320321    2.512    0.602
        39  -9.3329    151.3279    229.3200   1.2497080383e+02   7.5192638552e+00    0.1181038   0.08997437  16.85 0.0007047533    1.685    0.407
        40  -9.6035    110.6110    137.0745   1.1863117130e+02   3.2869463326e+01    0.3636475     0.230698 -31.30  0.001309879    2.331    0.571
        41 -10.0589     86.1592    136.0717   1.2465473954e+02   3.7270096897e+01    0.2297096    0.1876162  64.11 0.0003927393    1.222    0.182
        42 -10.3457     97.9992    134.5564   1.2131808298e+02   3.5678686723e+01     0.257303    0.2174391 -48.85 0.0006614358    1.248    0.199
        43  -8.3927    192.2702    143.7213   1.0162947518e+02   1.4581107790e+01      0.13766    0.1164992 -81.26 0.0001929292    1.489    0.328
        44  -9.4784    107.4747    123.9874   1.1663491915e+02   3.6432278426e+01    0.2016605    0.1903685  70.53 0.0002583657    1.070    0.066
        45 -10.4232     55.2409    123.9784   1.3072762540e+02   4.4439047152e+01    0.2147653    0.1648637  86.44  0.001246132    1.275    0.216
        46 -10.5088    168.0622    113.1873   9.9283958258e+01   2.5905709765e+01    0.3476904    0.2981382 -78.10 0.0007622525    1.320    0.243
        47  -9.0949    203.4829    111.5397   9.1730362810e+01   1.7952044097e+01    0.1499009    0.1442737 -13.10 3.744485e-05    1.037    0.035
        48 -10.4067      7.2775    101.8326   1.4097195182e+02   5.4002829837e+01    0.2106308    0.1238631 -37.97 0.0009388666    2.045    0.511
        49  -9.2172     75.3111     87.4777   1.1694677705e+02   5.0194624543e+01    0.2173676    0.1829077  69.91 0.0006553507    1.395    0.283
        50  -8.4543    184.6810     77.6396   8.6108132102e+01   2.8529457984e+01    0.1612134    0.1215397  15.69 0.0007043083    1.766    0.434
        51  -9.4182     30.6881     61.1978   1.2532687680e+02   6.1311500897e+01    0.1810718    0.1624025  40.04  0.000598938    1.380    0.275
        52 -10.4994     11.1533     54.7396   1.3129776966e+02   6.4146861504e+01    0.2676417    0.1029923  37.65  0.001288816    3.393    0.705
        53  -9.9835    110.4530    250.5448   1.3465573996e+02   1.0662900133e+01     0.249013   0.08676964  43.31  0.001219824    2.219    0.549
        54  -9.6139     81.8886    249.1456   1.3939297139e+02   1.4966112493e+01    0.1833609     0.113602  63.60  0.001236087    1.294    0.227
