#   1 NUMBER                 Running object number                                     
#   2 MAG_AUTO               Kron-like elliptical aperture magnitude                    [mag]
#   3 X_IMAGE                Object position along x                                    [pixel]
#   4 Y_IMAGE                Object position along y                                    [pixel]
#   5 X_WORLD                Barycenter position along world x axis                     [deg]
#   6 Y_WORLD                Barycenter position along world y axis                     [deg]
#   7 A_WORLD                Profile RMS along major axis (world units)                 [deg]
#   8 B_WORLD                Profile RMS along minor axis (world units)                 [deg]
#   9 THETA_WORLD            Position angle (CCW/world-x)                               [deg]
#  10 FWHM_WORLD             FWHM assuming a gaussian core                              [deg]
#  11 ELONGATION             A_IMAGE/B_IMAGE                                           
#  12 ELLIPTICITY            1 - B_IMAGE/A_IMAGE                                       
         1 -13.3480      3.6287     50.1774   1.2593363323e+02   6.4132924222e+01       1.1592    0.4785874 -62.51  0.001412066    2.745    0.636
         2 -15.0183      7.3688    141.4777   1.4094559933e+02   4.4881360277e+01     9.587825     4.533596 -88.90   0.04662125    2.391    0.582
         3 -13.3003    199.1508     29.1735   6.5826393321e+01   3.1605140607e+01     1.356059     1.239251  30.53  0.007528975    1.379    0.275
         4 -13.3148    215.9599     10.9424   5.9814809098e+01   2.9748173726e+01    0.9619293    0.7990403  51.89   0.00421751    1.440    0.306
         5 -11.8102      5.4864      4.5090   1.0948844024e+02   7.1082584053e+01    0.4223284    0.2395015  10.74  0.002973022    1.596    0.373
         6 -11.0905     46.2929    248.3285   1.4303604043e+02   1.8048761662e+01    0.3037173    0.2086803  83.73   0.00163911    1.235    0.190
         7 -11.1792    142.0231    250.0000   1.2525992004e+02   3.2500393417e+00    0.3423584    0.2117737  27.18  0.001779412    1.857    0.462
         8 -11.7489    124.1811    249.8592   1.2872099878e+02   6.2528620778e+00    0.6502396    0.1519208  40.32  0.002223922    3.670    0.728
         9 -10.6060     65.3595    248.7752   1.3968972048e+02   1.5444554923e+01     0.260055    0.1715807  79.40 0.0007249507    1.396    0.284
        10 -10.8644     29.0355    249.2276   1.4604232857e+02   1.9970005361e+01    0.2726785    0.2258065  85.74  0.002131863    1.253    0.202
        11 -12.5585     35.7924    244.7009   1.4458155972e+02   2.0027672573e+01    0.5784298    0.5353739 -84.01  0.004482348    1.466    0.318
        12 -12.9662      5.7278    247.8537   1.4974089383e+02   2.2759350654e+01     1.118378    0.6254392  48.75  0.007860117    1.581    0.367
        13 -12.5474     11.2215    239.2974   1.4836611128e+02   2.3799607460e+01     0.753031    0.2574548  48.67  0.004136608    2.332    0.571
        14 -11.2058    198.1549    247.0634   1.1387158472e+02  -5.7390227904e+00    0.3542953    0.2280471   6.70  0.001861943    1.986    0.496
        15 -10.9464    156.6395    248.7853   1.2222588850e+02   9.7468088045e-01     0.276261    0.1916143  58.73  0.001556384    1.566    0.361
        16 -11.0807    163.3953    248.4892   1.2085668627e+02  -1.2669625626e-01    0.2517948    0.2315736  42.64  0.001686558    1.117    0.105
        17  -9.5078    185.6560    239.3144   1.1506273182e+02  -2.4651134687e+00    0.1269023   0.09821241  64.08 0.0002503888    1.711    0.416
        18 -10.4222     53.0224    238.1771   1.4100110473e+02   1.9133741655e+01    0.1998782    0.1495376 -89.31 0.0005958488    1.192    0.161
        19 -12.2869    239.2482    248.1370   1.0637854949e+02  -1.2249325403e+01    0.6853998    0.3053889  32.65    0.0035199    1.973    0.493
        20 -13.7940     50.6211    206.6749   1.3846695324e+02   2.5932984345e+01     6.380012     1.216199  52.46   0.01313349   12.195    0.918
        21 -12.0886     98.7111    246.3750   1.3322924003e+02   1.0980371229e+01    0.4952791    0.3048873  52.09  0.002129892    1.356    0.262
        22 -10.2979      6.8560    215.1972   1.4758110848e+02   2.8977712587e+01    0.1920892    0.1546216  75.37 0.0006312744    1.150    0.130
        23 -12.4460      9.5891    207.1797   1.4652357706e+02   3.0361718683e+01    0.6506734     0.545019  26.43  0.003356014    1.706    0.414
        24 -12.1397     13.9494    122.3902   1.3676293438e+02   4.8669955458e+01    0.5460572    0.3083207  50.62  0.003032468    2.205    0.547
        25  -8.5197    152.5286    213.0044   1.1754610184e+02   8.0974753173e+00    0.1816513    0.1404012 -49.79 7.534574e-05    1.433    0.302
        26 -11.1519    130.6389    232.1377   1.2508914994e+02   8.3768213627e+00    0.3755236    0.1607508  38.19  0.001604829    2.167    0.539
        27 -10.5860     54.3520    204.3147   1.3744582171e+02   2.5966655668e+01    0.4741766     0.196163  58.78  0.002007568    2.790    0.642
        28  -9.7364     34.8741    202.6131   1.4125763478e+02   2.8698258384e+01     0.187378    0.1409633 -75.80 0.0003800113    1.205    0.170
        29 -11.5816     57.3416    197.4268   1.3603828660e+02   2.7088429597e+01    0.3204367    0.2350629 -65.17 0.0005695615    1.329    0.248
        30  -9.2184    192.2470    193.6471   1.0558354649e+02   4.2223954423e+00    0.2831517    0.1736003 -73.22 0.0009544095    4.200    0.762
        31 -11.8179     63.9619    189.0911   1.3356489994e+02   2.8067535604e+01     0.268846     0.240073 -67.77 0.0004053756    1.195    0.163
        32 -12.6943     44.4450    213.1323   1.4035174822e+02   2.5323230901e+01    0.9277217    0.6622635 -88.14  0.004108478    1.206    0.171
        33 -10.6941     74.7696    176.4110   1.2930348403e+02   2.9444264878e+01    0.2395841     0.215032 -70.99 0.0002901297    1.104    0.094
        34 -13.1440     61.3110    174.1987   1.3217112005e+02   3.1833068141e+01    0.5361164    0.2833768 -45.58  0.001984924    2.262    0.558
        35 -12.7718     29.3483    230.7076   1.4467595767e+02   2.3502522699e+01    0.3027553    0.2450548 -80.85 0.0007290555    1.277    0.217
        36  -9.4762     93.7552    171.0661   1.2386242815e+02   2.7735000399e+01    0.2448847    0.1811254  68.91 0.0004560644    1.469    0.319
        37 -11.6609     82.4401    167.4575   1.2603052724e+02   3.0378408060e+01     0.628031    0.5263767 -51.22  0.003558751    1.243    0.196
        38 -13.8837     34.5776    223.8881   1.4319009108e+02   2.4271033330e+01    0.8095545     0.576726  68.06  0.002403978    1.148    0.129
        39 -12.3298      4.5202    229.0163   1.4886339214e+02   2.6454221980e+01    0.5841431    0.3510936  43.47  0.004053019    1.692    0.409
        40  -9.9518     95.7901    151.8561   1.1983159136e+02   3.1885029816e+01    0.3015279    0.2765656  36.69 0.0007990696    1.163    0.140
        41 -11.8781     84.3263    150.7377   1.2259932216e+02   3.4014089116e+01    0.3039073    0.2458441 -43.55 0.0005227935    1.295    0.228
        42  -9.0212     99.0187    147.6751   1.1815869817e+02   3.2311691329e+01    0.1965681     0.187236  51.32 0.0003532353    1.081    0.075
        43 -12.1087     67.3218    143.4472   1.2574571793e+02   3.8229150243e+01    0.6975855    0.4417897  63.32  0.003315473    1.998    0.499
        44  -9.6252    108.3330    137.0294   1.1343663369e+02   3.3116330519e+01    0.4247156    0.2827841 -14.49  0.001377989    2.557    0.609
        45 -10.3748     95.3164    134.2647   1.1632991286e+02   3.6069562948e+01    0.2573415    0.2360453 -26.25  0.000426448    1.168    0.144
        46 -11.0127     26.2073    128.5986   1.3435657807e+02   4.6286526402e+01     0.259176    0.2066487  66.21 0.0008628709    1.418    0.295
        47  -8.1932     73.6392    127.3095   1.2086262632e+02   4.1105462366e+01    0.1437857    0.1066634  74.98 0.0007040932    1.742    0.426
        48  -8.9280    105.9514    123.6920   1.1100913038e+02   3.6592788145e+01     0.194524    0.1817371  41.72 0.0002931532    1.098    0.089
        49  -9.8591    167.6287    112.6521   9.2743885880e+01   2.5779510543e+01    0.2899393     0.257258 -82.77 0.0007623879    1.244    0.196
        50 -10.2439    244.0149     96.5071   7.5075102052e+01   1.1435528892e+01    0.2971571    0.1452875 -64.12  0.001043626    3.539    0.717
        51  -9.7626     61.9709     79.4100   1.1281844042e+02   5.3082475242e+01    0.2933029    0.1991831  47.86  0.001505355    1.870    0.465
        52  -9.8989    158.9860     77.6721   8.5358887490e+01   3.4354009738e+01    0.2155368      0.19157  56.08 0.0005974773    1.078    0.073
        53  -8.2546     55.2847     74.5676   1.1369984970e+02   5.4894695320e+01     0.124461    0.1015857 -83.87 0.0004191114    1.873    0.466
        54 -10.0140    228.6909    228.5656   1.0493040834e+02  -7.9703810957e+00    0.1936764    0.1567145 -52.99  0.001094737    1.773    0.436
        55 -10.1563     88.1179    249.3025   1.3555036283e+02   1.2062633974e+01    0.1881692    0.1426807  37.77  0.001190236    1.428    0.300
        56 -10.9462     81.0191    249.1764   1.3686036753e+02   1.3140532116e+01    0.2989757     0.152559  43.50  0.001621259    1.691    0.408
        57 -11.2461      2.7380     18.1172   1.1622699240e+02   6.9435759238e+01    0.2420627    0.1323896 -48.60  0.001567954    1.904    0.475
