#   1 NUMBER                 Running object number                                     
#   2 MAG_AUTO               Kron-like elliptical aperture magnitude                    [mag]
#   3 X_IMAGE                Object position along x                                    [pixel]
#   4 Y_IMAGE                Object position along y                                    [pixel]
#   5 X_WORLD                Barycenter position along world x axis                     [deg]
#   6 Y_WORLD                Barycenter position along world y axis                     [deg]
#   7 A_WORLD                Profile RMS along major axis (world units)                 [deg]
#   8 B_WORLD                Profile RMS along minor axis (world units)                 [deg]
#   9 THETA_WORLD            Position angle (CCW/world-x)                               [deg]
#  10 FWHM_WORLD             FWHM assuming a gaussian core                              [deg]
#  11 ELONGATION             A_IMAGE/B_IMAGE                                           
#  12 ELLIPTICITY            1 - B_IMAGE/A_IMAGE                                       
         1 -11.6077      2.0581     22.2551   9.6975916862e+01   7.1149076692e+01     0.452072    0.1679107 -51.19  0.001869133    2.210    0.547
         2 -10.8222     59.0629     21.3571   6.8717651087e+01   6.4675812056e+01    0.4242536    0.1806255 -28.66  0.001951696    2.380    0.580
         3 -11.8421     38.5424     19.3827   7.6630340928e+01   6.8035083721e+01    0.3935994    0.3233456  23.06  0.002683651    1.302    0.232
         4 -11.7899     20.6959      2.0251   7.6894244760e+01   7.2554923337e+01    0.6624179    0.2024076  37.91  0.002976565    3.534    0.717
         5 -11.7308     34.7772     12.6095   7.5157720445e+01   6.9454707146e+01    0.4237236    0.2883735 -10.72  0.002708395    1.281    0.219
         6 -10.7466    204.5235     18.5422   3.7191197107e+01   3.2222460685e+01    0.2266014   0.09309382 -43.35 0.0007153046    2.221    0.550
         7 -10.9406     13.9075     16.1165   8.7746636126e+01   7.1275747809e+01    0.2555062      0.21058  16.17  0.001608114    1.418    0.295
         8 -10.7130     15.7050      8.3709   8.3015743514e+01   7.2255442016e+01    0.4505319    0.2156848 -18.66  0.001550478    2.255    0.556
         9 -11.7053    234.8007     14.9897   3.3703203736e+01   2.5935032467e+01    0.2216748     0.179285 -65.25 0.0002617356    1.043    0.042
        10 -11.7289     65.9586     13.7877   6.2679372933e+01   6.4374311265e+01    0.3093093    0.2674247  38.15 0.0006297355    1.247    0.198
        11 -10.5529    208.0565     13.0157   3.5539622961e+01   3.2020036425e+01    0.1911389    0.1593315 -76.04 0.0003555808    1.019    0.018
        12  -9.8930     85.9590     12.1987   5.5571879114e+01   6.0639682663e+01    0.2176134     0.174408  -6.85  0.001036431    1.280    0.219
        13 -12.2243     30.4082      7.3754   7.4652568337e+01   7.0695864889e+01     1.025267    0.3138989  35.61  0.004554679    3.126    0.680
        14 -10.7022    134.9980     11.3233   4.4316189889e+01   4.9618841297e+01    0.1988291    0.1907657  -8.25  0.001297145    1.178    0.151
        15 -11.0531    125.8885     10.7860   4.5764093051e+01   5.1836881720e+01     0.282763    0.2072856 -56.18  0.001585641    1.638    0.390
        16  -9.8395     45.8130     10.0954   6.8848327439e+01   6.8181545982e+01    0.1672539    0.1428147   6.22 0.0003462953    1.164    0.141
        17 -10.4288     22.3472      9.5786   7.9969110718e+01   7.1382713116e+01    0.3229297    0.1745736   8.77  0.001801207    1.986    0.497
        18  -9.1371    104.3036      9.7104   4.9849633806e+01   5.6912233259e+01    0.1199746   0.09894343 -75.33 0.0005822288    1.568    0.362
        19 -10.7246     57.0001      8.0661   6.3290950179e+01   6.6575989819e+01    0.2704234    0.2296733  55.68  0.000869868    1.582    0.368
        20 -11.4862     57.5240      2.6757   6.0455824294e+01   6.7018569192e+01    0.3772129    0.2493886   9.66 0.0008728512    1.440    0.306
        21 -10.0001    204.2996      6.9942   3.4471470241e+01   3.3503352582e+01    0.1678256    0.1423136 -66.23 0.0002218926    1.095    0.087
        22 -10.3352    193.5142      7.5136   3.5606421744e+01   3.5939218407e+01    0.1271779    0.1067971 -83.89 0.0002161846    1.014    0.014
        23 -11.1626    188.8855      6.1311   3.5721605464e+01   3.7157643694e+01    0.3672045    0.1795747  39.66   0.00158664    3.131    0.681
        24 -10.4301    155.9280      6.3398   3.9594600298e+01   4.5020413690e+01    0.2253965     0.167844 -46.31  0.001325784    1.441    0.306
        25  -9.9831      2.8077      6.7074   8.9803905668e+01   7.3630631953e+01    0.1941967    0.1272454  17.01 0.0007585829    1.557    0.358
        26 -10.5213     65.8327      6.6647   5.9418328354e+01   6.5132833494e+01    0.2659536   0.08146647  44.55  0.001104885    2.682    0.627
        27 -10.0035    217.3136      5.6624   3.3067918628e+01   3.0718959346e+01    0.1327568   0.07322404 -63.81 0.0007046639    1.693    0.409
        28  -9.8636    136.0000      4.9858   4.2082483676e+01   4.9935859160e+01    0.1893762   0.07504899 -21.81 0.0007982044    2.913    0.657
        29  -9.9213    119.9790      4.0133   4.4502531233e+01   5.3805208480e+01    0.2011133    0.1745362  62.29  0.001285311    1.059    0.056
        30  -9.0688    104.4780      4.4680   4.7793283763e+01   5.7321550696e+01    0.1280235    0.1097822  47.19 0.0001545098    1.021    0.021
        31 -11.6767     80.8449      1.9454   5.2607036102e+01   6.2613148837e+01    0.3774673    0.2435749  73.36  0.001566462    2.087    0.521
        32  -9.2771     74.5072      4.4997   5.5600939899e+01   6.3670985366e+01    0.1283541    0.1003133  28.07 0.0008097377    1.068    0.063
        33  -9.9070    168.6367      3.6798   3.7259073714e+01   4.2196372201e+01    0.1347631   0.08413501  44.57 0.0007040999    1.777    0.437
        34 -11.0413    151.1016      6.4358   4.0282829364e+01   4.6178018904e+01     0.279404    0.2176662  35.70 0.0003443536    1.424    0.298
        35  -9.5833    242.6610      2.2868   3.0547229503e+01   2.5686599005e+01    0.1245643   0.06634282 -65.53 0.0007018411    1.636    0.389
        36 -10.0280    176.3506      2.3541   3.6046003706e+01   4.0472849834e+01     0.193628    0.1329653  43.80  0.001097821    1.675    0.403
        37  -9.7026     70.5219      7.0070   5.8005656495e+01   6.4215906983e+01    0.1749302    0.1153131 -18.34  0.001022882    1.565    0.361
        38 -10.2363    102.0663      1.8023   4.7290874744e+01   5.8072747814e+01    0.3347995    0.1328556  57.44  0.001045074    2.035    0.509
        39 -11.0811     11.7902      1.8936   8.1898337865e+01   7.3531632098e+01    0.1867778    0.1407254  21.42  0.000564542    1.468    0.319
        40  -9.6390      1.3737      2.2173   8.8458095877e+01   7.4402553149e+01    0.1396635   0.08905172 -42.78 0.0009260338    1.618    0.382
        41  -9.1355     67.2265      1.2999   5.6423855849e+01   6.5359749969e+01    0.1188289   0.07641045  20.22 0.0002733547    1.465    0.317
        42  -9.2175    247.3440    155.2880   6.2716382484e+01   2.1340155288e+00    0.1338791   0.09425543  -2.59 0.0007022412    1.650    0.394
        43 -10.0655     30.7672    250.6582   1.2180277664e+02   1.8029953693e+01    0.1543456   0.07578736  47.21 0.0004251993    1.596    0.374
        44 -12.0004     17.9360    249.1366   1.2398404978e+02   1.9682515419e+01    0.2892417    0.2528731  12.75   0.00222687    1.818    0.450
        45 -12.6157      4.8064    240.7784   1.2587159182e+02   2.2565062102e+01    0.5439485    0.3153616  41.49  0.003709574    1.598    0.374
        46 -10.2134      6.0004    250.0184   1.2607196298e+02   2.0710406926e+01    0.1883827    0.1277957  49.58  0.001404565    1.294    0.227
        47 -10.9552      1.7524    248.7121   1.2673160394e+02   2.1358133148e+01    0.3548542    0.1452768 -82.66  0.002062038    2.165    0.538
        48 -10.9492      3.9035    153.6242   1.2067378553e+02   4.1666551269e+01    0.3745122    0.1241885  26.89  0.001685273    3.271    0.694
        49 -10.5959     15.9678    150.4747   1.1729712868e+02   4.1526645632e+01    0.1668487    0.1264919  28.68 0.0007070013    1.572    0.364
        50 -10.6796     22.6825    146.9062   1.1512482463e+02   4.1846051108e+01    0.2303047    0.1770181 -17.68  0.001355103    1.750    0.429
        51 -10.4555     37.0765    146.0684   1.1107305939e+02   4.0713476094e+01    0.1969709    0.1682128 -76.40 0.0002998988    1.009    0.009
        52 -10.7940      3.3899    134.2254   1.1900984364e+02   4.6366538799e+01    0.3558869    0.1936109  72.69  0.001252202    2.006    0.502
        53 -10.1759    212.5105    133.9262   6.4050125490e+01   1.2192321375e+01    0.2468261    0.2082081  75.13 0.0007276289    1.514    0.340
        54  -9.4104     96.0423    133.9801   9.1891865790e+01   3.5743041393e+01    0.1818558    0.1766047 -64.20 0.0005138996    1.015    0.015
        55  -9.9689    249.3361    133.3148   5.7787566718e+01   5.4597778919e+00    0.1344255   0.09763999  -4.47 0.0004474668    1.692    0.409
        56 -10.5994     11.9614    129.7768   1.1611340323e+02   4.6886358354e+01    0.2240574    0.1589971  58.18   0.00125076    1.543    0.352
        57 -10.0163    248.6903    129.6513   5.7103154583e+01   6.1842989150e+00     0.136124   0.09767168  -7.89  0.000704472    1.711    0.416
        58  -9.9363     28.5396    128.0611   1.1101266839e+02   4.6011296937e+01    0.1990647    0.1130692 -68.80  0.000364005    1.490    0.329
        59 -11.4507     23.9424    121.5562   1.1145491481e+02   4.8011307131e+01    0.3394465    0.2276175  68.91  0.001435045    1.740    0.425
        60 -10.9586      9.3533    120.9859   1.1581200618e+02   4.9205900681e+01     0.333589    0.1811678 -58.52  0.001793869    1.498    0.333
        61 -10.3764     69.0513    117.0203   9.6334036071e+01   4.4164651743e+01    0.2232279    0.1989993 -51.05 0.0003159991    1.032    0.031
        62 -10.4154     31.9620    112.6839   1.0748420021e+02   4.9516662844e+01     0.175895     0.159835 -61.37 0.0004554508    1.068    0.064
        63  -9.3489    139.4283    112.4172   7.4589937453e+01   3.2266515681e+01    0.1542974     0.151787 -48.33 1.657422e-05    1.024    0.023
        64 -10.2398     65.1034    110.1852   9.6071153383e+01   4.6387764242e+01    0.2496646    0.2055555 -71.34 0.0006169829    1.259    0.206
        65 -10.9852      2.7085    109.4622   1.1639602668e+02   5.2379552328e+01    0.2057772    0.1594546 -71.33 0.0009027322    1.041    0.040
        66  -9.2918     21.6778    109.6895   1.1033741458e+02   5.1102926951e+01    0.1376437   0.08185755 -41.87 0.0004782899    1.650    0.394
        67 -11.6792     57.6708    106.4423   9.7683741292e+01   4.8275821850e+01    0.4704706     0.314277 -56.76   0.00153008    1.346    0.257
        68 -10.6894      4.0155    104.3456   1.1529930518e+02   5.3533575640e+01    0.2678617    0.1800283  13.10  0.001340765    1.861    0.463
        69 -10.0740     17.1657    104.7899   1.1103302834e+02   5.2620269457e+01    0.1721444    0.1274879 -39.56 0.0003566444    1.334    0.250
        70  -9.8352    186.8103    103.0814   6.1440242834e+01   2.3501657201e+01    0.2292322    0.1976179 -64.30 0.0005911922    1.223    0.182
        71  -9.7860    246.6598    101.6726   5.1329845417e+01   1.1201868484e+01    0.1313661    0.1021446  -0.45 0.0007051541    1.734    0.423
        72 -10.7436      6.6362    107.1673   1.1484129465e+02   5.2713205506e+01    0.2008734    0.1613803  83.54 0.0004236652    1.298    0.230
        73  -9.6432     55.9884     97.3172   9.6114914802e+01   5.0674863008e+01    0.1900326    0.1747648 -34.72 0.0005196119    1.052    0.049
        74 -10.6180     10.9990     85.2852   1.0981140630e+02   5.7636454818e+01    0.2046758    0.1581617 -81.82 0.0004163908    1.356    0.262
        75 -10.8721     11.1744     92.3147   1.1100829051e+02   5.5984105393e+01    0.3490948    0.1770438  89.61  0.001412651    2.782    0.641
        76 -10.0140      2.9873     95.7926   1.1441727725e+02   5.5615521638e+01    0.1940245    0.1317632 -47.52 0.0006765137    1.293    0.227
        77 -10.1203     28.2344     92.4889   1.0491887152e+02   5.4719580487e+01    0.3042416    0.1641954  15.00  0.001229475    2.249    0.555
        78 -12.1573     20.5888     92.9579   1.0776610622e+02   5.5207352328e+01    0.4120538    0.2531273 -28.83 0.0005603716    1.773    0.436
        79 -10.8238     24.4481     87.9397   1.0535529891e+02   5.6095336410e+01    0.3327557    0.1980909 -42.38  0.001040184    1.489    0.329
        80  -9.9350     19.2300     87.0615   1.0710683906e+02   5.6689258406e+01    0.2821057    0.1559825 -73.11  0.001408248    1.828    0.453
        81 -12.0019    125.2257     93.3041   7.3035015285e+01   3.9440893953e+01    0.2697296    0.2659611 -13.20 0.0002160024    1.016    0.016
        82 -11.8042     58.0891     91.6134   9.3940558169e+01   5.1742086434e+01    0.3039978    0.2499822 -31.49 0.0002891095    1.158    0.136
        83 -12.4334     55.3033     85.6204   9.3359976709e+01   5.3473320513e+01    0.2954979    0.2789316 -78.24 0.0007342019    1.232    0.188
        84 -10.1025     51.1367     91.8895   9.6496665055e+01   5.2543278824e+01    0.2061707    0.1890083 -88.07 0.0008239641    1.271    0.213
        85 -10.4877     44.0718     89.9054   9.8569314471e+01   5.3808394088e+01    0.3914603    0.2882566  86.12  0.001149637    1.896    0.473
        86 -10.1193      7.0215     91.2603   1.1230230541e+02   5.6469544935e+01    0.2108866    0.1272157 -50.16            0    1.357    0.263
        87  -9.8799     84.9224     88.1259   8.3704805103e+01   4.8468448991e+01    0.2011286    0.1937566 -70.32   0.00112964    1.167    0.143
        88  -9.8983     64.6363     88.2133   9.0704681047e+01   5.1633025837e+01    0.2137847    0.1176957 -44.18 0.0009524429    1.657    0.397
        89 -10.2041     78.8470     93.8961   8.7375428525e+01   4.8191948727e+01    0.2196425    0.1850356 -18.68 0.0003212371    1.228    0.186
        90  -9.6723    101.6377     83.3023   7.6891253464e+01   4.6409527828e+01     0.150276    0.1218737  84.89 0.0007036719    1.727    0.421
        91 -10.0324      2.9082     82.0369   1.1222866274e+02   5.8818413526e+01    0.3319038    0.1464738 -81.93  0.001444995    2.766    0.638
        92  -9.3078    139.3027     82.7153   6.6244589309e+01   3.8401388397e+01    0.1504558     0.121956 -81.82 0.0006975245    1.557    0.358
        93 -10.3166     64.0286     81.3186   8.8970199346e+01   5.3256817383e+01    0.2447399    0.1864789 -46.40 0.0005500644    1.212    0.175
        94  -9.8566     88.9033     80.1662   7.9983948924e+01   4.9466963209e+01    0.3848351    0.2598262  89.09  0.001408552    3.446    0.710
        95  -9.4075    250.3286     80.7010   4.6296841739e+01   1.3839897871e+01    0.1347333   0.08789921 -63.70 0.0005211857    1.639    0.390
        96  -9.3574    124.4894     79.4533   6.9085131366e+01   4.2380032640e+01    0.1488678    0.1484665  10.17 0.0001504418    1.047    0.044
        97  -9.3764     48.0069     79.0087   9.4279367004e+01   5.5848143164e+01    0.1613918    0.1392505 -36.31 0.0003385598    1.002    0.002
        98 -10.8585     55.2775     76.0684   9.0677471952e+01   5.5594984914e+01    0.3787794    0.3361436 -10.79  0.001570881    1.100    0.091
        99 -10.6324     27.5862     77.3675   1.0177195234e+02   5.8267985235e+01    0.3578547    0.1983147  -5.40 0.0005688771    2.395    0.582
       100 -10.2657    176.7795     76.9571   5.6446775951e+01   3.0580661034e+01    0.2641981    0.2198296  61.73  0.001250008    1.217    0.178
       101 -11.2416     35.6360     74.0934   9.7755503790e+01   5.8266134599e+01    0.4488825    0.3078751  43.09  0.001513051    1.838    0.456
       102 -11.5502     15.5328     75.3414   1.0605724155e+02   5.9626653799e+01    0.3964793    0.2301191  24.11  0.001657554    2.005    0.501
       103 -10.2875     20.5279     72.0109   1.0328934867e+02   6.0022711908e+01    0.3336851    0.1039905 -60.08  0.001303641    2.637    0.621
       104 -10.5333      6.4832     76.4891   1.0984541532e+02   5.9902020471e+01    0.1261026   0.09746695 -51.81  0.000810268    1.020    0.020
       105  -9.4568    216.9887     72.0503   4.8620831155e+01   2.2102657475e+01     0.167967    0.1413139 -48.26 0.0003435393    1.083    0.077
       106 -11.5042    106.2396     71.5557   7.1767332772e+01   4.7807360011e+01    0.3239736    0.2879148  66.88 0.0009985904    1.319    0.242
       107  -8.7265     92.9895     72.0000   7.6040913430e+01   5.0356732882e+01    0.2412708   0.08235659  42.31  0.000807053    2.975    0.664
       108 -12.0241     10.8411     69.6522   1.0667923253e+02   6.1188379366e+01    0.3428159    0.2942266 -71.42  0.001726403    1.259    0.206
       109  -9.4994    151.7066     70.6600   5.9752960746e+01   3.7671229910e+01    0.1522703    0.1180943  13.46 0.0006649044    1.652    0.395
       110 -10.2589     45.7912     69.5132   9.2414867245e+01   5.8171067375e+01    0.2485015    0.1977429   3.55 0.0008792719    1.308    0.235
       111  -9.7799     77.3395     67.1320   7.9725057256e+01   5.4129240531e+01    0.3840215    0.1545282 -34.91  0.001381226    2.807    0.644
       112 -10.0901     80.4941     67.4647   7.8730966307e+01   5.3521430635e+01    0.2412126    0.1875642  21.04   0.00127249    1.318    0.241
       113 -10.8438      5.5348     68.8071   1.0865984530e+02   6.1667906144e+01     0.262017    0.1890406  61.64  0.001208621    1.950    0.487
       114  -9.8179      1.4781     66.4902   1.0983561482e+02   6.2373967252e+01    0.1473697    0.1122489  26.28 0.0005999802    1.641    0.390
       115  -8.8912    120.2812     68.7105   6.6834468143e+01   4.5314061032e+01      0.14214    0.1189713 -78.72 0.0001591209    1.526    0.345
       116  -9.6808     51.6438     66.1726   8.9062518360e+01   5.8155414874e+01    0.1907287    0.1078062 -39.70 0.0003851055    1.590    0.371
       117 -11.0202     14.7810     63.9403   1.0368613960e+02   6.2189804130e+01    0.3358056    0.2227407 -58.41 0.0008619176    1.314    0.239
       118  -9.9776     97.0881     64.1495   7.2107255822e+01   5.1041181716e+01    0.2160761     0.185984  10.44            0    1.162    0.139
       119 -10.4826     62.8192     62.3709   8.3459317916e+01   5.7374228071e+01    0.2731124    0.1775773 -37.25 0.0009440596    1.416    0.294
       120 -10.2826      4.6333     62.3252   1.0761214274e+02   6.3128925807e+01    0.1136248     0.088389  67.93 0.0007037097    1.801    0.445
       121  -9.6456     38.5169     61.4905   9.2935412274e+01   6.0661227858e+01    0.2001675     0.125711  21.09 0.0007418013    1.717    0.418
       122  -9.9959     41.4062     58.8045   9.0869919531e+01   6.0889332789e+01    0.2334096    0.1232753 -29.28   0.00050333    1.995    0.499
       123 -13.2714     20.4393     58.0417   9.9668063848e+01   6.3037367627e+01    0.3930666    0.2523275 -59.56 0.0009598932    1.502    0.334
       124 -11.1366     10.4456     58.4888   1.0417532104e+02   6.3627888263e+01    0.3102622    0.2676746 -36.14  0.002135257    1.112    0.101
       125  -9.8598      1.4045     59.9981   1.0846651304e+02   6.3784928931e+01    0.1797396   0.09328865 -60.84  0.000368033    1.537    0.349
       126 -10.7478     83.5278     56.5213   7.3886451820e+01   5.5009183782e+01    0.4089026    0.2815803 -66.70  0.001816143    2.519    0.603
       127 -11.5368     87.2344     54.0101   7.1731741846e+01   5.4750371540e+01    0.4648013    0.3229349  18.01   0.00162385    1.614    0.380
       128  -9.5266     48.0178     58.4717   8.8013426084e+01   6.0167698998e+01    0.1808538    0.1264028  24.30 0.0003554464    1.497    0.332
       129 -11.1022      4.8847     57.3542   1.0633423985e+02   6.4178638568e+01    0.1944558    0.1428432 -61.06 0.0004629454    1.248    0.199
       130 -10.0204     71.7555     56.5047   7.8055008779e+01   5.7076170547e+01    0.2144152    0.1428692 -35.71 0.0007071238    1.426    0.299
       131 -10.7255     32.7796     56.0672   9.3674138229e+01   6.2356639444e+01    0.3088672    0.1622361 -34.93 0.0009044345    1.735    0.423
       132 -10.5097    104.9214     55.9233   6.6879416297e+01   5.0863236611e+01    0.2125732    0.1971047  16.26 0.0002999053    1.010    0.010
       133 -10.1492     96.3410     55.9861   6.9503404119e+01   5.2627360493e+01    0.2382086    0.1870806  24.00 0.0005710415    1.277    0.217
       134 -11.2299    114.4124     53.7832   6.3453531661e+01   4.9150862721e+01    0.2979337    0.2690719 -22.10 0.0006861111    1.126    0.112
       135 -12.5271     66.2871     52.6934   7.8717151841e+01   5.8655522784e+01    0.4067975    0.2295592  37.81 0.0007892218    1.818    0.450
       136  -9.0546    168.4689     52.5436   5.1120435863e+01   3.6494956882e+01    0.1414789    0.1352914  62.29  4.82712e-05    1.064    0.060
       137  -9.7706    149.4539     52.0460   5.4589289805e+01   4.1204053353e+01    0.2267557    0.1853809  59.56 0.0005228632    1.175    0.149
       138 -10.4643    105.9073     50.9388   6.4838171658e+01   5.1460046679e+01    0.3073848    0.1549853 -27.14   0.00100108    2.253    0.556
       139  -9.7398    121.5375     51.1969   6.0695102427e+01   4.7947487231e+01    0.2081836    0.1420251 -32.02  0.001006916    1.522    0.343
       140 -10.4524      4.1744     50.8083   1.0499801012e+02   6.5581674089e+01    0.2365733    0.1138597 -44.97 0.0008500242    1.558    0.358
       141 -11.8483      9.6162     46.7598   1.0133035711e+02   6.6093513332e+01    0.4142566    0.3797845  28.76  0.002421614    1.436    0.304
       142 -11.4475     78.8135     45.9132   7.1590223200e+01   5.7665251393e+01    0.3509301    0.2435743  39.42 0.0003358355    1.419    0.295
       143 -10.1224     37.9513     48.9375   8.9013592060e+01   6.3204785146e+01    0.2679983    0.1682771  12.59  0.001462643    1.706    0.414
       144 -10.0624    119.4427     47.2502   5.9879107223e+01   4.9019779542e+01    0.2475058    0.1422181 -25.75 0.0007004656    1.933    0.483
       145 -10.4471    102.5639     47.8899   6.4716158830e+01   5.2648927436e+01      0.38883    0.1981401  31.70 0.0007848511    2.391    0.582
       146  -9.5348    154.5419     47.4806   5.2187408092e+01   4.0628172756e+01    0.2171042    0.1861415 -23.15 0.0005326787    1.273    0.214
       147  -9.8066    152.2201     44.6350   5.1764570910e+01   4.1593550185e+01    0.2027351    0.1819856 -80.41 0.0001465146    1.159    0.137
       148  -9.9611    135.9288     46.5941   5.5741428346e+01   4.5257925892e+01    0.2069715    0.1686449  59.28 0.0007531291    1.184    0.156
       149 -10.2379     66.2831     46.8900   7.6545040367e+01   5.9668828518e+01    0.5068312    0.1586466  40.72  0.001852771    3.251    0.692
       150  -9.2763     30.9993     45.9941   9.1093832352e+01   6.4502071732e+01    0.1552545    0.1209164 -31.42 0.0004102324    1.068    0.064
       151  -9.8120    108.8073     44.8294   6.1842133173e+01   5.1760009114e+01    0.1834782     0.168014 -76.54 0.0002644378    1.334    0.251
       152 -10.5314     25.4753     43.8631   9.2902506301e+01   6.5438019720e+01    0.2630408    0.2074801 -77.72  0.001567857    2.022    0.505
       153 -11.2786     16.4826     43.3668   9.7000350747e+01   6.6287366578e+01    0.4873581    0.3996886  55.95   0.00316229    1.895    0.472
       154 -10.4182     36.1486     41.4993   8.7102835889e+01   6.4779513867e+01     0.276602    0.1841659 -49.49  0.001058525    1.598    0.374
       155 -12.6911     39.6819     32.5720   8.1937414991e+01   6.5886749885e+01    0.4136442    0.2683526 -23.74 0.0005364111    1.386    0.279
       156 -11.2014     44.5892     27.1272   7.7383506026e+01   6.6089174730e+01      0.39978    0.2967007  -1.98  0.001968802    1.195    0.163
       157  -9.5808     35.1868     28.8499   8.2458166489e+01   6.7039252805e+01    0.1686039    0.1165069 -13.06 -0.000430966    1.300    0.231
       158 -10.1490     69.0204     42.0500   7.3631386711e+01   6.0011636254e+01    0.2018337    0.1727888   2.23 0.0004715705    1.025    0.024
       159 -10.6124     59.6206     41.8052   7.7167538537e+01   6.1577060720e+01    0.2275373     0.177396  36.41 0.0006455678    1.387    0.279
       160 -10.2583     76.4638     49.5317   7.3789466070e+01   5.7491283217e+01    0.2320016    0.2033086 -35.30 0.0006174226    1.226    0.185
       161  -9.9285    140.0215     40.6491   5.2938548155e+01   4.5098265309e+01    0.2291072     0.168406  79.34  0.001148324    1.542    0.352
       162  -9.6267     43.0625     40.3521   8.3559197398e+01   6.4153406181e+01    0.1775397    0.1464797   1.71  0.001129533    1.111    0.100
       163  -9.7701    152.0240     39.3033   5.0166244446e+01   4.2359596840e+01    0.2032562    0.1725211  63.19 0.0006480329    1.103    0.093
       164 -10.3767    128.0663     38.6592   5.4866758355e+01   4.8217685960e+01     0.206152    0.1895539 -49.05 0.0003929039    1.189    0.159
       165 -11.8108    121.3419     37.1248   5.5899619615e+01   4.9993437247e+01    0.4013094     0.389634 -12.21  0.001567889    1.098    0.089
       166 -10.5503     97.1001     37.7818   6.2577346598e+01   5.5283254047e+01    0.2591202    0.1949714  11.74 0.0009481753    1.425    0.298
       167 -10.1585     22.3039     37.9803   9.2314187010e+01   6.6820029990e+01    0.1794195    0.1565216   4.37 0.0005586965    1.262    0.207
       168 -11.4521      2.2467     35.2112   1.0141478255e+02   6.8774445198e+01    0.2932567    0.2374732 -25.34  0.002140915    1.120    0.107
       169 -11.0327      7.3829     34.1021   9.8411229713e+01   6.8680470679e+01    0.2407549    0.1985565  48.07  0.001294736    1.854    0.461
       170 -10.9621     27.1804     34.7624   8.8726128613e+01   6.6932356148e+01    0.3107816    0.1701675 -23.49  0.001067125    1.808    0.447
       171  -8.7950    141.7036     35.6209   5.0981495742e+01   4.5346077749e+01    0.1468786    0.1022245  26.04 0.0007022643    1.755    0.430
       172 -10.0815    133.7363     34.6323   5.2279358819e+01   4.7389397790e+01    0.2109624     0.146587  40.22 0.0008335387    1.441    0.306
       173 -10.7239     91.4143     33.8092   6.2753144528e+01   5.7005541205e+01    0.3660652    0.2297878   1.12  0.001651873    2.090    0.521
       174 -10.1941     73.1065     33.1180   6.8530814402e+01   6.0642301442e+01    0.2417128    0.1997717 -30.94  0.001071191    1.298    0.230
       175  -9.1594     66.5710     32.8206   7.0805958447e+01   6.1837147250e+01    0.1785002    0.1181913 -41.36 0.0009529882    1.708    0.415
       176 -10.7618     18.2487     32.1819   9.2156821485e+01   6.8218758911e+01    0.4822994     0.210909  -0.62  0.001977996    3.754    0.734
       177  -9.5093    166.3283     31.0632   4.5290998211e+01   3.9893332024e+01     0.185903    0.1699287 -66.75 0.0004886502    1.099    0.090
       178 -10.6396    127.7562     30.5534   5.2177331034e+01   4.9314111101e+01    0.3438248    0.2392282  78.06 0.0007269586    1.684    0.406
       179 -11.9840     10.1765     29.6825   9.5380577824e+01   6.9298577582e+01    0.4771285    0.2580113  41.19  0.001712992    2.963    0.663
       180 -10.0519    229.7868    247.8733   8.3023077920e+01  -9.1863317182e+00    0.1724349    0.1253629   2.50 0.0004748736    1.112    0.101
       181 -10.2899      6.9236     20.9311   9.3728478652e+01   7.1054137963e+01    0.1916263    0.1575231   4.84  0.000597465    1.320    0.242
       182 -11.6169     68.7979     26.7985   6.7428655393e+01   6.2283868367e+01    0.3319928     0.285275  81.05  0.001964876    1.887    0.470
       183 -11.2396    113.9175     26.5850   5.3913669779e+01   5.3004223339e+01    0.2313832    0.2081332 -25.15 0.0001505618    1.209    0.173
       184 -10.2824     77.8467     26.1637   6.3993540470e+01   6.0692333182e+01    0.4273475    0.2118737  18.98  0.001618688    3.376    0.704
       185  -9.5255    139.0441     26.7809   4.8639994789e+01   4.7052518470e+01    0.1932449    0.1038512  62.78 0.0008805678    1.713    0.416
       186 -10.3240    225.0544    247.5679   8.3826398620e+01  -8.5301809599e+00    0.2253658    0.1570422 -22.86  0.001486603    1.395    0.283
       187  -9.9673    101.2586     25.3772   5.6655347820e+01   5.5974675967e+01    0.2335963    0.1681138  61.59 0.0006865032    1.467    0.318
       188  -9.6634     19.1782     25.2322   8.8893644509e+01   6.9329848328e+01    0.2125526    0.0998261 -27.24  0.000887699    2.064    0.516
       189 -10.8137     14.6806     21.6605   8.9770282336e+01   7.0320898599e+01    0.4188216    0.1946054  24.83  0.002259315    2.223    0.550
       190 -10.3146     35.5588     22.3053   7.9391669086e+01   6.8001145290e+01     0.225547    0.1858125  -7.82 0.0008900556    1.090    0.083
       191  -9.3725    170.6163    247.1499   9.4118069083e+01  -7.4149365320e-01    0.1603538     0.109847 -25.67 0.0008277879    1.703    0.413
       192  -9.3112     91.3318     22.3029   5.8198501216e+01   5.8450883376e+01    0.1406391   0.08913027  25.36  0.000703565    1.655    0.396
       193 -11.1796     75.3019     21.1539   6.2716736873e+01   6.1792731649e+01    0.3770137    0.3288564 -38.22  0.001984806    1.419    0.295
       194 -10.2431     70.5826     17.2729   6.2627149032e+01   6.3133130661e+01    0.2328422    0.1834896 -41.86  0.001410761    1.628    0.386
       195 -10.0803     46.1721     21.6067   7.4198808636e+01   6.6659427809e+01    0.1903411    0.1505091 -25.70 0.0004598229    1.277    0.217
       196 -10.8536     30.3471     21.1408   8.1398330172e+01   6.8808244292e+01     0.270303    0.1996543   0.26  0.001157801    1.156    0.135
       197  -9.4903    116.1442    246.7553   1.0502045001e+02   7.5469283042e+00    0.1555192    0.1391035  12.71   0.00104025    1.298    0.229
       198 -10.3800     31.5531     16.1970   7.8485735033e+01   6.9381656933e+01    0.1986767    0.1375773   9.71 0.0003162847    1.280    0.219
       199  -9.2459     58.3011    247.6901   1.1652381578e+02   1.5351029063e+01    0.1233253   0.06953279  62.88 0.0002551924    1.603    0.376
       200  -9.8265    181.5071     20.9596   4.0383073699e+01   3.7375563678e+01    0.1842181    0.1304714 -29.83 0.0006360009    1.555    0.357
       201 -10.1728     20.1603     17.7842   8.5104110884e+01   7.0425166586e+01    0.2881026    0.1395788 -30.67  0.001169336    1.804    0.446
       202  -9.4824     84.0097     21.4594   6.0039336299e+01   6.0050562412e+01    0.1997684    0.1163301  47.95  0.001022328    1.570    0.363
       203 -12.3298      9.8883    246.0975   1.2523350408e+02   2.1063746920e+01    0.5159788    0.2477777  56.99  0.003250139    1.591    0.371
       204 -10.3543    140.8182     18.0402   4.5495145432e+01   4.7566239469e+01    0.2275428    0.1771113  71.83 0.0009241101    1.202    0.168
       205  -9.6361    115.1120     17.6137   5.0371715608e+01   5.3701865022e+01    0.2024321    0.1605238  79.85 0.0006000286    1.426    0.299
       206 -10.1440    125.1727     17.2094   4.8119952387e+01   5.1393568200e+01     0.195638    0.1597419  42.03 0.0003319399    1.146    0.128
       207  -9.6456    202.3863    240.7082   8.6949415852e+01  -4.4673404697e+00    0.1629459    0.1054442 -22.94 0.0007625212    1.614    0.380
       208  -9.8679     35.9336    240.4910   1.2023390628e+02   1.9393825077e+01    0.1646428   0.09689178  40.73 0.0005867349    1.543    0.352
       209 -10.0045    117.5013    239.5027   1.0388432895e+02   8.6465211011e+00    0.1274145    0.1085055  44.23 -0.000107249    1.009    0.009
       210  -9.8200     82.7349     15.9673   5.8117641363e+01   6.0914870636e+01    0.1725844    0.1513313  11.19 0.0001867349    1.087    0.080
       211  -9.8170    154.9689     15.4758   4.2435628986e+01   4.4389024702e+01    0.1967156     0.104951 -84.01   0.00081015    2.630    0.620
       212 -11.4344     14.1910    238.9028   1.2412566046e+02   2.2013869190e+01    0.2154958    0.1329597  70.57 0.0007709026    1.267    0.211
       213 -10.3133    222.1606     13.8225   3.4475511759e+01   2.8783244662e+01    0.1535077    0.1394759  65.07 0.0004403127    1.322    0.243
       214 -10.0290     91.1083    237.3053   1.0907796723e+02   1.2943917358e+01    0.1839899    0.1640861 -60.87 0.0004962198    1.324    0.245
       215 -11.5950     25.4914    236.2038   1.2191344113e+02   2.1378365847e+01    0.2295876    0.1568326  54.23 0.0006946872    1.207    0.171
       216  -9.8028    249.3288    233.9320   7.7286068034e+01  -9.8869100835e+00    0.1619001    0.1191955  -7.45 0.0004321655    1.078    0.072
       217 -12.8013     10.1374    227.8444   1.2428948745e+02   2.4598521258e+01    0.5333769    0.3275857  76.99  0.002350038    1.301    0.231
       218  -9.2922     47.8282    229.8761   1.1717421092e+02   2.0127426474e+01    0.1680913     0.109996  64.51 0.0004088711    1.310    0.237
       219  -9.5391     89.4898     13.5167   5.5127152407e+01   5.9773606036e+01    0.2061005    0.1161092  54.96 0.0005736824    1.647    0.393
       220 -11.9632      4.0303    232.6205   1.2563533270e+02   2.4222754877e+01    0.2517076    0.1639769  63.89   0.00178316    1.169    0.144
       221  -9.6511    209.4998    229.5108   8.3758275978e+01  -3.8626207785e+00    0.1274561    0.1032166   7.60 -0.0001214973    1.013    0.013
       222  -9.2100      3.7331     10.7103   9.1136003338e+01   7.2947600331e+01    0.1132561   0.06289298 -22.49 0.0002406432    1.503    0.334
       223 -10.8253    140.4058    228.2793   9.7593584317e+01   7.1347034161e+00    0.2834224    0.2107539 -71.30   0.00135265    1.765    0.433
       224 -10.1188    223.2972    226.6001   8.0670777781e+01  -5.4236767645e+00    0.2118024    0.1290394 -13.31  0.000671301    1.722    0.419
       225 -11.2080      1.5317    225.1353   1.2573408151e+02   2.5943235039e+01    0.2856891    0.1167901  88.80 0.0008634455    2.164    0.538
       226 -11.1229      2.3868    220.3838   1.2534615352e+02   2.6832432792e+01    0.2765022    0.1245909  85.53  0.001377919    1.929    0.482
       227  -9.2303    126.6639    220.7333   9.9471916519e+01   1.0765675892e+01    0.1293536    0.1015214   5.85 0.0004514721    1.590    0.371
       228 -11.1010      8.5621    218.0905   1.2406213239e+02   2.6743334760e+01    0.2530683    0.2182868  25.24  0.001732131    1.595    0.373
       229  -9.0064    243.3286    230.3111   7.7707436116e+01  -8.6512072625e+00    0.1253009   0.07549074   0.03 0.0007041752    1.666    0.400
       230  -9.9598    205.7013    212.5890   8.1552207350e+01  -6.6329817780e-01    0.2260446    0.1461026 -23.92 0.0008002453    1.570    0.363
       231 -10.0893     15.7664    213.3195   1.2238134653e+02   2.7064015643e+01    0.1847263    0.1119846  56.28 0.0008924669    1.397    0.284
       232  -9.1901    249.3405    211.3212   7.3309846463e+01  -6.8389215164e+00    0.1300423   0.07924303  -2.22 0.0006567354    1.719    0.418
       233  -9.2686    209.6442    211.2796   8.0549745361e+01  -1.0672419573e+00    0.1180993    0.1041753  59.66 0.0005464113    1.658    0.397
       234  -9.8859     20.2080    209.8723   1.2126673049e+02   2.7367739249e+01    0.1904688    0.1224381  66.47 0.0007272835    1.308    0.235
       235 -10.4407      3.2310    206.0151   1.2443009460e+02   2.9770945410e+01    0.1418922    0.1256766 -45.22 0.0008553221    1.606    0.377
       236  -9.4869    193.4269    202.2302   8.2113856206e+01   3.0655671720e+00    0.1708324    0.1294599 -48.13 0.0004646244    1.539    0.350
       237 -10.1615     23.7212    196.6354   1.1957288599e+02   2.9938326440e+01    0.2416087    0.1791148 -49.32   0.00150703    1.695    0.410
       238 -10.7360     13.8496    192.5411   1.2139546973e+02   3.1795352209e+01    0.2206438    0.1368125  68.87 0.0004459369    1.412    0.292
       239 -10.9838      5.6697    192.2697   1.2311532454e+02   3.2569859517e+01     0.257036    0.1900619 -41.97  0.001661299    1.882    0.469
       240  -9.7985      1.2761    191.1311   1.2396520910e+02   3.3185287415e+01    0.1704572   0.08161596  89.86 0.0006718818    1.769    0.435
       241  -9.5527     22.2031    179.8705   1.1853813127e+02   3.3938774493e+01    0.1620099     0.133087 -62.59 0.0005666945    1.304    0.233
       242  -9.2880     13.3510    180.6741   1.2062704809e+02   3.4550398267e+01    0.1339241   0.07255134  65.63 0.0007048289    1.759    0.432
       243 -10.7086      4.8505    167.4833   1.2156496418e+02   3.8316050299e+01    0.2748222    0.1633316  56.90  0.001297646    1.630    0.386
       244  -9.6139    226.4626    164.0038   6.8101364277e+01   4.1575989357e+00    0.2092807    0.1225598 -35.33 0.0007923938    1.540    0.351
       245  -9.8781     14.6510    163.6856   1.1890288333e+02   3.8442338673e+01    0.1253845    0.0830164 -47.62 0.0007046956    1.724    0.420
