#   1 NUMBER                 Running object number                                     
#   2 MAG_AUTO               Kron-like elliptical aperture magnitude                    [mag]
#   3 X_IMAGE                Object position along x                                    [pixel]
#   4 Y_IMAGE                Object position along y                                    [pixel]
#   5 X_WORLD                Barycenter position along world x axis                     [deg]
#   6 Y_WORLD                Barycenter position along world y axis                     [deg]
#   7 A_WORLD                Profile RMS along major axis (world units)                 [deg]
#   8 B_WORLD                Profile RMS along minor axis (world units)                 [deg]
#   9 THETA_WORLD            Position angle (CCW/world-x)                               [deg]
#  10 FWHM_WORLD             FWHM assuming a gaussian core                              [deg]
#  11 ELONGATION             A_IMAGE/B_IMAGE                                           
#  12 ELLIPTICITY            1 - B_IMAGE/A_IMAGE                                       
         1  -7.6920    144.0845      8.8594   5.6653401166e+01   4.8468853193e+01    0.1957032    0.1841878 -52.04 0.0003108263    1.193    0.162
         2  -8.5874    124.9765    248.3182   1.1503953227e+02   1.0224051113e+01    0.2014274    0.1467964 -69.25 0.0009959969    1.670    0.401
         3  -8.0224    101.0493    250.5570   1.1893671645e+02   1.3398699988e+01    0.1516317   0.07845045  48.31 -1.002103e-06    1.484    0.326
         4  -9.5649    102.1784    246.8086   1.1845257570e+02   1.3781290119e+01    0.2264147    0.1865027 -85.46  0.001187311    1.372    0.271
         5 -11.7375     75.3816    248.6993   1.2265633905e+02   1.7151926413e+01    0.3190987    0.2086696 -73.80  0.002479829    1.680    0.405
         6 -16.9924     44.4036    240.8380   1.2670809871e+02   2.2158893188e+01     1.824413     1.206253  59.90   0.00564363    1.180    0.153
         7  -8.8811     93.8699    219.7044   1.1736651910e+02   1.9207446958e+01    0.1802549     0.153338  73.19 0.0003883851    1.190    0.160
         8  -7.4040     11.5427    219.5271   1.3040183006e+02   2.9112382533e+01   0.09784687   0.06482249  75.67 7.452274e-05    1.019    0.019
         9  -8.3996    140.9504    215.6812   1.0880943250e+02   1.2497126209e+01    0.2039583    0.1632888 -85.51 0.0006414793    1.403    0.287
        10  -7.9967     10.2295    215.5168   1.3040747023e+02   2.9915863865e+01    0.1663438   0.09287728 -66.84  0.001229533    2.009    0.502
        11  -8.9021    119.1666    241.2272   1.1528066809e+02   1.2105347087e+01    0.2426721    0.1486177 -67.40  0.001101554    1.957    0.489
        12  -8.4412     26.9780    208.3823   1.2745742313e+02   2.9490989517e+01    0.2259016     0.113698  69.53  0.001525252    1.569    0.363
        13  -7.9724    107.6968    203.9969   1.1331735298e+02   1.9825033498e+01    0.1597966    0.1342396  77.51 0.0004368746    1.094    0.086
        14  -8.1123    103.6974    237.0176   1.1735981895e+02   1.5022550641e+01    0.1494403    0.1177351  70.85  0.000786396    1.110    0.099
        15  -8.6429    248.2581    201.3408   8.8010903714e+01  -4.3950811502e+00    0.1939772    0.1853904  18.86 0.0001644692    1.374    0.272
        16 -10.1791    139.0972    230.2703   1.1086998811e+02   1.0595750734e+01    0.1970204    0.1757661  67.97 0.0002339397    1.183    0.154
        17  -8.9346     76.0628    194.6524   1.1802820411e+02   2.6137276871e+01    0.2043828    0.1510404 -71.07 0.0006660809    1.385    0.278
        18  -8.1679     37.4624    195.0017   1.2485222543e+02   3.0795888374e+01    0.2075243    0.1288982  44.44 0.0007952082    1.673    0.402
        19  -8.4849    139.0352    224.4815   1.1021040945e+02   1.1464905538e+01    0.2451511     0.155522  78.04 0.0005873945    2.026    0.506
        20  -9.1028    246.2401    183.2818   8.5011111437e+01  -1.9075143378e+00    0.2701985     0.245199  88.21  0.001170603    1.728    0.421
        21  -8.5819     90.4902    184.0284   1.1417836469e+02   2.6105944800e+01      0.22881    0.1362222  61.18 0.0008386274    1.538    0.350
        22  -7.4692      1.4801    184.4983   1.3022487817e+02   3.6213930186e+01   0.09891593   0.07103889  88.31 9.381858e-05    1.142    0.125
        23  -9.2075    245.4256    243.8099   9.5353977166e+01  -8.2755155364e+00    0.2262862    0.1447829  38.84 0.0003858822    1.256    0.204
        24  -9.1437    234.4822    178.3012   8.6040825339e+01   8.7923402911e-01     0.270339    0.1975163  47.74 -0.0002056355    1.397    0.284
        25  -7.8012     97.4645    179.2010   1.1223022642e+02   2.5989819827e+01    0.1942763    0.1410443  73.00 0.0007770779    1.258    0.205
        26  -9.0428    101.1290    176.3552   1.1113422657e+02   2.5976358832e+01    0.2567254    0.1703775 -82.22            0    1.571    0.363
        27  -8.8379     86.9741    177.6893   1.1409522640e+02   2.7852977950e+01      0.17578    0.1394063  64.99    0.0011554    1.106    0.096
        28  -7.5858     23.9793    175.7246   1.2579978157e+02   3.5848023858e+01    0.1430569    0.1084292  75.24  0.000487494    1.116    0.104
        29  -8.9875    235.2475    173.3999   8.4949229073e+01   1.3910136356e+00    0.2504683    0.2025325  29.09 0.0002356623    1.087    0.080
        30  -8.0797     86.7973    161.9724   1.1209863982e+02   3.1043270491e+01    0.3758317    0.1938959  65.93  0.001679982    2.323    0.570
        31  -9.5715     90.0120    169.6380   1.1246932684e+02   2.9007589438e+01    0.2931782    0.2473338  61.63 0.0007994693    1.151    0.132
        32  -8.0838     94.5125    165.0018   1.1091805342e+02   2.9266207112e+01     0.257147    0.1833554 -43.37  0.001170819    1.863    0.463
        33  -8.6180    235.3489    168.5257   8.3957338214e+01   2.0349237830e+00    0.2581421    0.2117249  35.26  0.000196685    1.137    0.121
        34  -8.3888    156.0504    168.9380   9.8942948149e+01   1.7697077247e+01     0.196841    0.1812544  52.98 0.0002956433    1.041    0.039
        35  -7.9984     37.0688    168.9197   1.2282961791e+02   3.5866841999e+01    0.2325132    0.1211173  51.95 0.0008786029    1.771    0.435
        36  -7.1154    244.7446    168.3744   8.2325614590e+01   2.7466027232e-01    0.1195867    0.1024327 -55.72 0.0004213661    1.649    0.394
        37 -10.1268    203.2376    166.0235   8.9225344601e+01   8.7551593831e+00    0.2511328     0.231394  38.17 0.0003351638    1.067    0.063
        38  -7.6253    126.3203    167.3148   1.0470379340e+02   2.3534908842e+01    0.1233036    0.1073981   0.84 0.0003143315    1.655    0.396
        39  -7.4533      4.4901    166.4845   1.2866535971e+02   3.9379241336e+01     0.138645     0.104047  11.81   0.00102429    2.437    0.590
        40  -7.8095    157.8629    158.3446   9.6626074627e+01   1.9290947119e+01    0.2285121    0.1839781 -66.14 0.0004990682    1.385    0.278
        41  -7.4884    114.0584    159.5050   1.0599710542e+02   2.7221064298e+01    0.1915586    0.1207372  49.54 0.0006527167    1.499    0.333
        42  -7.6521     68.4869    158.5389   1.1546372757e+02   3.4295764784e+01    0.1228264   0.09986611  86.08 0.0001288231    1.004    0.004
        43  -8.5421     22.8714    156.9962   1.2453028365e+02   3.9672193554e+01    0.2689656    0.1012952 -81.08  0.001362348    2.336    0.572
        44  -9.7299     89.2659    152.7106   1.1024839007e+02   3.2605259511e+01    0.4331497    0.1877154 -54.79 0.0008769055    2.262    0.558
        45  -7.2785     41.6280    154.7972   1.2057952306e+02   3.8261246566e+01    0.1542864   0.08847477 -83.57 0.0002667914    1.491    0.329
        46  -7.5183    133.4696    150.0648   1.0019796668e+02   2.5645231773e+01     0.196346    0.1345747 -53.63  0.000315543    1.500    0.333
        47  -8.8576    222.9990    148.8946   8.2016573458e+01   7.3589141096e+00    0.2098363    0.1911466  -4.90  0.000296673    1.073    0.068
        48  -7.6440    208.8765    147.8489   8.4382184124e+01   1.0493461575e+01    0.2444238    0.1908617 -37.81  0.001298076    1.353    0.261
        49  -7.3625    156.6660    148.2868   9.4901413505e+01   2.1435538521e+01    0.1440928    0.1092895  80.31 0.0002648443    1.625    0.385
        50  -9.7663     69.0659    144.0567   1.1341946408e+02   3.7284986305e+01    0.5885025    0.3163269  79.47  0.002732424    2.504    0.601
        51  -9.8060      7.4460    143.2234   1.2645165786e+02   4.3780388951e+01    0.2558231    0.2128344 -60.38  0.002062504    1.485    0.327
        52  -7.9663    155.6724    141.9036   9.3798934756e+01   2.2873497371e+01    0.1916068    0.1847013 -71.77 0.0006263282    1.065    0.061
        53  -8.6753     73.7735    138.4037   1.1153157100e+02   3.7878863385e+01    0.2887254    0.1740669  86.26  0.001457419    1.961    0.490
        54  -8.0100    102.2721    136.7838   1.0471176453e+02   3.3954091897e+01    0.1955913    0.1654794  88.33 0.0005149832    1.120    0.107
        55  -7.5760    249.9994    136.3272   7.4576236172e+01   3.6740113306e+00    0.1899099    0.1672543  26.26 0.0004296275    1.108    0.098
        56  -7.8185    151.0265    146.0772   9.5650261088e+01   2.3007195661e+01    0.2064607    0.1917745  63.39            0    1.016    0.015
        57  -7.2189    243.4803    127.4311   7.3610677707e+01   6.3144324980e+00    0.1395718    0.1293981  -0.67 3.642109e-05    1.041    0.040
        58  -8.1181     16.6734    126.8551   1.2301054509e+02   4.6464820384e+01    0.1357759    0.1192834  89.09 0.0005935324    1.226    0.184
        59  -6.9591    188.4939    125.5391   8.3258211663e+01   1.8817747181e+01    0.1481497    0.1438211  35.14 0.0008093136    1.014    0.014
        60  -7.6754    179.0106    123.4820   8.4705820691e+01   2.1342170051e+01    0.2201196    0.1984336 -33.24 0.0003633801    1.138    0.121
        61  -7.2257    240.7856    123.3706   7.3106550903e+01   7.4954805096e+00    0.1948545    0.1265931  40.04 0.0008447726    1.545    0.353
        62  -7.5411      8.4911    116.5575   1.2380459412e+02   4.9252099662e+01    0.1117204   0.08138898 -85.57 0.0001711809    1.062    0.059
        63  -7.7163     16.9739    111.4723   1.2123073117e+02   4.9720079764e+01    0.1516093   0.07211265  57.97 0.0008093482    2.488    0.598
        64  -7.2889      2.6854    108.6892   1.2435002329e+02   5.1295114554e+01    0.1077176   0.06377874 -54.40 0.0007031213    1.634    0.388
        65  -8.6275    165.8933    100.3161   8.1639038601e+01   2.8758564084e+01    0.2572778    0.2164346 -29.83 0.0002866822    1.225    0.184
        66  -7.5461    128.4769     98.9248   9.0027833611e+01   3.7253767534e+01    0.2163456    0.1414587 -44.19 0.0004060121    1.484    0.326
        67  -9.7173    221.9566     94.0295   6.8997918041e+01   1.6386570604e+01     0.274055    0.2585691  36.84 0.0003996823    1.075    0.070
        68  -6.9560     78.5244     94.4457   1.0207134844e+02   4.6900537095e+01    0.1339095    0.1178022 -57.14 1.015299e-06    1.031    0.030
        69  -8.2179    226.5807     89.9812   6.7159397419e+01   1.5928815659e+01    0.2704652    0.1999598  36.00 0.0006346145    1.447    0.309
        70  -7.0557    231.3348     84.6910   6.5000413738e+01   1.5621662534e+01    0.1532216    0.1138781 -65.27 0.0003726151    1.676    0.403
        71  -7.9264    224.0591     83.9393   6.5980793580e+01   1.7491822849e+01    0.2712202    0.2105131  54.22  0.001342615    1.326    0.246
        72  -8.6263    109.1182     80.4675   9.0019991689e+01   4.4849395566e+01    0.2555456    0.2094752 -40.28 0.0003048131    1.151    0.131
        73  -6.8097     17.7313     79.3128   1.1642996470e+02   5.6568831004e+01    0.1094606   0.07548921  87.50 0.0005167285    1.548    0.354
        74  -6.8700    208.9776     75.0000   6.6091666278e+01   2.2649258915e+01    0.2589212   0.08761846  57.57 0.0008123175    3.011    0.668
        75  -7.5886    166.2494     74.0075   7.4086938840e+01   3.3555006393e+01    0.2046992    0.1953631 -27.42 0.0002401553    1.038    0.037
        76  -7.9639    140.6363     62.5700   7.6368414473e+01   4.1697083315e+01        0.311    0.2242932  -0.25 0.0007181466    1.828    0.453
        77 -10.4177    122.9709     58.7481   7.9566590070e+01   4.6287939195e+01    0.2690425    0.2330068 -39.83 0.0002271919    1.131    0.116
        78  -7.5616    162.2051     56.3849   6.9479367406e+01   3.7559261295e+01    0.2177318    0.1490577  68.61 0.0009493354    1.685    0.406
        79  -7.3159    134.3769     55.8403   7.5686156688e+01   4.4299516450e+01    0.1950537    0.1384042 -21.73 0.0001516404    1.498    0.333
        80  -9.2473    218.8518     45.4999   5.6195731655e+01   2.4542710464e+01    0.4282765    0.3065754 -35.70 0.0009842232    1.350    0.259
        81  -7.4386    192.4651     37.7318   5.7919810404e+01   3.2500270592e+01    0.1943632     0.148219  -8.32 0.0004395796    1.488    0.328
        82  -8.9996    180.3272     34.6285   5.8972112462e+01   3.6113361581e+01    0.3545012    0.2684575  33.03  0.001247446    1.426    0.299
        83  -7.4808    165.8550     27.6596   5.9248360264e+01   4.0794879124e+01    0.1995541    0.1797234  62.50 0.0003144335    1.100    0.091
