#   1 NUMBER                 Running object number                                     
#   2 MAG_AUTO               Kron-like elliptical aperture magnitude                    [mag]
#   3 X_IMAGE                Object position along x                                    [pixel]
#   4 Y_IMAGE                Object position along y                                    [pixel]
#   5 X_WORLD                Barycenter position along world x axis                     [deg]
#   6 Y_WORLD                Barycenter position along world y axis                     [deg]
#   7 A_WORLD                Profile RMS along major axis (world units)                 [deg]
#   8 B_WORLD                Profile RMS along minor axis (world units)                 [deg]
#   9 THETA_WORLD            Position angle (CCW/world-x)                               [deg]
#  10 FWHM_WORLD             FWHM assuming a gaussian core                              [deg]
#  11 ELONGATION             A_IMAGE/B_IMAGE                                           
#  12 ELLIPTICITY            1 - B_IMAGE/A_IMAGE                                       
         1 -11.1046    213.0749     41.9597   3.6166760091e+01   2.7684131638e+01    0.8104269    0.5734017 -35.53  0.004851691    1.549    0.354
         2 -10.6966    234.0045     25.8551   3.0961778141e+01   2.5456207379e+01    0.6226101    0.3678584 -36.92  0.003110315    1.755    0.430
         3 -10.0691    229.5669     25.2768   3.1201799857e+01   2.6406318390e+01    0.4849976    0.2391535 -37.54  0.002679084    1.986    0.496
         4  -8.9321    119.2421     11.3837   4.1032544974e+01   5.2640279193e+01    0.2412192    0.1670373  74.01   0.00122716    1.344    0.256
         5  -8.8252    120.0405      8.4766   3.9957100571e+01   5.2712452068e+01    0.2387067    0.1704738  66.13  0.001218676    1.183    0.154
         6  -8.8980    250.4148      4.0644   2.5864457437e+01   2.4825031802e+01    0.3653622    0.1156508 -36.47  0.001830437    2.951    0.661
         7  -8.2706    110.0026      3.7184   4.0203644481e+01   5.5395061063e+01    0.1820691    0.1415348  60.77  0.001066957    1.062    0.058
         8 -10.0827     99.9162    228.7064   9.9237260793e+01   1.2216434880e+01    0.4606622    0.2514607  56.86  0.002055755    2.140    0.533
         9  -8.1881    248.6180    250.1827   7.1948847680e+01  -1.2064309575e+01    0.1650228   0.08138578 -25.35 0.0009500054    1.781    0.438
        10  -8.3825    237.0226    250.0010   7.3926492881e+01  -1.0781177157e+01    0.1434344    0.1069008   0.58  0.001002258    1.059    0.055
        11  -8.3652    116.7426    247.6284   9.7851360260e+01   5.9133565829e+00     0.437698    0.1294424 -62.97  0.001342898    5.861    0.829
        12 -11.5053     25.9732    222.4911   1.1541746434e+02   2.3224849474e+01     1.104765    0.6854858   7.75  0.005591447    2.648    0.622
        13 -12.0631      9.6285    208.1454   1.1800569701e+02   2.8130897507e+01    0.9457676    0.7758561 -62.37  0.004206128    1.373    0.272
        14  -9.9122     23.7606    232.3853   1.1658441284e+02   2.1273741908e+01    0.5983471    0.2079098  37.19  0.001222542    2.402    0.584
        15 -11.4379     53.5499    238.6649   1.1072830605e+02   1.6467392295e+01      1.07894    0.6444721  35.53  0.004250464    1.554    0.356
        16 -13.0087     14.9152    246.9930   1.1925397164e+02   1.9118588544e+01     2.616197    0.8548654  26.45    0.0109917    3.753    0.734
        17 -11.8469      5.9392    231.7920   1.2020019677e+02   2.3194340642e+01     1.221835    0.6847821  64.82  0.007249271    1.493    0.330
        18 -10.4161     87.1036    223.2695   1.0153757368e+02   1.5283481790e+01     0.539578     0.329441  80.22  0.002463551    2.239    0.553
        19  -9.0010     65.8233    232.3960   1.0744155944e+02   1.6236390709e+01    0.2407485     0.144397  39.96  0.001256122    1.475    0.322
        20  -8.3369     62.1966    230.3832   1.0805606459e+02   1.7152306886e+01    0.2471779    0.1376483  44.85 0.0008213397    1.566    0.361
        21  -9.4406    110.8653    230.3065   9.6926785138e+01   1.0232213726e+01    0.2330229    0.1553662  48.71 0.0006789921    1.445    0.308
        22  -8.2746    173.3718    228.0614   8.2674486900e+01   1.0445788588e+00     0.204815    0.1640134  11.74 0.0003928982    1.144    0.126
        23  -6.9747    183.7078    229.2688   8.0714167029e+01  -7.0135058382e-01    0.1158634    0.1017943  52.64 0.0002117707    1.510    0.338
        24  -7.5548    201.3257    225.8336   7.6578853558e+01  -2.6413342446e+00    0.1701719    0.1052095 -30.51 0.0001561316    1.549    0.354
        25  -8.8787    119.5069    229.5221   9.4839963103e+01   9.0727928235e+00    0.1366814    0.1230433  36.12 8.087057e-05    1.003    0.003
        26  -7.3185     59.2944    226.6319   1.0834224957e+02   1.8358017604e+01    0.1424063   0.08549056  65.72 0.0007028402    1.722    0.419
        27 -10.1307    140.3684    221.0965   8.8812031837e+01   7.5155377126e+00    0.2539439    0.2435386 -39.17 0.0003996723    1.139    0.122
        28  -9.0837     74.2891    218.7171   1.0401303765e+02   1.8129385348e+01     0.259991    0.1934504  62.85  0.001428666    1.305    0.234
        29 -10.3841     92.6018    229.0559   1.0096890352e+02   1.3221558651e+01    0.4604804    0.4294197   7.34  0.002098386    1.226    0.184
        30  -8.5229     92.0484    215.1547   9.9324503476e+01   1.6370624865e+01    0.2075877     0.191833 -85.79 0.0002596166    1.112    0.101
        31 -11.0130     13.5186    161.1173   1.1317980029e+02   3.9289143838e+01    0.7268597    0.4048433  82.59  0.003510447    1.862    0.463
        32 -11.7126     21.4508    174.3655   1.1238086483e+02   3.5239880886e+01     1.617439    0.6149847  63.06  0.005546684    3.875    0.742
        33 -11.0826     26.3185    200.3813   1.1357716679e+02   2.8337396663e+01     0.514408    0.4201813 -35.05  0.001986585    1.612    0.380
        34 -12.4174     38.1359    191.4958   1.0983690216e+02   2.9233797927e+01     1.858897      1.06615  76.13  0.008770475    1.912    0.477
        35  -9.5300     55.5094    210.0101   1.0752019498e+02   2.2659411233e+01    0.3082538    0.2301992 -85.23  0.001728543    1.299    0.230
        36  -8.6725    163.4540    207.3806   8.1297426961e+01   6.5345001289e+00     0.225112    0.2085029  -1.32 0.0001849447    1.026    0.025
        37  -7.6548    149.1763    204.3929   8.4008058547e+01   9.5201318593e+00    0.2282882    0.1715671 -53.92  0.001168849    1.450    0.310
        38  -7.0566    193.2987    199.3375   7.3451634605e+01   3.2610324023e+00    0.1434903   0.09870847 -10.43 0.0004050297    1.658    0.397
        39  -7.4998     90.6988    192.0276   9.6359946986e+01   2.2019590646e+01    0.2066304    0.1208565 -50.13 0.0008718974    1.779    0.438
        40  -7.3701     71.8759    191.4150   1.0115868743e+02   2.4967918244e+01    0.1805736    0.1391521  15.72 0.0004105114    1.559    0.359
        41  -7.3203     96.4982    188.4634   9.4293984796e+01   2.1972855359e+01     0.144159    0.1429814  44.96 0.0002984788    1.060    0.056
        42  -7.9953      9.5234    185.4667   1.1638728161e+02   3.3544736304e+01    0.1309507    0.1048294  80.21  8.95721e-05    1.062    0.058
        43  -9.7802     27.3838    184.2715   1.1182815733e+02   3.2176873546e+01    0.3028175    0.2502401 -81.28 0.0003808545    1.081    0.075
        44  -8.6851     58.3067    212.3302   1.0709915958e+02   2.1754638619e+01    0.2014377    0.1918492  71.58  0.001064558    1.123    0.110
        45  -8.6522     15.5188    183.2342   1.1472481024e+02   3.3567759929e+01    0.2021608    0.1749071  41.03 0.0002864611    1.277    0.217
        46  -9.3041     56.3027    175.1825   1.0307966323e+02   3.1173662434e+01    0.3424048    0.2670963 -22.53  0.001541228    1.664    0.399
        47  -7.6928    123.6829    175.0352   8.4840089510e+01   2.0588841041e+01    0.2107671    0.1923037 -49.63 0.0003494063    1.102    0.093
        48  -9.0444    101.2753    173.1877   9.0413860948e+01   2.4954866014e+01    0.3342465      0.25907 -79.02 0.0008705099    1.449    0.310
        49  -9.2757     62.0929    169.8698   1.0070729240e+02   3.1780516412e+01    0.3043061    0.2424426 -35.06 0.0004512968    1.456    0.313
        50  -8.5830      3.0966    162.7164   1.1614021704e+02   3.9684417751e+01    0.3268092    0.1325495  58.76  0.001349054    2.870    0.652
        51  -8.8505     80.6800    162.1739   9.4166946350e+01   3.1084369309e+01    0.2199879    0.1937713  54.51  0.001153546    1.150    0.130
        52  -9.0925     72.6180    160.8695   9.6259443516e+01   3.2633535684e+01     0.256365    0.2398222  31.06 0.0004484207    1.140    0.123
        53  -7.4702     36.2700    160.6619   1.0674244275e+02   3.7278309832e+01    0.1440488   0.09737969  72.83 0.0003775063    1.600    0.375
        54 -10.9448     59.3921    156.6163   9.9413682544e+01   3.5582972509e+01    0.5005639    0.2934943 -40.38  0.001442917    1.970    0.492
        55 -10.1013     80.4188    154.6095   9.2864742724e+01   3.3075017189e+01    0.6640615    0.4395799 -20.08  0.001842536    2.250    0.555
        56  -9.5039    171.6239    154.6859   6.9029994694e+01   1.6144422496e+01    0.2602063     0.243461 -21.81 0.0003247089    1.042    0.040
        57  -8.0563    177.1110    151.8388   6.7215881878e+01   1.5686112359e+01    0.2149763    0.2015841 -77.24 0.0003196875    1.190    0.160
        58  -9.8788     20.0216    196.3266   1.1473439195e+02   2.9945996236e+01    0.3244549    0.2975032 -64.48  0.001426305    1.254    0.202
        59  -8.8379    114.9916    150.1318   8.2080383714e+01   2.8239831990e+01    0.2416885    0.2184999 -53.29 0.0002702429    1.091    0.083
        60 -11.1120     68.1021    144.9455   9.4746631092e+01   3.7424510760e+01    0.7895278    0.5849236  70.73  0.002577807    1.605    0.377
        61  -8.0034     96.1598    141.1689   8.5502303706e+01   3.3899303156e+01    0.2153145    0.1853646  82.99 0.0008722807    1.309    0.236
        62  -8.2318     78.1408    139.8498   9.0658496055e+01   3.7234229028e+01     0.225249    0.2012603  78.67  0.000271996    1.200    0.167
        63  -7.3596     98.7607    138.4294   8.4132799558e+01   3.4124530901e+01    0.2139191    0.1539097  22.86 0.0005936926    1.593    0.372
        64  -8.9351      7.3336    137.3228   1.1239926155e+02   4.5800960406e+01    0.1785692      0.13109 -24.66  0.000679646    1.631    0.387
        65  -9.9355     83.5170    139.7200   8.8985072862e+01   3.6408727867e+01    0.3448611    0.2649229 -58.98 0.0004134451    1.262    0.208
        66  -7.9927    107.6789    131.6658   7.9973836419e+01   3.4146027031e+01    0.3768554     0.247559 -21.42  0.001402406    2.218    0.549
        67  -8.5613      9.0057    131.7557   1.1121969764e+02   4.7098718007e+01    0.1984122    0.1304124  81.35  0.001042469    1.615    0.381
        68  -9.4897     57.8812    129.8981   9.5074130184e+01   4.2726769745e+01    0.2371522    0.1975843 -34.28  0.001247114    1.242    0.195
        69  -9.1392      2.8800    129.1107   1.1281900511e+02   4.8157536580e+01    0.2037413    0.1597624  78.06  0.001229029    1.306    0.234
        70  -8.0548    235.6618    126.1357   5.1144048795e+01   9.7821177744e+00    0.2796074   0.09740768 -47.17  0.001078615    2.592    0.614
        71  -7.4088    121.4923    125.3348   7.4537882550e+01   3.2938080046e+01    0.1536503    0.1472915  44.02 -4.308616e-05    1.060    0.057
        72  -9.0641      2.3397    122.1310   1.1215073862e+02   4.9936349656e+01    0.2357731    0.2121215  77.43  0.001547053    1.198    0.166
        73  -7.4883    105.4988    119.5522   7.7658538484e+01   3.7473747548e+01    0.1541074    0.1518496 -34.84 9.179663e-05    1.006    0.006
        74  -8.4421     64.9683    117.0751   8.9976180769e+01   4.4991316659e+01     0.212919    0.2013284 -40.02  0.001183556    1.016    0.016
        75  -7.8820      1.3309    114.2976   1.1148098152e+02   5.1936432968e+01    0.1366453   0.07789221 -43.67 0.0002130238    1.641    0.391
        76  -8.9618      5.1280    111.2004   1.0975436262e+02   5.2487268686e+01    0.2535354    0.1502706  76.73   0.00123923    2.127    0.530
        77  -8.7664    179.0218    108.2770   5.6736539972e+01   2.4232398951e+01    0.3594923    0.2066036 -42.40  0.001116299    1.651    0.394
        78  -7.6632     99.2273    108.0293   7.6565981384e+01   4.1368904429e+01    0.3224364    0.2004244  12.57  0.001189066    2.644    0.622
        79  -7.7344     94.8472     99.8332   7.5700016479e+01   4.4058579030e+01    0.1999336    0.1803355  85.49 0.0003060881    1.298    0.229
        80 -10.1814     83.5238     99.6774   7.9325046054e+01   4.6168883379e+01    0.2640102    0.2521639  -3.25 0.0002610666    1.032    0.031
        81  -7.5273    155.3199     95.9946   5.8525615777e+01   3.1893598612e+01    0.2033125    0.1895187 -45.90 0.0003565155    1.075    0.070
        82  -7.2873    132.7005     80.2571   5.9417458973e+01   4.0034702398e+01     0.143742     0.115503 -89.18  0.000163419    1.504    0.335
        83  -7.4092    116.8503     56.6310   5.6209096946e+01   4.7664538205e+01     0.192524    0.1291625  63.12 0.0002128658    1.574    0.365
        84  -7.6516    156.0542     54.5065   4.7168568689e+01   3.8843976621e+01    0.2023962    0.1293898  61.93 0.0003089595    1.474    0.322
        85  -8.5738    148.8515     52.2018   4.7855083106e+01   4.0881423597e+01    0.2258276    0.2061076  77.24  0.000422911    1.008    0.008
        86 -10.5040    205.6359     46.8321   3.8057669897e+01   2.8615465214e+01    0.4234233    0.3198153 -47.12  0.001474808    1.269    0.212
        87  -9.2233    183.3675    243.3218   8.3051159647e+01  -3.0230430059e+00     0.294025    0.2520153 -86.40 0.0008299275    1.993    0.498
        88  -9.1140    222.1830     44.3477   3.5736360937e+01   2.5465103247e+01    0.2402874    0.1969863  83.24 0.0006576997    1.203    0.169
        89  -8.4958    117.7726     44.1383   5.1975421032e+01   4.9281942183e+01    0.2144332    0.2001304  71.32 0.0003688489    1.084    0.078
        90  -7.5941    234.8392     39.8519   3.3629297357e+01   2.3522481939e+01    0.1653496    0.1109086 -69.96 0.0003187797    1.279    0.218
        91 -10.3517    203.9487    237.5344   7.8026018618e+01  -4.9021309488e+00    0.2295595    0.1908144 -15.06  0.001513294    1.126    0.112
        92  -8.9780    170.9870    237.2733   8.4658930086e+01  -2.3290347593e-01    0.2130748    0.1957694 -14.61  0.000296545    1.160    0.138
        93 -10.3021    222.0806     34.3916   3.3682953852e+01   2.6792897309e+01    0.5135609    0.3749293  33.55  0.002152591    2.392    0.582
        94  -7.0978    112.3077     29.2967   4.8350652734e+01   5.2398777460e+01    0.1352469   0.09200306  33.35 0.0002166345    1.590    0.371
        95  -8.0647    185.0392     27.9822   3.6098819306e+01   3.5609488907e+01    0.1925979    0.1633436 -82.09 0.0004290129    1.021    0.020
        96  -7.9983    162.9076     14.0347   3.5280773298e+01   4.2222696708e+01    0.1814793    0.1548779  80.69  0.000323138    1.053    0.050
        97  -8.1187      5.6927     12.3457   8.2745798251e+01   7.2781511660e+01   0.09329353   0.08829074  23.87 0.0007043311    1.698    0.411
        98  -8.8722    172.4498    232.6334   8.3612925755e+01   3.6627570973e-01     0.230705    0.1897775   4.50   0.00034578    1.114    0.102
        99  -7.7787     83.4166    233.2285   1.0356051118e+02   1.3648305420e+01    0.1760198    0.1238523 -86.27 0.0005356474    1.614    0.380
       100  -8.7543     70.7072    231.4484   1.0624530862e+02   1.5788776782e+01     0.355743    0.1971735 -89.61  0.001642353    2.320    0.569
