#   1 NUMBER                 Running object number                                     
#   2 MAG_AUTO               Kron-like elliptical aperture magnitude                    [mag]
#   3 X_IMAGE                Object position along x                                    [pixel]
#   4 Y_IMAGE                Object position along y                                    [pixel]
#   5 X_WORLD                Barycenter position along world x axis                     [deg]
#   6 Y_WORLD                Barycenter position along world y axis                     [deg]
#   7 A_WORLD                Profile RMS along major axis (world units)                 [deg]
#   8 B_WORLD                Profile RMS along minor axis (world units)                 [deg]
#   9 THETA_WORLD            Position angle (CCW/world-x)                               [deg]
#  10 FWHM_WORLD             FWHM assuming a gaussian core                              [deg]
#  11 ELONGATION             A_IMAGE/B_IMAGE                                           
#  12 ELLIPTICITY            1 - B_IMAGE/A_IMAGE                                       
         1  -8.4856    224.0087      5.3457   4.8050522670e+01   2.9973436942e+01    0.2359741    0.1777125  35.51  0.001449157    2.050    0.512
         2  -7.8558    143.5880      6.5037   5.8874137229e+01   4.7914219486e+01    0.1233393    0.1022261  52.41 9.746935e-05    1.053    0.051
         3  -9.0016    233.7158      2.2152   4.6532613588e+01   2.8213437969e+01    0.2846376    0.1098516  64.59  0.001407108    2.225    0.550
         4  -8.4605    172.2330      1.8862   5.3258045005e+01   4.1942005171e+01    0.2156702    0.1435118  61.48 0.0003916844    1.251    0.200
         5  -8.6909    138.9567      1.7068   5.8339084268e+01   4.9338983879e+01    0.1789745    0.1438224  53.75  0.001190636    1.037    0.036
         6  -7.3682    180.2157      1.7926   5.2182486722e+01   4.0146552091e+01    0.1624685    0.1228349  53.02 0.0004818919    1.309    0.236
         7  -7.7482    135.8652    220.0933   1.1144051301e+02   9.1609851008e+00    0.2063014    0.1673441  70.07 0.0002974565    1.223    0.183
         8  -8.3649      8.5047    210.4837   1.3545671621e+02   2.9168006923e+01    0.1149891   0.08269713  86.19 0.0008103976    1.016    0.016
         9  -8.3645    243.5846    206.9218   8.7389695367e+01  -7.7197867582e+00    0.2136228    0.1786678  39.30 0.0003697483    1.305    0.234
        10 -10.1093     22.6625    189.9139   1.3109260264e+02   3.2208943206e+01    0.3520294    0.2884261  39.61  0.002479089    1.525    0.344
        11 -10.3942     22.8654    184.8910   1.3056560176e+02   3.3300856858e+01    0.3908635    0.3427837  52.78  0.002842419    1.361    0.265
        12  -9.1350    241.6764    188.8282   8.4248241676e+01  -4.3150467061e+00    0.3185923     0.242011 -59.49  0.001065395    1.674    0.403
        13  -7.8359     13.6286    190.7089   1.3292478811e+02   3.2902634755e+01     0.109203   0.07837836 -50.52 0.0007024019    1.722    0.419
        14  -7.2484    154.6635    186.2465   1.0159316919e+02   1.2818094252e+01    0.1486863    0.1114805  70.54 0.0001949109    1.557    0.358
        15  -9.0821    230.0338    183.8265   8.5421976663e+01  -1.3571500021e+00    0.3334593    0.2300852  48.15  0.000875845    1.579    0.367
        16  -9.7434     30.4274    182.2172   1.2874423292e+02   3.3136612362e+01    0.2791623    0.2417272 -39.73  0.001311755    1.560    0.359
        17  -8.7697     11.8176    180.0126   1.3231430917e+02   3.5406683264e+01    0.1823885    0.1500489  70.36 0.0005478207    1.233    0.189
        18 -10.1142    101.0063    176.0079   1.1209059283e+02   2.5065291470e+01    0.2026749    0.1835052  89.79  0.001154463    1.006    0.006
        19  -8.9063    230.6502    178.9464   8.4323408365e+01  -5.6752840517e-01    0.2573752    0.2010788  34.67 0.0004945454    1.326    0.246
        20  -8.2725    230.9196    174.0229   8.3271759495e+01   3.0180743356e-01    0.2040398    0.1916245 -31.73  0.001204672    1.043    0.042
        21  -9.1708     84.9414    173.0990   1.1538477642e+02   2.8316950335e+01    0.2113272    0.1795485 -73.53            0    1.071    0.066
        22  -8.3866    151.6730    173.1644   9.9734548914e+01   1.6311080593e+01    0.2564038    0.2126821  37.18 0.0003917097    1.250    0.200
        23 -10.3232    198.8577    171.1393   8.8997390800e+01   7.1199687062e+00    0.2724174    0.2648621  58.80 0.0003925053    1.061    0.058
        24  -7.5428     11.0079    171.0000   1.3161886681e+02   3.7465729988e+01    0.1536418   0.06690656  29.13 0.0004624869    2.875    0.652
        25  -8.5154     84.3808    157.9117   1.1297815245e+02   3.2005346335e+01     0.210474    0.2001381  44.00 0.0004024081    1.188    0.158
        26  -8.7842    218.9177    154.1995   8.1397390128e+01   6.4670546749e+00    0.2372586    0.2001547 -37.31 0.0002735515    1.144    0.126
        27  -7.9641    204.7797    153.2336   8.3969169954e+01   9.5731833252e+00    0.2797685    0.1965643 -55.06  0.001305883    1.493    0.330
        28  -7.1676    128.6247    154.4914   1.0139084049e+02   2.5153995885e+01    0.1511335    0.1403075 -74.54 3.118984e-05    1.040    0.039
        29  -7.5527    151.5361    146.4579   9.4148360540e+01   2.2381539560e+01    0.1533151    0.1495605 -82.60 8.969606e-05    1.012    0.012
        30  -7.3516    245.9867    142.0318   7.3930081602e+01   3.4710863125e+00    0.1656962    0.1524393 -44.42 0.0004251894    1.016    0.016
        31  -7.3047    239.0453    133.0321   7.3199510096e+01   6.5218648326e+00    0.1680125    0.1577237 -52.78 0.0003748729    1.029    0.028
        32  -7.6317     10.8200    132.4017   1.2729455394e+02   4.6060430668e+01    0.1316424    0.1089749 -22.70  0.000412538    1.529    0.346
        33  -8.0126    236.7902    129.1852   7.2757505410e+01   7.7057522797e+00    0.1820985    0.1667777   2.95 0.0005064289    1.285    0.222
        34  -7.8876    175.0901    128.3644   8.4591522628e+01   2.1258438193e+01    0.2484122    0.2114106 -35.14 0.0003831084    1.235    0.190
        35  -7.5550     12.9620    128.9843   1.2630992269e+02   4.6661628433e+01    0.1750722    0.1230244  73.96 0.0005387511    1.637    0.389
        36  -8.7957    162.0752    105.0585   8.1820369054e+01   2.9044043181e+01    0.2183676    0.2135565  88.63            0    1.007    0.007
        37  -7.8766    124.9502    102.9113   9.0328071732e+01   3.7451074501e+01    0.2151922     0.209244 -40.00  0.001204734    1.014    0.014
        38  -9.8078    218.4991     99.6485   6.9334902505e+01   1.7193878529e+01    0.2968826    0.2534198 -47.60 0.0004334852    1.141    0.124
        39  -8.0941    248.7095    100.7856   6.4807758967e+01   1.0507606067e+01    0.2777915    0.1175957 -35.36  0.001032265    2.634    0.620
        40  -7.8000    150.3135     97.3344   8.2564056452e+01   3.3221470917e+01    0.1529563    0.1210265   5.02  0.000704586    1.685    0.407
        41  -8.1592    223.4157     96.0182   6.7691726289e+01   1.6766207686e+01    0.2440755    0.1980102  41.80 9.268456e-05    1.448    0.309
        42  -7.0538    228.3001     90.3325   6.5639967402e+01   1.6707952861e+01    0.1338668    0.1149315   6.71 0.0002773048    1.650    0.394
        43  -7.3741    152.9680     90.0000   8.0025679266e+01   3.4053170436e+01     0.252163   0.08354741  49.73 0.0008057849    2.966    0.663
        44  -8.4395    106.0126     84.1272   9.0424937663e+01   4.4830989536e+01    0.1983503    0.1915576 -17.67 0.0003301712    1.042    0.041
        45  -8.9903    162.0867     78.1789   7.4872625631e+01   3.4146417370e+01    0.3181952    0.2856915 -39.04  0.001266467    1.165    0.142
        46  -8.3974    180.4860     76.2180   7.0613827926e+01   3.0202849342e+01    0.2830836    0.2024973  58.35  0.001007305    1.348    0.258
        47  -7.3777    189.0041     71.0070   6.7719865737e+01   2.9083434065e+01    0.1702093    0.1581306  89.85  0.000357961    1.012    0.012
        48  -7.6423    137.6721     66.9723   7.7338623152e+01   4.1535327908e+01    0.3217496    0.2039799  10.17   0.00127879    2.832    0.647
        49 -10.3835    120.2870     62.8313   8.0464636862e+01   4.5854976299e+01    0.2367133    0.2221426  19.60 0.0002417466    1.006    0.006
        50  -8.0899    200.3278     63.0847   6.3850837884e+01   2.7711769878e+01    0.2290963    0.1822549  52.97 0.0005395015    1.297    0.229
        51  -9.3895    181.8960     59.7812   6.6197854085e+01   3.2566079050e+01    0.4503658    0.3120834   4.13  0.001444453    2.578    0.612
        52  -8.0999    131.9500     60.0140   7.6725826500e+01   4.3886371938e+01    0.2066699    0.1918428  27.79 0.0003506214    1.041    0.040
        53  -8.0550    206.8790     58.7792   6.1799598890e+01   2.6857189667e+01    0.1990482    0.1769874  59.09 0.0005157394    1.198    0.165
        54  -9.5196    216.2396     51.4246   5.8749896920e+01   2.5808660012e+01    0.6582118    0.4103326  35.46  0.002892719    2.573    0.611
        55  -9.3685    226.5063     48.4925   5.6728975738e+01   2.3910302380e+01    0.3768001     0.189753  57.70  0.001793645    1.945    0.486
        56 -10.7893    225.3519     44.2639   5.5968701968e+01   2.4779792844e+01    0.8670185    0.5438684 -81.58  0.004453348    1.722    0.419
        57  -7.3706    190.1328     43.1558   6.0691058913e+01   3.3065091192e+01    0.1782776    0.1419885 -85.54   0.00024262    1.246    0.197
        58  -9.7558    237.7366     37.3938   5.3055598103e+01   2.2998360279e+01     0.410479    0.2579556  45.61  0.001507038    2.191    0.544
        59  -7.5696    163.6279     32.3145   6.2358797871e+01   4.0659458824e+01    0.1592609    0.1292748 -12.72 0.0004211481    1.532    0.347
        60  -7.3141    136.3186     26.6657   6.6012412908e+01   4.7452734353e+01     0.126752   0.09831712 -78.09 0.0003905771    1.697    0.411
        61  -7.8878    142.2090     13.2181   6.1001270570e+01   4.7585608378e+01    0.1607524    0.1367811  89.92  0.000326273    1.308    0.236
        62  -9.0449    240.4223    248.8863   9.5475512280e+01  -1.3609936977e+01    0.2158007    0.1750282  22.50 0.0003977394    1.114    0.103
        63 -10.1226    133.8516    234.5703   1.1396740127e+02   6.6350222942e+00    0.2277839     0.210733 -77.25  0.001445144    1.174    0.148
        64  -6.7021     60.3504    224.3258   1.2718677986e+02   2.0283299618e+01    0.1122309   0.09552056 -41.47 0.0007048572    1.757    0.431
        65  -7.5369    248.5072    223.4726   8.9556310125e+01  -1.1117931062e+01    0.1265661    0.1062642  -0.19 8.713439e-05    1.032    0.031
        66  -7.9045      5.9573    221.4727   1.3666707013e+02   2.7151606030e+01    0.1908675       0.1171 -70.20 0.0004018868    1.488    0.328
