#   1 NUMBER                 Running object number                                     
#   2 MAG_AUTO               Kron-like elliptical aperture magnitude                    [mag]
#   3 X_IMAGE                Object position along x                                    [pixel]
#   4 Y_IMAGE                Object position along y                                    [pixel]
#   5 X_WORLD                Barycenter position along world x axis                     [deg]
#   6 Y_WORLD                Barycenter position along world y axis                     [deg]
#   7 A_WORLD                Profile RMS along major axis (world units)                 [deg]
#   8 B_WORLD                Profile RMS along minor axis (world units)                 [deg]
#   9 THETA_WORLD            Position angle (CCW/world-x)                               [deg]
#  10 FWHM_WORLD             FWHM assuming a gaussian core                              [deg]
#  11 ELONGATION             A_IMAGE/B_IMAGE                                           
#  12 ELLIPTICITY            1 - B_IMAGE/A_IMAGE                                       
         1  -9.1505     13.0223     30.1055   8.0275403416e+01   6.6983781259e+01    0.3008944    0.1576025 -68.22  0.001486157    2.327    0.570
         2  -7.8195     83.5009     10.9666   4.5480541106e+01   6.1356661619e+01    0.1694256    0.1002031 -47.49 0.0006360247    2.380    0.580
         3  -8.6778     55.8971      9.8444   5.4605530926e+01   6.5976639082e+01    0.2023625    0.1561383 -35.05  0.000541493    1.376    0.273
         4  -7.8983     47.6614      9.8929   5.7877248863e+01   6.7078621739e+01     0.163916    0.0937762 -41.18 0.0004966295    1.748    0.428
         5  -7.9367     28.2737      9.6719   6.6053957783e+01   6.9290624849e+01   0.09878957   0.08300843 -50.62  0.000355585    1.587    0.370
         6  -8.1827     12.8555      8.8402   7.2802099555e+01   7.0727817350e+01    0.1367663     0.114058 -44.28 0.0004965982    1.342    0.255
         7  -8.2608     90.8202      8.5994   4.2205846304e+01   6.0261176899e+01    0.1698887     0.124514  60.91  0.000771596    1.703    0.413
         8  -8.7030      5.7662      8.0461   7.5864885381e+01   7.1335905215e+01    0.1421951   0.06829358 -49.52 0.0008198327    1.608    0.378
         9  -8.5420     33.6422      4.7736   6.1421320686e+01   6.9470697185e+01    0.2567323     0.156436 -57.09  0.001300277    3.304    0.697
        10  -8.4487     79.1618      3.5855   4.3501146718e+01   6.3005503969e+01     0.244427    0.1413337 -37.92  0.001045061    1.949    0.487
        11  -7.7382     44.8290      2.8482   5.5691904048e+01   6.8408687022e+01    0.1461498    0.1245401 -25.72 0.0005690741    1.331    0.249
        12  -7.5778    115.6183      2.3029   3.3052386879e+01   5.5702635515e+01    0.1323035    0.1033666 -67.48 0.0007022842    1.780    0.438
        13  -7.8295    101.3900      8.1283   3.9029010051e+01   5.8192936087e+01    0.1775378    0.1139983 -34.17 0.0006431736    1.653    0.395
        14  -8.2051     62.4981      1.4405   4.8135261445e+01   6.6059835200e+01    0.1678704    0.1159814  52.18  0.000522643    1.923    0.480
        15  -7.4609     39.3116      1.3113   5.7265648937e+01   6.9299769703e+01    0.1187666   0.07304981  -6.49 0.0002371367    1.628    0.386
        16  -8.7078     67.5113    244.5227   9.7256500789e+01   1.7964128390e+01     0.183438   0.09051453 -74.53 0.0009484454    2.093    0.522
        17  -8.7286    249.0955    249.1237   6.8392169373e+01  -1.0726323979e+01    0.2615831    0.1553559  13.81  0.001704122    1.683    0.406
        18  -9.4908    246.5575    228.8349   6.5666223731e+01  -8.3728307990e+00    0.3321248    0.2034245 -26.27  0.001327034    1.842    0.457
        19  -9.9935    248.7946    241.7942   6.7338148960e+01  -9.9997924258e+00    0.4060296    0.2077759 -33.38  0.001628279    2.409    0.585
        20  -8.7988    247.8013    234.0640   6.6297913308e+01  -9.0962443257e+00    0.2147276    0.1513144  -1.22 0.0009829692    1.429    0.300
        21  -8.5299     94.0207    249.2277   9.3498675426e+01   1.3607305398e+01    0.2508313     0.126619  74.60  0.001291989    2.248    0.555
        22  -8.0125     25.5142    250.4478   1.0374539665e+02   2.2043741059e+01   0.09827059   0.06267329  69.72 0.0006637378    1.006    0.006
        23  -9.2092    243.2340    245.8336   6.8828891202e+01  -9.5440609920e+00    0.3068248    0.1751916  -9.22  0.001888742    2.186    0.543
        24  -8.6389    139.4259    244.2235   8.5691306625e+01   7.4303842571e+00    0.1396175    0.1017943 -85.76 0.0009467031    1.688    0.408
        25  -9.2486     78.0047    243.1194   9.5528348094e+01   1.6787828691e+01    0.3166766    0.1265501  68.55  0.001539525    3.039    0.671
        26  -8.0833     34.7515    243.9795   1.0211528751e+02   2.2044714356e+01    0.1167335   0.06632411 -86.04 0.0005097146    1.534    0.348
        27  -8.4453    201.9181    242.6963   7.5092525418e+01  -2.6630315213e+00    0.1829219     0.149541 -67.59 0.0006778448    1.916    0.478
        28  -8.6366    169.1550    243.1345   8.0612136754e+01   2.7127851906e+00    0.2135065    0.1375044  53.03 0.0007756551    1.306    0.234
        29  -9.6585    160.0374    239.9548   8.1755161994e+01   4.6505839846e+00    0.3453365    0.2189113 -74.17  0.001557096    2.532    0.605
        30  -8.2718     49.6377    242.4392   9.9832700546e+01   2.0548245905e+01    0.1840903   0.07052222  88.95 0.0009432949    3.169    0.684
        31  -8.9893    194.5226    240.3661   7.6005233612e+01  -1.1652597018e+00    0.2535861    0.1997212 -55.88  0.001431204    1.802    0.445
        32  -9.2377    182.9712    239.8342   7.7872674292e+01   8.3044159296e-01     0.361776    0.2090492  64.66  0.001891164    2.518    0.603
        33  -7.8169    153.5149    242.0139   8.3096241516e+01   5.4478045752e+00    0.1437044   0.09302291  87.96 0.0008092407    2.445    0.591
        34  -8.0990     88.0588    242.0453   9.3855675601e+01   1.5563115322e+01     0.171948   0.09660727  70.74 0.0007708909    1.617    0.382
        35  -8.0944    214.4715    241.0095   7.2780407473e+01  -4.5260776906e+00    0.1445974    0.1129464 -26.95 0.0005161225    1.593    0.372
        36  -9.0673    241.6341    238.0378   6.7907833761e+01  -8.5385183679e+00    0.4267257    0.2125744   0.35  0.001918235    3.854    0.741
        37  -8.0149    146.2026    239.2291   8.4003205021e+01   7.0391080457e+00    0.1593878    0.1111866  64.47 0.0005486273    1.368    0.269
        38  -8.9941    135.6439    238.5939   8.5710125526e+01   8.8511918091e+00    0.1739549    0.1204432  77.85  0.001036994    1.619    0.382
        39  -7.8537     41.0000    238.9758   1.0092111712e+02   2.2138368445e+01    0.1444252   0.04791709 -75.00 0.0006153893    2.881    0.653
        40  -9.1434    230.8348    236.1001   6.9366035843e+01  -6.6369519379e+00    0.3042952    0.2265958 -26.35  0.001579319    1.615    0.381
        41  -8.1998    209.1249    238.1796   7.3261167973e+01  -3.3315628007e+00      0.14755    0.1244514  52.86 0.0006243232    1.349    0.258
        42  -7.6829    129.0063    238.4822   8.6812674977e+01   9.9335975628e+00    0.1700134   0.07354804  59.70  0.000808913    2.464    0.594
        43  -7.6875    105.3601    238.2866   9.0724066375e+01   1.3631284338e+01    0.1002072    0.0824582  33.32 0.0007022597    1.683    0.406
        44  -8.6376     25.9848    236.9712   1.0303153869e+02   2.4155232999e+01     0.261498   0.08701587  67.68  0.001403242    2.750    0.636
        45  -8.8847    217.3418    235.6833   7.1530249732e+01  -4.4022302735e+00    0.2105376     0.160963  54.46 0.0007770599    1.511    0.338
        46  -9.4394    213.7048    231.6624   7.1540375563e+01  -3.3394860602e+00    0.2820842    0.2195576  72.09  0.001474261    2.002    0.501
        47  -9.0161    203.2648    234.5027   7.3715728745e+01  -1.9245588877e+00     0.265243    0.1953128 -63.18   0.00124953    2.233    0.552
        48  -9.7536    175.7532    233.2695   7.8229684832e+01   2.9031921688e+00    0.4029321    0.2139084 -57.67  0.002129147    2.883    0.653
        49  -7.9716     57.7513    236.7550   9.8231530376e+01   2.0473189936e+01    0.1724546   0.05153709  51.73 0.0008882365    2.435    0.589
        50  -7.7797    170.0569    235.5398   7.9502377344e+01   3.5667664317e+00    0.1750604   0.09245421  46.43 0.0005326663    1.467    0.318
        51  -9.2629    109.3189    234.3623   8.9691971557e+01   1.3648913373e+01    0.4784328    0.1908512  56.04  0.002071141    2.203    0.546
        52  -9.1062     78.4819    234.2553   9.4762107607e+01   1.8154326671e+01    0.2381635    0.1335194  83.32  0.000925805    1.789    0.441
        53  -8.2661    122.9432    233.9351   8.7352909071e+01   1.1590235099e+01    0.1898507    0.1131655  69.34 0.0008486042    1.754    0.430
        54  -8.3358     99.5004    234.0109   9.1295714547e+01   1.5185708606e+01    0.2107409    0.1147264  69.27  0.001235401    1.818    0.450
        55  -8.6689     92.5199    232.0220   9.2273171573e+01   1.6534964081e+01    0.3170108     0.155826  88.19  0.001241582    2.845    0.649
        56  -9.7712     68.6333    231.7763   9.6156461916e+01   1.9895606249e+01    0.4977548     0.218453  79.83  0.002520527    2.899    0.655
        57  -8.9298    139.9432    229.8995   8.3988230470e+01   9.4446180651e+00    0.2395068     0.145105  66.13 0.0008652562    1.756    0.431
        58  -8.8314    132.5060    232.0848   8.5521019945e+01   1.0335794928e+01    0.2304662    0.1482628  89.68   0.00127529    2.051    0.513
        59  -9.1905    128.2971    227.5304   8.5734065644e+01   1.1728927703e+01    0.3784289    0.1904614  66.07   0.00161647    2.452    0.592
        60  -8.1360    194.2373    232.2670   7.4927707173e+01  -1.2257793982e-01    0.1509421     0.121884  57.23 0.0004294686    1.334    0.250
        61  -9.3571    186.4623    230.3890   7.5995166572e+01   1.4488550823e+00    0.3143381    0.2197357 -79.38  0.001585788    2.646    0.622
        62  -9.2692    236.3956    229.3295   6.7404570008e+01  -6.8081912027e+00    0.3886805    0.1995517 -23.24  0.002019194    2.359    0.576
        63  -8.5909      1.6419    230.5182   1.0624422389e+02   2.7690255613e+01    0.1660575   0.07120878  76.34  0.001006375    1.734    0.423
        64  -9.9130    149.8154    226.0177   8.1793658621e+01   8.3697945297e+00    0.5468988    0.3135263 -87.91  0.002377172    3.916    0.745
        65  -9.8172      8.9562    228.5308   1.0511308684e+02   2.7317823638e+01     0.277993   0.08259758  81.13  0.001298086    3.872    0.742
        66  -8.8475    162.3874    227.6731   7.9804234764e+01   5.9719950229e+00    0.2844842    0.1719935  64.71  0.001460572    1.953    0.488
        67  -8.2265    223.3862    226.3744   6.9102651824e+01  -4.3453140076e+00    0.2421288    0.1188319 -29.59  0.001023155    2.485    0.598
        68  -9.1056    225.3716    221.4915   6.7993284498e+01  -4.1116775072e+00    0.2358285    0.1958656  60.11 0.0006281052    1.597    0.374
        69  -8.8122    206.1502    226.0143   7.1973663177e+01  -1.3812974144e+00     0.206703    0.1584933 -59.95 0.0009018605    1.989    0.497
        70  -7.8789    119.8964    227.1055   8.7142900114e+01   1.3152788838e+01    0.1883643    0.1137646  79.57   0.00106093    2.017    0.504
        71  -8.3287     49.4777    226.6041   9.8847471605e+01   2.3206037611e+01    0.2286818   0.09987187  73.98  0.001169696    2.265    0.559
        72  -8.3615     19.1012    228.0000   1.0359874219e+02   2.6383643872e+01    0.2387981    0.0461655  38.93  0.001044809    4.875    0.795
        73  -8.2362    200.1938    225.7952   7.2964511949e+01  -3.2800880667e-01    0.1761128    0.1530197 -35.08 0.0006813135    1.441    0.306
        74  -9.0611     93.9314    223.7656   9.1272552487e+01   1.7705596549e+01     0.389894    0.1800312  66.30  0.001937053    2.378    0.580
        75  -8.8118    216.5215    223.3995   6.9798506151e+01  -2.8369060626e+00    0.2136893    0.1911299 -83.20 0.0008598425    1.712    0.416
        76  -8.8185    180.4833    223.7807   7.6100534130e+01   3.3742052036e+00    0.2148166    0.1773599  64.76 0.0006463292    1.331    0.248
        77  -8.0950    113.9306    223.9548   8.7838330514e+01   1.4613834456e+01    0.1897305    0.1142474  69.96 0.0006253067    1.678    0.404
        78  -9.2217    104.6124    223.2172   8.9379531719e+01   1.6188649650e+01    0.3191274    0.1810124  85.79  0.001693632    2.194    0.544
        79  -8.4797     59.8324    223.6962   9.6974632134e+01   2.2419010900e+01    0.2208836    0.1036874  77.04  0.001230848    2.202    0.546
        80  -8.2471     38.3562    224.2496   1.0045039172e+02   2.4925183120e+01    0.1434824   0.07382274  87.91  0.000565301    1.667    0.400
        81  -8.3959    173.0753    222.8601   7.7274615662e+01   4.8026850247e+00    0.1905509    0.1526667 -82.10 0.0007482999    1.679    0.405
        82  -9.1054    238.9631    220.7299   6.5592220423e+01  -6.2865584488e+00    0.3162248    0.2021117 -10.44  0.001439963    1.783    0.439
        83  -9.1837    192.3513    220.9146   7.3598524841e+01   1.6773346128e+00    0.2684318    0.2234284 -81.79  0.001254993    1.733    0.423
        84  -8.1388    163.1551    222.3934   7.8965539522e+01   6.6073633124e+00    0.1836555    0.0938279  52.74 0.0009452769    1.726    0.421
        85  -8.5968    158.8955    220.1488   7.9419735320e+01   7.6864728835e+00    0.2276907    0.1413231  58.84 0.0005950711    1.560    0.359
        86  -8.3642    140.2160    222.2300   8.3015106494e+01   1.0583397895e+01    0.1703359    0.1211202  69.34 0.0007380079    1.414    0.293
        87  -8.4077    229.8512    228.1636   6.8302727427e+01  -5.6174323612e+00    0.2090741    0.1559428 -40.61   0.00129913    1.809    0.447
        88  -8.8870     82.4415    220.6664   9.2948483275e+01   1.9901327834e+01    0.2230738    0.1662118  67.22  0.001596439    1.015    0.015
        89  -8.4507     73.1580    220.2789   9.4490228575e+01   2.1258095604e+01     0.304814    0.1312177  78.46   0.00135715    3.431    0.709
        90  -8.2878     27.5603    220.7800   1.0193044258e+02   2.6730548979e+01    0.1764509   0.07703438 -73.10  0.001118293    2.081    0.519
        91  -7.9071    202.5788    219.9911   7.1670231220e+01   7.1334462523e-04    0.1516452    0.1207104 -31.18 0.0002860536    1.517    0.341
        92  -9.3788    120.5437    218.8644   8.6109638562e+01   1.4397724819e+01    0.4045902    0.2168267  73.65  0.001965608    2.579    0.612
        93  -8.2228    210.0099    218.9722   7.0220594950e+01  -1.1683745784e+00    0.1692893    0.1426177  69.93 0.0005565258    1.609    0.378
        94  -8.4478    249.0844    217.9275   6.3456117308e+01  -7.6230006807e+00    0.2686114    0.1546822  59.91  0.001248243    3.446    0.710
        95  -9.2523    133.0898    215.9113   8.3507208828e+01   1.2806138815e+01    0.4491758    0.2482572  80.33  0.001987482    3.231    0.690
        96  -8.9414     51.6856    217.1017   9.7825831844e+01   2.4599740560e+01    0.2345773    0.1216029 -82.50 0.0008675153    1.765    0.433
        97  -8.5429    169.4189    216.1859   7.6980689941e+01   6.4208053340e+00    0.2184084     0.167771  79.06  0.001035208    1.640    0.390
        98  -8.7532    142.7937    216.1828   8.1788145909e+01   1.1104539383e+01    0.2419154    0.1636063 -81.11 0.0009171909    1.951    0.487
        99  -8.2634    111.9888    216.9220   8.7413278396e+01   1.6101545672e+01    0.2013703    0.1114528  88.53 0.0007896937    2.573    0.611
       100  -8.5508     62.0455    216.8886   9.6083874505e+01   2.3332251738e+01    0.2502903    0.1120795  69.17   0.00108848    2.249    0.555
       101  -8.9190    232.4472    213.6432   6.5503508994e+01  -4.3857663086e+00    0.3400376    0.2128484 -20.20  0.001473702    1.820    0.451
       102  -8.9712    153.8518    215.1277   7.9645361316e+01   9.3442211938e+00    0.2565854    0.1538536  48.26  0.001094709    1.360    0.265
       103  -9.2460     93.6447    213.7633   9.0338148652e+01   1.9483126203e+01    0.4056333    0.1726198  62.12  0.001895466    2.530    0.605
       104  -8.3163     41.3305    214.8640   9.9369250164e+01   2.6236127593e+01    0.2074639   0.08010994 -83.82  0.001092548    2.589    0.614
       105  -9.4890    214.0527    211.9046   6.8377370825e+01  -9.7682810361e-01    0.3362131    0.2761945  76.49   0.00146876    1.823    0.452
       106  -8.2954    185.6782    214.1041   7.3751600121e+01   3.8066036306e+00    0.1739612    0.1532976 -88.55 0.0007073061    1.459    0.314
       107  -9.4945     73.2907    211.9271   9.3740609773e+01   2.2727637379e+01    0.5510367    0.2086063  66.52  0.002268437    3.670    0.728
       108  -8.7472    161.8557    212.2671   7.7789702957e+01   8.3688430190e+00    0.2356606    0.1738777 -79.55  0.001011997    1.829    0.453
       109  -7.9139    224.6582    212.2271   6.6594158453e+01  -2.8767614787e+00    0.1528855    0.1087868 -14.84 0.0004748282    1.587    0.370
       110  -8.9876    204.2548    210.6712   6.9898570836e+01   9.3425556805e-01    0.2351435    0.1956057 -61.16 0.0008121032    1.677    0.404
       111  -7.8273    106.4725    212.5236   8.7913860929e+01   1.7734879870e+01    0.1232845    0.0940265  66.47 0.0001983579    1.055    0.052
       112  -9.2294    175.6832    210.0249   7.4937135565e+01   6.2128506165e+00    0.3623386    0.2309981  73.13  0.001466437    2.478    0.596
       113  -8.7370    147.9333    210.4306   8.0083536849e+01   1.1138653592e+01    0.2280103    0.1667779 -87.35 0.0009338909    1.713    0.416
       114  -8.8824    116.0707    209.9640   8.5878042263e+01   1.6646088230e+01    0.2769961    0.1713544  76.64 0.0008360739    1.832    0.454
       115  -9.1674      6.7458    209.4608   1.0456419822e+02   3.0833929431e+01    0.3917577    0.1100258  75.68  0.001575456    4.867    0.795
       116  -9.1323    236.7834    208.1047   6.3821714301e+01  -4.4657484570e+00    0.2985168    0.2478336 -77.44  0.001681475    2.237    0.553
       117  -8.1375    192.3779    210.2608   7.1951836639e+01   3.1391237840e+00    0.1525484    0.1206212 -56.25 0.0005559876    1.655    0.396
       118  -8.7183     85.4378    209.1180   9.1331948243e+01   2.1525722488e+01    0.2765496    0.1436617  76.04  0.001326783    2.214    0.548
       119  -8.5658     32.4196    210.2118   1.0051926427e+02   2.8082954534e+01    0.1526359   0.07459469  86.17 0.0007968449    1.765    0.433
       120  -8.0972     46.3863    209.2589   9.8135931422e+01   2.6657905822e+01    0.1519881   0.08027228  88.69 0.0003996626    1.685    0.407
       121  -9.4445    246.4284    206.9344   6.1997464773e+01  -5.9584215724e+00    0.2695699    0.2012291 -16.36 0.0006524987    1.380    0.276
       122  -9.3090    250.1288    201.8780   6.0480501055e+01  -5.9901824723e+00    0.3258418     0.184483 -23.37  0.001344629    1.868    0.465
       123  -8.4119    139.2446    207.8026   8.1331730878e+01   1.3099633916e+01    0.2351628    0.1660126  77.09 0.0008874064    1.597    0.374
       124  -8.2066    126.5977    208.3285   8.3742161195e+01   1.5182636928e+01    0.1921216    0.1253775  72.32 0.0007768126    1.642    0.391
       125  -9.1758     99.5809    205.9059   8.8432581172e+01   1.9991501658e+01    0.3531489    0.1873806  75.69  0.001311167    2.378    0.579
       126  -8.5483     11.4150    206.7678   1.0369769739e+02   3.0873098711e+01    0.1325402    0.0732867 -75.84 0.0009439593    1.605    0.377
       127  -8.4940     56.7106    205.4525   9.6071288882e+01   2.6096615562e+01    0.2544536    0.1191371  85.04  0.001337823    2.332    0.571
       128  -8.8374    184.0048    203.8231   7.2445965252e+01   5.6147033499e+00    0.2981519    0.2029577  75.82  0.001161411    2.320    0.569
       129  -8.5756    131.1970    203.8921   8.2310341119e+01   1.5167341667e+01    0.2853394    0.1789745  86.36  0.001093554    2.189    0.543
       130  -8.0814    109.1749    205.1536   8.6577980324e+01   1.8616067146e+01    0.1721366    0.1201545  73.15 0.0005642893    1.340    0.254
       131  -8.3278     25.3715    205.2128   1.0135949873e+02   2.9753343562e+01    0.1512091   0.07319175  87.78 0.0009427888    1.725    0.420
       132  -9.4798    194.9112    203.3098   7.0368492050e+01   3.6681722309e+00    0.3162115     0.278673 -40.99  0.001222813    1.359    0.264
       133  -9.2717    192.3978    197.2111   6.9807292304e+01   5.0368328339e+00    0.3248601    0.2547389 -66.89 0.0009152523    1.768    0.434
       134  -9.5978    163.7959    202.8042   7.6035363154e+01   9.5138567784e+00    0.4332805    0.2382775  61.23  0.001549938    2.150    0.535
       135  -9.1376    243.0776    200.6833   6.1444444083e+01  -4.6518680571e+00    0.2697108    0.1700452 -32.95 0.0007171404    1.768    0.434
       136  -8.3770    211.0118    201.9523   6.7238636956e+01   8.9206631625e-01    0.1864823    0.1543354  77.62 0.0006437752    1.746    0.427
       137  -8.9793    140.6298    201.0025   8.0135471339e+01   1.4016276667e+01    0.3477725    0.2133803  76.28  0.001386292    2.265    0.558
       138  -8.5172     80.2218    201.0771   9.1468221506e+01   2.3763250641e+01    0.3052365    0.1417003  71.55  0.001408603    2.722    0.633
       139  -8.1734    222.0867    201.0491   6.5122130198e+01  -9.9919937932e-01    0.1743967     0.155335  89.52 0.0006737362    1.673    0.402
       140  -9.4010    149.6178    198.4906   7.8063841830e+01   1.2829733403e+01    0.4060048    0.2629105  86.12  0.001489808    2.356    0.575
       141  -8.7691    124.1096    199.1120   8.3015143597e+01   1.7232272259e+01    0.2946545    0.1877496  83.53  0.001307031    1.965    0.491
       142  -9.3523    237.0925    197.9041   6.1958623024e+01  -3.2692895320e+00    0.3313828    0.1640904 -35.09  0.001636195    2.236    0.553
       143  -8.5748    176.8765    198.6205   7.2928778198e+01   7.7462858985e+00    0.2217087    0.1699938 -74.14 0.0006177443    1.781    0.438
       144  -9.2329    112.8459    198.2048   8.5041358542e+01   1.9286357932e+01     0.375911    0.2012928  70.27  0.001775806    2.348    0.574
       145  -7.9313    100.4005    199.3972   8.7539485014e+01   2.1062480658e+01    0.2286262    0.1103564  31.66 0.0009636293    3.350    0.702
       146  -9.1621     88.7483    197.8480   8.9549174961e+01   2.3131839704e+01    0.4098864    0.2069685 -87.97  0.001805384    2.627    0.619
       147  -8.2547    202.8249    197.8234   6.8001136053e+01   2.9868588759e+00    0.2171782    0.1708252 -79.06  0.001210163    2.017    0.504
       148  -9.2192     61.5957    197.0367   9.4474817777e+01   2.7062801594e+01    0.3984545    0.1754916  68.87   0.00163133    2.532    0.605
       149  -9.4593     12.9409    197.1363   1.0292535927e+02   3.2493919505e+01    0.2899664   0.09331748  71.06  0.001331537    3.462    0.711
       150  -8.8066    185.3075    194.5655   7.0677376440e+01   6.7860030480e+00    0.2381373    0.2076957  87.71 0.0007453469    1.426    0.299
       151  -8.9761    161.0411    194.1487   7.5212704620e+01   1.1453766298e+01    0.3213345    0.2071147  75.39  0.001110483    2.268    0.559
       152  -8.2542    230.6521    194.2309   6.2401055082e+01  -1.6500894815e+00    0.1645435    0.1131107 -16.46 0.0004094222    1.591    0.372
       153  -8.7528    224.6823    193.5710   6.3326482055e+01  -4.7604517647e-01    0.2669707    0.1688142 -43.09  0.001024036    1.944    0.486
       154  -8.8918     77.1031    193.7200   9.1288983550e+01   2.5608753341e+01    0.2438852    0.1559377  74.10  0.000586667    1.410    0.291
       155  -8.7601     43.5633    193.0596   9.7381927119e+01   3.0039453017e+01    0.3226642    0.1428642  75.76  0.001651631    2.422    0.587
       156  -9.1049    139.6127    190.3812   7.8785078349e+01   1.6079260176e+01    0.3530391    0.2191772  84.98  0.001173196    2.480    0.597
       157  -8.0114    198.8396    191.5640   6.7637037384e+01   4.6613602874e+00    0.1793907    0.1143688  53.77   0.00049429    1.591    0.371
       158  -8.0876    179.0430    191.3109   7.1307393680e+01   8.5003753325e+00    0.1856654    0.1579136  48.74 0.0006319266    1.053    0.051
       159  -8.2780    172.4088    191.2580   7.2563705383e+01   9.7809302226e+00    0.1702408      0.12696 -63.66 0.0005361933    1.681    0.405
       160 -10.4617     92.2897    188.6160   8.7815181845e+01   2.4375155351e+01    0.8474899    0.2513023  53.22  0.003089101    3.529    0.717
       161  -9.5678    245.8186    193.4576   5.9658806521e+01  -4.2420595367e+00     0.342991    0.2487634 -58.80  0.001774383    2.520    0.603
       162  -8.9820    216.7580    187.8361   6.3685055254e+01   1.7948298706e+00    0.2992295    0.2421237 -54.11  0.001302847    1.644    0.392
       163  -9.3548    156.0221    187.3534   7.5094873796e+01   1.3571663432e+01    0.3462903    0.2355327 -68.96  0.001073883    1.880    0.468
       164  -8.4043    148.6512    189.1328   7.6823189541e+01   1.4641108346e+01    0.2025822    0.1582271 -89.56  0.001156337    1.485    0.327
       165  -8.8836    129.2997    188.3653   8.0514194832e+01   1.8301032288e+01    0.2803988    0.2009315  88.63 0.0007850172    1.594    0.373
       166  -9.6922    120.7687    186.0814   8.1875132340e+01   2.0225440366e+01    0.4811776    0.2515401 -75.57   0.00209249    2.796    0.642
       167  -8.7604     34.1823    187.8483   9.8652971175e+01   3.2103891122e+01    0.2839744    0.1254023  79.32  0.001491451    2.317    0.568
       168  -8.6772    216.0219    195.4768   6.5208333613e+01   8.6008559788e-01    0.2424777    0.2003569 -76.61  0.001008522    1.903    0.475
       169  -8.3839    237.1237    188.2126   6.0159396266e+01  -2.0310320927e+00    0.1913957    0.1528358  13.95 0.0005746254    1.129    0.114
       170  -8.7569    191.5080    187.3191   6.8251812738e+01   6.7271785598e+00    0.2649478     0.205348 -89.73  0.001031606    1.926    0.481
       171  -9.0798     54.7387    186.6669   9.4785296209e+01   2.9951868896e+01    0.3767761    0.1689435  76.46  0.001772073    2.726    0.633
       172  -9.1481     16.9543    187.8035   1.0168447373e+02   3.3874670665e+01    0.1474405    0.1153265 -86.35 0.0004513322    1.264    0.209
       173  -8.2888    230.6961    187.1646   6.1079964103e+01  -7.1731134743e-01    0.1833763    0.1635017 -50.62 0.0008114243    1.493    0.330
       174  -8.9009    164.8967    186.5869   7.3233204788e+01   1.2009943758e+01    0.2845457    0.2163561  85.99  0.001104895    1.698    0.411
       175  -9.2155    109.6771    186.0190   8.4069142270e+01   2.2114805073e+01     0.353701    0.2021681  74.60  0.001279055    2.212    0.548
       176  -7.9569     46.3185    187.2900   9.6402978813e+01   3.0843727687e+01   0.09695505   0.08390398 -60.66 0.0005903233    1.599    0.374
       177  -8.9406    249.3804    185.4774   5.7550382323e+01  -3.8675365288e+00    0.2290732    0.2068915 -40.20  0.000872432    1.468    0.319
       178  -8.6222    202.9096    184.5174   6.5607424809e+01   4.9432164712e+00    0.2252467    0.1886535 -65.84 0.0007753232    1.597    0.374
       179  -8.7084    183.0813    184.8047   6.9406484832e+01   8.7744923742e+00    0.2511423    0.2141867 -83.98  0.000853946    1.478    0.323
       180  -9.1852     66.6375    184.2458   9.2290211220e+01   2.8906848041e+01    0.3371424    0.1674859  73.51  0.001031747    2.284    0.562
       181  -7.8250     12.3619    185.6486   1.0234241288e+02   3.4722766119e+01    0.1186736   0.05395782  69.17 0.0007022597    1.867    0.465
       182  -8.5661    224.0675    183.4998   6.1557852889e+01   1.0267783492e+00    0.2167262    0.1820638 -47.59 0.0005435168    1.503    0.335
       183  -8.6889    210.3269    184.0825   6.4156124993e+01   3.5705830032e+00    0.2357076    0.1791324  45.96 0.0004913792    1.231    0.188
       184  -8.3440    197.1063    183.2931   6.6467455212e+01   6.2659398992e+00     0.238558     0.174197 -71.32 0.0006738626    2.152    0.535
       185  -9.0373    174.2914    183.3552   7.0848496988e+01   1.0737565328e+01    0.2759593    0.2228076 -74.28 0.0005782088    1.555    0.357
       186  -9.0135     44.4227    182.2335   9.6315751698e+01   3.2067310592e+01    0.2983385     0.158467  75.90  0.001031172    1.760    0.432
       187  -8.4784      1.8217    183.3154   1.0401071973e+02   3.6107409940e+01    0.1615383   0.08817171  63.38  0.001008585    1.470    0.320
       188  -9.2735    147.7308    180.6124   7.5637114299e+01   1.6358390678e+01    0.3455772    0.2493952  84.79  0.001414978    1.737    0.424
       189  -9.4281     25.4170    178.4024   9.9525809763e+01   3.4880370129e+01    0.5771105    0.1995994  81.00  0.002221012    4.469    0.776
       190  -7.7503    240.6740    180.3164   5.8030661317e+01  -1.6316337798e+00    0.1172335    0.1060202 -89.38 0.0007044504    1.672    0.402
       191  -8.7870    137.6835    179.0964   7.7418689899e+01   1.8525420798e+01    0.3344584     0.218472  79.58   0.00124184    2.032    0.508
       192  -9.4062    191.5662    178.2298   6.6580367807e+01   8.1705824288e+00    0.2991429    0.2538022  80.21 0.0006785564    1.473    0.321
       193  -8.2433    169.2900    178.4060   7.0955543859e+01   1.2574247271e+01    0.2215661    0.1627997 -72.36 0.0008000981    1.798    0.444
       194  -8.5905    250.5551    172.3550   5.4769756065e+01  -2.3765691543e+00    0.2079741    0.1189231 -34.03  0.001063135    1.803    0.445
       195  -9.1254    249.0146    177.1665   5.5990349845e+01  -2.7322809839e+00    0.2902902    0.2145043 -29.24 0.0005170676    1.411    0.291
       196  -8.4297    247.4365    173.5282   5.5531587147e+01  -1.9632364034e+00    0.2526733    0.1715049   2.20    0.0005937    1.602    0.376
       197  -8.5563    205.0511    177.4480   6.3877506627e+01   5.6115446016e+00    0.2388863     0.190914 -56.35 0.0006581491    1.591    0.371
       198  -8.6232    129.2515    177.3276   7.8855865977e+01   2.0409460485e+01     0.287412    0.1765341  84.45 0.0008942407    2.407    0.585
       199  -9.2427     35.8114    176.3217   9.7425222007e+01   3.4215626492e+01    0.4620482    0.1755931  81.70  0.001861881    3.877    0.742
       200  -8.6174    231.0629    176.8045   5.9017360889e+01   6.4497303439e-01    0.2272547    0.1809501 -27.08   0.00096974    1.322    0.243
       201  -8.3111    217.7605    177.0537   6.1453534704e+01   3.1709500980e+00    0.1905229     0.180883  81.99 0.0006797562    1.340    0.254
       202  -7.7064     97.5035    177.4463   8.5363651541e+01   2.5785582737e+01    0.1265573    0.1100143  75.34 0.0002531569    1.076    0.071
       203  -9.1512     89.1790    176.6367   8.6949749965e+01   2.7239583433e+01    0.2705254    0.1664351  74.70 0.0008167255    1.706    0.414
       204  -9.3449     58.7762    175.3720   9.2897784743e+01   3.1723870645e+01    0.4396984    0.1886647  69.45  0.001896259    3.086    0.676
       205  -9.3360     56.0159    171.0159   9.2989044174e+01   3.2966755543e+01    0.3962832    0.1846729  79.00  0.001799452    2.768    0.639
       206  -9.0393     12.9807    176.6379   1.0165707403e+02   3.6419109395e+01    0.2455603    0.1328547  79.36  0.001176734    1.473    0.321
       207  -8.0905    211.5115    175.9751   6.2390895185e+01   4.5599868091e+00    0.1898905    0.1340156 -34.25 0.0005886613    1.539    0.350
       208  -8.9387    182.9349    175.7101   6.7779848458e+01   1.0317802643e+01    0.2383272    0.2036936 -57.03 0.0005184716    1.354    0.261
       209  -9.1932    158.9760    174.9322   7.2401764950e+01   1.5230122808e+01     0.382993    0.2501445  81.34  0.001295906    2.415    0.586
       210  -9.1870    104.3421    174.5719   8.3566307062e+01   2.5265173390e+01    0.5045203    0.2320604  64.61   0.00191578    3.088    0.676
       211 -10.7285     75.9011    169.9369   8.8823237153e+01   3.0563862597e+01     1.104659    0.3987441 -76.66  0.003761082    4.522    0.779
       212  -8.3496    224.4719    174.0171   5.9640911438e+01   2.3116220504e+00    0.1895568    0.1303453 -33.67 0.0005430887    1.551    0.355
       213  -9.4725    175.6654    172.0311   6.8525312183e+01   1.2418480848e+01    0.3401896    0.2469123 -50.59  0.001008689    1.550    0.355
       214  -8.0379    143.0166    172.3062   7.5204325428e+01   1.8817968343e+01    0.1944602    0.1655607  65.85 0.0004468355    1.089    0.082
       215  -8.9890    134.8180    171.5566   7.6775763281e+01   2.0510857721e+01    0.2527189    0.1733886 -81.83 0.0008796623    1.816    0.449
       216  -9.2191     44.8901    170.4724   9.5143962682e+01   3.4401823202e+01    0.3887054    0.1900058 -88.77  0.001824079    2.018    0.505
       217  -8.3782    205.9567    170.3996   6.2332690104e+01   6.5392883165e+00     0.246081     0.190713 -57.58 0.0006108947    1.662    0.398
       218  -9.4644    121.4281    170.2885   7.9365493641e+01   2.3205660952e+01    0.3466071    0.2321835  84.21  0.000985324    1.814    0.449
       219  -8.3775    237.3396    169.2651   5.6405189029e+01   5.1417067519e-01    0.2115116    0.1646487 -36.62 0.0006259974    1.422    0.297
       220  -8.5965    230.4084    169.6991   5.7713256432e+01   1.7875184328e+00    0.2266845    0.1879138  -6.72 0.0006207703    1.191    0.161
       221  -8.5115    198.3396    170.0250   6.3706369625e+01   8.1458263233e+00    0.1871056    0.1777474 -26.02   0.00074941    1.150    0.131
       222  -9.1193    167.0720    168.3440   6.9561653947e+01   1.4818686477e+01    0.3936271    0.2478407  73.26  0.001136929    2.432    0.589
       223  -8.6108    149.9144    169.3838   7.3270190421e+01   1.8043814469e+01    0.2517233    0.1894461 -79.87  0.000825444    1.606    0.377
       224  -8.3075    244.6261    169.1656   5.5127396237e+01  -8.5043367298e-01    0.1921739    0.1629251 -42.72 0.0006702438    1.450    0.310
       225  -8.5357     88.8701    168.7453   8.5974025552e+01   2.8913064439e+01    0.2424429    0.1441013  84.31  0.001003191    1.976    0.494
       226  -8.4130    218.8483    168.0998   5.9474695457e+01   4.3046541931e+00    0.1922235    0.1875125  80.09 0.0005446211    1.256    0.204
       227  -8.7423    112.0701    167.5647   8.0910469264e+01   2.5396899683e+01    0.2889957    0.1866459  84.48 0.0009655529    1.892    0.472
       228  -8.9828    191.9070    166.4532   6.4244083735e+01   1.0060341985e+01     0.278994    0.1990639 -46.09 0.0005677585    1.563    0.360
       229  -8.7584    185.1491    166.5755   6.5596103410e+01   1.1433746081e+01    0.2293557    0.1914225 -59.00 0.0006089582    1.396    0.283
       230  -9.4547     20.6634    165.7956   9.9445944304e+01   3.7881498825e+01    0.3569962    0.1520063  73.02  0.001533175    2.450    0.592
       231  -9.7062    136.8815    164.1588   7.5076019506e+01   2.1582448550e+01    0.5878072    0.2816178  60.84   0.00198477    2.745    0.636
       232 -10.0538     95.1115    162.6493   8.3788674059e+01   2.9223693300e+01    0.7866544    0.3759963  75.27  0.002545976    4.780    0.791
       233  -8.5964    233.9908    164.8177   5.6079847601e+01   1.7999132423e+00    0.2256533    0.1864221 -26.75 0.0005895165    1.249    0.199
       234  -8.7652    159.7377    164.1658   7.0279879703e+01   1.7079367504e+01    0.3038389    0.2136715 -75.34  0.000928154    1.913    0.477
       235  -9.6118     33.6881    163.3781   9.6694337860e+01   3.7092631185e+01    0.4792185    0.1698718  60.07  0.002132928    3.213    0.689
       236  -8.8729    212.9364    163.1640   5.9558548118e+01   6.2696390864e+00    0.2939884    0.1891605 -47.09  0.000409588    1.827    0.453
       237  -8.5821     57.1052    163.6414   9.1962457804e+01   3.4375321813e+01    0.3582391    0.2243618  10.41  0.001585448    4.308    0.768
       238  -8.5104     60.8184    160.1309   9.0778557522e+01   3.4654945270e+01    0.2897914    0.1584334  72.15  0.001494104    1.988    0.497
       239  -8.4114    246.1378    162.8898   5.3576645496e+01  -2.6427209674e-01    0.1869503    0.1769534 -14.18 0.0004466802    1.210    0.174
       240  -8.4368    204.7026    162.5575   6.0986942096e+01   8.0634071199e+00    0.2550829    0.1735763 -41.36 0.0006062575    1.596    0.373
       241  -9.5013      3.7329    162.2568   1.0239466503e+02   4.0074762590e+01    0.3653968    0.1607583  57.13  0.001877363    2.053    0.513
       242  -8.7916    151.7251    160.8078   7.1321712945e+01   1.9337313243e+01    0.3015048      0.21536 -76.90  0.001069612    1.791    0.442
       243  -9.0538    177.3893    160.3413   6.5913572916e+01   1.4152153561e+01    0.2997159    0.2369638 -73.63  0.001094796    1.602    0.376
       244  -8.5940    227.4036    158.8787   5.6010920904e+01   3.9932976893e+00    0.2981023    0.1911264 -53.49  0.001186356    2.185    0.542
       245  -9.7200    243.2606    149.5985   5.1234915825e+01   2.2059137294e+00    0.3576143    0.2423501  48.31  0.001858496    1.526    0.345
       246 -10.7482    241.5694    153.9740   5.2471638313e+01   1.8973106109e+00    0.8157153    0.4365571 -50.98  0.003380066    2.843    0.648
       247  -9.6603    250.1725    157.6646   5.1798117710e+01  -2.9846589122e-01    0.3357549    0.1929857 -34.60 0.0008554412    1.743    0.426
       248  -8.1562    246.5722    155.4788   5.1939923975e+01   7.0174691619e-01    0.2102901    0.1667133 -11.29 0.0004564437    1.205    0.170
       249  -8.6568    237.0914    158.6183   5.4238678173e+01   2.0988763213e+00    0.2366167     0.175968 -37.34 0.0008073891    1.440    0.306
       250  -9.4101    167.7110    157.2707   6.7285197069e+01   1.6741856904e+01    0.3795256    0.2691024 -80.30  0.001112327    2.051    0.513
       251  -8.3518    128.2833    158.8147   7.5978681878e+01   2.4287538398e+01    0.2667688    0.1648748  66.08  0.000985709    1.874    0.466
       252  -9.6352    105.8781    157.8169   8.0703959070e+01   2.8485822879e+01    0.4383267    0.2627811  77.75  0.001158186    2.221    0.550
       253  -8.4872    196.6941    157.7990   6.1547305171e+01   1.0536733666e+01    0.2521323    0.1928666 -60.86 0.0008750231    1.654    0.395
       254  -8.2844    188.1671    157.7170   6.3212337798e+01   1.2353817444e+01      0.23635    0.1942278 -56.59  0.000681038    1.397    0.284
       255  -8.3136     79.5061    158.0283   8.6501780170e+01   3.2572035371e+01    0.1954858    0.1548287  57.62 0.0005066016    1.222    0.182
       256  -9.3537     81.9481    154.6855   8.5494259471e+01   3.2937291382e+01    0.4594805    0.2460273  74.41  0.001786336    2.544    0.607
       257  -8.4963    218.0850    156.3879   5.7181569476e+01   6.2869968383e+00     0.267653    0.1783985 -53.96 0.0007228134    1.991    0.498
       258  -8.9372    157.7380    155.5798   6.9040989075e+01   1.9132733298e+01    0.3705758    0.2250287 -58.89  0.001315627    1.941    0.485
       259  -9.2319    119.4704    154.6555   7.7176273866e+01   2.6774366122e+01    0.4129413       0.2484 -81.04  0.001314251    2.331    0.571
       260  -9.0247     49.7843    155.0238   9.2521228476e+01   3.7089684859e+01    0.3702822    0.1718443  66.63  0.001715359    2.557    0.609
       261  -8.0659    204.7365    155.1572   5.9434048578e+01   9.2842829416e+00    0.2160207    0.1760263 -57.86 0.0006134973    1.492    0.330
       262  -8.7301    144.5734    154.5085   7.1651477601e+01   2.2014435535e+01    0.2747501    0.2159623  83.02 0.0008370712    1.440    0.305
       263  -9.7404    132.7621    152.6267   7.3873661884e+01   2.4713643480e+01    0.4364469    0.3125715  79.65  0.001251616    1.670    0.401
       264  -9.3832    133.3120    148.3489   7.2938888943e+01   2.5495246859e+01    0.3535644    0.2432794 -36.26  0.001388553    1.816    0.449
       265  -9.3965     67.7705    153.1322   8.8398736585e+01   3.5257728002e+01    0.3742718      0.20549  81.99  0.001421237    2.217    0.549
       266  -8.4806    151.6973    152.5943   6.9740379136e+01   2.0958495253e+01    0.2503441    0.1746566 -72.22  0.001166146    1.809    0.447
       267  -9.1549      2.9159    150.7366   1.0175148831e+02   4.2476209141e+01    0.4185694   0.08868436 -74.19  0.001793108    3.353    0.702
       268  -9.8917     29.3990    150.3184   9.6329644760e+01   4.0270376985e+01     0.454749    0.1963157  73.31  0.001927014    2.870    0.652
       269  -9.1341     20.4290    152.3379   9.8371637418e+01   4.0685414660e+01     0.186667    0.1038533  64.07 0.0007423079    1.679    0.404
       270  -8.7335      8.4152    153.0000   1.0083589638e+02   4.1577827128e+01     0.189971   0.05968166  30.41 0.0009284994    3.885    0.743
       271  -7.9196    182.4692    150.9942   6.2953280833e+01   1.4777658127e+01     0.206558    0.1447845 -44.81 0.0005514405    1.523    0.343
       272  -8.8057     98.3668    150.6520   8.1209411247e+01   3.1268267405e+01    0.2923999    0.1926838  79.00 0.0008355087    1.749    0.428
       273  -9.3995    248.8397    149.1019   5.0183320264e+01   1.1785423975e+00     0.302707    0.1972237 -28.60 0.0007638687    1.484    0.326
       274  -8.8782    189.3716    149.7811   6.1299071723e+01   1.3508177722e+01    0.2859902    0.2301611 -80.62 0.0009662674    1.646    0.393
       275  -8.4600    162.5946    150.3271   6.6950729119e+01   1.9142492629e+01    0.2194845    0.1701509  88.28 0.0005348979    1.625    0.385
       276  -8.1317    212.9839    149.3565   5.6615616973e+01   8.4989987582e+00    0.1971255    0.1789298  35.34 0.0004669816    1.057    0.054
       277  -8.4616    198.9195    148.8908   5.9213832344e+01   1.1599532057e+01    0.2164762    0.1779442 -84.02 0.0005089415    1.629    0.386
       278 -10.2004     89.4789    146.2283   8.2508662496e+01   3.3645817216e+01    0.6650417    0.3394716 -88.26  0.002420261    3.619    0.724
       279  -9.7363     39.8571    147.7127   9.3828906127e+01   3.9766259846e+01    0.4756526    0.2167228  69.36  0.001822329    2.725    0.633
       280  -9.3066    233.6314    147.3914   5.2421686694e+01   4.4849082319e+00    0.2974452    0.1619236 -32.14 0.0008695985    1.840    0.456
       281 -10.4107     54.7876    144.1541   9.0103199815e+01   3.8859026392e+01     0.780627    0.3657883  81.29  0.002907889    3.387    0.705
       282  -9.4858     56.3069    135.1530   8.8531197837e+01   4.0666164761e+01    0.2794317    0.2190352   4.33  0.001661142    2.079    0.519
       283  -8.2865    223.2504    146.5006   5.4085484893e+01   6.7868175321e+00    0.2454963     0.187787 -29.49   0.00049501    1.320    0.242
       284 -10.1884    106.8785    144.5188   7.8220477824e+01   3.1172990590e+01    0.6551434    0.3622974  76.11  0.002346136    3.129    0.680
       285  -8.0716    105.7683    138.4116   7.7365075480e+01   3.2699983049e+01    0.1864324     0.133988  31.79  0.000942955    1.701    0.412
       286  -9.0024     78.1015    146.7521   8.5187060464e+01   3.5225626696e+01    0.2913281    0.1722429  86.34  0.001314186    2.042    0.510
       287  -9.3820     13.4173    145.9868   9.9258640656e+01   4.2624559137e+01    0.3126178    0.1570847  76.23  0.001408771    1.893    0.472
       288  -8.0976    206.8299    146.1135   5.7070956712e+01   1.0365071836e+01    0.2073026    0.1954497 -70.96 0.0005608482    1.232    0.188
       289  -8.1652    175.6738    146.0960   6.3305604368e+01   1.7156212436e+01    0.2262705    0.1806546 -67.24 0.0006525128    1.485    0.327
       290 -10.3686    241.5520    143.5897   5.0204753331e+01   3.4456493756e+00    0.5731137    0.3424536   6.12  0.002382096    2.554    0.608
       291  -8.5046    241.3040    137.6979   4.8925767609e+01   4.3915715903e+00    0.2452395     0.189071 -65.22 0.0008814023    1.874    0.466
       292  -9.1311    247.0820    143.6281   4.9276399086e+01   2.3262356308e+00    0.2546828    0.1834406 -19.57 0.0004482816    1.356    0.263
       293  -8.7496    165.7942    143.8553   6.4907440307e+01   1.9721516942e+01    0.2921877    0.2396687 -89.70  0.000876457    1.453    0.312
       294  -9.8798    125.0779    142.4574   7.3654814970e+01   2.8320214896e+01    0.5013652    0.3257122 -87.53  0.001417045    2.195    0.544
       295 -10.8528     69.4323    140.5473   8.6250142215e+01   3.7798899440e+01    0.7227239    0.3683922 -81.09  0.003192499    2.320    0.569
       296 -10.2516    149.1425    144.9301   6.8746897109e+01   2.3023188772e+01    0.6232576     0.401177  87.14  0.001904384    2.639    0.621
       297  -8.2949    182.1436    141.5163   6.0961890153e+01   1.6600743796e+01      0.23428    0.2009857 -75.85 0.0006913916    1.374    0.272
       298  -9.2724      2.7472    141.5349   1.0109253412e+02   4.4387821520e+01    0.3125025    0.1418496  71.50  0.001411906    2.179    0.541
       299  -8.0379    250.4809    140.5278   4.8021906359e+01   2.1055773570e+00    0.1376713      0.12389  -0.72 0.0002634627    1.016    0.016
       300  -9.9902     23.6124    137.9230   9.6325342703e+01   4.3461891319e+01    0.4536231    0.1998532  70.44  0.001968433    2.787    0.641
       301  -9.4874    139.4126    137.7684   6.9430722160e+01   2.6495540721e+01    0.4737273    0.3147365   9.43  0.001778418    3.230    0.690
       302  -9.9085    139.2470    145.1179   7.0978753863e+01   2.4996687299e+01    0.4610796    0.2923986 -80.29   0.00124019    2.406    0.584
       303  -8.2812    207.5960    137.7372   5.5037972482e+01   1.1634170506e+01    0.2423134    0.1788184 -46.31 0.0006375957    1.467    0.318
       304  -8.5734    197.4260    137.2013   5.6896788135e+01   1.3992085765e+01    0.2642461     0.210733 -66.82 0.0007759035    1.573    0.364
       305  -8.9313    150.5121    136.3586   6.6624894939e+01   2.4486540341e+01    0.4382635    0.2531686  24.49   0.00157308    3.078    0.675
       306 -10.4405     83.4546    132.8395   8.1684070501e+01   3.7532854529e+01    0.5047941    0.2957178 -73.44  0.001429731    1.771    0.435
       307  -8.9431    250.7866    129.9184   4.5574153705e+01   3.6209503982e+00    0.4728259    0.1224475 -29.99  0.001388576    4.279    0.766
       308  -9.0219    248.4861    134.9741   4.7103389093e+01   3.3316601421e+00    0.3194445    0.2105338 -33.09 0.0007382066    1.458    0.314
       309  -9.2095    247.2022    130.9591   4.6400154184e+01   4.2004164346e+00    0.3251034    0.1938412 -34.04 0.0009674397    1.603    0.376
       310  -8.0932    162.4915    136.0283   6.3906238786e+01   2.1980079523e+01      0.21847    0.1478305 -48.17 0.0006106838    1.535    0.348
       311  -9.3696     39.1382    135.7971   9.2601028876e+01   4.2435337544e+01    0.2493141    0.1636743  80.32 0.0007242326    1.443    0.307
       312  -7.9675    187.9749    135.2225   5.8341535648e+01   1.6471959548e+01    0.2150714    0.1589351 -58.37 0.0006226806    1.597    0.374
       313  -7.7449    231.2357    133.9688   4.9818881608e+01   7.0947241583e+00    0.1851852    0.1165354 -33.02 0.0004137743    1.564    0.361
       314  -8.5573    179.5726    133.8150   5.9752892470e+01   1.8625323413e+01    0.2834399    0.2215242 -75.09 0.0008397743    1.637    0.389
       315  -9.0157    112.7867    132.9798   7.4655092231e+01   3.2653635874e+01    0.3335959    0.2378613 -88.21 0.0009440257    1.675    0.403
       316  -8.1249    237.5074    133.0234   4.8509042899e+01   5.9085606911e+00     0.215209    0.1333471 -35.71  0.000813109    1.582    0.368
       317 -10.2687    132.3846    130.6252   6.9527959711e+01   2.9426260580e+01    0.6761101    0.3992426 -68.07  0.001815518    2.227    0.551
       318 -10.3678     98.3022    128.7882   7.7329489884e+01   3.6097501265e+01     1.069355    0.3459593 -50.89  0.003834204    2.959    0.662
       319  -9.5800    143.1588    131.0631   6.7126277109e+01   2.7129366731e+01     0.412969    0.2419865 -57.23 0.0006702699    1.873    0.466
       320 -10.1819     12.9578    128.6470   9.7755123087e+01   4.6341730104e+01     0.530234    0.2280314  85.65  0.002368657    2.549    0.608
       321  -8.0276    204.7315    130.5248   5.3913658303e+01   1.3534289909e+01    0.1988343    0.1447321  61.55  0.000527175    1.539    0.350
       322  -8.0545    192.8088    129.8058   5.6098038620e+01   1.6375313117e+01    0.1999794    0.1783792 -81.15 0.0003073502    1.303    0.232
       323  -9.4201    168.3712    129.1864   6.1065051268e+01   2.2037762681e+01    0.3436998    0.2621503 -70.91 0.0005690407    1.615    0.381
       324  -9.3216    153.0405    129.0699   6.4429377071e+01   2.5441481632e+01    0.3882176    0.2604075 -67.18 0.0009404256    1.888    0.470
       325  -9.9250     73.3178    128.9293   8.3479502080e+01   3.9867289807e+01    0.4138206    0.2390583 -79.48  0.001596842    1.911    0.477
       326  -8.0950      1.9481    130.1832   1.0033127535e+02   4.6819424914e+01     0.173612    0.0886884  63.50  0.001049033    1.968    0.492
       327  -7.5925    220.5297    129.5692   5.0715821914e+01   1.0151507874e+01    0.1445895     0.138954  11.06 0.0001576726    1.031    0.030
       328  -8.1404    211.7465    128.9431   5.2199301814e+01   1.2224323062e+01    0.2345573    0.1643923 -60.67 0.0008374494    1.899    0.473
       329  -8.8322    161.6034    128.4080   6.2365167686e+01   2.3700693921e+01    0.3031373    0.1300735 -55.88 0.0009635614    3.304    0.697
       330 -10.7675     44.8641    123.1062   8.9557189507e+01   4.4647707829e+01     1.051039    0.4832575  82.25   0.00391394    4.093    0.756
       331 -10.5685     60.0907    124.8301   8.6062798261e+01   4.2516469075e+01    0.6804442    0.3626889  82.34  0.002557447    2.815    0.645
       332  -9.7856    117.7608    124.7739   7.1754678159e+01   3.3537613427e+01    0.5204571    0.3547586 -89.88  0.001645089    2.004    0.501
       333  -7.8415    228.5385    125.5001   4.8315093638e+01   9.0504549700e+00    0.1437099    0.1385593 -15.21 0.0001483183    1.065    0.061
       334  -8.8838    179.2817    124.4557   5.7608462482e+01   2.0481371014e+01    0.2938197    0.2476922 -76.33 0.0004977682    1.398    0.284
       335 -10.0621     28.6316    122.0631   9.3366111764e+01   4.6467194990e+01     0.705699    0.3078339  78.28   0.00284899    3.773    0.735
       336  -8.9701     26.5129    113.9699   9.2842696401e+01   4.8434977256e+01    0.2141093    0.1223142 -42.49  0.001199628    2.159    0.537
       337  -8.4031    172.1883    137.8093   6.2217744791e+01   1.9503028194e+01    0.2578959    0.1972357 -57.71 0.0008111693    1.450    0.310
       338  -7.8306    188.5900    123.7922   5.5515180827e+01   1.8458429940e+01    0.2073654    0.1418575 -51.31 0.0004374572    1.607    0.378
       339  -9.8596    130.7214    118.2532   6.7141346394e+01   3.2418563091e+01    0.5025665    0.3258222 -87.83  0.001095249    2.564    0.610
       340  -8.4876     84.0403    122.9691   7.9752844918e+01   3.9663686241e+01    0.2047967    0.1593761 -32.58 0.0006385125    1.666    0.400
       341  -7.6955    203.0199    121.9759   5.2196167924e+01   1.5443721417e+01    0.1805123    0.1706921 -23.48 0.0003769741    1.060    0.057
       342  -7.9291    194.8298    121.9955   5.3815681630e+01   1.7342449644e+01    0.2443199    0.1655502 -60.49  0.000568433    1.903    0.475
       343  -9.0826    171.9198    121.1612   5.8381396172e+01   2.2812946506e+01    0.2770844    0.2187396 -45.18 0.0005034421    1.292    0.226
       344  -8.6167    172.1505    117.0285   5.7313587319e+01   2.3570406655e+01    0.3292368    0.2236115 -23.94  0.001415957    1.817    0.450
       345  -9.4776    158.5252    121.3441   6.1380219391e+01   2.5813721371e+01     0.351815    0.2726483 -79.67  0.001017999    1.612    0.380
       346  -9.6720     71.2572    119.2711   8.2307838454e+01   4.2327671246e+01     0.408017    0.2222228 -73.72  0.001211394    1.958    0.489
       347 -10.1093    141.6006    117.6440   6.4394052634e+01   3.0281677635e+01    0.6871413    0.3357349 -54.23  0.001328844    2.264    0.558
       348  -9.6443      3.1590    117.1078   9.8856189469e+01   4.9509181327e+01    0.4684879    0.2023659  74.46  0.002340277    2.803    0.643
       349  -8.0904    231.4996    117.0541   4.5774254186e+01   9.7707739971e+00    0.2243612    0.1386671 -35.29  0.001017652    1.563    0.360
       350  -8.3078    185.9240    115.9305   5.4125420050e+01   2.0557154920e+01    0.2467173    0.1890476 -76.70 0.0006853464    1.727    0.421
       351  -9.9430    109.3618    114.0989   7.1486135366e+01   3.7446261043e+01     0.518892    0.3292559 -77.20  0.001505817    2.153    0.536
       352  -8.9215    108.8495    107.4482   7.0076614620e+01   3.9009223575e+01    0.3134102    0.2184643  -5.15  0.001248772    2.686    0.628
       353  -9.1416     59.0385    115.1301   8.4716374114e+01   4.4830841201e+01    0.2645541     0.167968 -34.13  0.001223106    2.240    0.554
       354  -8.8033    250.0908    114.6822   4.2131617144e+01   6.0815971447e+00    0.1992987    0.1751223  37.27  0.001127154    1.179    0.152
       355  -8.0716    193.1954    115.1644   5.2452050542e+01   1.8982361965e+01    0.2096724    0.1798157 -69.61 0.0004306661    1.344    0.256
       356  -9.9715     78.8723    112.2415   7.8992719894e+01   4.2848902136e+01    0.5048402     0.315683 -88.90  0.001491288    2.176    0.541
       357  -9.5908     77.1737    104.6627   7.7881024319e+01   4.4801828590e+01    0.4263083    0.2562961  42.59  0.002007213    1.827    0.453
       358  -8.1926    167.4092    114.2149   5.7645101316e+01   2.5224167060e+01    0.2162072    0.1446874 -52.28 0.0006379189    1.600    0.375
       359 -10.2150     92.6493    112.1317   7.5358446816e+01   4.0759269487e+01     0.689926    0.3504486 -71.02  0.001524354    2.758    0.637
       360  -8.9756     94.9668    103.6923   7.2856926190e+01   4.2265632468e+01    0.5976452     0.241852  31.52  0.002047176    3.759    0.734
       361 -10.5547    133.6622    109.1838   6.4235187807e+01   3.3754158789e+01    0.7027512    0.3252334 -47.13  0.002407192    2.128    0.530
       362 -10.2876    122.0037    112.0443   6.7819692228e+01   3.5505828090e+01    0.6631791    0.3691019 -60.59  0.001433337    2.044    0.511
       363  -9.6756    116.8148    102.8041   6.6878920277e+01   3.8526465569e+01     0.489397    0.3133706 -73.89  0.002042906    2.218    0.549
       364 -10.3404    108.7108     98.4974   6.7918424727e+01   4.0996343179e+01    0.6260335    0.4111744  78.75  0.001119243    2.447    0.591
       365  -9.2399    107.4356     92.6543   6.6751449214e+01   4.2497291523e+01    0.6962699    0.3365538  29.10  0.002445461    3.355    0.702
       366  -8.4434    174.9193    111.5229   5.5327951937e+01   2.3997294915e+01    0.2825648    0.2092326 -56.98 0.0006569471    1.502    0.334
       367  -8.8758    159.1990    111.5374   5.8803130841e+01   2.7650174759e+01    0.2860192    0.2342947 -74.89 0.0006245619    1.417    0.294
       368 -10.1965     66.4461    110.2224   8.1883043786e+01   4.5010922133e+01    0.4344763    0.2419123 -76.62  0.001508876    2.055    0.513
       369  -9.7923     14.3213    110.6850   9.5467096125e+01   5.0120411170e+01    0.4140974    0.1754624 -85.75  0.002000621    2.458    0.593
       370 -10.1020    248.5592    107.8311   4.0734168380e+01   7.4672741617e+00    0.3832237    0.2861009 -20.73  0.001980548    1.314    0.239
       371 -10.4150    249.2912    102.2330   3.9265221583e+01   8.1731665482e+00    0.4562331    0.3423377  -5.73  0.002311999    1.495    0.331
       372  -7.7675    182.7287    109.3440   5.3114649901e+01   2.2561477059e+01    0.1569895     0.121583 -71.44 0.0003063535    1.615    0.381
       373  -8.7178     42.8712    109.3051   8.7960030922e+01   4.7941694197e+01    0.2608398    0.1226554  16.24  0.001087413    4.179    0.761
       374  -8.1557    189.3016    107.9238   5.1394157295e+01   2.1252622038e+01    0.2205691    0.1957735 -37.46 0.0005605376    1.132    0.117
       375  -9.4139    139.8506    104.3348   6.1493146958e+01   3.3457140406e+01    0.4038951    0.2911932 -68.78 0.0006463235    1.687    0.407
       376 -10.6676     22.9262    102.4140   9.2172650952e+01   5.1273975924e+01    0.6544069    0.3275443  79.86  0.002283462    2.769    0.639
       377  -9.6553    150.5056    103.0252   5.8606164246e+01   3.1361170465e+01    0.4565634    0.2999286 -63.46  0.001210141    1.916    0.478
       378 -10.4759     45.7273    102.0762   8.5973024956e+01   4.9265082184e+01    0.6946931    0.3733556  79.29   0.00303402    3.065    0.674
       379  -9.0624     46.5319     92.0329   8.3873365042e+01   5.1419198556e+01    0.3866286    0.2206444  -0.03  0.001689309    3.757    0.734
       380  -8.4997    166.7238    103.7838   5.5104637727e+01   2.7446897593e+01    0.3020573    0.1998505 -49.41 0.0006238843    1.573    0.364
       381  -9.7472    128.4043    101.8515   6.3678639176e+01   3.6409960002e+01    0.3722627    0.2590145 -59.74 0.0007184788    1.540    0.351
       382  -8.8880      6.4981    102.6542   9.6476245199e+01   5.2392228608e+01    0.2408901    0.1338468  79.38 0.0008644848    1.906    0.475
       383  -7.9613    175.4849    101.9770   5.2715778750e+01   2.5705926187e+01     0.234865    0.1528703 -41.63 0.0005354969    1.539    0.350
       384  -8.2509    159.9512    100.9385   5.5867570879e+01   2.9604171818e+01    0.2417941    0.1884065 -77.14 0.0005427289    1.606    0.377
       385  -9.2917     82.1543     99.9547   7.5483575077e+01   4.5126594992e+01     0.366212    0.2243243 -73.79 0.0009246755    1.980    0.495
       386 -10.2641     64.1654     96.1290   7.9672358644e+01   4.8471886733e+01    0.6512451    0.3409331 -76.72  0.001925021    2.681    0.627
       387  -9.1819     95.0841     96.9965   7.1225905645e+01   4.3728633921e+01    0.3135879    0.2129029 -66.35 0.0007351766    1.574    0.365
       388  -8.3010    164.8722     94.0517   5.2884038208e+01   2.9790579567e+01    0.2436125    0.2071068 -67.74 0.0004709994    1.303    0.232
       389  -9.6723    247.5126     92.8116   3.7224858977e+01   1.0026105608e+01    0.3796671    0.2065401  25.43  0.001373908    3.169    0.684
       390  -7.5354    188.6512     93.3346   4.7649432369e+01   2.4102097466e+01    0.1657908    0.1232708 -74.88  0.000704776    1.777    0.437
       391  -8.3987    176.6180     93.0989   5.0067006734e+01   2.7117187188e+01    0.2497714    0.1859417 -53.94 0.0005799058    1.450    0.310
       392  -9.4746    138.9168     91.7610   5.8342528938e+01   3.6262580550e+01    0.4576456    0.2792362 -55.71  0.001397333    1.844    0.458
       393 -10.2100    124.5522     90.4489   6.1613064429e+01   3.9611238913e+01    0.7290684    0.4026029 -40.00 0.0009871584    1.816    0.449
       394  -9.2989    120.5189     92.5052   6.3226865234e+01   4.0002032060e+01    0.2828602    0.2602704  65.25  0.001208154    1.139    0.122
       395  -9.5952      5.1281     91.6866   9.5467466951e+01   5.4832763083e+01    0.2914258    0.1755719  73.62  0.001346246    1.870    0.465
       396  -8.0400    157.8481     91.7679   5.3837136071e+01   3.1912308066e+01    0.2153337    0.1824962 -71.78 0.0004670538    1.331    0.248
       397  -9.6373     34.8700     89.6966   8.6796802544e+01   5.3067072212e+01    0.4140996    0.2177393 -85.86  0.001551612    2.538    0.606
       398  -9.2827     22.9255     89.7576   9.0234622163e+01   5.4046905748e+01     0.277586    0.2035737 -41.62  0.001155975    1.467    0.318
       399  -8.0352    150.9986     88.9545   5.4637302520e+01   3.4076696842e+01    0.2459944    0.1889879 -76.00 0.0006853151    1.660    0.398
       400 -10.2018     86.5079     85.8472   7.0821459847e+01   4.7562999385e+01    0.6079454    0.3532684 -60.86  0.001562034    1.802    0.445
       401  -9.3264     65.8819     87.1693   7.7175402775e+01   5.0239213481e+01    0.4937831    0.2593843  14.69  0.001925853    3.906    0.744
       402  -7.8520    164.1642     87.1164   5.1095167341e+01   3.1295154092e+01     0.219823    0.1812336 -63.11  0.000538774    1.342    0.255
       403  -9.8306     48.9256     83.4347   8.1386441254e+01   5.3062308960e+01    0.6962077    0.3647938 -69.88  0.002399277    1.988    0.497
       404  -8.0380    158.0744     83.8493   5.1529688019e+01   3.3391110673e+01    0.2355291    0.2051926 -70.32 0.0004817421    1.267    0.211
       405  -9.7331    104.8148     82.9865   6.4842159173e+01   4.5038747699e+01    0.4108438    0.2957308 -74.56  0.001014411    1.838    0.456
       406  -9.1023    140.8290     82.5133   5.5229322345e+01   3.7689693310e+01    0.3404126    0.2139292 -50.44 0.0009347617    1.667    0.400
       407  -9.4581     10.0593     80.8947   9.2527900745e+01   5.6848076479e+01    0.3823193     0.187765  73.88  0.001811845    3.319    0.699
       408  -8.1363    185.0205     81.9971   4.5222816661e+01   2.7057250165e+01    0.1873691    0.1853648  61.05 0.0003832226    1.011    0.011
       409  -9.6120     24.6216     80.1733   8.8072110296e+01   5.5999470379e+01    0.4302718    0.2237626 -84.71  0.001447546    2.434    0.589
       410  -8.4772    150.3103     80.4465   5.2336150541e+01   3.5894335752e+01    0.2659229    0.1830265 -58.97 0.0005896456    1.719    0.418
       411  -8.7146    119.5374     79.8866   5.9923956978e+01   4.2817795918e+01    0.3533129    0.2332498 -51.50  0.001356304    1.535    0.349
       412  -8.9630     74.6665     80.2269   7.2844393167e+01   5.0557375917e+01    0.3458238    0.1990552 -62.52  0.001274041    1.828    0.453
       413  -8.2314    166.9509     79.4741   4.8272102497e+01   3.2043755498e+01    0.2373592    0.2074498 -36.45  0.000469805    1.145    0.126
       414  -8.2406     92.0229     79.0000   6.7370721069e+01   4.8128366609e+01    0.2144923   0.08126396  40.81 0.0007246116    2.892    0.654
       415  -8.9994    105.3237     76.8299   6.2930787262e+01   4.6223219550e+01    0.2708307    0.1902313  11.17  0.001039222    2.091    0.522
       416  -7.7285    157.1520     76.2075   4.9488013726e+01   3.5053830714e+01    0.2128398    0.1823858 -70.83 0.0004748887    1.317    0.241
       417  -9.4804    128.0381     74.7118   5.6131845076e+01   4.2060568630e+01    0.4796886    0.2714038 -47.38 0.0007860279    1.785    0.440
       418  -8.5353    140.4821     75.0795   5.3095905245e+01   3.9212575105e+01    0.2386619    0.2102257 -68.64 0.0006237078    1.254    0.203
       419 -10.0733     63.2806     73.2673   7.4516774293e+01   5.3582102524e+01    0.5566866     0.244931 -61.01  0.001281028    2.443    0.591
       420  -8.5696     65.4397     62.4303   7.0806222719e+01   5.5557295960e+01    0.3952552    0.2340203  -5.01  0.001635334    3.346    0.701
       421  -9.6243     82.5388     72.5102   6.8351909441e+01   5.1019426571e+01    0.3809925    0.2570191 -72.69  0.001027462    2.053    0.513
       422  -8.4294    163.4514     72.8239   4.7062165546e+01   3.4124229810e+01    0.2986669     0.144938 -41.60  0.001112318    2.052    0.513
       423  -8.1660     42.8299     72.7099   8.0855288276e+01   5.6012282018e+01    0.2273818    0.1469984 -83.93  0.001073901    2.038    0.509
       424  -8.0447    175.5079     72.4676   4.4390689390e+01   3.1155757516e+01    0.1549856    0.1533508  31.98 0.0002543153    1.017    0.017
       425  -9.3176    105.9523     71.4635   6.1145602745e+01   4.7193048061e+01    0.2701474    0.1950852 -59.07 0.0007091555    1.545    0.353
       426  -9.3288     95.1780     71.0211   6.4129367710e+01   4.9241636709e+01      0.37096    0.2257053 -59.52 0.0009783898    1.933    0.483
       427  -9.0563     28.9545     70.3724   8.4772301140e+01   5.7760442341e+01    0.3836584    0.1758454 -29.34  0.001670624    3.528    0.717
       428  -9.5033     51.6089     69.4631   7.7243841711e+01   5.5780415946e+01    0.4253532    0.2302954 -73.40  0.001465295    2.673    0.626
       429  -7.9257    157.2242     69.9399   4.7571274708e+01   3.6182217811e+01    0.2069452    0.1267401 -37.41 0.0006469524    1.622    0.383
       430  -9.0834     16.4701     69.3791   8.8565601511e+01   5.8890769020e+01    0.2972607    0.1602404 -76.06   0.00136813    1.807    0.447
       431  -8.8764    147.0782     67.5656   4.9180922838e+01   3.9068544975e+01     0.421722    0.2230388 -38.05  0.001684236    1.865    0.464
       432  -8.8827    121.6742     65.8120   5.5031996248e+01   4.5135613938e+01    0.3497268    0.2182951 -57.31 0.0007348282    1.998    0.500
       433  -7.5006    203.2813     66.6686   3.7441620666e+01   2.4986835594e+01     0.159807    0.1158035 -63.41  0.000355715    1.608    0.378
       434  -8.4665    138.7361     65.9546   5.0689384936e+01   4.1322057502e+01    0.2841948    0.1980115 -53.43 0.0007171177    1.602    0.376
       435  -8.8362    115.7712     72.8720   5.8839940929e+01   4.4990614813e+01    0.2693612    0.1951883 -58.54 0.0004624419    1.549    0.354
       436  -8.6485     84.4705     64.5213   6.5382567366e+01   5.2345927068e+01    0.3493397    0.2024096   3.64  0.001169493    4.523    0.779
       437  -8.7650     37.5836     64.2770   8.0544337303e+01   5.8299058012e+01    0.2382035      0.17936  86.46  0.001286978    1.750    0.429
       438  -8.9452    110.1557     63.3074   5.7390597268e+01   4.7972751769e+01    0.2985592    0.2172949 -50.34 0.0007443167    1.416    0.294
       439  -9.3656     97.5016     60.7028   6.0212250963e+01   5.0869284123e+01     0.363972    0.2758681 -39.00  0.001262669    1.221    0.181
       440  -7.9372    158.2352     61.9381   4.4856401401e+01   3.7339646878e+01    0.2008657    0.1283287 -35.99 0.0004440391    1.560    0.359
       441  -9.7035     73.4504     59.3536   6.7266333546e+01   5.5062116295e+01    0.4288084    0.2352984 -56.28  0.001344092    1.960    0.490
       442  -8.9433    145.0716     59.7877   4.7178168236e+01   4.0929926054e+01    0.4944725    0.2181852  40.30 0.0008276335    2.638    0.621
       443  -8.4445     89.0053     59.0626   6.2253162211e+01   5.2672350521e+01    0.2095912    0.1669254 -73.89 0.0006719227    1.682    0.405
       444  -8.4670    130.9664     57.5301   4.9898792684e+01   4.4611074884e+01    0.2331619    0.1939208 -36.70  0.000554238    1.183    0.155
       445  -9.8632     23.3779     56.1054   8.3398832390e+01   6.1174002434e+01    0.4003022    0.2382443 -87.10  0.001889873    2.621    0.619
       446  -9.3206      7.5579     56.8852   8.9034022820e+01   6.2033504172e+01    0.3067077    0.1851728  87.15  0.001222427    2.218    0.549
       447  -7.4010    193.7047     56.6417   3.6213230878e+01   2.9069986864e+01    0.1602395    0.1192286  20.01 0.0004623751    1.699    0.412
       448  -8.0805    140.0489     56.0076   4.7141007333e+01   4.2775766064e+01    0.2338434    0.1800438 -65.26 0.0005518632    1.619    0.383
       449  -9.5500    119.2377     55.6262   5.2336325555e+01   4.7522100092e+01    0.2893902    0.2282553 -67.90 0.0007243843    1.639    0.390
       450  -8.7349     44.0380     55.2618   7.5955713911e+01   5.9525142949e+01    0.2607488    0.1524318 -61.25  0.001098225    1.685    0.406
       451  -9.3022     62.9632     54.3488   6.9168782628e+01   5.7499308538e+01    0.3009835    0.1701065 -52.41 0.0007119674    1.649    0.394
       452  -7.8186    217.5306     54.4458   3.1702820340e+01   2.3208976291e+01    0.1465184    0.1451637 -78.27 0.0001502665    1.044    0.042
       453  -8.5816    105.7480     52.8465   5.5156634549e+01   5.0774797995e+01    0.2530054    0.1856054 -53.95 0.0005737838    1.555    0.357
       454  -9.4682     92.4658     50.2863   5.8231699599e+01   5.3715458416e+01    0.4080817    0.2281977 -52.90  0.001026797    2.139    0.532
       455  -8.9557    112.4310     46.7810   5.1135053171e+01   5.0483409631e+01    0.2971905    0.1976819 -49.29 0.0007865305    1.685    0.407
       456  -7.9882     51.6486     61.7118   7.5165470145e+01   5.7392938724e+01    0.1285963   0.08597228 -26.94 0.0002528254    1.667    0.400
       457  -8.3547    144.8376     48.8402   4.3614747498e+01   4.2816165019e+01    0.2048241    0.1764385 -59.14 0.0004131056    1.298    0.230
       458  -7.9109    129.9748     49.0040   4.7261261980e+01   4.6291456778e+01     0.230193    0.1796338 -66.97 0.0005790936    1.658    0.397
       459  -8.9850     54.0622     53.7620   7.2032328334e+01   5.8721680794e+01    0.3320062    0.1678899 -61.06  0.001185316    2.329    0.571
       460  -8.1397    164.0000     47.0084   3.8852354351e+01   3.8304998517e+01     0.248831   0.08725621 -31.06 0.0006340035    2.905    0.656
       461  -8.7176    120.9674     46.9480   4.8874803751e+01   4.8640342852e+01    0.2566148    0.2015422 -33.52 0.0007668665    1.243    0.196
       462  -9.1930     82.3052     46.3952   6.0071176961e+01   5.6150933664e+01    0.2827446    0.2112035 -54.75 0.0007698265    1.540    0.351
       463  -8.8003     45.0538     44.4750   7.2335071733e+01   6.1541282924e+01    0.2201965    0.1513239 -59.85 0.0006385177    1.553    0.356
       464  -9.0757     16.7919     44.1629   8.2777374676e+01   6.4039172331e+01    0.2182799    0.1343412 -68.31  0.001066387    1.620    0.383
       465  -8.3782    132.8223     42.8351   4.4402180268e+01   4.6625607378e+01    0.1989255    0.1737274 -59.07 0.0004340441    1.312    0.238
       466  -8.7941     92.9047     42.1961   5.5200767444e+01   5.5056429849e+01    0.2547489    0.1920295 -18.94 0.0007381547    1.312    0.238
       467  -9.2265     69.6843     41.3894   6.2489982329e+01   5.9002817414e+01    0.3285161    0.2299095 -64.11  0.001109129    2.097    0.523
       468  -8.9161     58.1833     42.1557   6.6798862437e+01   6.0438525056e+01    0.2918203    0.1843999 -55.48  0.001138019    1.741    0.426
       469  -9.5083      5.3626     41.8222   8.6490068391e+01   6.5179340403e+01     0.301613    0.1693583 -78.98  0.001296089    2.176    0.540
       470  -7.5314    140.2314     41.0036   4.1995794863e+01   4.5150478054e+01    0.1882893     0.122675 -29.90 0.0003884172    1.547    0.354
       471  -8.7692    105.8567     40.9569   5.0884640911e+01   5.2787756649e+01    0.2475933    0.1840719 -50.36 0.0005058851    1.547    0.354
       472  -8.5287     36.9531     40.5580   7.4096524965e+01   6.3107912034e+01    0.2179549    0.1497973 -62.08 0.0008858526    1.596    0.374
       473  -8.6902     95.8084     38.0643   5.2772805267e+01   5.5207148621e+01     0.204525    0.1816295 -51.56 0.0007063012    1.321    0.243
       474  -8.3032     80.5818     36.2794   5.6914942285e+01   5.8187711909e+01    0.2454393    0.1164149 -42.08 0.0007479132    2.002    0.500
       475  -7.5201    133.6696     36.2769   4.1866658863e+01   4.7416455760e+01    0.1426232    0.1157827 -74.30 0.0003712128    1.598    0.374
       476  -9.2292     26.1491     35.2365   7.6578622512e+01   6.5069123123e+01    0.2479856    0.1812441 -65.40 0.0008241033    1.558    0.358
       477  -8.1440    126.0395     35.3253   4.3383563679e+01   4.9325321034e+01    0.1962126    0.1821481  28.74 0.0004645016    1.044    0.042
       478  -8.8418    111.8611     34.2995   4.6712053578e+01   5.2592662622e+01    0.3088282    0.1822867 -45.50 0.0008888617    1.917    0.478
       479  -8.1900     88.7651     34.0256   5.3407797744e+01   5.7146432841e+01    0.1784406    0.1040299 -34.70 0.0006658588    1.593    0.372
       480  -8.9232     48.5782     32.9599   6.7052860919e+01   6.3270000979e+01    0.2319206    0.1736457 -49.47 0.0005701024    1.365    0.267
       481  -8.1928    119.1044     33.0386   4.4304392675e+01   5.1215022105e+01    0.2171647     0.171331 -63.37 0.0005185692    1.677    0.404
       482  -8.8320     60.8230     32.1433   6.2181592397e+01   6.1863904214e+01    0.2840886    0.1571998 -48.92 0.0008363942    1.900    0.474
       483  -9.0349     72.2786     30.8835   5.7623047002e+01   6.0404371509e+01    0.2231702    0.1817704 -51.21 0.0006326496    1.490    0.329
       484  -9.1331    211.0155    246.4488   7.4112607479e+01  -4.5629886211e+00    0.3156848    0.2287104 -81.24  0.001376837    3.302    0.697
       485  -7.7670     42.3253     29.6954   6.8263199766e+01   6.4546475793e+01    0.1060269   0.09351601 -73.93  0.000335324    1.644    0.392
       486  -9.0197     81.6207     27.2195   5.3006197835e+01   5.9455413440e+01    0.2684223    0.2057791 -54.61 0.0008329301    1.744    0.427
       487  -9.5272      3.7345     26.8351   8.3162788649e+01   6.8132906201e+01    0.3426663    0.1436938 -68.18  0.001685684    2.866    0.651
       488  -8.6092     91.9337     26.2442   4.9336400624e+01   5.7752018824e+01    0.2227305    0.1784458 -48.80 0.0005676009    1.517    0.341
       489  -8.3526    159.1836     22.3927   3.1595534165e+01   4.2928419822e+01    0.2248707      0.19531   7.56 0.0004443927    1.232    0.188
       490  -8.3773    104.5062     22.5562   4.4162441858e+01   5.5793247645e+01    0.1355029    0.1240577   5.87 0.0001128259    1.043    0.041
       491  -9.0360     63.6594     20.8514   5.6576278261e+01   6.3275431677e+01     0.274143    0.2001878 -47.49 0.0009749454    1.647    0.393
       492  -8.9776     48.3896     21.3644   6.2597241744e+01   6.5248598702e+01    0.2520953    0.1787903 -47.44 0.0008571622    1.545    0.353
       493  -7.9243     34.4843     22.5556   6.8712957947e+01   6.6590155710e+01    0.1167309   0.09240127 -30.36 0.0008074414    1.044    0.042
       494  -8.0295    120.7568     20.7768   3.9204914520e+01   5.2505413418e+01     0.222997   0.09634235 -38.90 0.0008778062    2.476    0.596
       495  -8.1739     19.6296     21.2137   7.4511985868e+01   6.8128395627e+01    0.1647185   0.07630739 -43.22 0.0009024303    1.606    0.377
       496  -8.9146     74.1259     19.4216   5.2263832150e+01   6.1859071099e+01    0.2737696    0.1769869 -48.35  0.000740876    1.993    0.498
       497  -8.2982    101.4903     29.0329   4.7600363438e+01   5.5500019347e+01    0.2073359    0.1275335 -31.51  0.000575592    1.559    0.358
       498  -8.2678     38.5416     17.9651   6.5177318468e+01   6.6928690321e+01    0.1759439   0.09592196 -41.63 0.0004320799    1.548    0.354
       499  -8.2535     87.8670     17.2023   4.6831944827e+01   5.9761295093e+01    0.1874041    0.1693242 -25.90 0.0005258117    1.223    0.182
       500  -7.5802    112.5849     16.5098   3.9565754726e+01   5.4846046875e+01    0.1366672    0.1232886  12.25 9.940278e-05    1.017    0.017
       501  -7.9127     30.3814     16.1375   6.7881186021e+01   6.8058745854e+01    0.1574347   0.09302771 -50.24 0.0007509043    1.733    0.423
       502  -7.8165     97.4053     15.1675   4.3124318920e+01   5.8183731481e+01    0.1853084    0.1145377 -36.90 0.0007122951    1.709    0.415
       503  -8.0590      7.7000     15.3574   7.7702093661e+01   6.9973996312e+01   0.09559619   0.07935809 -74.61 0.0005462962    1.709    0.415
       504  -8.0243     17.3708     14.1530   7.2845261142e+01   6.9511597479e+01    0.1490949   0.08776656 -53.13 0.0005783111    1.656    0.396
       505  -7.9500    191.5183    249.4832   7.7709303113e+01  -1.7459355621e+00    0.1151285   0.08616327  44.14 0.0008090988    1.073    0.068
       506  -8.0389      1.6655     11.3386   7.9059337966e+01   7.1017579321e+01   0.09194967   0.07872175 -81.44 0.0007051639    1.749    0.428
       507  -8.2897    113.4399    248.4676   9.0353901347e+01   1.0869225223e+01    0.1705017   0.09538008 -81.68  0.001018867    2.358    0.576
       508  -9.1569    103.7862    246.5073   9.1723397586e+01   1.2601731021e+01    0.3642704    0.1814425 -86.29  0.001946212    2.978    0.664
       509  -9.4031    232.9760    246.2417   7.0525851504e+01  -8.0132070749e+00    0.3727274    0.2197727   1.80  0.002221096    2.253    0.556
       510  -9.1934    218.7834    247.0372   7.2929816745e+01  -5.8676595952e+00    0.2895191    0.1564601 -31.89  0.001771456    2.351    0.575
       511  -9.0017    175.8629    247.4918   8.0034317607e+01   1.0525499781e+00    0.2774791    0.1803138  69.69  0.001268058    2.142    0.533
       512  -8.4086    156.3317    247.9774   8.3315324317e+01   4.1836480498e+00    0.2027463    0.1254857  59.97 0.0005910512    1.538    0.350
       513  -8.7056    132.3006    247.6836   8.7225875844e+01   8.0734533397e+00    0.2617753    0.1433225  64.29  0.001220644    1.874    0.466
       514  -9.0191     63.5271    248.4664   9.8127347063e+01   1.7857680747e+01    0.1690071   0.08812489  37.82  0.001036243    2.355    0.575
       515  -9.9867    223.9573    243.9838   7.1655019513e+01  -6.3695122103e+00    0.3761821    0.2203447 -44.53  0.002304894    2.526    0.604
       516  -7.8280     13.3403    247.2913   1.0529059999e+02   2.3822719498e+01   0.07666522   0.06549626  86.53 0.0004475406    1.648    0.393
       517  -9.2314    146.8904    245.5438   8.4600336829e+01   6.0428989389e+00    0.2415452    0.1490957  66.09  0.001112417    1.736    0.424
       518  -9.2298    120.1475    245.0689   8.8947616747e+01   1.0346200909e+01    0.3412708    0.1827247  71.19  0.001601392    2.254    0.556
