#   1 NUMBER                 Running object number                                     
#   2 MAG_AUTO               Kron-like elliptical aperture magnitude                    [mag]
#   3 X_IMAGE                Object position along x                                    [pixel]
#   4 Y_IMAGE                Object position along y                                    [pixel]
#   5 X_WORLD                Barycenter position along world x axis                     [deg]
#   6 Y_WORLD                Barycenter position along world y axis                     [deg]
#   7 A_WORLD                Profile RMS along major axis (world units)                 [deg]
#   8 B_WORLD                Profile RMS along minor axis (world units)                 [deg]
#   9 THETA_WORLD            Position angle (CCW/world-x)                               [deg]
#  10 FWHM_WORLD             FWHM assuming a gaussian core                              [deg]
#  11 ELONGATION             A_IMAGE/B_IMAGE                                           
#  12 ELLIPTICITY            1 - B_IMAGE/A_IMAGE                                       
         1  -9.9250     27.0941     22.2567   7.0367933890e+01   7.2551998189e+01     1.385465    0.4441646 -37.46  0.004492742    3.952    0.747
         2 -11.0897     80.7484     22.9692   4.5269002875e+01   6.2033117375e+01    0.5736935    0.2802497  43.01 0.0008235649    2.162    0.537
         3  -9.0037     46.1530     20.3662   5.7893291147e+01   6.9796734899e+01    0.4908746     0.237394 -37.23  0.002154032    1.976    0.494
         4  -9.8899     10.2225     18.5097   8.0899648503e+01   7.5287018744e+01    0.7789911    0.3778376   6.90  0.003410734    2.845    0.648
         5  -9.1375      3.8069      6.1501   7.9436860823e+01   7.8459564568e+01    0.6044224     0.271301 -31.52  0.002712557    2.488    0.598
         6  -9.0107     13.7190     10.0721   7.2875511497e+01   7.6656262690e+01    0.3846677    0.2748812  58.38  0.001876019    2.201    0.546
         7 -10.4408     13.4212      4.1315   6.8752558821e+01   7.7801231230e+01    0.3849111    0.2775291  23.89 0.0002634282    1.440    0.306
         8  -9.7604     77.4782     12.7937   4.0792746719e+01   6.4114200992e+01    0.7017565    0.2471718  53.83  0.002636062    2.568    0.611
         9  -8.7047     64.4809     13.7490   4.5697152575e+01   6.7008047455e+01    0.3584801    0.1986297  36.62  0.001021078    1.974    0.493
        10  -7.6782    151.0089     12.5481   2.7059241785e+01   4.5417322004e+01     0.197671    0.1318748  72.66 6.972883e-05    1.496    0.331
        11  -9.6658     31.7336     10.7536   5.9872842498e+01   7.3945529514e+01    0.3521261    0.2347892  23.85 0.0002945178    1.647    0.393
        12  -9.2266     31.7212      5.8294   5.6202656342e+01   7.4719549922e+01    0.3601737    0.2419403  21.24 0.0003166099    1.646    0.393
        13  -8.3638     97.3468     11.4338   3.4999167996e+01   5.9353574499e+01     0.239985    0.2172938  11.78 0.0006227556    1.140    0.123
        14  -8.6500    142.7450      9.3653   2.6844247830e+01   4.7827093675e+01    0.2276508    0.2187182  50.01 0.0002573097    1.110    0.099
        15  -9.4010    125.4260      9.9007   2.9308485193e+01   5.2259003773e+01    0.2440693    0.2192954  72.10 0.0002169505    1.093    0.086
        16  -9.8792     20.6891      8.1911   6.5818153422e+01   7.6098149232e+01    0.2929618     0.267414  43.96 0.0003320614    1.353    0.261
        17  -7.8827    156.0000      7.8989   2.4898946594e+01   4.4584835760e+01    0.2242516   0.07508952 -20.59 0.0008037361    2.951    0.661
        18  -9.1369     76.5406      6.3655   3.7392992860e+01   6.5041875145e+01    0.2839204    0.2013641  40.86 0.0007881228    1.382    0.276
        19  -8.9266     41.9485      5.2101   4.9845380059e+01   7.2889073290e+01    0.4104203    0.2596221  26.28  0.001631216    1.754    0.430
        20  -9.7933     84.9096      4.9255   3.4430427395e+01   6.3123317018e+01    0.3163898    0.2424743  -7.63 0.0004408186    1.364    0.267
        21  -7.3803    179.9723      5.0438   2.1947452817e+01   3.8951504850e+01    0.1577475    0.1380902 -51.01 0.0004334423    1.011    0.011
        22  -7.9879    131.4963      4.9963   2.6501535963e+01   5.1119184259e+01    0.1982078    0.1348596 -21.30 0.0003996087    1.493    0.330
        23  -7.3098    134.2765      2.7116   2.5268114332e+01   5.0587841608e+01    0.1852939    0.1114367  75.19 0.0001911744    1.616    0.381
        24  -7.6919     91.7846      5.3640   3.3118516074e+01   6.1355279785e+01    0.2067924    0.1149252  55.93 0.0009444741    1.672    0.402
        25  -9.2717     57.6722      3.1933   4.1461467193e+01   6.9788236627e+01    0.2638632     0.220903   4.17 0.0004434249    1.169    0.145
        26  -7.5825    191.9323      3.5425   2.0696246428e+01   3.6282546336e+01    0.1632393   0.09245896  47.83 0.0004946342    2.164    0.538
        27  -8.2718    153.7301      3.0365   2.3416197714e+01   4.5575975326e+01    0.1786014     0.167621 -41.35 0.0003747921    1.068    0.064
        28  -8.0251    125.5422      3.1050   2.6474890425e+01   5.2824660094e+01    0.2034184    0.1754094  78.74 0.0003488752    1.125    0.111
        29  -8.3200    105.6449      1.5544   2.8637450851e+01   5.8126270761e+01    0.2644402    0.1227365  66.23  0.001017718    1.983    0.496
        30  -8.9523      4.0107    107.0375   1.0367794641e+02   5.3400179889e+01    0.2208703    0.1601739  67.40  0.001267129    1.286    0.223
        31  -9.0365    214.8382    249.8509   7.1331816998e+01   7.9070659407e-01    0.1600696    0.1009017   6.57  0.001236296    1.216    0.178
        32  -8.9926    181.7187    249.9771   7.6695553414e+01   4.3052325505e+00    0.1669585    0.1168386  18.15 0.0006232861    1.053    0.050
        33 -10.6429    191.9524    249.3245   7.4916744730e+01   3.2596533413e+00    0.4239456    0.2515711  42.11  0.002849884    2.170    0.539
        34  -9.9953    187.1491    250.5767   7.5862683751e+01   3.6462327378e+00     0.218744    0.1102906  31.07 0.0002937843    1.591    0.372
        35 -10.4723    166.1693    242.5127   7.8469988700e+01   6.9204490268e+00    0.4681796    0.1557356  27.49  0.002269749    2.696    0.629
        36  -9.6701    153.7727    250.1021   8.1538237731e+01   7.4168321791e+00    0.3263258    0.1270132  32.95  0.000416461    1.968    0.492
        37 -10.5751    155.3399    245.7427   8.0769840074e+01   7.7729905216e+00    0.4250742    0.2333895  22.63 0.0002516715    1.506    0.336
        38  -9.0884    156.1663    241.1758   8.0093384353e+01   8.2477188359e+00     0.199742    0.1439674   6.78 0.0003656994    1.275    0.216
        39  -9.0084    247.5090    105.4398   4.1191963669e+01   1.3512957182e+01    0.2336169   0.09908549 -20.00  0.001036895    2.495    0.599
        40  -7.8883    133.6917    105.8436   6.0821547969e+01   3.4916951783e+01    0.2417801    0.1827694 -22.35  0.001168463    1.477    0.323
        41  -7.8492    109.7835    106.1162   6.7133459922e+01   3.9629637033e+01    0.2093971    0.1767399 -16.89  0.001060438    1.350    0.259
        42  -8.8887     14.5208    104.9907   9.9560805779e+01   5.3246000828e+01    0.4433675    0.1720985 -45.64  0.001716282    2.980    0.664
        43  -8.4304     67.5885    104.3792   7.9927460220e+01   4.7420559085e+01      0.36152    0.1506927  27.34  0.001266232    2.992    0.666
        44  -7.0758     94.3340    102.7031   7.0777222665e+01   4.3316550521e+01    0.1523834    0.1177691  78.93 0.0004173765    1.647    0.393
        45  -7.9082     64.9560    100.7110   8.0009813236e+01   4.8731512303e+01    0.2083262    0.1905262  44.88  0.000766796    1.138    0.121
        46  -9.0825    242.2319     96.8399   3.9919507469e+01   1.5432703737e+01    0.2074895    0.1111694 -55.31 0.0009614902    2.905    0.656
        47  -7.6744    129.7977     96.8055   5.9320627254e+01   3.7533506757e+01    0.2529523      0.16537   2.87 0.0009453493    2.801    0.643
        48  -9.9345     12.3280     93.4810   9.9061806970e+01   5.6415830930e+01    0.5701616    0.3289672 -14.02  0.002504585    2.398    0.583
        49  -9.2928     16.4697     94.5290   9.7510481976e+01   5.5844013631e+01    0.4077753    0.2536792   2.49  0.002018079    2.068    0.516
        50  -7.8163     83.2014     93.6001   7.1918102714e+01   4.7460127048e+01    0.2027507    0.1463795  25.15 0.0005700443    1.621    0.383
        51  -8.5051     44.3958     91.5310   8.5670903077e+01   5.3877289094e+01    0.4029164    0.2089331 -28.63  0.001446125    3.277    0.695
        52  -7.9217     56.1673     92.0135   8.1189877657e+01   5.2199056855e+01    0.2513662    0.1502714 -37.22 0.0006910642    1.991    0.498
        53  -7.7900    109.7687     90.4083   6.2798157479e+01   4.3040138329e+01    0.2145495    0.1440767  31.75 0.0006128469    1.722    0.419
        54  -8.3060     96.9940     89.8759   6.6428781000e+01   4.5728925126e+01    0.3681313    0.2109674  19.08  0.001250187    3.307    0.698
        55  -9.0101     20.8534     84.2484   9.4090854716e+01   5.8201909354e+01     0.244513    0.1891468 -60.48  0.000218695    1.171    0.146
        56  -8.0653    126.0343     83.4468   5.6348907740e+01   4.0990771257e+01    0.3010761    0.1889364  -1.95  0.001028759    3.325    0.699
        57  -8.1477     65.7907     83.9434   7.5421088483e+01   5.2745589774e+01    0.2187106    0.1900133 -54.60 0.0007826489    1.086    0.079
        58 -10.0756     37.9240     80.5431   8.5877696606e+01   5.7478373392e+01     0.667335    0.3831613 -14.12  0.002622046    2.967    0.663
        59  -8.8784     88.8874     78.1498   6.5436993509e+01   4.9937039016e+01    0.6193907    0.3537146  24.16  0.002298744    2.714    0.632
        60  -9.5747      8.1005     77.0716   9.8697675944e+01   6.0996051589e+01    0.4498395    0.2276204 -46.79  0.002009778    1.944    0.486
        61  -8.1264    184.4917     77.4925   4.2888717301e+01   2.9060225910e+01    0.2723383    0.1273292 -31.59 0.0006522508    1.927    0.481
        62  -9.2616     49.1646     77.0374   8.0154184130e+01   5.6945708495e+01    0.4799206     0.305003   1.45   0.00202633    2.445    0.591
        63  -7.1714    120.3225     75.3370   5.5249915904e+01   4.3837844973e+01    0.1567374    0.1208785   4.62 0.0007050683    1.714    0.417
        64  -9.7609     24.7675     72.6457   9.0040338595e+01   6.0887659483e+01     0.976253     0.361111 -34.84  0.002922729    4.808    0.792
        65  -8.5157     23.4155     69.1655   8.9908612340e+01   6.1910499089e+01    0.3025284    0.2249184 -74.71 0.0007438293    1.253    0.202
        66  -8.2246     74.8233     74.1713   6.9071305698e+01   5.3508216548e+01    0.2017112    0.1752677  -1.51 0.0004142449    1.338    0.253
        67  -8.4128    247.4942     80.0052   3.5569499085e+01   1.6630858958e+01    0.1763639   0.09408306  -7.25 0.0008106621    2.604    0.616
        68  -7.6121    129.4972     68.4727   5.0720280609e+01   4.3020156699e+01    0.1505267    0.1446925 -30.77 0.0001368989    1.022    0.022
        69  -7.5562    116.4824     67.5389   5.3647315115e+01   4.6196972695e+01    0.1514243    0.1456881 -46.77 0.0003274685    1.017    0.017
        70  -8.1638    105.8514     66.4662   5.6204202090e+01   4.8805267657e+01    0.3010101     0.214978 -41.74  0.001410606    1.349    0.259
        71  -8.9257     84.0291     63.4788   6.2052132073e+01   5.4086113539e+01    0.3731095    0.2854826  10.74 0.0008493057    1.717    0.418
        72  -8.8406     18.9841     61.4569   9.0339270660e+01   6.4275588001e+01    0.4192013    0.1962712 -34.26  0.001697693    2.639    0.621
        73  -8.2664     12.4762     62.7687   9.4050745827e+01   6.4438098205e+01    0.2702028    0.1239964 -78.27  0.001138198    2.148    0.535
        74 -10.3637     62.2017     60.9825   6.9484774757e+01   5.8762370577e+01    0.4130448    0.2828078  30.34 0.0002802993    1.627    0.385
        75  -7.6921    213.9906     60.7552   3.4485914797e+01   2.5213553529e+01     0.164642    0.1554186 -46.69 0.0002230395    1.128    0.114
        76  -9.0978     38.2636     58.1680   7.9473677403e+01   6.3050110159e+01    0.5646103    0.3030628 -15.89  0.001907804    3.978    0.749
        77  -9.0725    249.7741     58.7504   3.0517886433e+01   1.8727462873e+01    0.2270468    0.1268612 -26.42  0.001285803    1.441    0.306
        78  -8.9454     49.7054     58.5478   7.4105292423e+01   6.1355449591e+01    0.2601832    0.2396856 -49.43 0.0002575412    1.016    0.015
        79  -7.8119    111.2228     57.8021   5.1573155823e+01   4.9208906248e+01    0.2083445     0.176744  17.96 0.0005373292    1.352    0.261
        80  -9.3384     99.7969     54.7254   5.3633731494e+01   5.2406158230e+01    0.3737611    0.2620054 -33.12 0.0005981913    1.423    0.297
        81 -10.4664     75.1872     49.8409   5.9905081773e+01   5.8680212926e+01     0.404279    0.3134899  -4.12  0.000324085    1.625    0.384
        82  -7.2792    163.4542     51.4724   3.8519754711e+01   3.7659199524e+01    0.1431839    0.1343411 -32.07 0.0001336463    1.041    0.039
        83  -7.7562    118.9388     50.7555   4.6974185137e+01   4.8590258775e+01    0.2070266    0.1890846  56.84 0.0007386562    1.127    0.113
        84  -8.4901    106.4271     48.4954   4.9298976321e+01   5.1969682750e+01    0.3700319    0.2496233   6.50  0.001177249    2.293    0.564
        85  -9.0310     45.2773     48.6337   7.2476906832e+01   6.4302329448e+01    0.3578506    0.2451732 -17.79  0.001381073    1.903    0.475
        86  -7.3898     40.3450     50.2855   7.5622598973e+01   6.4641551708e+01    0.1451777     0.104213 -21.60 0.0007019123    1.646    0.393
        87  -8.7512      2.4691     44.4938   9.5824763835e+01   6.9684914584e+01    0.2859381    0.1297264   0.84   0.00125582    2.777    0.640
        88  -8.7920     10.6725     47.0168   9.1350613715e+01   6.8559542596e+01    0.3498442    0.2401319 -65.71 0.0006838838    1.269    0.212
        89  -8.9101     13.6800     45.3077   8.9021920083e+01   6.8759054960e+01    0.3068676    0.2075949  67.56 0.0009822693    1.906    0.475
        90  -7.2601    157.3504     46.2843   3.7811262835e+01   3.9854609256e+01    0.1469521    0.1088439  28.04 0.0003296961    1.656    0.396
        91  -9.0529     54.7760     44.1149   6.5978143003e+01   6.3730510852e+01    0.3671277    0.2490579 -26.72  0.001737608    1.671    0.402
        92  -8.0593     91.6832     43.6439   5.1579697891e+01   5.6246393813e+01    0.2394355    0.1753763  16.03  0.001094197    1.776    0.437
        93  -8.2216     94.9986     41.7375   4.9749821268e+01   5.5803197309e+01    0.7018731    0.1311036  52.03   0.00181828    4.921    0.797
        94  -8.3357     33.4622     42.5035   7.6253891902e+01   6.7356650532e+01    0.3709266    0.1457375  25.17  0.001364671    3.212    0.689
        95  -7.6879    114.0082     41.4997   4.4562921975e+01   5.1268358045e+01     0.215199    0.1142891  36.71 0.0006846136    2.425    0.588
        96 -10.2529     83.0121     39.7601   5.2682296684e+01   5.8881561643e+01    0.2714644    0.2672631   2.78 0.0003008606    1.027    0.027
        97  -7.9709     87.9579     37.5123   5.0041063056e+01   5.8138888001e+01    0.2219049    0.1457413  54.43  0.001023401    1.564    0.361
        98  -8.3200    123.9863     39.2137   4.1409799015e+01   4.9131475516e+01    0.2420423    0.2146109  -8.07 0.0002292988    1.202    0.168
        99  -8.4613      4.0240     39.5212   9.3573004723e+01   7.0836124375e+01    0.2209712    0.1487323 -66.50  0.001227731    1.277    0.217
       100  -9.2740     67.1681     36.7072   5.7123753509e+01   6.2820208231e+01    0.4310703    0.2807936 -38.80  0.001932594    1.477    0.323
       101  -8.5645     71.7738     34.8570   5.4413200443e+01   6.2186584556e+01    0.3137272    0.2072978  41.17  0.001491196    1.568    0.362
       102  -8.1785     35.6871     37.6759   7.2905296779e+01   6.8131282732e+01    0.2288277    0.1569436 -37.02  0.000558833    1.398    0.285
       103  -8.8650     38.7400     35.0048   6.9930739620e+01   6.8257903449e+01    0.5005804    0.2025372  28.62  0.001841212    3.187    0.686
       104  -8.4354    105.4923     36.7233   4.4697613434e+01   5.4085063997e+01     0.314987    0.2217118  24.53 0.0006910047    1.774    0.436
       105  -7.6824     92.4820     36.5063   4.8196495703e+01   5.7247426871e+01     0.255536    0.1432661  53.27 0.0007648748    1.793    0.442
       106  -9.0801     96.2582     33.0243   4.5536470552e+01   5.6884798750e+01    0.3279396    0.2529505   7.90 0.0003519803    1.556    0.358
       107  -9.5618    206.5182    249.0151   7.2528118345e+01   1.7378986180e+00    0.1823702    0.1154553  32.10   0.00122463    1.565    0.361
       108  -9.3488     19.2715     35.4794   8.2031882856e+01   7.0612632241e+01    0.3349727     0.266873  56.04  0.001495602    1.556    0.357
       109  -8.9155     22.0271     31.9428   7.8705481901e+01   7.1125587090e+01    0.3476889    0.2226597  20.18 0.0003409876    1.741    0.425
       110  -8.9766     55.7706     34.8238   6.1137170644e+01   6.5405266759e+01    0.2775441    0.1864608 -48.94 0.0007009088    1.522    0.343
       111  -7.9267     10.5226     32.5377   8.6862882243e+01   7.2084569736e+01    0.2098761    0.1223242  -3.23 0.0007676654    2.127    0.530
       112  -8.4904      3.3791     24.8152   8.9321625742e+01   7.4400447655e+01    0.2247362     0.143999 -41.46 0.0003910555    1.377    0.274
       113  -9.4574      4.7414     33.6745   9.1370694354e+01   7.2217843433e+01    0.3945847    0.3141862  63.92  0.001437811    1.512    0.339
       114  -8.6112      1.0000     28.9599   9.2633098759e+01   7.3562316520e+01    0.3332871   0.09823356 -60.49  0.001028261    2.452    0.592
       115  -8.5244    250.0000    247.0161   6.5761451015e+01  -2.4013607566e+00    0.1390951    0.0440783 -29.95 0.0001478521    2.979    0.664
       116  -8.8058     70.9696     30.0202   5.2302019873e+01   6.3176054154e+01    0.2722629    0.1956136  27.76 0.0008708719    1.576    0.365
       117  -9.9390     70.8096     25.4091   4.9955201465e+01   6.3943264539e+01    0.5089625    0.3434643  42.39  0.001624674    1.502    0.334
       118  -8.6527     42.3603     27.7102   6.4165880668e+01   6.9144974894e+01    0.2480468    0.2018319   0.77 0.0005674687    1.331    0.249
       119  -7.2100    157.2469     27.6970   3.1583435682e+01   4.2242275807e+01    0.1440224   0.09580842 -52.97 0.0001662066    1.496    0.331
       120  -9.0607     62.3426     25.8766   5.3538314758e+01   6.5687656123e+01    0.4757428    0.2702328 -14.45  0.001340674    2.606    0.616
       121  -9.4635    128.9254     22.1251   3.3728695660e+01   5.0082695104e+01     0.240885    0.2190984  49.33  0.001356707    1.135    0.119
       122  -8.2732    227.1365    245.1493   6.8836894553e+01  -8.0474478529e-03    0.1244085   0.09732966  11.36 0.0005312452    1.347    0.258
       123  -7.0332    136.6537     22.7200   3.2720092779e+01   4.8029016955e+01    0.1480152    0.1038155  36.23 0.0003538634    1.638    0.389
       124  -7.4684    166.9934     21.0071   2.8177394703e+01   4.0566658951e+01    0.1674917    0.1489752 -42.46 0.0004128612    1.044    0.042
       125  -9.1461     92.1103     20.6176   4.0797704890e+01   5.9610102480e+01    0.2922899    0.2354242  34.57  0.000620431    1.284    0.221
       126  -9.0364    185.4442    237.2272   7.4469264303e+01   5.3278632597e+00    0.1710865   0.09308727 -30.40   0.00106754    1.970    0.492
       127  -7.7613     75.5254    237.9586   9.5252176464e+01   1.8025082737e+01    0.1334415    0.1075563 -76.59 0.0004091088    1.521    0.343
       128  -9.5495    188.1720    233.6066   7.3529232037e+01   5.4337015916e+00    0.1749244    0.1730726  73.99 0.0009402342    1.803    0.445
       129  -8.6790     74.9143    224.2751   9.4310493429e+01   2.0350248875e+01    0.1643358    0.1563161  71.21 0.0002468072    1.208    0.172
       130  -7.2750    146.5310     19.4183   3.0080548862e+01   4.5863659767e+01    0.1361747     0.134117 -88.57 6.705473e-05    1.061    0.057
       131  -7.4598    101.4726     19.5121   3.7967211979e+01   5.7411308806e+01    0.1407231    0.1389021  30.89 8.924517e-05    1.007    0.007
       132  -7.8550    127.5869     16.6614   3.1750591601e+01   5.1026717340e+01    0.1870778    0.1279888 -35.72 0.0006257285    1.414    0.293
       133  -8.8145    147.0035    220.1564   7.9218033973e+01   1.2199387441e+01    0.1657254    0.1445295   8.23 0.0002580352    1.113    0.101
       134  -8.1137     10.9964    206.4943   1.0703346593e+02   2.9950974558e+01    0.1377274   0.09131227 -12.11 0.0008098581    2.485    0.598
       135  -7.8836    146.9874     13.9975   2.8049869202e+01   4.6300892403e+01    0.1777236    0.1406757  77.94 0.0009605187    1.263    0.208
       136  -8.0710     88.6307     12.7922   3.7728796029e+01   6.1396225641e+01    0.2712209    0.1611338  40.27 0.0008344076    1.764    0.433
       137  -8.4214     10.7371    189.5003   1.0644534396e+02   3.3387131260e+01    0.1728372    0.1491671  48.82 0.0003440618    1.143    0.125
       138  -7.1300     95.5351    178.5373   8.4782295346e+01   2.6297361718e+01    0.1280363    0.1165654  38.49  0.000135966    1.010    0.009
       139  -9.3577    157.2935    167.9836   6.9122480531e+01   1.8955568665e+01    0.2207799    0.1877651  18.56 0.0002427791    1.075    0.070
       140  -7.7047    145.3609    150.6735   6.8384417087e+01   2.3985101018e+01    0.1350924    0.1095542  77.49 0.0007041915    1.788    0.441
       141  -7.6639    133.5363    147.5041   7.0444750619e+01   2.6608319829e+01    0.1374066    0.1290474   4.27 3.813444e-05    1.021    0.021
       142  -9.2144     67.4896    144.1488   8.7290503902e+01   3.7698035832e+01    0.5972347    0.2765231  52.53  0.002410233    2.461    0.594
       143  -8.4132    241.3735    138.8467   4.8946213180e+01   1.0253198114e+01    0.1707328    0.1529515  12.65 0.0006301649    1.297    0.229
       144  -7.2629    139.6782    138.6477   6.7192623188e+01   2.7260996517e+01    0.1474713    0.1073152  -5.94 0.0007047652    1.752    0.429
       145  -7.5808    108.5560    136.4724   7.4443964919e+01   3.3170480019e+01     0.138704    0.1374261  23.49 0.0001513003    1.005    0.005
       146  -7.7542    246.6678    135.3449   4.7537856518e+01   9.9317869635e+00    0.1121823   0.08287773 -46.54  0.000705017    1.760    0.432
       147  -8.7306    107.7137     10.5766   3.2509003320e+01   5.6786853285e+01    0.2769173    0.1251818  63.33  0.001134512    2.062    0.515
       148  -7.6732      4.5045    133.4821   1.0536706813e+02   4.6667030650e+01    0.1276567    0.1085627  81.52 0.0008102486    1.027    0.027
       149  -8.5334     67.6418    127.4523   8.4526862489e+01   4.1702116653e+01    0.2783294    0.1665964  81.48  0.001142242    2.405    0.584
       150  -7.4735    132.4684    124.5168   6.5749257314e+01   3.1389382485e+01    0.1443514    0.1365716  -9.49 0.0008092704    1.040    0.039
       151  -7.5277    167.5116    121.4374   5.7291623874e+01   2.5284034603e+01    0.1390801    0.1284308 -14.59 7.760812e-05    1.017    0.017
       152  -7.5926     85.4589    121.4862   7.7883803661e+01   4.0441966925e+01    0.1434464    0.1393475 -45.53 0.0008082465    1.065    0.061
       153  -8.0500     12.0259    121.2355   1.0204258677e+02   4.9230151273e+01    0.1614631    0.1102041  21.91 0.0008831968    1.635    0.388
       154  -7.4058    193.4998    112.4877   5.0394208521e+01   2.1847775002e+01    0.1372857    0.1188232 -15.07 0.0002363859    1.042    0.040
       155  -7.8343     28.6902    112.6771   9.5292156873e+01   5.0064393903e+01    0.1409892   0.09564843 -43.03 0.0003768193    1.650    0.394
       156  -7.8149    144.1676    109.1529   5.9224307274e+01   3.2137122356e+01    0.3145778    0.1721286 -22.11  0.001157037    2.757    0.637
