#   1 NUMBER                 Running object number                                     
#   2 MAG_AUTO               Kron-like elliptical aperture magnitude                    [mag]
#   3 X_IMAGE                Object position along x                                    [pixel]
#   4 Y_IMAGE                Object position along y                                    [pixel]
#   5 X_WORLD                Barycenter position along world x axis                     [deg]
#   6 Y_WORLD                Barycenter position along world y axis                     [deg]
#   7 A_WORLD                Profile RMS along major axis (world units)                 [deg]
#   8 B_WORLD                Profile RMS along minor axis (world units)                 [deg]
#   9 THETA_WORLD            Position angle (CCW/world-x)                               [deg]
#  10 FWHM_WORLD             FWHM assuming a gaussian core                              [deg]
#  11 ELONGATION             A_IMAGE/B_IMAGE                                           
#  12 ELLIPTICITY            1 - B_IMAGE/A_IMAGE                                       
         1 -10.9606      9.5552     15.9549   1.0909009232e+02   6.8599175300e+01    0.2462209    0.1445972 -19.82  0.000784689    1.536    0.349
         2 -12.2574      7.4796     29.2936   1.1429201756e+02   6.6557663318e+01    0.7768823    0.3768881 -52.98  0.003595162    1.672    0.402
         3 -12.1080      4.3154     18.6305   1.1220813746e+02   6.8507631496e+01     0.715847    0.1982035 -43.35  0.003703214    2.414    0.586
         4 -11.5478     61.5395     24.3487   9.2067417669e+01   6.2012731154e+01    0.4244404    0.3097372 -56.45  0.002459021    2.240    0.554
         5 -11.5394     19.3653     16.4864   1.0518326829e+02   6.7790710268e+01    0.3869475    0.3012182 -28.94  0.002256106    1.136    0.120
         6 -12.0333    128.9944     23.2783   7.2294241031e+01   4.9676602575e+01    0.3580372    0.2640916 -25.60 0.0005276796    1.425    0.298
         7 -10.3290     35.1033     15.5112   9.8424019655e+01   6.6477822904e+01    0.3007276    0.1657945 -14.01 0.0006826325    1.946    0.486
         8 -10.7034     75.6962     16.5437   8.4246393117e+01   6.0906237060e+01     0.535799    0.2707447 -10.70  0.002157757    2.608    0.617
         9 -11.1336     75.0646      4.6745   7.9569981262e+01   6.2356671596e+01    0.4243029    0.2271065 -25.13  0.001593413    1.800    0.444
        10 -10.9167     78.0210     10.0844   8.0894888742e+01   6.1276673578e+01     0.377178    0.1589953  47.50   0.00131781    2.381    0.580
        11 -11.9310     81.2378      6.2018   7.8316954480e+01   6.1141076088e+01    0.2573765     0.198108  -1.72 0.0002397779    1.159    0.137
        12 -10.7580     56.2595     14.6315   9.0066610427e+01   6.4054283873e+01    0.3316615    0.2042637 -45.25  0.001898905    2.142    0.533
        13 -10.8541    131.6526     14.6772   6.8731634640e+01   5.0023453168e+01    0.2347092    0.1344717  -6.94  0.001084813    2.156    0.536
        14 -10.5486     70.5464     14.3684   8.5040400910e+01   6.1995094609e+01    0.2332681    0.1671239 -16.58  0.001265017    1.249    0.200
        15 -10.8959    115.6728     12.4123   7.1526219145e+01   5.3792245999e+01    0.4780874    0.2504175  53.79   0.00226543    1.758    0.431
        16 -10.6314    115.1662      4.5673   6.8758577900e+01   5.4663257788e+01    0.2807396    0.2198903 -14.99 0.0008747414    1.342    0.255
        17 -10.6267     99.7149     13.1988   7.5858312361e+01   5.6976797451e+01    0.2514471    0.2197818 -33.11  0.001165408    1.357    0.263
        18 -11.7640     62.2494     11.8765   8.6816379695e+01   6.3555264826e+01    0.3538162    0.2790417  58.58 0.0004852487    2.072    0.517
        19  -9.7189     30.4714     13.1758   9.9346279722e+01   6.7279514530e+01    0.2020166   0.08441532 -35.70  0.001106177    1.959    0.489
        20 -10.8860     26.2166     13.7469   1.0130845469e+02   6.7604014670e+01    0.1932482    0.1340603 -14.79 0.0004465436    1.187    0.157
        21 -10.3206    178.1918      8.8713   5.8651160632e+01   3.9294767877e+01    0.2209377    0.1421027  40.68  0.000388147    1.628    0.386
        22 -10.2113      3.8170     12.0729   1.1015934246e+02   6.9568448045e+01    0.1823772    0.1129245 -23.45  0.001342171    1.317    0.240
        23  -9.8393    108.1723     10.8086   7.2757791278e+01   5.5530045226e+01    0.1774041    0.1714866  47.69 0.0005703506    1.244    0.196
        24 -10.1168    154.9599      9.9521   6.2668462172e+01   4.4971014474e+01    0.2143896    0.1960432  -9.00 0.0004320189    1.206    0.171
        25 -13.3754     29.6962      2.8519   9.5331327174e+01   6.8746126989e+01    0.6409486    0.3144722  10.72  0.001753958    2.595    0.615
        26 -12.0650     18.1597      4.4657   1.0093984264e+02   6.9626043782e+01    0.4177246    0.2450493  -1.33  0.002809857    1.713    0.416
        27  -9.8851    116.5304      8.4497   6.9873581875e+01   5.4004617435e+01    0.1955924    0.1660905  55.45 0.0005747835    1.219    0.180
        28 -12.2151     11.4294      2.6042   1.0313022066e+02   7.0429481862e+01    0.5715461    0.3148608 -14.82  0.003773166    1.694    0.410
        29  -9.8497      2.7456      8.0857   1.0917250676e+02   7.0239594660e+01    0.1404512   0.09727833 -29.31 0.0002867745    1.010    0.010
        30  -9.5996     89.9913      7.2502   7.6198363738e+01   5.9454918808e+01    0.3311575    0.1017987  52.94  0.001035841    3.318    0.699
        31  -9.6556     59.7557      5.6759   8.5057253855e+01   6.4649106764e+01    0.2406549    0.1355695  44.11  0.001393984    1.963    0.491
        32 -10.4612    132.7254      4.9997   6.5167936763e+01   5.0718413757e+01    0.1802718    0.1597576  26.61 0.0003734337    1.083    0.077
        33 -10.3080     66.3999    226.5139   1.3062698404e+02   2.1136521635e+01    0.2452007    0.1266701  49.97  0.000847348    1.628    0.386
        34 -10.4808    247.0235    249.9786   1.0226546114e+02  -1.1640426522e+01    0.2756796    0.1421189  29.44   0.00138253    1.624    0.384
        35 -11.0579    250.3620    244.4775   1.0084191525e+02  -1.1580814354e+01     0.516314    0.1840705 -27.10  0.002418433    3.465    0.711
        36 -12.4286    231.9408    247.1168   1.0434163398e+02  -8.9710049390e+00    0.5297956    0.3514617  25.15  0.003446976    1.282    0.220
        37 -12.1518    225.9606    245.8780   1.0516471921e+02  -7.8649290980e+00    0.6355448    0.3551925  15.44  0.003327716    2.369    0.578
        38  -9.3399     46.3109    250.3497   1.3558882962e+02   1.9601579512e+01   0.08462228   0.07662652 -75.91 0.0007045225    1.717    0.417
        39 -12.6908     20.8092    248.8415   1.3919147006e+02   2.2756756735e+01     0.646986     0.240099  45.32  0.004098195    2.282    0.562
        40 -11.2823     14.2222    244.5382   1.3989852496e+02   2.4156819402e+01    0.3161148    0.1271692 -76.67  0.002077113    2.142    0.533
        41 -12.4955     15.2930    238.4232   1.3942991962e+02   2.5069075809e+01    0.7291313    0.2057059  44.85  0.004098895    2.804    0.643
        42 -12.3208      6.8807    244.0784   1.4090179001e+02   2.4974224986e+01    0.5573218    0.3134122  84.59   0.00440829    1.296    0.229
        43 -10.7560    116.1330    225.9591   1.2189898635e+02   1.3841117261e+01    0.1996874    0.1226793  81.02 0.0008751777    1.986    0.496
        44 -10.1494     10.5516    226.5132   1.3948538206e+02   2.7593518723e+01    0.1023213   0.06730247  77.05 8.604441e-05    1.038    0.037
        45 -10.2229    180.8681    224.6845   1.0989183835e+02   2.7317705712e+00     0.212518    0.1486863 -58.37  0.001111195    1.895    0.472
        46  -9.7540     81.1768    224.0576   1.2787927329e+02   1.9536306782e+01    0.2007633     0.109237  79.57  0.001093659    2.047    0.511
        47 -10.9519    141.4034    221.2778   1.1668946898e+02   1.0358275923e+01     0.279718    0.1987186  25.88  0.001564046    1.865    0.464
        48 -10.8708    123.1366    221.4656   1.2008375757e+02   1.3462111889e+01    0.3116265    0.2030618  57.90   0.00142279    1.316    0.240
        49 -10.2255     21.9920    220.6431   1.3739664456e+02   2.7473147175e+01     0.144656    0.1002466  70.57 0.0005274205    1.099    0.090
        50  -9.9526    174.0363    219.7518   1.1040060003e+02   4.7279307515e+00    0.1915007    0.1454596  45.13 0.0005981099    1.097    0.088
        51  -9.6423    250.4736    219.1068   9.6553515572e+01  -8.7539114851e+00    0.1614936    0.1121575 -21.52 0.0006693194    1.497    0.332
        52 -10.0179    191.5432    217.2492   1.0675721673e+02   1.8860370270e+00    0.2082892    0.1288417 -47.03  0.000807476    1.977    0.494
        53 -11.0461     10.0069    216.9921   1.3903514042e+02   2.9332922772e+01    0.2416037    0.1328625  69.06 0.0007233027    1.395    0.283
        54  -9.4460     37.5543    217.4900   1.3469019523e+02   2.6346515961e+01    0.1077716   0.07947153  79.18 9.067553e-05    1.035    0.034
        55 -11.5530    235.1845    215.1670   9.8505572988e+01  -5.6860289076e+00     0.342605    0.2101528 -17.28  0.001871108    1.904    0.475
        56  -9.7478    201.5481    215.5465   1.0463072916e+02   2.9310623996e-01    0.1311123     0.108082  31.38 0.0004599479    1.059    0.056
        57  -9.7693    194.5461    215.4797   1.0591213266e+02   1.5945165210e+00    0.1306698    0.1100044  37.70 3.802445e-06    1.004    0.004
        58 -10.0123     13.1042    221.7654   1.3883559347e+02   2.8177498411e+01    0.1660357    0.1059417 -89.68 0.0005593007    1.198    0.165
        59  -9.7094    170.4682    213.4732   1.1009901586e+02   6.3817579019e+00     0.131947    0.1115362  47.68 0.0007596336    1.010    0.010
        60  -9.4548    142.8437    213.4005   1.1532706445e+02   1.1447198898e+01    0.1791694    0.1090544  37.88 0.0007182686    1.638    0.389
        61 -10.9990     20.6964    211.7258   1.3702734596e+02   2.9229091780e+01    0.2800203    0.1277474  74.22 0.0009541553    1.999    0.500
        62 -10.2175    208.9762    212.0880   1.0267915598e+02  -5.7460864155e-01    0.1986725    0.1649683  30.89 0.0004680767    1.026    0.026
        63 -11.8978      4.8675    207.4756   1.3928437439e+02   3.1541887193e+01    0.4113203    0.2054569  83.54  0.002782248    1.583    0.368
        64  -9.4536    184.4668    208.5282   1.0664965234e+02   4.5465528746e+00    0.1337806    0.1136911  37.12 9.607842e-05    1.051    0.049
        65 -10.1513     31.0143    215.5405   1.3561736661e+02   2.7435209841e+01     0.206048    0.1135197  82.51  0.001127462    1.518    0.341
        66  -9.3796    218.6614    206.6516   9.9952165275e+01  -1.5803743344e+00    0.1383922   0.09164349  14.29 0.0007046472    1.787    0.441
        67 -10.0365    175.1614    202.7763   1.0747071615e+02   7.2520013350e+00    0.2030589    0.1678032  60.77 0.0006786474    1.223    0.182
        68 -10.6472     18.9470    202.2836   1.3667597322e+02   3.1165641375e+01    0.2946882    0.1738273 -76.91  0.001275534    1.414    0.293
        69  -9.6212    223.5859    201.7963   9.8174817964e+01  -1.7963529121e+00    0.1613605    0.1238784 -46.80  0.000494416    1.639    0.390
        70  -9.5171     34.6716    200.9912   1.3390730540e+02   2.9768109044e+01    0.1491608    0.1088668  86.50 0.0003768447    1.056    0.053
        71  -9.8340    227.0383    196.7490   9.6609545897e+01  -1.7123225849e+00    0.1923245    0.1515613  28.02  0.000646851    1.114    0.102
        72 -10.6279    215.4635    194.5019   9.8317460794e+01   8.0217373954e-01    0.2135145    0.1264214 -22.91 0.0006642107    2.095    0.523
        73  -9.6493    203.1415    195.8506   1.0088392680e+02   2.9670975717e+00       0.1857    0.1482154  19.25 0.0005883964    1.280    0.219
        74  -9.3938    246.3263    190.3210   9.1937699008e+01  -4.3329074154e+00     0.137127   0.09025924  11.99 0.0007047433    1.684    0.406
        75  -9.2651    205.5260    190.4755   9.9432438567e+01   3.3513901625e+00    0.1377329    0.1210172  30.20 8.320086e-05    1.013    0.013
        76  -9.2565      1.6739    188.2775   1.3863196627e+02   3.5415627892e+01    0.1060063   0.05604954  70.56 0.0002852406    1.590    0.371
        77  -9.4379     61.6338    184.8082   1.2740332251e+02   2.9767576039e+01    0.1722146   0.09682882 -81.24 0.0009484628    1.710    0.415
        78 -11.4517     16.0351    182.7538   1.3575194000e+02   3.5213299973e+01    0.3754618    0.1769967  88.36  0.002190124    1.914    0.478
        79  -9.9883    166.9981    183.4900   1.0572996391e+02   1.2219201282e+01    0.2212541    0.1268553  46.09 0.0007850545    1.574    0.365
        80  -9.5385      8.0390    184.0000   1.3725450588e+02   3.5691188168e+01    0.1402194   0.05588868  34.90 0.0006766893    2.892    0.654
        81  -9.4792    236.4651    182.5366   9.2154960066e+01  -1.4078734309e+00    0.1343894    0.1179203  16.53 0.0001631746    1.007    0.007
        82  -9.5956     23.5305    180.4977   1.3421211421e+02   3.4946328664e+01    0.1116541   0.08223902  86.20 4.942001e-05    1.020    0.020
        83  -9.9455      2.0116    180.2926   1.3804640141e+02   3.6924533721e+01    0.1427456     0.104687  78.82 0.0005800931    1.105    0.095
        84 -10.7560    244.5466    178.1780   8.9844864764e+01  -2.2861852520e+00    0.2607115     0.157189 -16.42  0.001265116    1.918    0.479
        85 -10.9327    224.3835    178.3494   9.3521517030e+01   1.5533730510e+00    0.2805285    0.2263262  46.17 0.0004619558    1.244    0.196
        86  -9.6080     70.1387    177.7548   1.2488599954e+02   3.0096023582e+01    0.1459566    0.1395993 -76.27 0.0005469078    1.325    0.245
        87  -9.3272     36.0608    178.5034   1.3168822300e+02   3.4065997078e+01    0.1448924    0.1017889  50.05 0.0004677862    1.460    0.315
        88 -10.3008    200.2029    176.7921   9.7816101580e+01   6.6647366598e+00    0.1939193    0.1584352  13.96 0.0005185283    1.323    0.244
        89  -9.7357     74.7281    171.2691   1.2310888782e+02   3.0823441975e+01    0.1544182    0.1411538 -58.26 0.0007269704    1.328    0.247
        90 -10.8413     12.8645    170.1382   1.3532799585e+02   3.8009278923e+01    0.3142418    0.1172863 -87.61  0.001490832    2.836    0.647
        91  -9.8566    196.6823    169.3103   9.7005379416e+01   8.6811555101e+00    0.1401304    0.1142331  84.91 0.0004317902    1.640    0.390
        92  -9.8569      4.6779    168.5449   1.3672111807e+02   3.9016347844e+01    0.1941389   0.07486138 -76.09  0.001082264    1.993    0.498
        93  -9.6992    209.8656    166.1909   9.3778861570e+01   6.4687670950e+00    0.2003689    0.1600064  18.05 0.0004697564    1.322    0.244
        94  -9.6732     67.1630    165.1617   1.2389698694e+02   3.3145573506e+01    0.1777879    0.1275658  77.47 0.0006959976    1.335    0.251
        95 -10.8266     51.4174    164.7448   1.2715946656e+02   3.5198675353e+01    0.2561378     0.168655 -43.10  0.001473415    2.086    0.521
        96 -10.2593    246.5214    162.5079   8.6262215551e+01  -3.3216519684e-01    0.1352485    0.1236125   4.53 0.0008098994    1.041    0.040
        97 -11.3489     37.0218    158.7776   1.2946682356e+02   3.8051241136e+01     0.361391    0.1529689 -66.69            0    1.940    0.485
        98  -9.4236    115.5180    159.4398   1.1239263402e+02   2.6876634220e+01    0.1385984     0.125863  78.46 0.0008072871    1.011    0.010
        99 -11.3412     44.2713    162.9498   1.2843343882e+02   3.6393893698e+01    0.3184904    0.2065463  75.88  0.001957436    1.488    0.328
       100  -9.4443    200.2296    162.6390   9.4920087237e+01   9.1067542496e+00    0.2003547     0.127243  39.04 0.0004919314    1.517    0.341
       101 -11.1810     22.6628    155.6111   1.3209036544e+02   4.0110278018e+01     0.344937    0.2563893 -79.52  0.002487891    1.067    0.063
       102  -9.2488    147.5265    156.5154   1.0471706598e+02   2.1377627744e+01     0.145958    0.1356495  69.08 9.192627e-05    1.031    0.030
       103  -9.4567    216.9410    155.0000   9.0036420265e+01   6.8830726961e+00    0.2433792   0.07906743  47.91 0.0008069674    2.974    0.664
       104  -9.3395    151.6722    153.3196   1.0315629761e+02   2.1179935905e+01    0.1512892     0.113901  83.20  0.000577186    1.684    0.406
       105  -9.8970    205.3920    151.8174   9.1573573972e+01   9.9131167842e+00    0.2076981    0.1391611 -25.24   0.00083194    1.701    0.412
       106 -10.4505    178.1862    151.4821   9.7044232613e+01   1.5905544451e+01     0.309807    0.2532261  74.69  0.001306615    1.429    0.300
       107  -9.0917    233.7066    146.6574   8.5098769306e+01   4.7454960862e+00    0.1473798     0.107009   7.15  0.000344791    1.658    0.397
       108 -10.4051    207.0002    146.0079   8.9968420618e+01   1.0594437016e+01    0.2292253    0.2135735  24.59 0.0006996067    1.033    0.032
       109  -9.7324     22.6908    144.3163   1.3089500137e+02   4.2474268486e+01    0.1162632   0.07143979  76.74 0.0002674574    1.634    0.388
       110 -10.4742      2.9662    143.8158   1.3498980947e+02   4.4149726210e+01    0.2039578   0.09971284 -63.22  0.001269669    1.659    0.397
       111 -10.6717     11.1386    146.6854   1.3357687302e+02   4.2942080029e+01    0.2903776   0.05765767  39.52  0.001270157    4.340    0.770
       112 -10.1524    236.5418    138.9395   8.2866857076e+01   5.4169458573e+00    0.2155441    0.1855167  39.37 0.0005409711    1.161    0.139
       113 -10.3747     55.2180    136.1991   1.2246811327e+02   4.0910490290e+01    0.3172868    0.1690185  69.29    0.0014503    2.706    0.630
       114 -11.1630      3.2400    136.8077   1.3427415398e+02   4.5570745955e+01    0.4006162    0.1367051 -60.33  0.001480209    2.269    0.559
       115 -10.9823     22.0385    136.0517   1.3009864442e+02   4.4277225196e+01    0.2560078    0.1808998  74.02  0.001166284    1.408    0.290
       116 -11.7612      9.6858    136.3560   1.3284792569e+02   4.5198588258e+01    0.2635316    0.1929949 -38.78 0.0007362771    1.795    0.443
       117  -9.7254    137.8633    135.3900   1.0248168435e+02   2.7733991432e+01     0.214989    0.1378741  34.96 0.0009506361    1.745    0.427
       118  -9.1620    250.3353    134.2946   7.9456921546e+01   3.2990662082e+00    0.1436919    0.1041019  12.60 0.0007027607    1.644    0.392
       119 -10.4434    106.8807    133.2080   1.0942336211e+02   3.4067782045e+01    0.2425178    0.2214556 -69.03 0.0009918964    1.040    0.038
       120 -11.2395     37.1021    130.7817   1.2596264022e+02   4.4031945953e+01    0.3165021    0.2351777 -47.14  0.001451162    1.461    0.315
       121 -10.3883     34.7218    128.2960   1.2618008694e+02   4.4797317989e+01    0.1814799    0.1531541 -77.61 0.0002241543    1.055    0.052
       122 -10.5376     74.0871    129.3209   1.1674782601e+02   4.0029043758e+01    0.2333623    0.1992556 -83.55 0.0009773766    1.110    0.099
       123  -9.3928    249.3086    129.6903   7.8589307405e+01   4.2431833205e+00    0.1369553     0.110094 -67.09 0.0007023629    1.619    0.382
       124  -9.5196    243.0456    128.4923   7.9365352177e+01   5.7500878874e+00    0.2022927    0.1397841  49.42 0.0004630029    1.496    0.332
       125 -10.8217      1.8274    125.6212   1.3345323372e+02   4.7975938891e+01    0.2842865    0.1170231 -68.65  0.000968452    1.760    0.432
       126 -10.1688    226.2269    124.3874   8.1349464040e+01   1.0105165220e+01      0.20266     0.141641  62.06 0.0009024223    1.635    0.389
       127  -9.6159    219.5405    124.5173   8.2600459533e+01   1.1588768146e+01    0.1472401    0.1423024   3.69 0.0005352317    1.008    0.008
       128 -11.7840     17.8409    115.8145   1.2853948369e+02   4.8903130114e+01    0.4946581    0.2161912 -50.77  0.002680421    2.083    0.520
       129 -10.7821     20.0617    121.7550   1.2878897189e+02   4.7472594525e+01    0.1868298    0.1491784 -25.67  0.001322943    1.685    0.406
       130 -11.1855     10.6590    122.4358   1.3108623104e+02   4.8037009886e+01    0.2516519    0.2141863 -82.19  0.001631772    1.134    0.118
       131 -10.2621     86.1690    116.7929   1.1123206380e+02   4.1042705085e+01    0.1827787    0.1506791 -37.67 0.0006044845    1.294    0.227
       132  -9.0066    179.3276    116.6922   8.8695311744e+01   2.2378699772e+01    0.1568647    0.1232155 -84.59 0.0004483472    1.656    0.396
       133  -9.6681    166.2415    115.9781   9.1373630494e+01   2.5554413439e+01    0.2032955    0.1305098 -42.02 0.0003278307    1.584    0.369
       134  -9.6671     72.2422    115.7471   1.1464807804e+02   4.3265430967e+01     0.190249    0.1150332  19.43 0.0008951675    2.461    0.594
       135 -11.9474     35.2840    110.2847   1.2331722315e+02   4.8623805494e+01     0.532058      0.32212 -75.39  0.002275351    1.558    0.358
       136 -10.7506    248.8684    112.1447   7.4630467370e+01   7.1540990722e+00    0.2154317    0.1918815 -57.76 0.0005503537    1.210    0.173
       137  -9.0863    212.5341    112.4944   8.0996779525e+01   1.5319788731e+01    0.1495681    0.1458155   7.88  0.000618231    1.023    0.022
       138 -10.1750     44.3025    109.2919   1.2078643402e+02   4.7965980213e+01    0.2391391    0.1746382 -23.73 0.0004386271    1.799    0.444
       139 -12.0742     15.9199    109.1061   1.2809522808e+02   5.0460300814e+01    0.3806278     0.271282  13.61  0.001826253    1.944    0.486
       140 -11.6455     23.7527    107.5242   1.2586631923e+02   5.0199911518e+01    0.3886657    0.2521106  76.88  0.001995042    1.864    0.464
       141 -10.2448     55.8648    109.6483   1.1778453291e+02   4.6638704484e+01    0.2199518     0.124711  20.15  0.001090603    2.523    0.604
       142 -11.5555      5.9590    107.7669   1.3040297585e+02   5.1414463466e+01     0.383474    0.2476642  -9.71  0.002501987    2.399    0.583
       143 -10.1043      2.9372    105.2772   1.3083377459e+02   5.2115774017e+01    0.1662125      0.11436 -55.99 0.0004472096    1.261    0.207
       144  -9.0027    133.2999    107.6838   9.7026343245e+01   3.4486993498e+01    0.1499061    0.1185169 -86.17 0.0004349428    1.614    0.381
       145 -11.1288    243.7691    104.4376   7.3633976359e+01   9.5164336896e+00    0.2304962     0.169723 -26.90 0.0008055903    1.360    0.264
       146 -10.2634    223.3772    104.0355   7.6947949346e+01   1.4244556980e+01    0.2628732    0.2213303  67.90 0.0005371849    1.280    0.219
       147 -10.7915     69.7843    102.5956   1.1257505559e+02   4.6449149251e+01    0.2118465    0.1599046  46.62 0.0005966385    1.495    0.331
       148 -10.9118    247.6843    102.1458   7.2475709259e+01   9.0198588700e+00    0.2425415    0.2012637  74.77 0.0009142426    1.381    0.276
       149 -10.3130    119.8291    101.4347   9.8831164866e+01   3.8495551799e+01    0.2704601    0.1903028  -8.59  0.001173618    2.185    0.542
       150 -10.1587     35.8145    101.5025   1.2167813207e+02   5.0452444432e+01    0.2289221    0.1660692  42.42  0.001483572    1.641    0.390
       151 -10.2979     27.6210    101.0857   1.2381840079e+02   5.1250464885e+01    0.2121857    0.1332964 -40.77 0.0009874373    1.653    0.395
       152  -9.9218      9.5004    102.4912   1.2880045607e+02   5.2284102112e+01    0.1579395    0.1042211  -9.16   0.00102115    2.257    0.557
       153 -11.1623      3.4968    100.3165   1.3004163845e+02   5.3105809360e+01    0.2564519    0.1951975 -86.00 0.0009402827    1.236    0.191
       154 -10.2483     84.9439     99.4463   1.0767764009e+02   4.4975866111e+01    0.2693357     0.166918 -39.12  0.001325739    1.645    0.392
       155  -9.5175     49.9918     99.7712   1.1745962599e+02   4.9417921429e+01    0.2340656   0.09888419 -36.14 0.0008918801    3.659    0.727
       156 -11.7491     20.2848     97.7013   1.2523570909e+02   5.2535617272e+01    0.2984197    0.2325668 -83.76 0.0008932936    1.266    0.210
       157 -10.7443     63.6673     98.8496   1.1345726590e+02   4.8034480334e+01    0.3873483    0.1988157  27.01  0.001847434    2.476    0.596
       158 -10.6259      1.8874     92.9759   1.2944526268e+02   5.4704080065e+01    0.3600797    0.1000741 -62.54   0.00175838    2.350    0.574
       159  -9.6383     66.9184     93.4521   1.1133026868e+02   4.8769842529e+01    0.1678831    0.1295271  30.87 0.0005175708    1.482    0.325
       160  -9.8173     31.4686     92.5119   1.2124260348e+02   5.2733690003e+01    0.2055347    0.1011081 -72.04 0.0007244881    2.134    0.531
       161 -12.0830     11.4855     90.9587   1.2654650401e+02   5.4543222460e+01    0.3446044    0.2158304  22.82  0.002305139    2.068    0.517
       162 -10.8360     26.2651     91.2151   1.2247195548e+02   5.3432319759e+01    0.2585337    0.1964179 -14.67  0.001752794    1.662    0.398
       163 -10.5954    106.4555     91.2993   9.9711936516e+01   4.3096183041e+01    0.3761376    0.1276389  37.12  0.001236273    3.549    0.718
       164 -10.6707     96.0251     90.3440   1.0232576205e+02   4.5110951187e+01    0.4104347    0.2627185  -3.47  0.001667469    2.929    0.659
       165 -10.1198    171.3188     90.6675   8.3619782355e+01   2.9210822372e+01    0.1595642    0.1224607 -77.10 0.0007048409    1.693    0.409
       166  -9.4418    158.3061     90.3303   8.6419500539e+01   3.2372854381e+01    0.1572427    0.1215343  10.29 0.0007038114    1.659    0.397
       167  -8.9251     34.2901     89.6577   1.1989326983e+02   5.3086069742e+01    0.1152334   0.08491112  88.17 0.0007024789    1.650    0.394
       168  -9.4962    103.5309     88.5423   9.9769992373e+01   4.4181008942e+01    0.1398404    0.1322499 -34.41 0.0001845836    1.002    0.002
       169 -12.2550     48.6545     85.6122   1.1485400285e+02   5.2542424360e+01    0.3975366    0.3052989  61.96  0.001465609    1.696    0.410
       170 -10.9717    112.5913     85.6665   9.6513437504e+01   4.3088204895e+01    0.3651536    0.2401501 -48.91  0.001750222    1.520    0.342
       171 -10.5078     23.2296     86.5819   1.2248779799e+02   5.4627703726e+01    0.2570216    0.1368029 -37.49  0.001259302    1.995    0.499
       172 -10.6874     66.5678     85.0003   1.0941556241e+02   5.0576925698e+01     0.272305    0.2287668  57.16  0.001682822    1.445    0.308
       173 -10.5726      3.3636     85.9889   1.2800745558e+02   5.6044441750e+01    0.1841749    0.1643959  13.11 0.0007775603    1.482    0.325
       174 -10.9749    117.9951     82.2813   9.4110464803e+01   4.2701939109e+01    0.4090835    0.2121364 -41.42  0.001731344    1.881    0.468
       175  -9.1144     88.2698     83.6526   1.0273906729e+02   4.7737691907e+01    0.1323861    0.1058001 -78.36 0.0006992392    1.620    0.383
       176  -9.4125     29.9535     81.9811   1.1962631663e+02   5.5043453729e+01    0.1411972    0.1142582 -53.37 0.0005035498    1.017    0.017
       177 -11.6808     22.5896     80.4805   1.2151511859e+02   5.5926473993e+01    0.4448107    0.2100053 -41.74  0.001959475    1.989    0.497
       178 -10.5209     18.4880     79.5479   1.2255261829e+02   5.6410622619e+01    0.4131846    0.1565713 -44.01  0.002066658    2.371    0.578
       179 -10.5808     39.6395     80.8418   1.1648424141e+02   5.4422691097e+01    0.2160447    0.1931201 -71.67 0.0009121875    1.201    0.168
       180 -10.8831     71.1798     79.1799   1.0656134230e+02   5.1152744279e+01    0.2254736    0.1879018 -18.65 0.0006493252    1.252    0.201
       181 -11.0891      2.1271     72.6648   1.2616723549e+02   5.8783250229e+01     0.255094    0.1338444 -56.22 0.0006816445    1.370    0.270
       182 -11.6705      3.2188     78.2560   1.2680376675e+02   5.7611555384e+01    0.3869286    0.2879307  35.40  0.002491938    1.750    0.429
       183 -11.5295      7.3457     73.9878   1.2484083960e+02   5.8235118297e+01    0.3138551    0.2473392   0.48  0.002400698    1.611    0.379
       184  -9.7168     81.3105     78.9780   1.0349692239e+02   4.9747597312e+01    0.1827456    0.1528215 -39.86 0.0003219223    1.079    0.073
       185 -10.8282    150.0846     77.5055   8.4685488640e+01   3.6656098560e+01    0.2771938    0.2186492 -37.03 0.0003545538    1.284    0.221
       186 -11.1816     92.2742     77.8496   9.9984212457e+01   4.8243936551e+01    0.2876714    0.2028843  31.42  0.001514065    1.540    0.351
       187  -9.8623    121.6225     76.7424   9.1542888105e+01   4.3028383649e+01    0.2090815    0.1327369 -48.79 0.0009498314    1.661    0.398
       188 -11.9853     58.9724     75.6225   1.0933782721e+02   5.3423100642e+01     0.537703    0.3490379  64.87  0.002656083    2.695    0.629
       189 -11.6866     64.1311     73.1279   1.0709314176e+02   5.3284015299e+01    0.4023207    0.2959517  55.14     0.001284    1.818    0.450
       190 -11.3548     44.7692     75.1213   1.1359882193e+02   5.5084832481e+01    0.2416127    0.1966709  39.31 0.0002767188    1.491    0.329
       191 -11.2694     37.8073     67.7680   1.1400353633e+02   5.7217504482e+01    0.6745051    0.3597604 -72.21  0.003090376    2.868    0.651
       192 -10.6699     41.0925     64.2261   1.1204488297e+02   5.7597938350e+01    0.1818303    0.1712021  -1.55 0.0003470398    1.226    0.185
       193 -10.8364    108.8555     73.1650   9.3929085339e+01   4.6205718445e+01    0.3711795    0.2046045 -46.54  0.001653445    1.829    0.453
       194 -11.3517    102.6212     72.9256   9.5600152475e+01   4.7402174318e+01    0.2784196    0.2349233 -17.03 0.0004689162    1.199    0.166
       195 -10.3354    102.4982     68.4502   9.4290858209e+01   4.8258408123e+01    0.2624201     0.219552  -4.28 0.0009621253    1.258    0.205
       196 -10.9671    152.3776     72.1879   8.2596554830e+01   3.7061222891e+01    0.3169588    0.2662951 -25.18  0.000896226    1.238    0.192
       197 -10.4544     18.2930     60.3360   1.1857682381e+02   6.0229323830e+01    0.2955883    0.1999407  73.98  0.001747252    2.569    0.611
       198 -11.0674     16.9251     72.5719   1.2165766397e+02   5.7921431346e+01    0.2299163    0.1588905 -76.50 0.0007384353    1.534    0.348
       199 -10.6901     16.6674     67.9287   1.2078012898e+02   5.8859557655e+01    0.1997986    0.1727491 -64.75  0.001063382    1.194    0.162
       200 -11.0292     20.9649     65.6974   1.1892682045e+02   5.9000741468e+01    0.2660305    0.2126838  35.21  0.001941404    1.600    0.375
       201  -9.6498    174.7876     71.9793   7.7666759191e+01   3.1658596051e+01    0.1975935     0.124308 -34.22 0.0003761152    1.639    0.390
       202 -10.1483     92.3390     72.2732   9.8359602599e+01   4.9311425983e+01    0.1366442    0.1026371  -3.69 0.0004122653    1.608    0.378
       203 -11.1042     78.0572     71.9330   1.0250554209e+02   5.1614192184e+01     0.364387    0.1979723  47.70  0.001086757    2.277    0.561
       204 -10.6545     27.5339     70.2890   1.1786553293e+02   5.7599397769e+01    0.2581149    0.1797915 -67.02  0.001124632    1.410    0.291
       205 -10.8683     31.0023     66.4285   1.1586568553e+02   5.8078584439e+01    0.3233075    0.1658355 -58.09  0.001150046    1.665    0.399
       206 -12.0824     49.6790     69.4626   1.1064575802e+02   5.5699376687e+01    0.4177592    0.3113066 -23.75  0.001994974    1.378    0.274
       207 -10.6345     68.8845     67.8081   1.0414538565e+02   5.3698752562e+01    0.3605738    0.1921457 -41.75  0.001298886    1.665    0.400
       208 -10.4030    140.6407     68.9921   8.4410042159e+01   4.0330679377e+01    0.2076961     0.184411 -28.72 0.0005343395    1.135    0.119
       209 -10.9691    129.2550     66.4695   8.6466983513e+01   4.3286554841e+01    0.5461332    0.2109553 -34.31  0.001778897    2.749    0.636
       210 -11.8306     95.7270     67.0341   9.5806127128e+01   4.9719105561e+01    0.4641704    0.3580055 -10.42  0.002523551    1.434    0.303
       211  -9.9901      6.4029     67.7796   1.2396522802e+02   5.9516804042e+01    0.1830365    0.1322147 -52.68 0.0006136466    1.050    0.048
       212 -11.5298      3.0955     63.8774   1.2424518963e+02   6.0457157549e+01    0.3111762    0.2185516 -74.56  0.001311513    1.416    0.294
       213  -9.5440    146.5010     66.0252   8.2117695385e+01   3.9494986079e+01    0.2118403    0.1466727 -35.85 0.0009903688    1.469    0.319
       214  -9.2503    135.4537     65.4924   8.4612031830e+01   4.2098796809e+01    0.1464986    0.1395379  11.26 1.525528e-05    1.016    0.016
       215  -9.4998    120.9646     64.9498   8.8146164514e+01   4.5300302201e+01    0.1732486    0.1627503  -8.55 0.0004508834    1.021    0.021
       216 -10.6886     77.4620     63.8952   1.0033531745e+02   5.3227975683e+01    0.3683667    0.2869444 -17.36  0.002159342    1.302    0.232
       217 -11.5547     84.2840     61.5386   9.7522701859e+01   5.2617741994e+01    0.4825087    0.3607376  -7.66  0.002674905    1.498    0.333
       218  -9.6409    174.0264     63.9860   7.5526194110e+01   3.3163641671e+01    0.2310005    0.1753613  26.45 0.0004347041    1.528    0.345
       219 -12.3244     10.2965     62.1454   1.2159100683e+02   6.0391791175e+01    0.4055578    0.2569025  63.44 0.0008177964    2.655    0.623
       220  -9.7847    168.9426     63.2521   7.6348433510e+01   3.4546779398e+01    0.2091913    0.1852717  51.72 0.0003237799    1.088    0.081
       221 -10.4490     56.5536     62.6987   1.0660402625e+02   5.6230852269e+01       0.1704    0.1092992 -55.90 0.0009443524    1.588    0.370
       222 -10.5962     51.6575     62.5238   1.0814333075e+02   5.6825908012e+01    0.2670179    0.1681287 -30.99  0.001073782    1.543    0.352
       223  -9.6086    160.5392     61.4809   7.7594931402e+01   3.6898289912e+01    0.1495395     0.143237  36.30 0.0001897659    1.015    0.015
       224 -11.5086     29.5783     60.8436   1.1496558444e+02   5.9280878903e+01    0.5385829    0.2114893  16.45  0.002403576    3.808    0.737
       225 -12.3213     37.9373     51.6492   1.0966362819e+02   6.0270362680e+01    0.6508415    0.3733387 -34.19  0.003425351    1.556    0.357
       226 -10.5868     69.9858     58.3222   1.0098629055e+02   5.5322469874e+01    0.3773365    0.2023155 -35.53  0.001578322    1.748    0.428
       227 -11.3432     57.8433     55.9921   1.0421782851e+02   5.7325414724e+01    0.3451836    0.1963966 -58.18            0    2.140    0.533
       228 -11.2745    123.2354     56.5487   8.4894446026e+01   4.6249908541e+01    0.3027944    0.2610103 -68.13 0.0009038756    1.457    0.314
       229 -12.3764    128.1910     51.1087   8.1870035953e+01   4.6054918713e+01    0.6739521    0.3432329 -30.12  0.001054104    2.058    0.514
       230 -10.2617     44.0340     57.3277   1.0920593339e+02   5.8619598250e+01     0.223028    0.1534371 -52.31 0.0006892238    1.338    0.252
       231 -10.7072     44.9501     51.5428   1.0721992238e+02   5.9591794496e+01    0.2635807    0.1563122 -35.38 0.0004833369    1.463    0.316
       232 -10.8124    115.1593     56.6579   8.7067031266e+01   4.7899507831e+01     0.453905      0.26216  21.99  0.001213709    2.505    0.601
       233 -10.0952    121.2245     51.9009   8.3909179440e+01   4.7423491705e+01    0.3466136    0.1972538  20.19  0.001345218    2.749    0.636
       234  -9.8942    146.4581     56.0310   7.9058328791e+01   4.1139146529e+01    0.2159693    0.1448641 -32.72 0.0005416588    1.533    0.348
       235 -10.4980    100.9818     55.7444   9.0723122075e+01   5.0783070389e+01    0.4728304    0.1631961  43.46  0.001759203    2.955    0.662
       236  -9.6638     75.6835     56.3517   9.8563432224e+01   5.4863495765e+01    0.1806545    0.1553194 -84.24   0.00106963    1.715    0.417
       237 -11.2927      4.9955     52.3288   1.2120234337e+02   6.2564706697e+01    0.3153585    0.1727822 -24.39  0.002003892    2.008    0.502
       238 -10.3915     87.1407     52.4785   9.3753697840e+01   5.3748620753e+01    0.1910259    0.1813717 -45.49 0.0009293726    1.246    0.198
       239 -11.0209     13.0127     50.9877   1.1813470497e+02   6.2348455483e+01     0.321034    0.1638055 -54.15  0.001345745    1.485    0.327
       240 -10.6088     71.4310     51.0678   9.8225931482e+01   5.6408147738e+01    0.3251876    0.2307377  41.96   0.00122776    1.634    0.388
       241 -11.6943     51.1816     50.4786   1.0476794377e+02   5.9104706349e+01    0.3577488     0.210078 -31.04  0.002007762    1.592    0.372
       242 -10.7645     77.4384     49.6502   9.5836518591e+01   5.5766070817e+01    0.3401596    0.1889943 -19.71  0.001426238    2.336    0.572
       243 -10.3196    197.0036     48.3086   6.6875189471e+01   2.9710273867e+01    0.2492638    0.2038674 -46.71 0.0001617258    1.257    0.204
       244 -11.2957    153.7913     48.3567   7.5039748343e+01   4.0559560914e+01     0.375505    0.2634066 -67.51  0.001248985    1.994    0.499
       245 -10.7359    100.6545     47.9463   8.8227198077e+01   5.2126483006e+01    0.2006304    0.1917777 -74.48 0.0006150924    1.331    0.249
       246  -9.5589    104.3431     46.3008   8.6616883656e+01   5.1692324657e+01    0.2810106    0.1579005  11.07 0.0007758764    3.328    0.700
       247 -10.7303     62.5505     47.3748   9.9938017767e+01   5.8260001592e+01    0.2272819    0.1754406 -18.01 0.0005467838    1.188    0.158
       248 -10.9609      4.7902     47.3024   1.2010948234e+02   6.3511705342e+01     0.299787    0.1805108 -14.99   0.00202695    1.903    0.475
       249 -11.2042     11.5307     43.8145   1.1683975618e+02   6.3760367129e+01    0.2810059    0.2043699 -26.76   0.00109398    1.268    0.211
       250 -10.8112      7.0402     41.3629   1.1782768198e+02   6.4470334933e+01    0.3213436    0.1202703 -56.44 0.0008632002    2.055    0.513
       251 -10.2867    142.8038     46.0133   7.6726839995e+01   4.3516094523e+01    0.2652045    0.2393567 -39.26 0.0008156885    1.187    0.157
       252  -9.9299     19.0957     47.0955   1.1500239115e+02   6.2660757068e+01    0.1610355    0.1312718 -88.09  0.001133918    1.796    0.443
       253 -10.1512    121.7559     44.1916   8.1212803345e+01   4.8493383456e+01    0.4292057    0.1895476 -31.86  0.001641063    2.312    0.568
       254 -11.0635     64.8696     59.8800   1.0309829253e+02   5.5724819274e+01    0.3774843     0.186602  32.92  0.001861925    2.252    0.556
       255  -9.0433    233.2997     45.2938   6.0772623697e+01   2.1034529291e+01    0.1351901    0.1073272  31.59 0.0004358256    1.568    0.362
       256  -9.8504     91.7391     45.0035   8.9842213735e+01   5.4196460659e+01    0.1856336    0.1543195 -22.36 0.0003191701    1.115    0.103
       257 -11.0769     85.6438     44.9254   9.1669467850e+01   5.5243617238e+01    0.2243521    0.1923772  17.89 0.0002853712    1.138    0.121
       258 -11.1838    114.2214     50.0270   8.5146072759e+01   4.9165004329e+01    0.4014184    0.2610543 -42.81  0.001483323    1.635    0.388
       259 -10.9473     52.3379     41.2330   1.0139438374e+02   6.0574472033e+01    0.2200339   0.09406734 -43.86 0.0007644776    2.042    0.510
       260 -11.2158     97.3173     41.1917   8.6868166656e+01   5.3790589957e+01    0.3582735    0.3075179  77.17  0.001491257    1.683    0.406
       261 -10.5471     97.0362     36.9936   8.5466147629e+01   5.4464659708e+01    0.1986731     0.175405   6.32 0.0003889281    1.013    0.013
       262  -9.9874     64.1267     41.7970   9.7537586442e+01   5.8987580997e+01    0.2478186    0.1466473 -40.98  0.001369204    1.549    0.354
       263  -9.9908    110.9407     41.9787   8.3310254903e+01   5.1057900752e+01    0.2018432    0.1869926  12.59 0.0003057001    1.046    0.044
       264  -9.8695     29.0981     40.8812   1.0961512216e+02   6.2994186108e+01    0.2160405     0.182813 -14.84 0.0007558889    1.173    0.147
       265 -10.6045     23.5287     41.4699   1.1182696848e+02   6.3344269638e+01    0.2474851    0.1995686   4.42  0.001810966    1.374    0.272
       266 -11.7030     20.6807     37.8481   1.1180686723e+02   6.4197551581e+01     0.235453    0.1666648 -34.25 0.0003663056    1.099    0.090
       267 -11.4560     24.2228     35.3877   1.0972579605e+02   6.4347717261e+01    0.2956553    0.2211957  45.28  0.001229651    2.020    0.505
       268 -10.3458     89.7962     40.5593   8.8879659948e+01   5.5225517541e+01    0.2206767    0.1802421 -37.59 0.0006925785    1.295    0.228
       269  -9.6681     89.7050     37.6371   8.7869823267e+01   5.5682350942e+01     0.194859    0.1267258 -15.71 0.0005903574    1.629    0.386
       270  -9.9374    226.3505     40.1092   6.0392827893e+01   2.3441998399e+01    0.1931673    0.1683278 -53.35 0.0004349325    1.123    0.110
       271 -11.0641     80.2160     37.0446   9.0595026253e+01   5.7358282004e+01    0.4357418    0.2548796 -11.01  0.002078755    2.211    0.548
       272  -9.9763     84.9719     35.0000   8.8366930125e+01   5.6881572959e+01    0.2428413   0.09641371  43.34   0.00103904    2.564    0.610
       273  -9.9414    163.2468     42.3836   7.1245893828e+01   3.9092917903e+01    0.1947231     0.136292  67.83 0.0002513249    1.491    0.329
       274  -9.4931     44.1724     39.3089   1.0364618682e+02   6.1817066626e+01    0.2214737   0.07165867 -44.42 0.0008295721    2.561    0.610
       275  -9.8689     85.1748     39.1253   8.9786125070e+01   5.6229812714e+01    0.1580517    0.1524628  36.55  0.000441314    1.296    0.228
       276  -9.8125    135.5281     39.7884   7.6374712180e+01   4.6083283626e+01    0.1876467    0.1318951 -42.31 0.0004415322    1.566    0.361
       277  -9.8051    149.4639     38.0269   7.2703645734e+01   4.3056012296e+01    0.2044382     0.142329 -27.19 0.0003688311    1.519    0.342
       278 -10.5967    101.7231     36.9529   8.4107060171e+01   5.3592883722e+01    0.2231792    0.1830691  41.13 0.0007682733    1.242    0.195
       279  -9.8154    154.8578     35.8464   7.0893655675e+01   4.2039064908e+01    0.2124057    0.1819738  30.33 0.0004616258    1.165    0.141
       280 -10.3988     31.6227     34.1442   1.0654307022e+02   6.3924918688e+01    0.2309657    0.1754373 -25.17  0.001650235    1.067    0.063
       281 -10.0873    137.0107    247.7104   1.2075865404e+02   6.8965100741e+00    0.1683978    0.1240259  52.71 0.0004508797    1.052    0.049
       282 -10.2405    181.3534    247.3128   1.1305777111e+02  -5.4081686145e-01    0.1211624   0.08170126  23.53 0.0007045178    1.731    0.422
       283 -10.0558     10.4072     24.8144   1.1173722710e+02   6.7123923959e+01    0.2062894    0.1187317 -45.37 0.0007943573    1.332    0.249
       284 -10.1847      7.9664     21.0228   1.1148983737e+02   6.7898902864e+01    0.1621413    0.1072192 -32.21 0.0003988978    1.123    0.110
       285  -9.6940    156.6656    245.7163   1.1713478737e+02   3.8985919084e+00    0.1149417   0.08371029  27.51  0.000307848    1.619    0.382
       286 -10.1173    134.2700     35.4028   7.5208641255e+01   4.6966689111e+01    0.1945115    0.1331021  65.56 0.0009401015    1.658    0.397
       287 -10.3601    110.9037     34.9193   8.0860050944e+01   5.2074460243e+01    0.2118741    0.1880866 -30.14 0.0003928199    1.211    0.174
       288 -10.9122    106.2004     35.2125   8.2239185579e+01   5.2972899443e+01    0.3738356    0.2748851 -59.10  0.001931156    2.005    0.501
       289  -9.4983     52.3117     34.6334   9.9132740562e+01   6.1659040816e+01    0.1086856   0.09436038 -66.66  0.000703805    1.763    0.433
       290 -10.3316     97.6880     31.9896   8.3474001257e+01   5.5051969191e+01     0.375098     0.193747  19.14  0.001468583    3.126    0.680
       291 -10.5926    101.0251     28.8795   8.1391225864e+01   5.4839121507e+01    0.2214447    0.1984119 -31.99 0.0003559013    1.264    0.209
       292 -10.8269     18.6182     31.9020   1.1076531612e+02   6.5371715790e+01    0.2433729    0.1733126 -57.18  0.001363263    1.555    0.357
       293 -10.1420    178.3244     31.8308   6.5313459375e+01   3.6687754841e+01    0.2241175    0.1734123 -53.97 0.0007945255    1.421    0.296
       294  -9.9682    118.0706     32.1026   7.8002492223e+01   5.0968697693e+01     0.190266    0.1625161 -64.39 0.0003158565    1.553    0.356
       295 -10.3686     73.5969     31.2952   9.0626918207e+01   5.9253019842e+01    0.2209839    0.1792511  -3.42 0.0003680213    1.080    0.074
       296 -11.0520     70.5488     26.6386   8.9880740599e+01   6.0384269239e+01    0.3947625    0.3015993  18.65  0.002023446    1.235    0.191
       297  -9.9480     56.0057     30.7825   9.6434786876e+01   6.1802724772e+01    0.1676167    0.1360368 -12.09 0.0004725624    1.026    0.026
       298  -9.8079     50.4437     27.9862   9.7397829464e+01   6.2919849817e+01    0.1746102   0.09769592 -34.78 0.0005010235    1.532    0.347
       299  -9.8390     83.0511     30.0603   8.7145922465e+01   5.7913189292e+01    0.1849584    0.1617194 -67.78  0.001130554    1.749    0.428
       300 -11.3340    213.6440     28.7596   5.9175848512e+01   2.8079133946e+01    0.4160399    0.1938475  58.12  0.001780196    1.966    0.491
       301  -9.3226    191.5089     28.9889   6.2377518472e+01   3.3677232113e+01    0.1889788    0.1426885 -29.20  0.000206334    1.437    0.304
       302  -9.4007    162.9928     28.9718   6.7170937914e+01   4.0901346698e+01    0.1636731    0.1591346   8.89 0.0003066436    1.092    0.084
       303 -10.3814    154.6454     27.2350   6.8210080843e+01   4.3170845814e+01     0.233369    0.1806996  -3.67 0.0007871455    1.471    0.320
       304 -10.4903    124.9587     27.9302   7.4849302897e+01   5.0014513252e+01    0.2021079    0.1745798  25.89  0.001182262    1.062    0.058
       305  -9.6905     21.3431     27.8778   1.0840327510e+02   6.5834160568e+01    0.2265835    0.0918781 -54.85   0.00111388    2.738    0.635
       306  -9.6144    203.2335     27.3836   6.0225976662e+01   3.0883272130e+01    0.1941531    0.1273395  77.88 0.0004022493    1.530    0.346
       307 -10.1357    147.7611    245.2385   1.1861926153e+02   5.4751993942e+00    0.1588478   0.09639756 -38.59 0.0008933886    2.457    0.593
       308  -9.8417     27.1928     19.2043   1.0300822178e+02   6.6707151923e+01    0.1968122    0.1282686   4.49 0.0007123702    1.566    0.361
       309  -9.6205     24.6182     26.8545   1.0677461465e+02   6.5734467163e+01    0.1556739     0.113819 -35.61 0.0005063858    1.110    0.099
       310 -10.0540     23.7758     23.0473   1.0577834360e+02   6.6412610449e+01    0.2642755     0.104013 -41.17  0.001436106    1.964    0.491
       311  -9.6534    115.4430    244.7056   1.2409495875e+02   1.0843780182e+01    0.1308594    0.1098333 -58.90 0.0007311521    1.550    0.355
       312 -10.6423     16.6792     26.4009   1.0975115270e+02   6.6430319969e+01    0.2381858   0.09448796 -47.49 0.0009871566    1.948    0.487
       313  -9.0821     90.5188     26.5199   8.3546053703e+01   5.7101129455e+01    0.1286139    0.1125544   4.84 -4.208207e-05    1.038    0.037
       314 -11.8843     74.2861    238.3800   1.3034103941e+02   1.7992486354e+01    0.4083775    0.2764841  81.26   0.00279789    1.272    0.214
       315  -9.8673    111.9945     24.6859   7.6913696314e+01   5.3182886039e+01    0.1834171    0.1602393  27.95 0.0006321367    1.042    0.041
       316 -10.1926    174.0297     24.2779   6.3809467760e+01   3.8689106470e+01    0.2020491    0.1655961  64.50 0.0001746164    1.123    0.110
       317  -9.1707     97.3321     24.3087   8.0738159426e+01   5.6132633630e+01    0.1337848    0.1200906   9.03 0.0005332676    1.072    0.067
       318  -9.6272     99.5753     21.8039   7.9169219214e+01   5.6015064732e+01    0.1838685    0.1549347 -11.74 0.0004593608    1.149    0.130
       319 -10.2880     54.1340     23.3278   9.4297140012e+01   6.3147925544e+01    0.1899357    0.1620315 -10.93 0.0006592602    1.131    0.116
       320  -9.6495    246.0311     22.7912   5.3949037221e+01   2.0902606334e+01    0.1755431    0.1516226 -89.79 -0.0006383859    1.062    0.058
       321 -10.2573    120.4978     21.5450   7.3671201360e+01   5.1755070854e+01    0.2471341    0.1936335   8.78 0.0005519626    1.292    0.226
       322 -11.5065     84.8415     20.5781   8.2983264877e+01   5.8866825113e+01    0.3517989    0.2348705  12.63  0.001377784    1.549    0.354
       323 -10.3949     35.8508     21.8328   1.0057773148e+02   6.5475347528e+01     0.278776    0.1549732 -39.49  0.001280944    1.538    0.350
       324 -10.1973    109.5214    242.9387   1.2491249924e+02   1.2054911612e+01    0.2320581    0.1232303  58.14 0.0008867878    1.590    0.371
       325  -9.5843    227.5069     20.6877   5.5453087003e+01   2.5607775949e+01    0.1922139    0.1141924 -46.51 0.0005056085    1.652    0.395
       326 -10.2078     65.8529     21.1137   8.9319499389e+01   6.1842995615e+01    0.1723529    0.1599109  -3.36   0.00118398    1.292    0.226
       327  -9.5150     45.5021     20.5162   9.6383830719e+01   6.4611270692e+01    0.1183856   0.09037308 -13.36 5.281878e-05    1.049    0.047
       328  -9.1340    162.2641     19.7065   6.4440731436e+01   4.2157478269e+01    0.1326797    0.1046509 -68.31 0.0001760754    1.505    0.335
       329 -10.6953    108.2485     17.2164   7.5135926756e+01   5.4828177184e+01    0.2127419    0.2068224   7.18 0.0004525805    1.206    0.171
       330 -12.2190     35.4356    241.6289   1.3665595303e+02   2.2336223807e+01    0.5253811    0.1980446  49.71  0.003191192    2.066    0.516
       331 -10.4014     31.6853    237.3511   1.3695305112e+02   2.3489264139e+01    0.2592439    0.1320633  78.00  0.001114653    1.642    0.391
       332 -10.8515     29.3309    233.0159   1.3704024056e+02   2.4498685803e+01    0.2421592     0.155496  55.04  0.001715883    1.360    0.265
       333  -9.9685     88.7266    241.3774   1.2823545130e+02   1.5443002071e+01    0.1654164    0.1315768 -53.84  0.001174414    1.799    0.444
       334 -10.4345    216.8633     16.6958   5.5697983216e+01   2.8703592219e+01    0.4626257    0.1076016  58.39  0.001541288    3.425    0.708
       335 -10.8613    156.1951    240.7285   1.1658341961e+02   4.7090959422e+00    0.2144665    0.1544353  88.60  0.001290906    1.882    0.469
       336  -9.3628     50.3174    240.3106   1.3430373091e+02   2.0789231730e+01   0.08626691    0.0800245 -82.21 0.0003544998    1.639    0.390
       337 -10.2294    195.8770    238.4113   1.0925337721e+02  -1.8647899122e+00    0.2351172    0.1676068  21.17  0.001438607    1.512    0.339
       338  -9.1908    243.3076    237.6497   1.0091880924e+02  -9.7376966732e+00    0.1027017    0.0920362  63.68 0.0005014847    1.710    0.415
       339 -10.9274    177.3943    235.1098   1.1205653827e+02   1.8310315724e+00     0.295806    0.2047212  13.16   0.00159471    2.101    0.524
       340 -10.6199      1.4270    244.9910   1.4169289425e+02   2.5356720151e+01    0.1569616   0.06768253 -78.61 0.0005005026    1.928    0.481
       341 -10.2986    159.8926    235.8693   1.1529023573e+02   4.7939578993e+00    0.1881674    0.1485937  34.94 0.0006169192    1.269    0.212
       342 -11.1686     73.9892    232.9906   1.2992462200e+02   1.8963006460e+01    0.2305798    0.1492373  62.49 0.0009203285    1.209    0.173
       343 -10.0785     72.6016    250.1382   1.3156907123e+02   1.6261604750e+01    0.1556531    0.1393397  49.49  0.001246074    1.589    0.371
       344  -9.3468    139.5271     13.4994   6.6703597034e+01   4.8320535630e+01    0.1343212    0.1230094  48.78 -5.242096e-05    1.062    0.059
       345 -10.7112    153.4272    233.8963   1.1618438759e+02   6.2212665862e+00      0.22031    0.1850078 -12.11  0.001423648    1.740    0.425
       346 -10.0245    167.0222    233.7746   1.1372768942e+02   3.8561858046e+00    0.1865904     0.182002  77.56  0.000760782    1.229    0.186
       347  -9.9151     79.9027    231.3596   1.2878805483e+02   1.8422248866e+01    0.1628904    0.1139458  59.17 0.0005096013    1.148    0.129
       348 -10.4282    165.1595     14.9486   6.2483473374e+01   4.1947564017e+01    0.2596764    0.1750571  84.22  0.001273391    1.700    0.412
       349  -9.3444     58.3428    230.2901   1.3227444927e+02   2.1518292371e+01   0.08871268   0.08628953 -88.44 0.0003298463    1.652    0.395
       350 -10.3138    190.5254    227.3149   1.0853470561e+02   6.0540853644e-01    0.3370023    0.1272311 -42.33  0.001482444    3.224    0.690
       351  -9.8801     85.9653    233.1569   1.2793161245e+02   1.7241345394e+01    0.1689458     0.103911  78.60 0.0006707833    1.577    0.366
       352  -9.3079    249.3471    227.2770   9.8163606040e+01  -9.5297883734e+00    0.1252165   0.07577694  18.36 0.0004164881    1.633    0.388
       353 -10.0740    153.2989    227.3490   1.1532715572e+02   7.2695632439e+00    0.1182373   0.09468314  15.96 0.0007036485    1.686    0.407
       354  -9.5439    140.2074    227.3734   1.1771683594e+02   9.5543370044e+00    0.1841795   0.09511973  52.57 0.0009435059    1.658    0.397
       355 -10.1708    129.6077    226.8534   1.1957484637e+02   1.1452201260e+01    0.2759106    0.1315059  57.72  0.001330188    2.072    0.517
       356 -10.0927     88.1417    227.1501   1.2697575737e+02   1.7975006256e+01    0.1680548    0.1452108  67.93   0.00122911    1.212    0.175
