#   1 NUMBER                 Running object number                                     
#   2 MAG_AUTO               Kron-like elliptical aperture magnitude                    [mag]
#   3 X_IMAGE                Object position along x                                    [pixel]
#   4 Y_IMAGE                Object position along y                                    [pixel]
#   5 X_WORLD                Barycenter position along world x axis                     [deg]
#   6 Y_WORLD                Barycenter position along world y axis                     [deg]
#   7 A_WORLD                Profile RMS along major axis (world units)                 [deg]
#   8 B_WORLD                Profile RMS along minor axis (world units)                 [deg]
#   9 THETA_WORLD            Position angle (CCW/world-x)                               [deg]
#  10 FWHM_WORLD             FWHM assuming a gaussian core                              [deg]
#  11 ELONGATION             A_IMAGE/B_IMAGE                                           
#  12 ELLIPTICITY            1 - B_IMAGE/A_IMAGE                                       
         1 -13.8739    168.8460     58.3978   8.3377451513e+01   3.5762475608e+01     3.568794     2.014833 -43.97   0.01490753    1.786    0.440
         2 -11.3604    217.8056     31.7952   6.8226952857e+01   2.6980130293e+01     1.195587    0.4018355 -54.02  0.003687466    4.051    0.753
         3 -10.0549    192.4912      7.3774   6.4299947511e+01   3.6181376485e+01    0.7733153    0.2986659 -74.62  0.002077794    5.863    0.829
         4 -11.1412    207.9964     20.4733   6.6270241733e+01   3.0813505973e+01      0.96416    0.3491034 -59.31   0.00291007    4.425    0.774
         5 -12.5462    173.1466     22.3684   7.1277407512e+01   3.9599663643e+01     1.038098    0.5121889  56.81  0.004450494    1.871    0.466
         6 -11.3007    158.4022     19.8677   7.2744143979e+01   4.3710478793e+01    0.4682348    0.2689729 -21.61  0.002125498    1.909    0.476
         7 -11.8838    129.7402     12.0426   7.5056007228e+01   5.1756854750e+01    0.6010085    0.3118848 -18.32  0.001630605    2.119    0.528
         8  -9.7910    189.9433     14.9452   6.6783426522e+01   3.6055213027e+01    0.3457791    0.2981195  -8.32  0.001010498    1.357    0.263
         9  -9.2044    141.6246     12.1692   7.2901062129e+01   4.8798781564e+01    0.3055536    0.2493759 -21.80 0.0008947825    1.308    0.235
        10 -11.1692    159.4550      4.3293   6.7405201488e+01   4.4995823104e+01    0.7027625    0.4237001  41.59  0.003403834    1.748    0.428
        11 -11.6836    173.1124      1.9452   6.4887138706e+01   4.1688866345e+01    0.8059977    0.6176186 -62.15  0.004490788    1.340    0.254
        12  -9.8928    183.5359      1.6678   6.3613261348e+01   3.9027743568e+01    0.6135018    0.3035119  78.80  0.002724017    1.951    0.487
        13  -9.7843    143.5088      2.9467   6.9280618484e+01   4.9177938323e+01    0.3200885    0.2518475 -12.10  0.001614313    1.402    0.287
        14 -10.0747    249.4029    194.2892   1.0169279384e+02  -4.1018917030e+00    0.3621523    0.2346385   5.72  0.002061171    1.631    0.387
        15  -9.7370    171.8376    247.9661   1.2371416208e+02   1.5132641259e+00    0.4490496    0.2278597  63.42  0.001844545    4.235    0.764
        16 -11.3002     88.9709    249.9942   1.3826751683e+02   1.3847489019e+01    0.7586273    0.2256062  52.53  0.003467136    2.804    0.643
        17  -9.2093    250.0078    175.6493   9.7999495803e+01  -1.7357095903e+00    0.3146459    0.1672251 -26.43  0.001587088    1.829    0.453
        18  -8.4422    235.9873    145.7819   9.4073906353e+01   5.2119325891e+00    0.2318948    0.1860312 -23.06 0.0005104646    1.164    0.141
        19  -9.0401     69.9710    145.4857   1.3035951398e+02   3.7474802342e+01    0.1986524    0.1294062  40.42  0.001048024    1.636    0.389
        20  -7.7936    234.4662    132.4997   9.1344965609e+01   7.6263156551e+00    0.1406637    0.1283772 -14.70  7.59789e-05    1.003    0.003
        21  -7.9440    249.7235    117.3533   8.5444632209e+01   6.9356044547e+00    0.1397432    0.1001656 -55.56 0.0003112977    1.646    0.392
        22  -8.6167    203.6243    111.7404   9.1754966989e+01   1.7883471556e+01     0.253005    0.2220182   1.60 0.0006399588    1.251    0.201
        23 -12.1528    142.8269     41.1103   8.2968710059e+01   4.4982579342e+01     1.762014    0.8798804  76.96  0.005886406    3.428    0.708
        24 -11.1755    183.6519     77.3236   8.6210995199e+01   2.8842445076e+01    0.6301057    0.4375737  70.98  0.002020351    1.622    0.383
        25 -11.6308    111.3046    244.6032   1.3393518070e+02   1.1465505835e+01    0.5913921    0.5101813  75.01  0.004482546    1.194    0.163
        26 -11.1131    133.9147     78.6838   9.7530545800e+01   4.0732226723e+01    0.5647094    0.3469875 -61.51  0.002242246    2.188    0.543
        27 -10.5607    124.1666     67.5597   9.6492539868e+01   4.5055728479e+01    0.4028148    0.3316838 -28.83 0.0008936254    1.223    0.182
        28 -10.3882    101.5519     69.9852   1.0363024889e+02   4.9343434677e+01    0.3155924    0.2671465 -22.11 0.0008695379    1.215    0.177
        29 -10.9510    135.0374     67.2500   9.3621060730e+01   4.2618728385e+01    0.4038931    0.3533725 -21.70  0.001373645    1.182    0.154
        30 -10.4446    135.5354     60.7109   9.1342830211e+01   4.3658059859e+01    0.4055393     0.299746 -33.76  0.001952871    1.350    0.259
        31 -12.0998     66.7638     60.8322   1.1188858277e+02   5.7138709883e+01    0.9813996    0.7101342   4.73  0.003983071    1.753    0.430
        32 -11.4874     63.0852     55.1258   1.1127998044e+02   5.8801087198e+01    0.5951222    0.4679882 -22.40  0.003495491    1.257    0.205
        33  -8.3231     37.8788     63.8507   1.2333771422e+02   6.0068002164e+01    0.1626656    0.1396151 -74.88  0.000368936    1.292    0.226
        34 -12.4231    149.9201     81.2127   9.4434668176e+01   3.6486830618e+01    0.8415185    0.6864578  70.33  0.004099113    1.344    0.256
        35 -10.9868     95.4834     52.6220   9.9480550964e+01   5.3788156115e+01    0.4613013    0.3817686   1.46  0.001725063    1.300    0.231
        36 -11.2769     79.3704     47.9608   1.0296218255e+02   5.7570690228e+01    0.8217195    0.4726209  10.57  0.003148878    3.357    0.702
        37 -10.2625     87.8849     42.4895   9.8048227512e+01   5.6974713121e+01    0.4000684    0.2354044  26.55  0.001816743    2.100    0.524
        38  -8.3690    206.9672     82.5058   8.3513085024e+01   2.2175074492e+01    0.2274528    0.1951014 -40.03 0.0004035679    1.113    0.101
        39  -8.9714     58.5347     48.4282   1.1059768272e+02   6.0726590150e+01    0.2947951    0.1765999 -15.70  0.001367573    2.347    0.574
        40  -8.5588    129.7223     47.2795   8.8124744374e+01   4.7246441657e+01    0.2567665    0.2331674 -70.41  0.001172112    1.234    0.190
        41 -11.1054    185.3073     43.1567   7.5828494993e+01   3.3780791074e+01    0.3695053    0.3208467 -75.46  0.001889838    1.160    0.138
        42  -8.6812     14.4740     41.4462   1.2631720893e+02   6.6641342464e+01    0.1179106   0.08961023 -44.02 0.0001006727    1.022    0.022
        43  -8.4354    110.3271     70.3245   1.0118940832e+02   4.7512661068e+01    0.1520101    0.1162355   1.23  0.000704933    1.694    0.410
        44 -10.4903    189.6651     36.5293   7.3190460384e+01   3.3546789709e+01    0.3778136    0.2577094 -76.20 0.0008523196    1.685    0.406
        45  -7.5887    197.9944    245.2707   1.1884529903e+02  -2.2668700018e+00    0.1331811   0.08115999  38.71 0.0008192008    1.292    0.226
        46  -7.8209    180.4989    242.9542   1.2155152119e+02   7.9432605091e-01    0.1316742    0.1178477 -35.29 0.0009673435    1.403    0.287
        47 -11.4032     75.9892    249.7526   1.4042777379e+02   1.5667924188e+01    0.5811105    0.3547374  34.55  0.003697093    1.961    0.490
        48 -10.9084    100.4761     37.9208   9.2392049524e+01   5.5206417918e+01     0.935631    0.2777542  44.91   0.00316278    3.369    0.703
        49  -8.7709    140.0463     29.2277   7.9349138707e+01   4.7274082802e+01    0.2287405    0.2075941 -17.72 0.0004892896    1.143    0.125
        50  -8.7423     24.3175     29.0283   1.1759874011e+02   6.8211893572e+01      0.20769   0.05297713 -37.84 0.0007048642    4.343    0.770
        51 -10.2451    249.4249    186.8930   1.0029043548e+02  -3.1474161543e+00    0.4443013    0.2682595 -33.33  0.002493136    1.661    0.398
        52  -8.7320    235.7915    233.8015   1.1076493888e+02  -6.7230293029e+00    0.1456106    0.1225652  35.23 0.0006080224    1.337    0.252
        53  -8.9019     78.9282     22.5580   9.2654177898e+01   6.1637578194e+01    0.2373846     0.177727 -22.00 0.0005525444    1.252    0.201
        54  -8.2700     84.8975     21.1589   9.0107128159e+01   6.0689552376e+01    0.1803977    0.1697253 -22.75 0.0004273835    1.195    0.164
        55  -9.9802     74.9660     17.2977   9.1590004134e+01   6.3053220414e+01    0.2167982    0.1763597 -22.15 0.0002778925    1.186    0.157
        56  -9.2162    188.1996    233.6528   1.1890192302e+02   7.8317517469e-01    0.1591008    0.1403509  37.38  0.001046934    1.129    0.114
        57 -10.6284     89.1841    233.6373   1.3680485164e+02   1.6543324806e+01    0.3183239    0.1721422  58.94  0.001869191    1.569    0.363
        58  -8.6184    169.5060    221.5034   1.2052645258e+02   5.6517745815e+00     0.125827    0.1048087  41.04 -0.0001368855    1.001    0.001
        59  -9.2292    248.3828    210.1702   1.0473994599e+02  -5.9022211225e+00    0.1552354    0.1042505 -35.67 0.0009520027    1.715    0.417
        60  -9.6204     11.8786    206.4887   1.4861117728e+02   3.1026154079e+01    0.3346449    0.1730459  31.65  0.002070323    2.441    0.590
        61 -10.8215    242.6431    190.8159   1.0216263920e+02  -2.5453574738e+00    0.3962379    0.3610756 -63.44  0.002598642    1.662    0.398
