#   1 NUMBER                 Running object number                                     
#   2 MAG_AUTO               Kron-like elliptical aperture magnitude                    [mag]
#   3 X_IMAGE                Object position along x                                    [pixel]
#   4 Y_IMAGE                Object position along y                                    [pixel]
#   5 X_WORLD                Barycenter position along world x axis                     [deg]
#   6 Y_WORLD                Barycenter position along world y axis                     [deg]
#   7 A_WORLD                Profile RMS along major axis (world units)                 [deg]
#   8 B_WORLD                Profile RMS along minor axis (world units)                 [deg]
#   9 THETA_WORLD            Position angle (CCW/world-x)                               [deg]
#  10 FWHM_WORLD             FWHM assuming a gaussian core                              [deg]
#  11 ELONGATION             A_IMAGE/B_IMAGE                                           
#  12 ELLIPTICITY            1 - B_IMAGE/A_IMAGE                                       
         1 -14.4465    106.1976    103.9763   6.2028075135e+01   4.0867495709e+01     1.218674     1.036413  16.34   0.00552261    1.233    0.189
         2 -13.9245     55.6924     65.1748   6.8578683440e+01   5.8159442851e+01      1.79941     1.077226  -8.67  0.007458909    2.488    0.598
         3 -14.9849      6.2165     70.5341   9.4132603775e+01   6.2437498457e+01     1.222885    0.8548933 -50.31  0.005807444    1.253    0.202
         4 -13.3788      3.0837     10.8340   7.5888843843e+01   7.4281439157e+01    0.6500491    0.4121598 -41.15   0.00410997    1.667    0.400
         5 -12.6527      7.7811      2.6148   6.8034676893e+01   7.4951201134e+01    0.5496188    0.3290167  32.68  0.003402404    1.635    0.388
         6 -15.7460     10.8264     24.0300   7.6626067988e+01   7.1437714113e+01     1.868137     1.015371 -22.99  0.007909436    1.808    0.447
         7 -14.5014     27.4665     10.7304   5.9877647438e+01   7.1254866298e+01    0.8693871    0.5527847   8.96  0.002721423    1.571    0.364
         8 -13.7266    122.1723     36.4392   3.8053294546e+01   4.8869681632e+01    0.7811772    0.4914619  37.63  0.003975596    1.837    0.456
         9 -13.8598    166.2423     30.0255   2.9294597699e+01   3.9649763032e+01    0.8406484    0.4469076  70.89  0.003873495    1.711    0.416
        10 -14.1671    147.5209     29.7029   3.1742346089e+01   4.3854223826e+01     1.050586    0.7095774  77.44  0.004359013    1.357    0.263
        11 -13.1830    188.4455     25.3722   2.5791346246e+01   3.5462691185e+01    0.8025405    0.3113202 -63.77  0.003317941    3.471    0.712
        12 -12.5881    120.4654     25.7068   3.5112613349e+01   5.0497598898e+01    0.5838199    0.4192326  40.06  0.003367845    1.502    0.334
        13 -12.8678     86.3548     14.2264   3.8687251564e+01   5.9427969935e+01    0.6031438    0.3462491 -51.82  0.003026455    2.451    0.592
        14 -15.0076     98.7882     11.2810   3.4730372001e+01   5.6896437730e+01     1.500888    0.7408531  65.07  0.005034663    1.727    0.421
        15 -12.1829     60.2563     15.2816   4.7112065865e+01   6.4875517097e+01     0.546377     0.280583  35.65  0.002744229    1.804    0.446
        16 -12.0170    187.9366      9.6847   2.2466773491e+01   3.7206253386e+01    0.2885203    0.2170053 -74.26  0.001610799    1.085    0.078
        17 -13.0626    214.2605     10.0486   2.0602999681e+01   3.2012681010e+01    0.4008354    0.2666629  79.25  0.002823477    1.394    0.283
        18 -13.6086     42.0695      3.9137   4.9032563895e+01   6.9522036789e+01    0.6212565    0.4056108  39.05  0.003211381    1.203    0.169
        19 -11.5423     75.7669      9.7597   3.9785807111e+01   6.2165476755e+01    0.2799809    0.2175885  -2.27  0.001254494    1.521    0.342
        20 -11.3121    152.9593      8.6338   2.5569220269e+01   4.4782546264e+01    0.1767564    0.1715839  34.71  0.001006289    1.343    0.256
        21 -11.4374    124.3410     11.3076   3.0090265686e+01   5.1028061038e+01    0.2303823    0.1729832  80.37 0.0007379918    1.178    0.151
        22 -11.7431    119.2522      2.7939   2.8309541238e+01   5.2917357601e+01    0.3462522    0.1951681 -78.44   0.00177806    2.157    0.536
        23 -10.2936     66.8102      3.6249   3.9837133061e+01   6.4613541782e+01    0.1716994    0.1027248  64.96  0.000619427    1.634    0.388
        24 -11.6841     46.7946     12.7987   5.1335148463e+01   6.7738008421e+01    0.2988361    0.2218314  45.92  0.001381505    1.277    0.217
        25 -10.4395    168.9808      1.7537   2.2322175504e+01   4.1908329615e+01    0.1531076   0.08092535  76.66 0.0006168446    1.585    0.369
        26 -11.0383     61.3987      1.4401   4.0556550162e+01   6.5927602716e+01    0.3313826   0.09901702  57.49  0.001350915    2.719    0.632
        27 -11.9301     48.5370     20.3401   5.4084387806e+01   6.6545134959e+01    0.6412832    0.2298851  45.22   0.00273769    2.391    0.582
        28 -11.5893     50.5534    249.3214   1.0215433212e+02   1.4022777569e+01    0.3403441    0.2202576  33.80  0.001944361    1.301    0.231
        29 -13.5783      9.6817    245.7437   1.1127210127e+02   1.8711441897e+01    0.8838487    0.4220297  46.17  0.003840307    1.721    0.419
        30 -11.2605    206.6379    190.7880   5.7379239797e+01   5.4566972843e+00    0.1819014    0.1445141 -10.89  0.000999134    1.115    0.103
        31 -11.2002    218.7863    175.0152   5.2349323346e+01   6.6049838968e+00    0.1589093    0.1477833  77.00   0.00105034    1.606    0.377
        32 -12.3437    124.3421    166.8731   7.1331056568e+01   2.3017830233e+01     0.590639     0.404657 -65.30  0.002619543    1.829    0.453
        33 -11.0079    178.1885    167.3847   5.8563702359e+01   1.3960708770e+01    0.1911964    0.1299897  45.45 0.0009535464    1.733    0.423
        34 -10.9492    222.3160    166.6603   5.0223001912e+01   7.5684362335e+00    0.1182644   0.09512911 -63.91 0.0005377299    1.704    0.413
        35 -10.6710    193.0098    164.9888   5.5119756017e+01   1.2107099900e+01    0.1703383    0.1449482 -27.06  0.001012525    1.019    0.019
        36 -12.0105    206.5623    162.2950   5.2091996419e+01   1.0565485508e+01    0.2636803    0.1130347 -46.32  0.001147328    2.162    0.538
        37 -12.3548    189.1631    156.1494   5.4112955423e+01   1.4390505174e+01    0.2508298     0.217615 -25.93  0.001493365    1.023    0.022
        38 -12.4642     76.6893    156.5837   8.3399429183e+01   3.3151466914e+01    0.5946929    0.4384911  14.76  0.001949768    1.426    0.299
        39 -13.1231     73.1356    153.1132   8.3907522274e+01   3.4562922972e+01    0.7944056    0.4722643  23.03  0.002816947    1.730    0.422
        40 -11.6975    110.0618    154.3648   7.2779819859e+01   2.8413808825e+01    0.4045445    0.2538866 -66.60  0.001644516    2.049    0.512
        41 -11.9676    246.4575    149.8681   4.3544040015e+01   7.1471126547e+00    0.3288458    0.2495007 -53.12  0.002215748    1.401    0.286
        42 -11.6451      6.6128    145.8788   1.0522823430e+02   4.3283165534e+01    0.4472428    0.2333424  78.71  0.001907918    2.269    0.559
        43 -11.4312     74.4750    145.5831   8.2044921357e+01   3.6328621384e+01     0.821884    0.4369643 -88.12  0.002227302    5.128    0.805
        44 -10.9535    103.2024    149.9153   7.3869391187e+01   3.0665027234e+01    0.3041714    0.2048236 -32.76  0.001020588    1.622    0.383
        45 -11.9107     60.4078    147.3795   8.7088480743e+01   3.7799185587e+01    0.4319523    0.2979386   9.04  0.001955055    1.609    0.378
        46 -11.3840    148.0000    141.9696   6.0009695413e+01   2.4442845419e+01    0.4289625   0.08245329 -46.86  0.001063347    5.044    0.802
        47 -12.5252     41.3656    137.6272   9.2040267133e+01   4.2640998297e+01    0.4994971     0.325901  60.26  0.002208541    1.927    0.481
        48 -12.1728    136.0129    132.3943   6.0814060092e+01   2.8782684682e+01    0.3540451    0.1457798  40.26  0.001263454    2.461    0.594
        49 -11.6193    135.0560    125.7777   5.9506673141e+01   3.0408866664e+01    0.2694667    0.2223492 -41.53 0.0009001264    1.193    0.162
        50 -13.5258    108.8876    123.9943   6.6315283785e+01   3.5860964465e+01    0.6668249    0.4989082 -20.75  0.003058305    1.557    0.358
        51 -13.3358    111.5023    116.5096   6.3694674107e+01   3.7065849122e+01    0.4700043    0.3467179  40.95  0.001238859    1.346    0.257
        52 -12.7437     28.0063    121.6272   9.4335822491e+01   4.8180500776e+01    0.6037979     0.429689  20.55  0.003050553    1.459    0.315
        53 -11.5422    180.2245    122.3041   4.8718695306e+01   2.2392565965e+01    0.3341206    0.2076803 -17.96  0.001428831    2.468    0.595
        54 -12.9229      5.5879    118.1387   1.0247800568e+02   5.0661051934e+01     1.120912    0.5170046 -53.90  0.004995365    1.813    0.449
        55 -11.6839     19.0605     85.9981   9.1301888818e+01   5.7937155964e+01    0.2912999    0.2078859 -41.54 0.0003429238    1.233    0.189
        56 -14.5555     24.2646     93.2539   9.0510100016e+01   5.5747913989e+01     1.763165     1.146067  -8.62  0.008666741    1.619    0.382
        57 -11.9645     36.7102     92.9276   8.4948902075e+01   5.4613900475e+01    0.4380991    0.2691071   7.47  0.001336927    1.746    0.427
        58 -13.9890     18.0935    111.4896   9.6568657833e+01   5.1618296431e+01    0.8381082    0.5720346   2.75  0.003330996    1.555    0.357
        59 -14.3189     12.4121    103.5812   9.7607739046e+01   5.4032625545e+01     1.157376    0.6720215  20.29   0.00561826    1.807    0.447
        60 -13.2197      2.2235     96.9214   1.0089293021e+02   5.6267024302e+01    0.8491493    0.3521593 -75.37  0.003465977    2.465    0.594
        61 -12.2343     78.5317    109.8942   7.2676358490e+01   4.4636543674e+01    0.5285515    0.3938643 -65.54  0.002463899    1.591    0.371
        62 -12.4214     86.7202    114.8226   7.1088380580e+01   4.2059336613e+01     0.409584    0.2675545  12.90  0.001406329    1.904    0.475
        63 -12.1418     81.9893    114.9932   7.2744921871e+01   4.2834519753e+01    0.3800051    0.3129967  54.61  0.001863865    1.390    0.281
        64 -11.3713    121.7578    112.1651   5.9683607804e+01   3.5988230963e+01    0.2795601    0.2570778  68.94 0.0007091211    1.202    0.168
        65 -13.4053     95.0718    110.1894   6.7147495874e+01   4.1629074267e+01    0.5788249    0.5174596 -52.91  0.002332274    1.185    0.156
        66 -11.9042     28.5529    245.0193   1.0696983887e+02   1.7153175380e+01      0.42044    0.2099691  34.63  0.002200156    1.654    0.395
        67 -12.0127     61.5181     98.0722   7.5957632324e+01   5.0150060244e+01    0.6142188    0.4021415  67.51  0.002433031    2.690    0.628
        68 -11.8477     46.9756     99.5415   8.2193087945e+01   5.1806558641e+01    0.5316986    0.3906827  73.49  0.002458352    2.020    0.505
        69 -11.6238     53.2139     97.3824   7.9097438684e+01   5.1507832693e+01    0.5010393    0.2848537  -0.55  0.001922216    2.518    0.603
        70 -11.9296     49.0540     93.2195   7.9742184876e+01   5.3054166833e+01    0.4187159    0.3417895  55.18  0.001648631    1.523    0.343
        71 -12.2129     42.4732     90.7141   8.1897017217e+01   5.4478353033e+01    0.3568926    0.3101847 -83.57 0.0006370025    1.453    0.312
        72 -11.0632    163.5270     97.4713   4.6233973209e+01   3.0256478092e+01    0.1381437    0.1316499 -63.60 5.540351e-05    1.007    0.007
        73 -12.5092    136.8751     95.0140   5.1372149109e+01   3.6318455722e+01    0.5268521     0.346881  61.32   0.00241987    1.726    0.421
        74 -11.8694     63.0678    110.3008   7.8439103380e+01   4.6979656940e+01    0.5123459    0.3940792  48.67   0.00248631    1.479    0.324
        75 -11.4070     42.0194    106.3475   8.5802081358e+01   5.0716502388e+01    0.3539601    0.2716733  17.26  0.001481437    1.308    0.235
        76 -12.7313    187.8491     84.3945   3.8977502989e+01   2.7550424006e+01    0.4134115    0.2295734  42.50  0.001970376    2.278    0.561
        77 -13.1032    163.9469     71.6311   3.9860622740e+01   3.4523620426e+01    0.5103981    0.4648621 -22.94  0.003129674    1.276    0.216
        78 -13.2471    162.3293     79.4792   4.2082145651e+01   3.3611150823e+01    0.9378739    0.4304745  38.81  0.003517305    3.245    0.692
        79 -13.8125    169.6776     76.9819   4.0183042958e+01   3.2456972453e+01     1.080362    0.4210614  51.65  0.004409877    2.598    0.615
        80 -12.9120     91.6434     58.1044   5.2823180460e+01   5.2633244776e+01    0.4973577    0.4512177 -15.07  0.002447048    1.180    0.153
        81 -12.7592     65.3428     49.0222   5.8861817404e+01   5.9367464106e+01    0.6332448     0.558953  43.49  0.003540127    1.211    0.174
        82 -12.3585      3.0406    249.4520   1.1288449531e+02   1.8499495816e+01    0.3946309    0.2886709  48.09  0.001848511    1.123    0.109
        83 -13.8031     61.4729     75.2403   6.9410581979e+01   5.5204444499e+01     0.746685    0.5376496 -20.44   0.00151182    1.511    0.338
        84 -13.2136     87.3688     65.2466   5.6555293825e+01   5.2313429383e+01    0.9755858    0.5709121  19.66  0.003303768    2.584    0.613
        85 -12.9226     70.9040     75.2370   6.5674962157e+01   5.3592259323e+01    0.5552909    0.3804488   7.58  0.001546327    1.789    0.441
        86 -12.2907     77.2301     73.4561   6.2744119689e+01   5.2785381803e+01    0.6106267    0.4025241 -16.94  0.002299553    1.989    0.497
        87 -12.0716    216.6627     81.9301   3.4526216596e+01   2.2500474725e+01    0.2246071    0.1718239  83.36 0.0009045271    1.431    0.301
        88 -11.6266    114.0597     79.7267   5.2983285220e+01   4.4085391056e+01     0.362844     0.335995 -74.69   0.00131509    1.194    0.162
        89 -11.9261    136.1272     79.6240   4.7454081814e+01   3.9283387944e+01    0.5460202     0.252328  47.89  0.002189138    2.108    0.526
        90 -12.6154     54.3141     81.1904   7.4197083317e+01   5.5055708236e+01    0.5694487    0.4760399 -70.35  0.003020794    1.534    0.348
        91 -13.0181     92.1035    230.2983   9.0057048913e+01   1.3200435749e+01    0.5175202    0.4189847 -31.88  0.002961499    1.338    0.252
        92 -14.1538      4.5099     63.5220   9.3407378420e+01   6.4122061233e+01    0.8510684      0.57375   0.20  0.003914758    1.427    0.299
        93 -11.5008     26.7967     74.9697   8.4948883377e+01   5.9839192895e+01    0.4830691     0.305948 -79.44  0.002180864    2.444    0.591
        94 -12.2398    136.7897    103.2055   5.3505949873e+01   3.4746296949e+01    0.5593901    0.2617275  52.66  0.002136283    2.343    0.573
        95 -12.6848    198.9135     70.3372   3.4340343116e+01   2.7534906661e+01    0.5246258    0.3751934  34.36  0.002776657    2.066    0.516
        96 -11.7018     39.9160     67.8056   7.6567893925e+01   5.9915509730e+01    0.3314371     0.229615  39.67  0.001407453    1.610    0.379
        97 -12.1838    134.8179     66.3638   4.4103177809e+01   4.1778306514e+01    0.4972389    0.2782463  50.85  0.001715556    1.694    0.410
        98 -10.5110     99.4497     65.2703   5.2768924092e+01   4.9782202255e+01    0.1891811    0.1381413 -51.86 0.0009424594    1.589    0.370
        99 -11.6214    158.0367     83.4994   4.3882714547e+01   3.3856345068e+01    0.2799505    0.2020154  59.30 0.0006274438    1.399    0.285
       100 -12.8139     79.0867     60.4091   5.7777653940e+01   5.4818784095e+01    0.5105923    0.4492661 -33.82  0.002641276    1.233    0.189
       101 -10.9209    117.6687     72.2349   4.9841360193e+01   4.4629013196e+01    0.2313196    0.1860554  59.85 0.0005453192    1.240    0.194
       102 -12.9744    178.0244     58.0850   3.4410905166e+01   3.3533426591e+01    0.5438315    0.4477839 -61.90   0.00210221    1.122    0.109
       103 -11.5090     38.8195     59.9654   7.4552978008e+01   6.1658706932e+01    0.3108953    0.2482952  59.36  0.001571217    1.846    0.458
       104 -10.8558     35.0545     59.7880   7.6343958842e+01   6.2176829755e+01    0.4807108    0.1694274 -42.14  0.001842434    2.764    0.638
       105 -11.9858     35.5361     54.2432   7.4216288461e+01   6.3207144027e+01    0.6496119    0.3569528  12.28    0.0029813    1.996    0.499
       106 -11.7198    111.0823     58.9341   4.7544511857e+01   4.8269698580e+01    0.2592933    0.2182651  31.77 0.0003750146    1.226    0.184
       107 -14.1267    120.2491     54.7615   4.4014501654e+01   4.6841735407e+01     0.773689    0.5291845  44.57  0.004006393    1.420    0.296
       108 -11.4662     24.7067     59.0790   8.1402183301e+01   6.3495615310e+01    0.4160826    0.2380059 -47.71  0.002095625    1.658    0.397
       109 -11.3233     17.6934     55.5605   8.4064713980e+01   6.4895615626e+01    0.3085735    0.1957307 -54.43  0.001649603    1.623    0.384
       110 -13.3763    103.3679     50.4482   4.6891888340e+01   5.1267998308e+01    0.8977103    0.5126334 -61.27  0.002213627    2.930    0.659
       111 -12.9493     97.9823     50.0213   4.8240401969e+01   5.2519308187e+01    0.5117096    0.4082388 -47.68  0.002007207    1.435    0.303
       112 -10.0865     42.3332     53.2685   7.0521484388e+01   6.2461374466e+01     0.140144   0.09522125  -2.58 0.0006979497    1.588    0.370
       113 -12.0458    153.3048     47.1198   3.5430734726e+01   4.0412109829e+01    0.3527619    0.2103009  66.34  0.001828956    1.574    0.365
       114 -12.0460    159.2838     43.3016   3.3527154631e+01   3.9577151126e+01     0.434158     0.261997  60.32  0.002341186    1.546    0.353
       115 -11.4510    136.2811     49.6078   3.9110373872e+01   4.3925930952e+01    0.2456392    0.2170653  51.53 0.0006342122    1.142    0.124
       116 -10.4798     23.5231     49.9733   7.9044475763e+01   6.5452127820e+01    0.1820136     0.119876 -43.57 0.0004219408    1.473    0.321
       117 -10.9178     38.7685     46.1182   6.9621073809e+01   6.4268445347e+01    0.1892364    0.1701495   0.54 0.0007568166    1.134    0.118
       118 -12.5509    204.9259     40.0686   2.7290894784e+01   3.0441969453e+01    0.7642327    0.3115696  87.83  0.002984002    4.180    0.761
       119 -12.4060    212.8153     43.0816   2.7145492919e+01   2.8558136409e+01    0.4236942    0.2245607  55.11  0.001542569    2.220    0.549
       120 -12.6980    219.6540     41.6259   2.6237153118e+01   2.7465240159e+01    0.5064114    0.3036068 -86.66  0.002381565    1.708    0.415
       121 -13.0976      5.7786     42.9542   8.6978161736e+01   6.8395271404e+01    0.9612851    0.3860158  15.95  0.004430077    2.347    0.574
       122 -12.3290     24.5271    216.8660   1.0603486897e+02   2.3825828956e+01     0.710964    0.3401481  41.73  0.003387544    1.852    0.460
       123 -13.4256     26.2692    226.1535   1.0626099070e+02   2.1515282602e+01    0.8389037    0.3889359 -52.83  0.003883678    2.419    0.587
       124 -13.8110     20.5273    223.9561   1.0752121823e+02   2.2542167060e+01    0.7695664    0.6250415  32.59   0.00482767    1.174    0.149
       125 -12.0199    228.1658    227.1728   5.9702398068e+01  -2.9967713245e+00    0.1509316    0.1299621 -19.34  0.001094737    1.358    0.263
       126 -11.8181    109.6229     41.9068   4.2533518578e+01   5.1048196071e+01    0.4321398    0.1836659  59.23 0.0009255511    2.207    0.547
       127 -12.5575    131.8261     32.8965   3.5171839719e+01   4.7071456093e+01    0.4174051     0.369029  50.21  0.001421846    1.179    0.152
       128 -13.0141     65.0532    223.1294   9.6158800710e+01   1.8109510059e+01    0.8732412    0.5986774  22.60  0.004596723    1.375    0.273
       129 -12.9944    113.7788     37.8104   4.0263830515e+01   5.0626807983e+01    0.4000143    0.3075796  59.76  0.001374926    1.148    0.129
       130 -12.2677    241.9888     36.1093   2.3449749660e+01   2.4202716668e+01    0.3462701    0.2010246  76.72  0.001611289    1.775    0.437
       131 -12.0331     75.9670     36.9921   5.0434995153e+01   5.9060887889e+01    0.3828999    0.2163521  45.92  0.001052622    1.529    0.346
       132 -11.4411     70.6279     36.0828   5.1946387561e+01   6.0273275876e+01     0.301778    0.2381231  50.33 0.0008034604    1.243    0.195
       133 -10.5878     35.0698     34.7172   6.6951870995e+01   6.6722384821e+01    0.2279286    0.1596932  35.26 0.0006689951    1.415    0.293
       134 -12.5728     43.8586     33.1404   6.1881940307e+01   6.5610919352e+01    0.7937667    0.3907862  41.16  0.003804628    1.900    0.474
       135 -13.6912     62.4661    213.8120   9.5825473911e+01   2.0577954601e+01     0.831504    0.4462278  40.48  0.003820411    1.727    0.421
       136 -12.1252    248.9063    216.0815   5.4478875682e+01  -3.3977810402e+00    0.2408186    0.1608494  22.82  0.001660875    1.674    0.403
       137 -12.4284    139.3583     21.5138   3.0730474614e+01   4.6596939738e+01    0.6566997    0.2217332  62.90  0.002195067    2.419    0.587
       138 -11.8449      4.4284    212.4834   1.1078823107e+02   2.6541610663e+01    0.4377514    0.2385723 -68.86  0.002290994    1.787    0.440
       139 -11.0070     64.9516     30.0057   5.1605738450e+01   6.2213171028e+01    0.2795713    0.1852141 -27.19 0.0003153924    1.701    0.412
       140 -13.0999     55.8466     26.8900   5.3869922128e+01   6.4371683181e+01    0.7670472    0.3178405  47.46  0.002236053    2.183    0.542
       141 -12.0574     62.7227     25.6270   5.0633292046e+01   6.3204936543e+01    0.4259442    0.2183922  30.57   0.00196975    2.103    0.524
       142 -12.1229     72.3539    207.0274   9.2349565801e+01   2.0994211001e+01    0.4480028     0.327569 -82.65  0.001891504    1.616    0.381
       143 -10.9894    216.5025     28.5094   2.3966803594e+01   2.9604997500e+01    0.1113239   0.08794969 -70.08 -4.637485e-05    1.017    0.016
       144 -10.1313     87.6627     27.7673   4.3371314031e+01   5.7716220660e+01    0.1345882   0.08484616  37.52 0.0003429891    1.539    0.350
       145 -11.6737     30.4072     25.7236   6.5525373031e+01   6.8783367737e+01    0.4198987    0.2338427  15.52  0.001814029    1.890    0.471
       146 -11.4071     36.3777     23.8535   6.1491565652e+01   6.8153171830e+01    0.3199066    0.2160898 -39.15  0.001860123    1.753    0.430
       147 -10.2969    148.6771    206.6832   7.2500923921e+01   1.0463770842e+01    0.1493873   0.09965605 -12.02 0.0006130006    1.666    0.400
       148 -11.7364     57.8267    203.5481   9.5928537651e+01   2.3590187392e+01    0.4057317    0.1977411  89.93  0.001450754    3.335    0.700
       149 -10.8618    223.7952     21.3776   2.2073737303e+01   2.9060208545e+01    0.1401331    0.0870605  68.48 0.0009461379    1.683    0.406
       150 -11.4891     71.2215     16.5509   4.3916650450e+01   6.2485449639e+01    0.2324219    0.2081432  38.11 0.0006900012    1.100    0.091
       151 -10.2093    198.6616    204.3300   6.1298947667e+01   4.1006748113e+00    0.1136666    0.1063991  87.02 0.0007051898    1.737    0.424
       152 -11.4250    185.4767    203.0116   6.3707989778e+01   6.0579907631e+00    0.2048051    0.1186363 -40.69 0.0009617199    1.600    0.375
       153 -12.0642     16.8823    195.8438   1.0647556015e+02   2.9586606513e+01    0.4337726    0.2031704 -66.14  0.001919098    2.004    0.501
       154 -10.5619     40.5103     12.5585   5.4065717690e+01   6.8895453657e+01    0.1257096   0.09954941  26.80 1.920271e-05    1.026    0.026
       155 -13.3247     29.9254    169.3148   1.0021160002e+02   3.5290995186e+01     1.423502    0.6289342 -36.02  0.005200814    2.983    0.665
       156 -12.8813     22.1840    166.0249   1.0226419601e+02   3.6831460545e+01    0.4324526    0.3056363   3.33  0.000765809    1.603    0.376
       157 -15.4299      7.7671    182.4301   1.0799119346e+02   3.3666009583e+01     2.073483     1.598626  85.73   0.01197055    1.225    0.184
       158 -14.4820     15.7629    174.7439   1.0505750411e+02   3.5053841108e+01     1.792271    0.8204184  78.77  0.006924595    2.793    0.642
       159 -13.0818     36.8910    194.3133   1.0079247535e+02   2.8153052169e+01    0.4236389    0.3316568 -86.33  0.002321314    1.302    0.232
       160 -11.0003    200.7495    191.5807   5.8630877611e+01   6.0935602457e+00    0.1657779    0.1208028  38.48 0.0009013799    1.653    0.395
       161 -12.4869    249.3357    183.1199   4.8937540978e+01   1.5501210888e+00    0.3397358    0.1286397 -43.48  0.001667384    2.209    0.547
       162 -11.0074    121.7617    181.1881   7.4753511478e+01   2.0103664317e+01    0.3895662    0.2386099  79.92  0.001151203    4.982    0.799
       163 -12.2344    247.5808    194.3720   5.1105878592e+01   1.3876455465e-03    0.2639572    0.1522246 -37.45  0.001630896    1.374    0.272
       164 -11.3754    135.1272     39.7208   3.6532125542e+01   4.5487659623e+01    0.3879051    0.2045698  73.90  0.001550455    2.084    0.520
