#   1 NUMBER                 Running object number                                     
#   2 MAG_AUTO               Kron-like elliptical aperture magnitude                    [mag]
#   3 X_IMAGE                Object position along x                                    [pixel]
#   4 Y_IMAGE                Object position along y                                    [pixel]
#   5 X_WORLD                Barycenter position along world x axis                     [deg]
#   6 Y_WORLD                Barycenter position along world y axis                     [deg]
#   7 A_WORLD                Profile RMS along major axis (world units)                 [deg]
#   8 B_WORLD                Profile RMS along minor axis (world units)                 [deg]
#   9 THETA_WORLD            Position angle (CCW/world-x)                               [deg]
#  10 FWHM_WORLD             FWHM assuming a gaussian core                              [deg]
#  11 ELONGATION             A_IMAGE/B_IMAGE                                           
#  12 ELLIPTICITY            1 - B_IMAGE/A_IMAGE                                       
         1 -13.4475     58.5767    133.2174   1.0282196517e+02   4.1516280424e+01     3.773474     1.118558 -71.57  0.007262714    9.997    0.900
         2 -13.8433    228.5711     19.1211   3.5094963116e+01   2.6791507164e+01     1.027467    0.8853222  34.17  0.002608572    1.644    0.392
         3 -13.7542    202.6200     41.5600   4.3051016223e+01   2.9841579375e+01       1.2858     1.092721  19.52  0.004631657    1.581    0.367
         4 -13.7633    210.5494     35.9554   4.0729357522e+01   2.8746486906e+01      1.45734    0.9952673 -27.76   0.00741423    1.647    0.393
         5 -10.1785    123.6712      4.1378   4.3875246972e+01   5.2930433220e+01    0.4071735    0.2157722 -80.70  0.001636786    3.337    0.700
         6 -11.5560    248.4978      2.2907   3.0181980017e+01   2.4508443116e+01     0.404188    0.2167552  89.51  0.002397259    1.725    0.420
         7 -13.9862     81.1635    156.7014   1.0052439556e+02   3.2494558997e+01     3.161994     1.458159  59.43  0.007816621    3.587    0.721
         8 -13.2675     86.6884    224.0916   1.0857081460e+02   1.6198053609e+01     1.259092    0.5904098  52.37 0.0008206012    2.071    0.517
         9 -16.2604     33.8381    185.8928   1.1639155214e+02   3.1370949465e+01     9.547701     3.700811  82.41   0.03192652    4.431    0.774
        10 -15.7294     53.6148    246.8654   1.1735027069e+02   1.6086550911e+01     9.217495     2.682222  27.17  0.008930661   10.035    0.900
        11  -9.4698     99.4872    181.0006   9.9805955353e+01   2.3750800557e+01    0.2114006    0.1884504  49.04 0.0004523319    1.091    0.083
        12 -12.0665     59.5833    178.0956   1.0934983285e+02   3.0233885466e+01    0.4306785    0.2916758 -36.45  0.001793575    1.989    0.497
        13 -11.9984     64.9821    172.6352   1.0726895402e+02   3.0853732781e+01    0.3325041    0.2699363 -44.09 0.0007565748    1.406    0.289
        14  -9.4003    144.0542    179.4882   8.8670925885e+01   1.6313983009e+01    0.2314323    0.1417596  36.87  0.001030988    1.594    0.372
        15  -8.5969    149.5120    177.4888   8.7002183369e+01   1.5733597755e+01      0.14634    0.1418722  33.64 4.857916e-05    1.037    0.036
        16 -11.7829     74.9946    163.1051   1.0324697117e+02   3.1812982174e+01    0.3373488     0.312746  58.40 0.0003612663    1.097    0.088
        17 -15.4173      7.4626    240.5346   1.2539716777e+02   2.2358210808e+01     2.189378     1.563287 -76.57   0.01623513    1.449    0.310
        18 -13.4728     68.4674    144.7853   1.0198824551e+02   3.7301745765e+01     1.119774    0.6804172 -86.58  0.003355306    2.133    0.531
        19  -9.3109    137.6730    170.7105   8.8500373969e+01   1.9431812560e+01    0.1506163    0.1182397  -4.38 0.0005110826    1.616    0.381
        20 -12.6069    184.5904    215.9557   8.6371133676e+01   2.1465378833e+00     0.515009    0.4010597  31.07  0.003022291    1.180    0.152
        21 -13.5155     62.1339    158.9960   1.0605540155e+02   3.4587639886e+01     0.549821    0.3338712 -45.09  0.001738253    1.822    0.451
        22  -9.9886    123.9794    152.7649   8.8284384169e+01   2.6141303828e+01    0.2651857     0.219388 -68.68 0.0004942557    1.302    0.232
        23  -9.5946    174.8510    149.3196   7.5213257645e+01   1.6767386643e+01    0.2381443    0.1957727  63.48 0.0008499071    1.453    0.312
        24 -10.2148    134.3570    148.2097   8.4624556857e+01   2.5203555908e+01    0.3816108    0.1465984 -53.80  0.001228304    2.878    0.653
        25  -9.9147    132.5081    139.0099   8.3013722558e+01   2.7701553362e+01    0.3129488    0.1527596 -54.30  0.001138163    2.203    0.546
        26 -13.8468      4.9543    184.3385   1.2275000495e+02   3.4414360043e+01       1.7236    0.7380065 -89.92  0.003875975    2.118    0.528
        27 -11.3841     57.5944    146.2316   1.0532737353e+02   3.8361441372e+01    0.2498931    0.2488274  69.82 0.0008809722    1.142    0.125
        28 -11.5232     29.7345    143.7521   1.1280993607e+02   4.1999584465e+01    0.3956195    0.3249293   9.96  0.001628857    1.543    0.352
        29 -10.4987     97.0330    142.6886   9.3463127658e+01   3.3430700333e+01    0.3115351    0.2866433  33.20 0.0008160116    1.145    0.126
        30  -9.8011    100.2418    139.1830   9.1821262347e+01   3.3740746452e+01    0.3485365     0.255368 -15.85  0.001550636    1.880    0.468
        31 -12.2954     85.1349    141.0262   9.6505107188e+01   3.5788891633e+01    0.3067174     0.263958 -47.02 0.0004672295    1.154    0.133
        32 -11.2838     75.0602    136.0410   9.8451017269e+01   3.8564437208e+01    0.3205969    0.2635577  72.46 0.0004171521    1.347    0.258
        33  -9.3748    157.1900    132.9337   7.5416693577e+01   2.3947529602e+01    0.2332498    0.2121305 -80.83 0.0005403443    1.242    0.195
        34 -10.8936    107.3045    131.3009   8.8067193213e+01   3.4394953816e+01    0.5192484    0.3462552  38.37  0.001704817    1.549    0.354
        35 -10.8081    135.7638    127.9177   7.9510667444e+01   2.9586819859e+01    0.7153009    0.1300337 -46.66  0.001632306    5.388    0.814
        36 -11.5018     67.9257    129.3065   9.9257789912e+01   4.1266475228e+01    0.4100333    0.2576183  80.42  0.001693198    2.420    0.587
        37 -10.3553     66.6630    125.0793   9.8794389556e+01   4.2497060848e+01     0.273851    0.2212736  18.28  0.001221152    1.424    0.298
        38 -13.4258     31.3334    205.0589   1.1860308659e+02   2.7277048121e+01    0.6983595    0.4775197 -45.93  0.001209881    1.972    0.493
        39 -11.0375     95.7772    127.5284   9.0524650351e+01   3.7369109672e+01    0.3190243    0.2695006 -16.18 0.0007718897    1.366    0.268
        40 -10.2149    115.6683    125.0526   8.4224571476e+01   3.4303926848e+01    0.2846014    0.2224637   2.30  0.001172543    1.648    0.393
        41  -8.9133    163.6976    121.3576   7.1026159872e+01   2.5017835152e+01    0.1608524    0.1243602 -77.63 0.0007038375    1.715    0.417
        42  -9.6402    106.0304    119.9385   8.5714091594e+01   3.7352853143e+01    0.2228997    0.2122177 -36.04 0.0003086315    1.031    0.030
        43  -9.2372    168.0456    113.0537   6.7921462896e+01   2.5773324248e+01    0.2531588    0.1939096 -79.90  0.001128831    1.752    0.429
        44 -10.1268    205.2287    110.6242   5.9879715594e+01   1.8031547668e+01    0.3241137    0.2527845  34.76  0.001136434    1.460    0.315
        45 -10.3170    134.5007    106.0420   7.4147727804e+01   3.4721856197e+01    0.3738246    0.1486174 -49.27  0.001221061    2.680    0.627
        46  -9.1160    130.4850     96.4821   7.2534210465e+01   3.7631403602e+01    0.1541977    0.1516133 -26.13 -3.698094e-05    1.011    0.011
        47 -11.1757     53.3636     92.2255   9.5782454321e+01   5.2196170458e+01    0.4227391    0.2554474 -69.82  0.001923443    1.993    0.498
        48  -8.6162     88.7182     93.3421   8.3966952690e+01   4.6654274166e+01    0.1462323    0.1196197 -86.61  0.000434676    1.632    0.387
        49 -10.2150     41.5559     92.2150   1.0003250807e+02   5.3534623847e+01     0.214569    0.1882306  13.53 0.0004971509    1.273    0.215
        50 -10.4654    250.0222     88.2612   4.7970458864e+01   1.2719097625e+01     0.183336    0.1594718 -49.38 0.0005935571    1.037    0.036
        51 -10.3232    109.8548    201.3487   1.0044808880e+02   1.7479248914e+01      0.22819    0.1837699 -80.03 0.0005722333    1.358    0.263
        52  -8.9937    160.7288     82.6397   6.1273003801e+01   3.3391530017e+01    0.1530462    0.1206927   4.30 0.0006999048    1.650    0.394
        53 -10.8856     10.5898     76.6423   1.0827711304e+02   5.9639665971e+01    0.2517525    0.1813015  44.42  0.001463534    1.791    0.442
        54  -9.0087     36.5184     63.5425   9.4398291537e+01   6.0445374830e+01    0.1298669     0.111938 -33.69  9.40289e-05    1.056    0.053
        55 -11.5593     13.1577     60.0209   1.0338585685e+02   6.3134375167e+01    0.2800458    0.2495504  62.18 0.0005844141    1.526    0.345
        56 -10.5588     40.5236     58.7116   9.1210760340e+01   6.1007319970e+01    0.3223869    0.2006989  43.35  0.001664817    2.107    0.525
        57 -12.9319     16.9787    216.9373   1.2236683843e+02   2.6181058663e+01    0.4204965    0.3792962 -11.05  0.001661011    1.721    0.419
        58 -10.0550    209.1095    198.2134   7.8233580865e+01   1.1695332776e+00    0.2344866    0.1791955 -63.67 0.0009357958    2.083    0.520
        59 -11.2200    193.3739    195.6770   8.0896471734e+01   4.2350672289e+00    0.9091746    0.4704777 -63.00  0.002526229    6.821    0.853
        60 -12.3866    218.5941     28.8100   3.8188390311e+01   2.7827321825e+01    0.4773754    0.3786034  49.75  0.001204081    1.532    0.347
        61  -9.4341     21.8275     56.9819   9.8752941672e+01   6.3148702893e+01    0.2179813    0.1511596  48.85  0.001058841    2.111    0.526
        62 -10.2438     17.9396     55.4570   1.0003665556e+02   6.3761500145e+01    0.1810806    0.1631175 -56.98 0.0006728509    1.271    0.213
        63 -10.8542     12.1112     53.1506   1.0200698364e+02   6.4638680449e+01    0.1967165    0.1331873 -34.60 0.0007350967    1.219    0.179
        64  -9.8897      5.0380     49.7887   1.0432812106e+02   6.5745385453e+01    0.1384055   0.09116025   7.48 0.0004308124    1.686    0.407
        65 -10.6453    133.8198     40.7825   5.4298917378e+01   4.6568690959e+01    0.3740245     0.262041 -86.48 0.0008803261    1.980    0.495
        66  -9.6240    134.2210     33.1902   5.1699773436e+01   4.7452948139e+01    0.1937844    0.1758071  42.51 0.0004051398    1.061    0.058
        67 -10.0863    189.6574     15.3110   3.7959377354e+01   3.6044616417e+01    0.2275614    0.1741858 -72.65 0.0007396581    1.222    0.182
        68  -9.7424    198.5488    222.9504   8.4768621794e+01  -1.2114579141e+00    0.1930432    0.1521932  23.37 0.0003910139    1.124    0.110
        69 -14.8757      9.8525    207.7487   1.2321617145e+02   2.8810710570e+01    0.9972026    0.8852195  62.51   0.00304598    1.260    0.207
