#   1 NUMBER                 Running object number                                     
#   2 MAG_AUTO               Kron-like elliptical aperture magnitude                    [mag]
#   3 X_IMAGE                Object position along x                                    [pixel]
#   4 Y_IMAGE                Object position along y                                    [pixel]
#   5 X_WORLD                Barycenter position along world x axis                     [deg]
#   6 Y_WORLD                Barycenter position along world y axis                     [deg]
#   7 A_WORLD                Profile RMS along major axis (world units)                 [deg]
#   8 B_WORLD                Profile RMS along minor axis (world units)                 [deg]
#   9 THETA_WORLD            Position angle (CCW/world-x)                               [deg]
#  10 FWHM_WORLD             FWHM assuming a gaussian core                              [deg]
#  11 ELONGATION             A_IMAGE/B_IMAGE                                           
#  12 ELLIPTICITY            1 - B_IMAGE/A_IMAGE                                       
         1 -14.7066    140.4827     38.8861   5.9541554270e+01   4.5353294531e+01     17.70544     9.152634 -66.31   0.04962736    5.378    0.814
         2 -13.6405    247.4725      9.8920   3.6977681816e+01   2.2355236490e+01     1.437536    0.7562515 -13.85  0.004348413    3.176    0.685
         3 -13.7783    221.0283     79.4476   5.6770520277e+01   1.8876971638e+01     9.706425     2.393615 -48.92   0.01800983    8.813    0.887
         4 -15.2531    242.9821     45.0190   4.5391721312e+01   1.8993220713e+01      3.54561     1.023362  55.12   0.01277638    3.627    0.724
         5 -13.5428    208.5742     72.8982   5.7025835327e+01   2.2910225115e+01     1.933998     1.755058 -68.68   0.01060197    1.102    0.093
         6 -13.4946    248.5676     59.1651   4.8093901554e+01   1.5773536609e+01     1.426896    0.7514754 -38.66  0.006837995    1.647    0.393
         7  99.0000    214.5783     23.1628   4.3106995472e+01   2.8476548659e+01     1.678839     1.361676  67.32   0.00953772    1.227    0.185
         8 -13.6551    250.0521     27.2585   4.0614774594e+01   1.9740613551e+01     1.039145    0.4037333 -28.55   0.00247119    2.726    0.633
         9 -13.6945    232.5400     77.3324   5.4533299157e+01   1.6576473225e+01     4.279397     1.475993 -53.26   0.01145552    5.308    0.812
        10 -13.5775    239.3003     71.8944   5.2273948383e+01   1.5912190780e+01     2.145567     1.003308 -56.14  0.008234607    2.723    0.633
        11 -13.3354    219.0552     36.7242   4.6059498140e+01   2.5688316511e+01     2.157294    0.9770099 -20.58  0.007190478    3.056    0.673
        12 -13.3437    231.9410     27.1462   4.2285394515e+01   2.3847098292e+01     1.308767     1.044737 -47.95  0.004710179    1.157    0.136
        13 -12.4595    118.9732      9.9445   5.3679347157e+01   5.3983764511e+01    0.9429025    0.7071783  58.94   0.00293428    1.241    0.194
        14  -9.7371     92.1097     12.3385   6.1448430322e+01   5.9801188016e+01    0.3969016    0.1883423 -21.13  0.001806638    2.213    0.548
        15  -8.1433    177.3265     11.7279   4.4408134155e+01   3.9123920542e+01    0.1675161    0.1312675 -11.54 0.0005632588    1.521    0.343
        16  -7.9013    216.2273      8.1373   3.9169690731e+01   2.9761807107e+01    0.1839947    0.1254417 -66.52  0.000623989    1.380    0.276
        17  -8.3467     79.1653      8.1393   6.3508970247e+01   6.2873817762e+01      0.15917    0.1479379 -16.58 0.0004437192    1.286    0.222
        18  -9.9766    234.6988      3.7700   3.6583748632e+01   2.5883895415e+01    0.3130683    0.2444543  20.46  0.001543971    1.927    0.481
        19  -7.9432    165.7254      2.6432   4.3199641809e+01   4.2956066454e+01    0.3059618    0.1671067   1.00  0.001324001    2.731    0.634
        20  -9.2797    136.9802      3.2151   4.7694343946e+01   5.0185870258e+01     0.221773    0.1955031  -7.29 0.0006336631    1.262    0.207
        21  -8.4177    230.1416      1.9117   3.6510676484e+01   2.7124217131e+01    0.1502755   0.08023351 -32.92            0    1.854    0.461
        22  -8.3226    159.5089      1.4099   4.3646527188e+01   4.4648599603e+01    0.1365492    0.1174335  66.65 8.360406e-05    1.028    0.027
        23  -8.4433    220.4799    171.0016   7.8572016013e+01   3.2251889862e+00    0.2611912    0.1695669 -26.78  0.001145404    1.520    0.342
        24  -9.6559    203.0134    172.1542   8.2220603893e+01   6.3342955118e+00    0.4720224    0.2583912 -47.40 0.0003619441    2.130    0.531
        25 -10.9751     22.5399    163.0438   1.2259919547e+02   3.7930060945e+01    0.5831591    0.1970186 -82.10  0.002374277    2.996    0.666
        26 -10.2835    230.3503    166.7681   7.5843492589e+01   2.0998719754e+00     0.469809    0.1907306 -40.93  0.001756473    2.513    0.602
        27  -9.2415    186.1541    168.7646   8.4986999071e+01   1.0254587180e+01    0.4059724    0.1679889  48.96  0.001474709    2.611    0.617
        28  -8.2859     67.7699    166.8361   1.1239011862e+02   3.1934957852e+01    0.1789637    0.1607639 -80.83 0.0003192059    1.106    0.096
        29 -10.1751    113.8288    247.1144   1.1211718661e+02   8.9785631038e+00    0.1935841    0.1721124  66.66  0.000316219    1.169    0.145
        30  -8.1539     42.3043    247.3010   1.2488123981e+02   1.8643667107e+01   0.08640797   0.08291192 -85.96  0.000287319    1.592    0.372
        31  -7.8839    116.5088    232.5934   1.1001432371e+02   1.1017354187e+01    0.1252441    0.1001692  51.00 0.0002369388    1.018    0.018
        32  -8.4814    226.1657    223.6449   8.7511466191e+01  -5.5309227141e+00    0.1763306    0.1538063 -10.70 0.0004514185    1.268    0.211
        33 -12.1175     67.8124    143.5366   1.0894880228e+02   3.7464781148e+01     1.258137     1.101857  75.73   0.00749965    1.108    0.097
        34 -11.6711     54.4082    150.0896   1.1343025745e+02   3.7600766019e+01    0.7303269    0.4424727 -76.77  0.001719995    1.541    0.351
        35 -11.7543     40.7000    157.1768   1.1773810077e+02   3.7482312358e+01    0.4381053    0.4312926  10.48  0.001517617    1.338    0.253
        36  -9.0815    224.5249    205.9548   8.4674812386e+01  -2.8586572812e+00    0.2614327    0.2231955 -68.13  0.001208902    2.019    0.505
        37 -12.0675     47.8690    153.3851   1.1551784313e+02   3.7582885119e+01    0.8505684    0.5805337 -80.50  0.002756143    1.302    0.232
        38  -8.7944    158.4026    157.1548   8.8667732641e+01   1.8197650960e+01    0.2403186    0.1785015 -81.41 0.0005702357    1.960    0.490
        39  -7.7575    198.6717    152.7177   7.8904215211e+01   1.0703107626e+01     0.151593     0.111888   8.96 0.0005044434    1.604    0.377
        40  -9.1811    172.6891    149.8820   8.3824075684e+01   1.6706720444e+01     0.414378    0.2794495  79.42  0.001583257    2.738    0.635
        41  -8.5387    188.6406    149.5594   8.0278619921e+01   1.3392801335e+01    0.2559481    0.1887429 -26.05 0.0008875208    1.425    0.298
        42  -9.9376    133.3928    142.5803   9.1530792632e+01   2.6487483392e+01    0.9869231    0.2647201 -54.77  0.002390688    5.424    0.816
        43  -8.9751    150.0430    147.2997   8.8489014872e+01   2.2023979093e+01    0.2673368     0.214424 -79.93 0.0005879984    1.566    0.361
        44  -9.2875    173.3350    145.9108   8.2777684838e+01   1.7374197606e+01     0.252644    0.2148036  56.74 0.0006855886    1.263    0.208
        45  -7.8435    192.0042    144.0042   7.8295748104e+01   1.3747098362e+01    0.1795419    0.1694036  -8.15 0.0003380043    1.018    0.018
        46  -9.1437    137.5280    143.2704   9.0649226254e+01   2.5493898089e+01     0.340461    0.2189701 -70.09  0.001369753    2.159    0.537
        47  -8.2456    160.4142    143.2052   8.5109660678e+01   2.0707101706e+01    0.2054052    0.1484262 -54.98  0.000371149    1.518    0.341
        48  -9.7379    210.8691    136.8612   7.2831704472e+01   1.1070063132e+01    0.2885196    0.2409121 -77.14  0.001282288    1.628    0.386
        49  -7.6677    161.3283    137.6330   8.3596089113e+01   2.1687955419e+01    0.1625569    0.1256995 -86.92 0.0007035563    1.811    0.448
        50 -10.1716    135.0748    121.5919   8.6157258801e+01   3.0876975946e+01    0.6764597     0.200287 -50.55  0.001875176    3.780    0.735
        51  -9.6622    160.6994    128.3773   8.1504606808e+01   2.3786809153e+01     0.437348     0.312977 -30.17  0.001950382    1.520    0.342
        52 -11.8946    185.8316    121.4436   7.4131071513e+01   1.9507624460e+01     1.149368    0.4941412 -34.98  0.004005063    2.445    0.591
        53 -11.1569    204.7182    124.9350   7.1161427249e+01   1.4589641160e+01    0.6914619    0.3617411 -30.36    0.0027351    2.020    0.505
        54 -10.3214    205.1825    116.6170   6.9011174324e+01   1.6026801809e+01    0.4182708    0.3009205 -44.99 0.0002798601    1.387    0.279
        55 -10.5532    214.3608    118.2478   6.7694438582e+01   1.3686947558e+01    0.4562845    0.3874487 -60.16  0.001326404    1.336    0.251
        56 -11.6860    207.7948    111.3461   6.7191591563e+01   1.6402690037e+01     0.866797    0.6421096  81.62  0.003539052    1.891    0.471
        57 -11.2494    204.9055    104.5585   6.6000139520e+01   1.8300357530e+01     0.725809    0.4863775  64.49  0.003009957    1.771    0.435
        58  -9.6381    162.8589    120.4679   7.9004503172e+01   2.4966575929e+01      0.31703    0.2836915  58.04 0.0004698285    1.169    0.144
        59  -8.6737    148.9227    119.6015   8.2138818475e+01   2.8296236726e+01    0.2471441    0.2096808 -31.90 0.0005694409    1.212    0.175
        60  -9.8546    135.0000    108.5102   8.2772481467e+01   3.3798197792e+01    0.6751647    0.2190024 -46.21  0.002040386    3.082    0.676
        61  -9.4447    125.5388    114.4780   8.6873715391e+01   3.4487657073e+01    0.3283472    0.2612148 -77.34 0.0008258934    1.537    0.349
        62 -10.9731    126.6493    109.9193   8.5380001074e+01   3.5281509075e+01    0.5629478    0.3914942 -73.28   0.00232643    2.019    0.505
        63  -9.6958    168.0821    113.5975   7.6009744328e+01   2.5184982776e+01    0.3497457     0.261358  88.26  0.001478392    1.938    0.484
        64  -7.5445    111.6768    114.7215   9.0763179735e+01   3.7213743974e+01    0.1517925    0.1219539  -7.13 0.0003080615    1.586    0.369
        65  -9.4369    196.0799    111.7427   6.9550318476e+01   1.9016129369e+01    0.2341285    0.2144479 -73.76 0.0006002532    1.220    0.181
        66  -9.1699    215.7114    108.9291   6.5140189588e+01   1.5052462661e+01    0.2202788    0.1892617 -39.19  0.001155955    1.107    0.096
        67  -8.8455    141.1884    105.5375   8.0354227797e+01   3.3068833045e+01    0.3376104     0.206301 -57.89   0.00132148    1.982    0.495
        68  -9.5381    213.9416    104.6238   6.4372607722e+01   1.6214951035e+01    0.2677527    0.2084424 -19.53  0.001316888    1.355    0.262
        69  -9.4364    111.6917    105.0981   8.8268792899e+01   3.9423618609e+01    0.2738224     0.217062  54.28  0.001323794    1.369    0.269
        70  -9.1572    148.2680    102.8328   7.7816599817e+01   3.2027281912e+01    0.2981975    0.2536912  20.92 0.0006801694    1.297    0.229
        71 -11.2076    121.8346    101.1581   8.4322524287e+01   3.8243566729e+01    0.6105473    0.4379376 -60.88  0.002729329    1.589    0.371
        72  -9.5153    168.7431     97.8615   7.1592328772e+01   2.8187516885e+01    0.4520949    0.2317392  48.44  0.001230553    1.958    0.489
        73  -9.5021    134.3650     98.6571   8.0211730235e+01   3.6071747665e+01    0.2914011    0.2569498 -74.21 0.0008368469    1.286    0.223
        74  -8.7186    209.1022     95.1808   6.2810640587e+01   1.8999453682e+01    0.3036705    0.2043904 -44.17 0.0008680574    1.437    0.304
        75  -8.3422     94.2368     94.9478   9.0717382364e+01   4.5005229455e+01    0.2041658    0.1785672 -39.46 0.0002358861    1.084    0.077
        76  -9.7502    141.8015     93.1597   7.6693474763e+01   3.5533172467e+01    0.3473622    0.3057994 -79.82 0.0009666587    1.317    0.241
        77 -10.5667    173.8760     90.1418   6.8301002163e+01   2.8424636585e+01    0.6292092    0.3940382  35.37  0.001785196    1.866    0.464
        78 -10.2888    158.5400     97.7290   7.3896582589e+01   3.0662424306e+01    0.8624828     0.341687  39.40   0.00266429    3.088    0.676
        79 -10.9108    156.4189     88.8040   7.1832686609e+01   3.2942297248e+01    0.3546439    0.2791094 -32.97  0.001662969    1.285    0.222
        80 -10.7360    243.9948    198.8314   7.9824317730e+01  -4.9905151162e+00    0.2946292    0.2262686  27.91 0.0004835662    1.251    0.201
        81  -7.7528     82.7120     88.6596   9.2628364647e+01   4.8389436741e+01    0.1508635    0.1079443 -22.73  0.000307821    1.641    0.391
        82  -9.1791    208.2671     85.0460   6.0301897720e+01   2.0955639589e+01    0.3801516    0.2144092 -57.26 0.0008853365    2.244    0.554
        83 -12.2993    172.9636     77.0024   6.4709533456e+01   3.1061151501e+01     1.091365    0.8453927  42.87  0.001161976    1.328    0.247
        84 -11.8150    124.6291     82.7336   7.8138466979e+01   4.1559190218e+01     1.185078    0.5310085 -50.06  0.003559097    2.552    0.608
        85 -10.7431    128.3504     78.6785   7.5856100577e+01   4.1539266093e+01    0.5829625    0.4054479 -63.57  0.002483685    1.915    0.478
        86  -9.4817      4.4644     83.9806   1.1830206565e+02   5.7601924309e+01    0.1917261   0.09289587 -68.64 0.0004440121    1.585    0.369
        87  -8.1912     31.3513     84.1935   1.0908163358e+02   5.5754670373e+01    0.1946162     0.107877 -71.78 0.0009572814    1.819    0.450
        88  -9.4786    191.5237    192.2367   8.8523963695e+01   5.0388785890e+00    0.5531164    0.3104194 -65.37  0.001767379    5.347    0.813
        89  -8.8241     80.5126     79.5257   9.0715788841e+01   5.0771198909e+01    0.2617089    0.1918302 -55.67 0.0006979357    1.399    0.285
        90 -10.5980    110.0400     74.7816   7.9828237286e+01   4.6290717668e+01    0.3410504    0.2874875 -37.59 0.0007168597    1.155    0.134
        91  -8.8154    212.7240    200.5693   8.5901570731e+01  -8.2607082068e-02    0.2110125    0.1999182   1.44 0.0005563752    1.235    0.190
        92  -8.8857    213.8939    195.9023   8.4801127678e+01   4.2994631435e-01    0.1982788    0.1684278  14.20 0.0003737242    1.013    0.013
        93  -7.4804    130.7064    163.7255   9.6544473724e+01   2.2288890734e+01    0.1400698    0.1172841  -1.74  0.000210185    1.522    0.343
        94  -8.1953    203.7146    160.5982   7.9622900957e+01   8.2426264243e+00     0.193201    0.1371029  50.96 0.0004964392    1.556    0.357
        95 -11.5568    203.9846     37.7483   4.8225113366e+01   2.9267699693e+01    0.5688655    0.2095266 -33.21    0.0019875    2.582    0.613
        96  -9.2625    200.8106     31.7409   4.7011525964e+01   3.0843335655e+01    0.4437422     0.254618  -7.42  0.001798044    2.803    0.643
        97  -7.8539    226.9727    193.0000   8.1779688040e+01  -1.3788339640e+00    0.2094945   0.06912306  41.24   0.00079485    2.890    0.654
        98  -8.0976    163.2437     33.5700   5.3266748309e+01   4.0264011608e+01    0.1979548    0.1266426  51.45  0.000236943    1.481    0.325
        99  -8.6993     57.4827     30.9067   8.1917618532e+01   6.3617152463e+01    0.1925633    0.1144037 -35.27 0.0008367377    1.541    0.351
       100  -9.4370    214.1230    191.0396   8.3825410133e+01   1.1474977830e+00    0.1991049    0.1724411  12.80 0.0002996179    1.025    0.024
       101 -13.1917    225.2568     64.6897   5.2387781620e+01   2.0219435182e+01     1.567362    0.7857096  35.50  0.005626329    3.422    0.708
       102  -8.3804    177.7324     25.8875   4.8547136497e+01   3.7462893402e+01    0.2012282    0.1761997  42.79 0.0006070059    1.209    0.173
       103  -7.8863    201.7079     24.2665   4.4873236028e+01   3.1534079234e+01    0.1397992   0.09609263 -68.19  0.000195823    1.506    0.336
       104  -8.7133    171.1337     22.3039   4.8454320102e+01   3.9583748796e+01     0.328855    0.1852983 -31.98    0.0014671    1.843    0.458
       105  -8.8651    158.8811     23.9996   5.0959437047e+01   4.2553228025e+01    0.3189581    0.2134081  49.46  0.001061677    1.418    0.295
       106  -8.2700    165.4218     17.8029   4.7932535584e+01   4.1555408006e+01    0.1758428    0.1373169   1.15 0.0004933853    1.552    0.356
       107  -8.3403     79.2027     17.9704   6.8005923337e+01   6.1756725856e+01    0.2092349    0.1303396   1.62 0.0004784851    1.821    0.451
       108  -7.9586    222.3284    188.3658   8.1743614998e+01   1.2235651447e-01    0.1454821   0.09439147   3.95   0.00070368    1.808    0.447
       109 -10.0191    182.0509    186.9825   8.9480958109e+01   7.7208331524e+00    0.2322692    0.2313142 -77.63 0.0003469164    1.188    0.158
       110  -8.1430    134.2860    186.9696   9.9878266564e+01   1.6684267083e+01    0.1800263    0.1736195  76.49 0.0002259306    1.076    0.071
       111  -8.1541    229.6741     12.6936   3.9059597830e+01   2.6076269591e+01    0.1237136   0.09610131  42.24 0.0007035822    1.649    0.394
       112  -9.3830    248.9507    185.7191   7.6415922846e+01  -3.9495018195e+00    0.2448814    0.1744888 -31.98  0.001176765    1.405    0.288
       113  -8.2361    240.5499    186.5657   7.8055349778e+01  -2.7042580870e+00    0.1321683    0.1086605   2.16 4.577363e-05    1.015    0.015
       114  -9.8835    215.8677    183.8160   8.2071049513e+01   1.9839365578e+00    0.2200103    0.1746659   5.98  0.001245135    1.197    0.165
       115  -8.7719     67.0938    182.2135   1.1448087208e+02   2.8520037791e+01    0.1715885    0.1571956  83.54  0.000300569    1.140    0.123
       116 -12.7509      9.0147    172.4566   1.2629898235e+02   3.7009348771e+01    0.8398117     0.607965  89.83  0.003920754    1.061    0.058
       117  -9.3886    244.1356    179.1068   7.5930139331e+01  -2.2065429304e+00    0.2138782    0.1593013   1.49  0.001236879    1.253    0.202
       118 -10.0603    221.1418    176.9854   7.9685104165e+01   2.1289899354e+00    0.4598869    0.3497697  78.42  0.002203275    2.536    0.606
