#   1 NUMBER                 Running object number                                     
#   2 MAG_AUTO               Kron-like elliptical aperture magnitude                    [mag]
#   3 X_IMAGE                Object position along x                                    [pixel]
#   4 Y_IMAGE                Object position along y                                    [pixel]
#   5 X_WORLD                Barycenter position along world x axis                     [deg]
#   6 Y_WORLD                Barycenter position along world y axis                     [deg]
#   7 A_WORLD                Profile RMS along major axis (world units)                 [deg]
#   8 B_WORLD                Profile RMS along minor axis (world units)                 [deg]
#   9 THETA_WORLD            Position angle (CCW/world-x)                               [deg]
#  10 FWHM_WORLD             FWHM assuming a gaussian core                              [deg]
#  11 ELONGATION             A_IMAGE/B_IMAGE                                           
#  12 ELLIPTICITY            1 - B_IMAGE/A_IMAGE                                       
         1 -12.5309    210.7133     26.0986   4.1605418789e+01   2.9541913689e+01    0.9252554    0.7719163  13.00  0.003731521    1.581    0.367
         2 -12.7315    199.2710     37.9094   4.6098586182e+01   3.0843911043e+01     1.408373    0.9883252  38.78  0.007122064    1.712    0.416
         3  -7.9372     60.3107      7.6845   6.6472445203e+01   6.6271240147e+01    0.1077584   0.09975072 -47.44 0.0006152685    1.636    0.389
         4 -10.8449    235.2577      2.7671   3.3859052131e+01   2.6477084161e+01     0.721128    0.2977624  75.53  0.003465698    2.284    0.562
         5  -8.8264     54.2373    222.3342   1.1889418139e+02   2.1486820002e+01    0.4268956     0.160064  55.84   0.00196306    2.566    0.610
         6 -11.5025     13.9769    191.3095   1.2454605136e+02   3.2244665502e+01    0.5905325     0.236294 -62.68  0.003046217    2.349    0.574
         7 -12.8089     85.7698    227.6470   1.1317542870e+02   1.6299162466e+01     2.378774     1.832222  75.44   0.01201032    1.229    0.187
         8 -12.5480     45.2432    203.0256   1.1906343185e+02   2.6526031894e+01     2.566648     1.047606  66.55  0.002858291    3.088    0.676
         9  -7.6742     61.2686    220.3109   1.1734332228e+02   2.1015125668e+01     0.103039   0.09161069 -46.56 0.0002187433    1.544    0.352
        10  -8.7518     93.0153    217.8376   1.1064228043e+02   1.7166091554e+01    0.1967456    0.1684629  89.96 0.0004415306    1.172    0.147
        11 -12.1212     53.9841    191.9854   1.1616659758e+02   2.7888919992e+01    0.9104993    0.7519633 -76.94   0.00594172    1.174    0.148
        12  -8.6894     65.7866    207.3486   1.1519736996e+02   2.3089359871e+01    0.2827844     0.174045 -69.12 0.0009769211    1.603    0.376
        13  -9.5861     64.0591    202.4542   1.1506379397e+02   2.4349786834e+01    0.2468093    0.1797601 -67.72  0.001144143    1.380    0.276
        14  -8.1366    113.5360    207.5086   1.0497525282e+02   1.6079113447e+01    0.1336216    0.1175201  56.87 7.075434e-05    1.027    0.026
        15  -8.1467    249.6677    204.6583   7.6984451035e+01  -6.0358092248e+00    0.1343985    0.0810013   1.39 7.348831e-05    1.752    0.429
        16  -8.3471    191.5086    192.0023   8.5577041099e+01   5.4283432758e+00    0.1732554    0.1253281 -67.69  0.000577425    2.345    0.574
        17  -7.8104     99.4435    181.2088   1.0435580942e+02   2.3938585770e+01    0.1884654    0.1307313 -76.93 0.0009413756    1.589    0.371
        18 -10.2755     68.4022    176.7261   1.1111460694e+02   2.9512832295e+01    0.4108976    0.2647784 -39.52   0.00152491    2.092    0.522
        19 -10.3246     73.0052    171.5547   1.0931242954e+02   3.0093278913e+01    0.3327011    0.2366226 -47.85  0.000840161    1.565    0.361
        20  -8.5125     39.7392    177.5498   1.1788579335e+02   3.2770790275e+01    0.2416909    0.1465715  65.40 0.0006731828    1.606    0.377
        21  -8.2486     28.6344    167.8373   1.1948370673e+02   3.6136635066e+01    0.1833343   0.09863662 -85.98 0.0008028781    1.699    0.411
        22  -9.3633     33.8805    165.5211   1.1802226720e+02   3.6162620896e+01    0.4195744    0.2091996  63.06  0.001738309    2.204    0.546
        23 -10.8812     82.1464    162.2102   1.0564260800e+02   3.1000054976e+01    0.6114064    0.3491841  60.80 0.0004851968    2.114    0.527
        24 -11.2070     58.8605    131.9353   1.0689420984e+02   4.1537709381e+01     1.014473    0.3204136 -68.32  0.003188132    3.767    0.735
        25 -11.9303     69.9848    157.6048   1.0804157885e+02   3.3822428622e+01    0.6042162    0.4433978 -34.02  0.001322078    1.742    0.426
        26 -11.9403     68.4965    144.4304   1.0633370615e+02   3.7226918803e+01    0.8582329    0.5932413  81.44  0.003337477    1.694    0.410
        27  -9.5660     31.7797    157.0940   1.1763423918e+02   3.8353438473e+01    0.2834182     0.194916   1.76  0.001558642    2.268    0.559
        28  -9.5385     54.1946    149.5944   1.1097412986e+02   3.7764889612e+01    0.2913034    0.1332978 -46.62  0.001220272    2.464    0.594
        29 -10.9632     31.5266    144.3210   1.1622951236e+02   4.1433198617e+01    0.5050142    0.2678832 -67.23   0.00261008    1.559    0.359
        30  -9.4172     50.4693    145.4633   1.1136826298e+02   3.9202957266e+01    0.2335414     0.105413  43.98  0.001026061    2.328    0.570
        31  -8.5594     83.1083    143.0822   1.0209952541e+02   3.5477344307e+01    0.2178886    0.1963039 -87.84 0.0004683516    1.088    0.080
        32  -8.9045    133.9897    145.7663   8.9142905871e+01   2.5882020512e+01     0.857706    0.1845769 -54.06  0.001605506    8.889    0.888
        33  -8.4121    101.4937    141.4795   9.6763915352e+01   3.2905107664e+01    0.2364074    0.1840537 -27.97 0.0001259201    1.528    0.346
        34  -8.3635    103.9754    138.5287   9.5471517907e+01   3.3184515528e+01    0.3951451     0.257311   6.65  0.001546643    2.639    0.621
        35 -10.6413     89.7752    140.2196   9.9718622176e+01   3.5143531733e+01     0.294044    0.2645353 -42.58 0.0003763404    1.152    0.132
        36  -8.1119     37.6739    141.2931   1.1421753018e+02   4.1577522803e+01    0.1334669   0.08879331  70.56 0.0001864264    1.621    0.383
        37  -8.2740    158.8282    162.1828   8.6690437659e+01   1.7359531433e+01    0.2148683     0.203848  76.04 0.0005073179    1.182    0.154
        38  -9.1578    111.4624    130.6990   9.1685291820e+01   3.3706384542e+01    0.3088319    0.2545722  -4.45  0.001013512    1.491    0.329
        39  -8.6900    105.4898    130.4576   9.3285163772e+01   3.4850029271e+01     0.307489    0.2562153  85.24   0.00136562    1.405    0.288
        40  -9.3926     38.5510    146.1277   1.1461696966e+02   4.0316889931e+01    0.2580983    0.1758037  38.50 0.0007216317    1.608    0.378
        41  -9.0714     43.9702    129.3438   1.1073876015e+02   4.3862402756e+01    0.2741792    0.1279747  27.65  0.001233582    2.487    0.598
        42  -9.3717     98.7874    126.6845   9.4321148130e+01   3.6932179267e+01    0.3066497    0.2385487 -11.04 0.0008206622    1.668    0.400
        43  -9.3577    119.9994    122.9822   8.7495518024e+01   3.3888673794e+01    0.2309249    0.1900405 -17.15  0.001106112    1.400    0.285
        44 -10.3049     88.2567    155.6408   1.0297660652e+02   3.1650083885e+01    0.5350943    0.3815979 -24.28  0.001434836    2.004    0.501
        45  -9.2459    134.6725    120.0623   8.2818636601e+01   3.1568721619e+01    0.3266602    0.1420652 -51.68  0.001101051    2.506    0.601
        46  -8.2460    107.9680    119.3127   8.9955044124e+01   3.7045563599e+01    0.2057925    0.1925744  33.73 0.0002408356    1.115    0.103
        47  -9.9139     52.9935    116.3063   1.0578338579e+02   4.6081383350e+01    0.3291027    0.1814781 -70.53   0.00149795    1.820    0.450
        48 -13.7122     57.0376    246.3131   1.2021412244e+02   1.6619238055e+01     5.099859     1.779235  26.90  0.005872343    8.590    0.884
        49  -8.4027    205.0941    110.4650   6.4436662451e+01   1.7790237078e+01    0.2251261    0.1492087  47.15  0.001024965    1.593    0.372
        50  -8.9188    115.0000    106.9944   8.4757460494e+01   3.8546822902e+01    0.2617762   0.08624274 -46.89 0.0008000708    2.926    0.658
        51  -9.0030    134.0000    106.0093   7.9243631673e+01   3.4817672353e+01    0.2687926   0.08863724 -43.65  0.000780555    2.963    0.663
        52  -9.2814     33.8914    100.5053   1.0884711897e+02   5.1858761669e+01    0.2289723     0.152337 -47.71 0.0007995014    1.325    0.245
        53  -8.3954     41.6992     91.9940   1.0444859837e+02   5.3153403600e+01    0.1971819    0.1494375 -53.30 0.0005337345    1.105    0.095
        54  -7.9788     56.5119     66.5005   9.2182810583e+01   5.7206656648e+01    0.1387744    0.1180795 -30.05 -8.692194e-05    1.005    0.005
        55 -14.9450      9.4508    241.9731   1.2811747069e+02   2.2626827150e+01     4.631819     1.754969  31.69   0.01463564    3.038    0.671
        56  -9.4684    125.6042    244.1627   1.0715037174e+02   7.4724718104e+00    0.2314541    0.1613787 -75.23  0.001394045    1.882    0.469
        57 -11.7565    189.6050     44.9229   4.9412540403e+01   3.2293094415e+01    0.7007934    0.5045887  30.46  0.001722614    1.742    0.426
        58  -9.2254     60.7892    233.4589   1.1854785852e+02   1.8519216181e+01    0.2083551    0.1603904  71.25 0.0003886417    1.077    0.071
        59  -9.6431    144.1218     48.8805   5.9004679440e+01   4.3102054676e+01    0.3110087    0.2542422 -74.53 0.0007283856    1.498    0.333
        60 -10.8380     46.2770    221.6348   1.2037432035e+02   2.2576792248e+01    0.5472227    0.2467964  64.87  0.001555292    2.247    0.555
        61  -7.7868    146.6958     43.2793   5.6589278820e+01   4.3272487698e+01    0.1432403    0.1135451 -73.35 0.0003602014    1.550    0.355
        62  -8.4803     33.9143    227.6072   1.2311057062e+02   2.2802944882e+01    0.1505114    0.1251891  41.57 0.0006089635    1.420    0.296
        63 -15.3533      6.5114    203.4034   1.2673419120e+02   3.0361288497e+01     18.73686    0.9286529 -76.74  0.007886375   14.085    0.929
        64  -7.8337     68.1926     52.3818   8.2875685941e+01   5.8345298773e+01    0.1788748     0.127183  43.71 0.0009351107    1.662    0.398
        65  -9.4301     32.4158     17.2245   8.3541504530e+01   6.9085405594e+01    0.1622991    0.1024616 -41.55 0.0007025818    1.669    0.401
        66 -10.7817    169.0887    222.3095   9.5473626905e+01   4.1518486625e+00    0.4380154    0.2313785  20.02  0.001866421    2.639    0.621
        67  -8.5792     53.9165    231.0426   1.1964880972e+02   1.9829250322e+01    0.2165105    0.1400448 -80.03 0.0008115638    1.504    0.335
