#   1 NUMBER                 Running object number                                     
#   2 MAG_AUTO               Kron-like elliptical aperture magnitude                    [mag]
#   3 X_IMAGE                Object position along x                                    [pixel]
#   4 Y_IMAGE                Object position along y                                    [pixel]
#   5 X_WORLD                Barycenter position along world x axis                     [deg]
#   6 Y_WORLD                Barycenter position along world y axis                     [deg]
#   7 A_WORLD                Profile RMS along major axis (world units)                 [deg]
#   8 B_WORLD                Profile RMS along minor axis (world units)                 [deg]
#   9 THETA_WORLD            Position angle (CCW/world-x)                               [deg]
#  10 FWHM_WORLD             FWHM assuming a gaussian core                              [deg]
#  11 ELONGATION             A_IMAGE/B_IMAGE                                           
#  12 ELLIPTICITY            1 - B_IMAGE/A_IMAGE                                       
         1 -12.9956    195.6747     31.8247   6.5629385309e+01   3.2788669019e+01    0.9783945    0.9403024  -9.78    0.0063175    1.336    0.251
         2 -13.8421    210.1812     14.6980   5.9969623723e+01   3.1405895729e+01     1.261898     0.955765  37.76  0.007505586    1.863    0.463
         3 -11.6748      2.1932     12.2014   1.1277749608e+02   7.1145345219e+01    0.4531318    0.1457402 -46.53  0.002315918    2.966    0.663
         4 -12.1979      1.9221      3.5470   1.0919772890e+02   7.2309550755e+01    0.5341991     0.328174  19.94  0.004006734    1.634    0.388
         5 -11.2057    176.1039    242.5896   1.1643433341e+02  -2.0800075379e+00    0.3776118    0.2557862  62.76  0.001254667    1.974    0.493
         6  -9.6870    204.8169    250.4126   1.1211304266e+02  -8.0129358943e+00     0.181227     0.101205  28.77 0.0004462226    1.659    0.397
         7  -9.9628    193.1252    249.8403   1.1425065467e+02  -6.0586817512e+00    0.2051658    0.1726687   1.45 0.0006639708    1.212    0.175
         8 -10.0908    184.1438    250.4705   1.1607860267e+02  -4.6879198208e+00    0.2120045    0.1278416  35.03  0.001151881    1.432    0.302
         9 -10.5959    169.7997    248.4694   1.1856999360e+02  -1.9788865203e+00    0.3467024    0.2375529   6.38 0.0007914312    2.092    0.522
        10 -11.3285    149.5244    248.2456   1.2252938645e+02   1.4938974334e+00    0.3700879    0.3070578 -83.23   0.00229959    1.465    0.318
        11 -10.6246    143.3985    249.5224   1.2391212962e+02   2.3099250932e+00    0.2209432    0.1989919  74.12 0.0008827178    1.181    0.153
        12 -10.5973    136.1410    248.8048   1.2524439477e+02   3.6600539902e+00    0.2666623    0.2140837 -37.87  0.001074055    1.593    0.372
        13 -10.7570    132.2031    248.5489   1.2598585573e+02   4.3675162769e+00    0.3475793    0.2492713  70.08  0.001472113    1.537    0.349
        14 -10.6658     84.4394    240.5700   1.3439730413e+02   1.3591746013e+01    0.4472737    0.3131441 -82.35  0.002689685    1.422    0.297
        15 -10.7139    104.7868    238.0989   1.3011042809e+02   1.0882614024e+01    0.4076199    0.2870571  10.60  0.001973457    2.712    0.631
        16 -12.8772    124.2808    244.1905   1.2698786393e+02   6.4924370144e+00    0.9688773    0.8411731  22.64  0.006102829    1.399    0.285
        17 -11.8497     98.8486    232.7202   1.3065169754e+02   1.2918361708e+01    0.9676301    0.3794365 -73.11   0.00340359    4.190    0.761
        18 -10.6372     84.7512    229.4566   1.3311184249e+02   1.5806486560e+01    0.2313897    0.2161767  82.12 3.713611e-05    1.233    0.189
        19 -10.7876     85.1524    234.6290   1.3361296573e+02   1.4679940044e+01    0.4508491    0.2400937  57.07  0.001658961    1.718    0.418
        20 -11.0977     96.9083    239.7480   1.3186881606e+02   1.1820933253e+01    0.4533392    0.2986418 -38.87  0.002342439    2.429    0.588
        21 -10.0601    102.9444    247.3168   1.3155516354e+02   9.3964300777e+00    0.2470807    0.1908965  81.24 0.0008179135    1.266    0.210
        22 -11.3575     98.8313    246.9212   1.3230578818e+02   1.0123556819e+01    0.5511855    0.3480779  60.67  0.002440824    1.422    0.297
        23 -10.8094    113.3389    230.4063   1.2740148135e+02   1.1000776943e+01    0.3245554    0.2501816  64.26  0.001125415    1.188    0.158
        24 -12.1423    105.6818    228.5131   1.2873121235e+02   1.2662023293e+01    0.7671145    0.4428104  68.76  0.003611342    2.063    0.515
        25 -11.3953     99.2456    223.3747   1.2940415119e+02   1.4785439016e+01    0.4085136    0.2687003  52.65  0.001128274    1.350    0.259
        26 -11.3543    109.6420    246.8976   1.3020477643e+02   8.3995157567e+00     0.531285    0.3561929 -78.08   0.00255193    1.700    0.412
        27 -10.6630     91.0636    241.6913   1.3323236669e+02   1.2353418885e+01    0.3526923    0.2408857  71.53  0.001523663    1.384    0.277
        28 -10.8300     89.8261    238.2247   1.3309072388e+02   1.3233739705e+01     0.282546    0.2060002 -60.08  0.001173489    1.550    0.355
        29 -11.0928     87.1674    247.9418   1.3464785829e+02   1.1733825734e+01    0.3729179    0.2870697  45.35  0.001073111    1.286    0.222
        30 -13.0320     62.1487    244.2340   1.3897524677e+02   1.6098446970e+01     2.047637     0.802542  45.64    0.0100597    2.127    0.530
        31 -14.5370      6.7006    153.8939   1.4173363995e+02   4.2372637836e+01     4.958699    0.4879773 -68.17   0.01516905    5.007    0.800
        32 -10.7213    116.6561    238.5471   1.2778672374e+02   8.8388903797e+00    0.3804877    0.2726671 -32.17  0.001751277    2.156    0.536
        33  -9.5354    173.0223    235.9632   1.1600581872e+02  -4.3216216373e-01    0.1926167    0.1738729  36.23 0.0002965488    1.038    0.037
        34  -9.6805    165.5513    234.5074   1.1728233062e+02   1.1274028593e+00    0.1333046    0.1179524  35.90 0.0008082911    1.022    0.022
        35 -10.7201    156.7503    231.7672   1.1864765834e+02   3.1737325427e+00    0.2421748     0.233229 -18.97 0.0003966638    1.174    0.148
        36 -10.3520     62.9314    232.9771   1.3778005379e+02   1.8270487354e+01       0.1877    0.1517689  65.20 0.0003259383    1.101    0.091
        37  -8.9606     78.1553    233.5539   1.3487635987e+02   1.5956579011e+01    0.1540039    0.1168769  34.26 0.0005527135    1.579    0.367
        38 -10.5473     81.5810    246.7347   1.3558218383e+02   1.2808895170e+01    0.4166039    0.2368255  86.25   0.00217486    2.034    0.508
        39 -10.0023    157.9106    242.5068   1.2003937004e+02   1.0534868183e+00    0.2219677    0.1980976 -52.75 0.0006354688    1.299    0.230
        40 -10.6737    142.1848    229.7262   1.2133855086e+02   6.1382361405e+00    0.3828789    0.2582079 -30.16  0.001898643    2.126    0.530
        41  -8.7415     57.4016    231.2229   1.3867469339e+02   1.9394585654e+01    0.1606154     0.100614 -88.82 0.0009201944    1.476    0.323
        42  -8.9857    180.6661    229.3100   1.1338257567e+02  -6.1762055437e-01    0.1315905    0.1029326  68.61 0.0002422777    1.676    0.403
        43 -10.2494    128.6845    228.4659   1.2395731921e+02   8.7571585295e+00    0.2227677    0.1662559 -32.48  0.001149151    1.842    0.457
        44 -10.7404     79.4584    225.9786   1.3378537196e+02   1.7340389122e+01    0.4636735    0.2658612 -74.34  0.001406759    1.771    0.435
        45  -9.6413     77.2631    220.9425   1.3365979947e+02   1.8744004446e+01    0.2015291    0.1629438  72.20 0.0004410676    1.034    0.033
        46 -10.4378     92.4850    225.9657   1.3112752539e+02   1.5328611021e+01    0.2873285    0.1645414  53.07 0.0009239755    1.562    0.360
        47  -8.3520    147.2777    225.3187   1.1960563946e+02   6.0771642585e+00     0.129188    0.1070063  -0.55 0.0002214132    1.576    0.365
        48  -9.6855    132.4083    224.7027   1.2263047054e+02   8.8505504917e+00    0.2298123    0.1693897  21.38  0.001186567    1.729    0.422
        49 -10.1195    117.3611    224.2839   1.2573317847e+02   1.1560472736e+01    0.2418822    0.2142578  64.97 0.0002170764    1.023    0.022
        50  -9.9811     64.8361    224.2113   1.3653034784e+02   1.9846119967e+01    0.2846515    0.1871138 -81.57   0.00112707    1.417    0.294
        51 -13.4116    123.8003    233.5450   1.2567491238e+02   8.6028430355e+00     1.960805    0.5960138  36.30  0.006566348    3.696    0.729
        52 -10.5949    161.0462    223.4539   1.1643440427e+02   3.9476375922e+00    0.3913031    0.2481088  15.67  0.001169888    2.404    0.584
        53 -11.1328    142.2391    221.6070   1.2008609471e+02   7.7094045614e+00    0.4062834    0.2396968  39.85  0.001078325    1.566    0.361
        54  -9.9065    110.7941    220.5186   1.2659511079e+02   1.3463365730e+01    0.3923895    0.1081893 -58.30  0.001216395    3.902    0.744
        55 -10.8161     69.8492    217.5346   1.3479711443e+02   2.0572276791e+01    0.7383543    0.3347371 -81.45  0.003086348    2.770    0.639
        56  -9.4695    104.9093    218.5665   1.2757599504e+02   1.4867919823e+01    0.1986507    0.1712833 -79.38 0.0002814681    1.167    0.143
        57  -8.5993    173.2628    218.7011   1.1309674649e+02   2.6143800239e+00    0.1287505     0.106764  76.33 0.0001736181    1.512    0.339
        58 -10.4769    115.4457    250.4317   1.2949550903e+02   6.7993828010e+00    0.3511929    0.1537222  45.94 0.0008785471    1.897    0.473
        59  -9.7837     88.3633    213.2687   1.3040045400e+02   1.8708384321e+01     0.393662    0.2120063 -84.86   0.00158204    2.423    0.587
        60 -10.5371    137.3537    214.4615   1.2000140929e+02   1.0037429649e+01    0.2773013    0.2240484  88.54  0.001353169    1.396    0.284
        61  -9.1271    159.9804    213.7148   1.1502791709e+02   6.0137190919e+00    0.1905315    0.1697552  41.23  0.000369792    1.037    0.036
        62 -10.2167    102.4642    212.1976   1.2722244909e+02   1.6649778095e+01    0.3911778    0.2093177  68.24   0.00160452    2.530    0.605
        63  -9.7396    107.1942    209.4398   1.2579929338e+02   1.6453745553e+01    0.3196648    0.2342825 -23.12  0.001428304    2.294    0.564
        64 -10.1250     73.6053    209.4835   1.3307570811e+02   2.1802512397e+01    0.4002472    0.2577602  17.27  0.001846015    2.796    0.642
        65  -9.6360    112.5676    208.3203   1.2445449634e+02   1.5772634899e+01    0.2425763    0.2118825  54.87 0.0004642663    1.085    0.078
        66  -9.0866     29.1743    208.6363   1.4211538420e+02   2.7759345895e+01    0.1948473    0.1208041  62.55  0.001165491    1.426    0.299
        67  -8.8579    134.3233    208.3319   1.1967140372e+02   1.1870150200e+01    0.1393351    0.1142907  -4.87 0.0003483911    1.703    0.413
        68 -10.1163     96.5422    206.4833   1.2771452691e+02   1.8894194023e+01    0.3671523    0.2188313 -88.72  0.001207469    2.151    0.535
        69 -10.6155     91.3367    204.3997   1.2857074257e+02   2.0209465571e+01     0.503876    0.3692036  42.16   0.00138253    1.381    0.276
        70  -9.4027     32.8564    206.8979   1.4123185922e+02   2.7725034414e+01    0.1700221    0.1389908 -76.39 0.0002914763    1.243    0.196
        71  -9.6418     74.8246    203.6419   1.3209182900e+02   2.2939065501e+01    0.2811952    0.2228895   2.47 0.0006177253    2.118    0.528
        72  -9.6825    103.2736    202.7399   1.2568179769e+02   1.8608050866e+01    0.3779437     0.212685  57.83  0.001383121    1.855    0.461
        73 -10.9276     84.1739    201.5748   1.2976759459e+02   2.1986358696e+01    0.3467156    0.2361384 -48.33            0    1.742    0.426
        74  -9.2819     86.1246    195.6288   1.2850529542e+02   2.3046660111e+01    0.2163353    0.1739739  77.56 0.0005141777    1.151    0.131
        75  -8.8082    133.2983    202.0718   1.1886056508e+02   1.3397974136e+01    0.2310127    0.1038174 -35.74 0.0007030243    4.330    0.769
        76 -12.0839    135.3766    241.1306   1.2436334042e+02   5.1793662832e+00    0.5138949    0.4369838  42.50  0.002898287    1.103    0.094
        77  -8.3926    183.0007    200.2741   1.0772616124e+02   4.2988566048e+00    0.1731519    0.1203981  40.43 0.0002441073    1.374    0.272
        78  -9.3481    127.8641    199.7745   1.1969198762e+02   1.4904576866e+01    0.1955429    0.1921883  38.87 0.0004812068    1.144    0.126
        79  -8.7824    115.1887    200.4195   1.2265152467e+02   1.7057677530e+01     0.192202    0.1230285  54.33 0.0002393245    1.518    0.341
        80 -10.7048    135.2475    236.6126   1.2376214190e+02   6.0439800531e+00    0.3486375    0.2397031 -21.95  0.001686669    2.503    0.600
        81  -9.0858    119.7400    199.3470   1.2145254590e+02   1.6481730288e+01    0.1460804    0.1060132  81.39 0.0002441065    1.600    0.375
        82 -10.0965     53.7801    197.6405   1.3593671084e+02   2.7252607797e+01    0.3371615    0.2009648  49.52  0.001812357    1.605    0.377
        83  -9.3988     57.8158    198.8340   1.3520175188e+02   2.6444194189e+01    0.2522035    0.1681069  55.88 0.0006122561    1.406    0.289
        84 -11.6744     61.0547    194.4893   1.3397365718e+02   2.7008748378e+01    0.5625651    0.3453074  41.73  0.001987321    1.665    0.399
        85  -9.2952     44.8434    198.9537   1.3799050143e+02   2.8085592438e+01    0.2925924    0.1765015  37.61  0.001433826    1.815    0.449
        86  -9.5649    102.1835    196.3283   1.2495881577e+02   2.0247493547e+01    0.3913824    0.2639143 -24.83  0.001264161    2.730    0.634
        87  -9.6417     97.4873    196.2903   1.2602213776e+02   2.1047662844e+01    0.3469863    0.1888378  42.83 0.0008573891    1.772    0.436
        88  -8.3036    153.5557    196.4794   1.1336844171e+02   1.0745250483e+01    0.1445897    0.1383888  47.68 3.928565e-05    1.024    0.024
        89  -9.7495     38.6270    192.2114   1.3860313695e+02   3.0375034261e+01    0.2643088    0.1590378 -61.61 0.0009006813    1.583    0.368
        90  -9.8810     41.5396    189.5228   1.3768428463e+02   3.0653621406e+01    0.3787851    0.2015588  89.33  0.001841994    1.952    0.488
        91 -10.5572    249.8628    194.0417   9.3614052173e+01  -6.4417827607e+00    0.3192892    0.2486775 -10.96  0.001917333    1.210    0.174
        92 -10.4746    250.3045    187.9222   9.2333863734e+01  -5.5123632985e+00     0.416137    0.1651406 -32.02   0.00168141    2.594    0.615
        93  -9.4343    113.0236    191.9306   1.2176920377e+02   1.9363700551e+01     0.264843    0.1817109 -34.21 0.0009836741    2.015    0.504
        94 -13.6126     28.5527    247.0809   1.4516217554e+02   1.9840141392e+01     1.388781    0.8075885  59.44   0.00777453    1.359    0.264
        95 -13.3021     40.7171    243.2212   1.4277185754e+02   1.9124349599e+01     1.071475    0.6236884  86.75  0.005090017    1.514    0.340
        96  -9.3618     38.8229    195.9975   1.3895492983e+02   2.9484336848e+01    0.2209037    0.1249506  73.92  0.001143583    1.777    0.437
        97  -8.7211    119.9020    194.2947   1.2058114352e+02   1.7585117001e+01    0.2535045   0.09197602  55.56 0.0003260713    4.431    0.774
        98  -9.4565     72.5539    193.0312   1.3121648896e+02   2.5719536848e+01    0.1904431     0.166262  73.56 0.0003053179    1.071    0.066
        99 -10.4339     25.6079    192.3144   1.4136495794e+02   3.1796408804e+01    0.2446695    0.1544174  71.50 0.0009380172    1.444    0.307
       100  -9.7168    191.4809    191.4552   1.0424758146e+02   4.3865067732e+00    0.2455589    0.2337168   6.20 0.0006842915    1.014    0.014
       101 -10.7856    250.1319    200.4979   9.4820014974e+01  -7.5181212537e+00     0.361613    0.1602629 -25.07  0.001464964    2.860    0.650
       102  -8.5654    135.1674    190.1732   1.1636363566e+02   1.5659010568e+01    0.1966546    0.1640237  75.80 0.0003094492    1.265    0.209
       103 -10.1435     51.0237    189.5090   1.3559606696e+02   2.9491887723e+01    0.2322632    0.1627775 -76.64 0.0008303695    1.239    0.193
       104  -9.9853     32.0778    189.7501   1.3975038563e+02   3.1683976597e+01    0.3298973    0.2229188  34.48  0.001966444    1.758    0.431
       105 -13.6709      4.9769    245.2801   1.4895919411e+02   2.2791518888e+01     1.188561    0.6907786  87.23  0.008210958    1.309    0.236
       106  -9.9470     76.8627    188.7509   1.2964594835e+02   2.6083326060e+01    0.2371858    0.2262392 -38.78 0.0008270377    1.340    0.254
       107 -11.6721     67.6482    187.2406   1.3155565859e+02   2.7787826369e+01    0.3242714    0.2404366 -52.75 0.0005640575    1.480    0.324
       108  -8.6333     83.3258    186.7161   1.2785330161e+02   2.5572302303e+01    0.1459807   0.09793403  71.68 0.0007003878    1.602    0.376
       109 -10.3717     27.5156    184.5492   1.4020368155e+02   3.3372698331e+01    0.4354807    0.2512553  26.85  0.002365937    2.293    0.564
       110  -9.2905     24.2265    184.3693   1.4089356358e+02   3.3754905719e+01    0.2043252    0.1587433  64.44 0.0006275797    1.237    0.192
       111  -9.2791     36.9359    183.8098   1.3806657942e+02   3.2516218653e+01     0.213531    0.1156607  60.16 0.0007854901    1.891    0.471
       112  -9.3059    140.1458    183.1897   1.1392435496e+02   1.6258103922e+01    0.2061989    0.2011674  20.88 0.0002875325    1.120    0.107
       113 -12.7226    248.9180    171.4707   8.9261798182e+01  -2.5031029805e+00     1.172129    0.4596871 -40.56  0.004839364    2.288    0.563
       114 -13.1443    248.4091    114.0614   7.7199411767e+01   7.8033496047e+00     1.386717    0.8593231 -28.83  0.006645888    1.812    0.448
       115 -12.8382    248.2273    101.3974   7.4491616996e+01   1.0063205647e+01     1.069425    0.4664658 -40.23  0.004550441    2.035    0.509
       116 -12.1519    247.7191    142.1225   8.3329987864e+01   2.9049013486e+00    0.8981906    0.6846375  57.49  0.004967046    1.545    0.353
       117 -12.4917    248.5376    133.8878   8.1443097366e+01   4.2321813666e+00     1.080354    0.6838689 -40.70   0.00548275    1.386    0.279
       118  -8.3139    107.5690    182.4934   1.2145833841e+02   2.2524886016e+01    0.1465767    0.1343308  85.52 7.901244e-05    1.010    0.010
       119  -8.7687     65.8250    181.9010   1.3124910059e+02   2.9311946565e+01    0.1831306    0.1388039  76.31   0.00026429    1.258    0.205
       120 -11.0191    249.5383    151.0208   8.4917344340e+01   9.7896715983e-01    0.5224817    0.3193107 -40.17  0.002631059    1.441    0.306
       121  -9.4381    115.7476    178.0539   1.1872206872e+02   2.2091939347e+01    0.2671431     0.198394 -43.23  0.001118491    1.501    0.334
       122 -10.1531     19.8509    179.0390   1.4131418908e+02   3.5416900110e+01    0.1964113    0.1651448  54.85            0    1.318    0.242
       123  -8.7779     92.6337    178.2039   1.2431328161e+02   2.6101627165e+01    0.1840882    0.1270881 -54.22 0.0001152291    1.453    0.312
       124  -9.1318     47.5820    179.7397   1.3519235666e+02   3.2219784369e+01    0.2047468    0.1117311  35.94 0.0007126799    2.021    0.505
       125 -11.1775     77.5209    175.0162   1.2745541765e+02   2.9260922339e+01    0.3104099    0.2314465 -53.32 0.0004391565    1.383    0.277
       126  -9.0534     68.5544    175.5342   1.2969564577e+02   3.0452079463e+01    0.2663542    0.1255004 -68.67  0.000673926    2.054    0.513
       127 -11.8230     64.3312    173.3217   1.3038786899e+02   3.1577221107e+01    0.4213769    0.2459662 -50.94 0.0006131654    1.789    0.441
       128 -10.2372     68.5964    166.4978   1.2831472820e+02   3.2633561777e+01    0.2474854    0.2086565 -78.45 0.0001872917    1.048    0.046
       129 -11.9280    107.8325    172.8702   1.1969671977e+02   2.4758374763e+01    0.2744241    0.2563784  76.73 0.0002938197    1.035    0.034
       130  -9.9877     45.0205    164.9405   1.3388592451e+02   3.6061394522e+01    0.2194105    0.1800657 -77.20 0.0003941841    1.037    0.035
       131 -10.1417     45.9709    172.3240   1.3463205346e+02   3.4179153907e+01    0.2306943    0.1743174 -86.53 0.0002990367    1.152    0.132
       132 -10.9580     43.8335    168.9945   1.3470829282e+02   3.5227585014e+01    0.3079458    0.2721005 -57.64  0.000945097    1.264    0.209
       133  -9.8710     28.5016    170.5450   1.3848627335e+02   3.6534945690e+01    0.3409297    0.2054179 -64.41  0.001371999    1.425    0.298
       134  -8.7860     52.5201    170.9693   1.3289523625e+02   3.3701251873e+01    0.1890041    0.1158708 -67.30 0.0003526288    1.423    0.297
       135  -8.4493    150.7573    170.3114   1.0890699774e+02   1.7027029730e+01    0.1485627    0.1185537 -87.05 0.0006875229    1.505    0.335
       136 -11.8632     85.2300    166.6281   1.2418696211e+02   3.0097843761e+01     0.570282    0.5210004  34.92  0.003268271    1.260    0.206
       137  -8.9171    126.5182    167.5345   1.1411501649e+02   2.2527323182e+01    0.1533877    0.1438312  83.64 0.0002860147    1.024    0.024
       138  -8.5589     58.4736    167.4704   1.3095897592e+02   3.3780307673e+01    0.1379254    0.1178262 -84.03 9.733704e-05    1.006    0.006
       139  -8.7597    118.6093    162.8088   1.1511745736e+02   2.5168976188e+01    0.2023519     0.142105 -66.38  0.000312003    1.491    0.329
       140 -10.2096     89.7089    160.1767   1.2191261158e+02   3.0945697874e+01    0.2355801    0.1881844  57.61 0.0003192123    1.273    0.215
       141  -9.1029     73.5185    159.4910   1.2593332028e+02   3.3631908783e+01    0.1434088    0.1266651 -81.94 3.771048e-05    1.015    0.014
       142  -8.3579     52.3078    158.3141   1.3113904246e+02   3.6786159511e+01    0.1334641   0.09664799 -41.39 0.0007027473    1.626    0.385
       143 -11.0325     31.8986    155.6925   1.3587074928e+02   3.9710982818e+01    0.4268236    0.2231564 -56.50 0.0009363668    1.699    0.412
       144 -11.7745     23.0092    154.1860   1.3786250484e+02   4.0928575496e+01    0.5528952    0.2749482  51.20  0.002792438    2.241    0.554
       145 -14.0943     10.6513    208.9436   1.4569723722e+02   2.9641285284e+01     2.284577     1.125579 -70.26   0.01324786    1.719    0.418
       146  -8.2267    112.2881    157.6861   1.1567450612e+02   2.7586750709e+01    0.1543318    0.1159039  83.19 0.0002720534    1.586    0.369
       147  -9.1045    228.3969    155.6115   8.9521900120e+01   4.0986743506e+00    0.2653912    0.1263144 -44.97 0.0006779509    1.994    0.498
       148 -10.3042     84.3546    155.2925   1.2239687220e+02   3.3003243007e+01    0.3531419    0.2306814  23.03            0    2.049    0.512
       149  -9.4196     72.2031    156.3881   1.2574251658e+02   3.4582814797e+01    0.2929065    0.1881287  15.06  0.001301996    2.433    0.589
       150  -8.6012    104.5513    153.5041   1.1680960846e+02   3.0014233222e+01    0.1536621    0.1384764 -88.54 0.0001055638    1.085    0.079
       151  -9.8437    113.9423    150.4895   1.1376368048e+02   2.9005469398e+01    0.3125084    0.2371447 -60.04 0.0003641453    1.288    0.224
       152 -10.2173     98.1763    151.0323   1.1796950127e+02   3.1742775783e+01    0.3239675    0.2763598 -72.16 0.0009190786    1.124    0.110
       153  -9.1496     86.3003    149.9812   1.2088709002e+02   3.3990343797e+01    0.2115391    0.1678577 -64.35  0.000288951    1.170    0.145
       154  -9.3487     52.9845    146.4777   1.2910768734e+02   3.9577415084e+01    0.2175501    0.1606837  69.12 0.0007539056    1.484    0.326
       155 -12.2748     68.3453    144.3962   1.2463453267e+02   3.8065387908e+01    0.6769267    0.4862682  85.28  0.002369067    1.606    0.377
       156  -9.1822    101.2128    146.2369   1.1618941743e+02   3.2372187263e+01    0.3040494    0.1585543 -41.57  0.001181141    2.187    0.543
       157 -10.3600     23.7984    149.4140   1.3707066537e+02   4.1984106718e+01    0.1842254    0.1652577  -5.96 0.0008111603    1.498    0.332
       158 -10.1009    235.9934    145.9556   8.6098578378e+01   4.4306598344e+00     0.218234    0.1988925 -28.77  0.000560821    1.052    0.049
       159 -10.3376     32.3086    145.9541   1.3444299655e+02   4.1994878494e+01     0.192592    0.1463743 -67.09  0.001164911    1.099    0.090
       160  -9.9530    133.2063    140.3037   1.0658310773e+02   2.7580814020e+01    0.3500584    0.2793985 -54.92 0.0008494917    1.234    0.190
       161  -9.6548     37.4690    140.4900   1.3228115961e+02   4.2777637238e+01    0.2359256    0.1142209 -77.38 0.0008025901    2.202    0.546
       162 -10.5606     32.7109    140.7617   1.3358602088e+02   4.3194116322e+01    0.2904428    0.1755777  82.80  0.001297134    1.971    0.493
       163  -9.5093     55.9455    138.7691   1.2699171080e+02   4.1080074595e+01    0.1922294    0.1707641 -47.30 0.0003453809    1.176    0.149
       164 -10.9726     60.5432    136.8454   1.2537561804e+02   4.0957890728e+01    0.3193058     0.233282 -73.15 -3.774713e-05    1.307    0.235
       165  -9.6969     46.0384    138.3007   1.2961900341e+02   4.2373706978e+01    0.1884382    0.1657632 -74.19  0.001162765    1.040    0.039
       166  -9.9081    109.7335    136.0912   1.1170954832e+02   3.3247494037e+01    0.3709483    0.2572112 -28.36  0.001302689    1.873    0.466
       167 -12.9186     14.1918    238.7884   1.4706298701e+02   2.3092401477e+01    0.6238942    0.4516329  70.13  0.001164896    1.097    0.088
       168 -11.0559     44.8144    131.0370   1.2871383110e+02   4.4252311230e+01    0.3894385    0.3005939 -73.31  0.002270761    1.177    0.151
       169 -11.5913     67.8647    129.1865   1.2182602478e+02   4.1815601602e+01    0.4722079    0.3532425 -86.81  0.001425941    1.538    0.350
       170 -10.4198     30.1863    126.6324   1.3207797562e+02   4.6782606291e+01    0.2305073    0.1317967  17.76 0.0006431549    2.328    0.570
       171 -10.5879     59.7413    128.4680   1.2400229687e+02   4.3078536300e+01    0.3263229    0.2301766  64.91  0.001532241    1.741    0.425
       172 -10.6475     33.0659    131.6594   1.3208856808e+02   4.5323487292e+01    0.2698955    0.1828582 -54.10 0.0003105072    1.296    0.228
       173 -13.0341     34.8334    227.7374   1.4262664610e+02   2.3003936696e+01    0.4828474    0.4178995 -75.12   0.00141496    1.392    0.282
       174 -11.6014     23.7819    126.8643   1.3390422883e+02   4.7298594416e+01    0.3195719    0.1988787 -62.71   0.00118055    1.286    0.222
       175  -8.4438     87.9885    124.9914   1.1517425058e+02   3.9747145121e+01    0.1667965    0.1627399 -69.56            0    1.051    0.049
       176 -10.3107    209.9408    125.7580   8.6190825685e+01   1.3689898757e+01    0.3012714     0.222254 -42.96 0.0005147561    1.278    0.218
       177 -14.4952     41.5020    218.6049   1.4058451610e+02   2.4134217966e+01     1.825917     1.554368  12.48   0.01194615    1.900    0.474
       178  -9.7818     54.9317    120.7289   1.2385226728e+02   4.5521843337e+01    0.2550657    0.1930709 -13.61  0.001293992    1.701    0.412
       179 -11.4370     30.0637    119.4437   1.3090432072e+02   4.8474270541e+01    0.3228755    0.2373976  28.89  0.001956162    1.628    0.386
       180  -9.7061    231.8006    116.5859   8.0307633543e+01   1.0734618144e+01     0.188165    0.1383287  71.95 0.0006110187    1.596    0.374
       181 -10.2039     66.3070    115.5177   1.1935787215e+02   4.5263898347e+01    0.2868984    0.2063657  71.39 0.0007239151    1.883    0.469
       182 -11.2793    134.0000    232.9379   1.2349708447e+02   6.9593771028e+00    0.4525463    0.2021304 -50.49  0.001396803    2.524    0.604
       183  -8.3251    127.2732    182.2700   1.1675548687e+02   1.8953599736e+01    0.1368539    0.1192404 -10.00 0.0002031366    1.480    0.324
       184  -9.1206    203.4886    111.4996   8.3999995680e+01   1.7918560202e+01    0.1508571     0.142591 -60.28 0.0001474686    1.021    0.021
       185  -9.7011     29.4829    109.4825   1.2927865841e+02   5.0819862579e+01     0.128883     0.105497 -56.40 2.478358e-05    1.012    0.012
       186 -10.5303    168.0658    113.1658   9.1567443392e+01   2.5823596835e+01      0.36122    0.2836075 -81.45 0.0008092967    1.531    0.347
       187  -9.2783     44.7904    105.1831   1.2367249977e+02   5.0286948520e+01    0.1864841    0.1627979 -68.04 0.0004170547    1.148    0.129
       188 -10.5808    165.9261    242.2734   1.1840531865e+02  -2.8592531046e-01    0.3358067    0.1564667  42.59  0.001454527    1.857    0.462
       189 -11.2725    245.1660    240.8917   1.0309414112e+02  -1.2723710267e+01    0.2290468    0.1571909  15.98  0.001435062    1.306    0.234
       190 -12.9958     15.2150    169.6250   1.4139924155e+02   3.8023844554e+01     1.147226    0.6730431 -83.87   0.00660689    1.421    0.296
       191 -11.9141    245.2713    163.2341   8.8183305559e+01  -4.2680046886e-01    0.5923933    0.3481419 -51.46  0.002803032    1.877    0.467
       192 -12.2984    246.6219    157.8876   8.6839422410e+01   2.8166508599e-01     1.359208    0.9003134 -79.79  0.005614291    3.251    0.692
       193 -11.2225    199.7120    246.3576   1.1243430219e+02  -6.5974218390e+00    0.4232996    0.1888799  44.31  0.001972668    2.139    0.532
       194  -9.7897    193.8622    245.0980   1.1335780887e+02  -5.4527090638e+00    0.1784471    0.1578635  42.74 0.0003302727    1.207    0.171
       195  -9.6079    222.5344    244.5069   1.0782324499e+02  -9.9072668563e+00    0.1240035    0.1023277  12.63 2.227824e-05    1.008    0.008
