#   1 NUMBER                 Running object number                                     
#   2 MAG_AUTO               Kron-like elliptical aperture magnitude                    [mag]
#   3 X_IMAGE                Object position along x                                    [pixel]
#   4 Y_IMAGE                Object position along y                                    [pixel]
#   5 X_WORLD                Barycenter position along world x axis                     [deg]
#   6 Y_WORLD                Barycenter position along world y axis                     [deg]
#   7 A_WORLD                Profile RMS along major axis (world units)                 [deg]
#   8 B_WORLD                Profile RMS along minor axis (world units)                 [deg]
#   9 THETA_WORLD            Position angle (CCW/world-x)                               [deg]
#  10 FWHM_WORLD             FWHM assuming a gaussian core                              [deg]
#  11 ELONGATION             A_IMAGE/B_IMAGE                                           
#  12 ELLIPTICITY            1 - B_IMAGE/A_IMAGE                                       
         1 -15.5509    245.4760     99.0527   2.2637547898e+01   1.5901360816e+01     4.369043     1.253542 -40.66   0.02013586    2.680    0.627
         2 -10.7892     41.0455     13.8798   4.2090960306e+01   7.0765009735e+01    0.2241278    0.1706503  38.30 0.0002640298    1.141    0.124
         3  -9.6795     97.5012     12.5088   2.2087871114e+01   5.8409445772e+01    0.2076165    0.1339482  -8.12  0.001033814    2.423    0.587
         4  -9.2989     67.6664      1.3243   2.4817564018e+01   6.6587875366e+01    0.1746043   0.09492905  57.08 0.0006983955    1.496    0.331
         5 -10.8931    167.1228    241.8777   5.8305339580e+01   3.5025450960e+00    0.1694653    0.1426772  17.23 0.0007692556    1.201    0.168
         6 -10.1845     53.5277    249.4825   8.4324282142e+01   1.4750332213e+01    0.2260706    0.1847966  25.10 0.0006917985    1.113    0.102
         7 -10.0415     20.5086    249.9775   9.2100876435e+01   1.7842906681e+01    0.1614909    0.1134567  85.82  0.001007167    1.565    0.361
         8 -10.0994     13.5658    250.2823   9.3714358565e+01   1.8393267270e+01    0.2396705    0.1001371  35.10   0.00124063    1.706    0.414
         9 -10.1787      3.9349    249.3467   9.5885839035e+01   1.9387287306e+01    0.2017651    0.1307689  57.61 0.0007093663    1.307    0.235
        10  -9.8288     16.5680    237.7343   9.2538631582e+01   2.0677861537e+01     0.163143     0.101798  69.64  0.000740531    1.569    0.363
        11 -10.2093     90.1583    235.5998   7.4412335316e+01   1.3418723382e+01    0.1889112      0.10943  14.85 0.0009474513    1.728    0.421
        12  -9.4145    231.3846    234.2180   4.6113893340e+01  -1.6701747778e+00    0.1310702   0.08338071 -39.98 0.0009434322    1.614    0.380
        13 -11.0980     87.2654    227.6049   7.4304844102e+01   1.5345874636e+01    0.3107012    0.1403377  28.23   0.00101321    1.841    0.457
        14 -10.8138    162.1845    225.2205   5.7065159333e+01   6.7072580286e+00    0.3509883    0.2265636  -2.98   0.00202392    1.656    0.396
        15 -11.1203     98.6153    225.3056   7.1283095100e+01   1.4433015570e+01    0.3663025    0.2208339  20.43  0.001170329    1.526    0.345
        16 -10.7757    126.2628    220.9291   6.4222547783e+01   1.1837629438e+01    0.2734215    0.2058302  52.96 0.0007955024    1.608    0.378
        17 -10.3885    115.0077    220.9802   6.6845008838e+01   1.3244909449e+01    0.2096773    0.1462932 -14.14 0.0009254055    1.687    0.407
        18 -10.9675     95.7765    217.8909   7.1139016122e+01   1.6288192374e+01    0.3919675    0.2600361  63.80  0.001317247    1.953    0.488
        19  -9.6527     99.8827    217.1387   7.0032968555e+01   1.5924988551e+01    0.2424454    0.1561766  36.36 0.0005534816    1.369    0.269
        20 -10.0898     74.5375    219.0385   7.6640387397e+01   1.8651268599e+01    0.2790402    0.1520832  40.26  0.001362768    1.587    0.370
        21  -9.4592    143.5213    216.9775   5.9837283294e+01   1.0396563575e+01    0.1774853     0.122736 -47.76 0.0008093152    1.566    0.361
        22 -10.0879    170.4248    215.2911   5.4017412830e+01   7.3860293704e+00    0.2265628    0.1871798  -0.47 0.0007619808    1.041    0.040
        23  -9.7182    111.5877    215.8325   6.7016379065e+01   1.4694620832e+01    0.1721022    0.1309918 -80.67 0.0009524409    1.763    0.433
        24  -8.8581    131.3302    214.3166   6.2187165144e+01   1.2442831870e+01    0.1345974   0.09258588 -10.58 0.0005328546    1.683    0.406
        25 -10.1656     76.8838    211.4699   7.5255680075e+01   2.0009793329e+01    0.2179284    0.1875658 -22.94  0.001182457    1.331    0.249
        26  -9.7313    116.4790    210.4895   6.5148347295e+01   1.5128951209e+01    0.1337153    0.1180399  25.90 0.0002854698    1.046    0.044
        27 -10.5320    185.9990    204.0452   4.9364623596e+01   7.3770981311e+00    0.1696254    0.1520503  72.47  0.001141248    1.732    0.423
        28 -10.6148    164.7884    202.2901   5.3208640920e+01   1.0317607435e+01    0.3659914    0.2669481 -70.08  0.002034436    2.128    0.530
        29 -11.4790    164.5557    195.9391   5.2272205477e+01   1.1480539244e+01    0.5746932     0.423905  85.13  0.002922443    2.690    0.628
        30  -9.1769      9.6419    201.7189   9.2783622404e+01   2.9297636777e+01     0.125981   0.09670086 -29.12 0.0007015197    1.666    0.400
        31 -11.8583    177.9176    196.8277   4.9767803830e+01   9.5841116408e+00    0.3174267    0.2646507  24.03  0.001115261    1.215    0.177
        32 -11.4189    172.7478    195.6596   5.0587738628e+01   1.0452333184e+01    0.2574946    0.2155875 -20.84 0.0008921311    1.090    0.083
        33  -9.2523    105.2104    197.7802   6.6228282957e+01   1.9299029660e+01    0.1881192    0.1552805 -14.92  0.000660571    1.335    0.251
        34 -10.2289    125.3347    196.9143   6.1123101368e+01   1.6680518386e+01    0.3317575    0.1840717  23.31  0.001548919    1.805    0.446
        35 -11.4043     13.8466    195.0755   9.1293349018e+01   3.0544563668e+01    0.4272175     0.273242 -31.78  0.001109302    2.099    0.523
        36  -9.7268     66.4850    194.5547   7.6251635149e+01   2.5154951772e+01    0.2404456    0.1355606 -89.39  0.001025228    2.367    0.577
        37 -10.0194    112.6720    195.7788   6.4060944722e+01   1.8691289393e+01    0.4456943    0.2600793 -55.11  0.002005496    1.850    0.459
        38  -9.6682    103.8483    189.3602   6.5402182367e+01   2.1333949648e+01    0.3275976    0.2105871   5.78   0.00107643    1.985    0.496
        39 -11.2462     97.8172    188.0256   6.6806326643e+01   2.2489528730e+01    0.4536164    0.2648403  48.09 0.0008067397    1.779    0.438
        40 -11.4768     94.5717    182.7138   6.6928757291e+01   2.4166924218e+01    0.4814227    0.3872893 -87.87  0.002066948    1.468    0.319
        41 -12.1336     12.2943    179.9501   9.0920579479e+01   3.4412694270e+01    0.4952701    0.4075697 -61.47  0.002230194    1.335    0.251
        42 -10.8629      7.7000    187.6492   9.2677841283e+01   3.2853746098e+01    0.2086137    0.1876316  81.39 0.0007282208    1.123    0.110
        43  -9.5926    165.4799    186.5064   5.0571934242e+01   1.3068780961e+01    0.1254196    0.1160215  -6.55 2.851827e-05    1.052    0.049
        44 -10.1516    109.4233    185.0329   6.3316626579e+01   2.1488440214e+01    0.3113811    0.2513919  49.32   0.00146391    1.273    0.215
        45 -10.7389    174.3526    183.3608   4.8284800129e+01   1.2413660062e+01    0.2786768    0.2245164 -77.36  0.001632357    1.854    0.461
        46  -9.5215    120.0000    183.9912   6.0467907013e+01   2.0158680669e+01       0.2217   0.07981641 -55.48 0.0008046509    2.958    0.662
        47 -10.1140     44.8585    181.6683   8.1209912281e+01   3.0856188457e+01     0.320961    0.1859482 -75.81  0.001481278    1.839    0.456
        48 -10.4459    147.4722    179.4949   5.3246705048e+01   1.6995700429e+01    0.3005621    0.1337815 -59.47  0.001157675    3.078    0.675
        49 -10.3774    148.4550    174.8925   5.2249784060e+01   1.7762962827e+01    0.2695214    0.1745237  14.00  0.001058168    1.887    0.470
        50 -10.5380    138.4100    179.0113   5.5226578682e+01   1.8449537693e+01    0.3676191    0.2399662 -73.24  0.001698261    2.314    0.568
        51 -10.7586    204.8521    187.5688   4.3453464898e+01   7.7587499523e+00    0.2971539    0.1834827 -53.75  0.001706662    1.982    0.495
        52 -10.3734     77.1495    175.3143   7.0820804752e+01   2.8389151644e+01    0.2830179    0.1772131  72.32 0.0008962099    2.115    0.527
        53 -10.2432     20.1651    180.8975   8.8608882139e+01   3.3512545900e+01    0.3205459    0.1931091 -82.42  0.001149166    1.688    0.408
        54  -9.8044    183.4133    174.7991   4.5120659537e+01   1.2679166893e+01    0.2369622    0.1133535 -49.12   0.00113053    2.104    0.525
        55  -9.3881    105.5016    174.9724   6.2801639744e+01   2.4334478990e+01    0.1974806    0.1271226  85.57 0.0008095354    2.518    0.603
        56  -9.2179     24.4883    174.4895   8.6826377691e+01   3.4754539463e+01    0.1430242    0.1241636  54.10 0.0008102477    1.034    0.033
        57 -10.6669    177.1574    169.3829   4.5364654284e+01   1.4534711174e+01    0.3787947    0.2171558 -47.94  0.001965959    1.702    0.412
        58 -12.0850      3.7680    176.8185   9.3323201977e+01   3.5847096556e+01    0.5891962     0.406287  76.96  0.003211428    1.367    0.268
        59 -11.0754    206.6866    168.9140   4.0074254065e+01   1.0529942439e+01    0.2889989    0.1270181 -47.43  0.001418015    2.184    0.542
        60  -9.2545    199.7896    166.9710   4.0882611268e+01   1.1770014557e+01    0.1601629    0.0860239 -42.05 0.0004450802    1.654    0.395
        61 -10.6379    139.0805    164.6465   5.2595269471e+01   2.1318940066e+01    0.6449412    0.2698815 -60.17  0.002286734    3.340    0.701
        62 -10.0627    142.4985    158.4958   5.0685511784e+01   2.2045124160e+01    0.4511102    0.1200725  41.53  0.001436779    3.729    0.732
        63 -10.7999     11.5096    187.4879   9.1565490589e+01   3.2593663756e+01    0.2308601    0.2198495  34.58 0.0005270225    1.138    0.122
        64 -10.2406     80.1422    164.0067   6.8303965728e+01   3.0746011014e+01    0.3508707    0.1932215  84.76   0.00123144    3.192    0.687
        65 -11.1883    213.7385    163.4027   3.8021061265e+01   1.0497170627e+01    0.2223265     0.124986 -48.57  0.001253257    1.731    0.422
        66 -11.5381    166.3108    247.7196   5.9206085092e+01   2.7025705435e+00    0.2807663    0.1183459  25.47  0.001470327    2.046    0.511
        67  -9.2652    162.4853    149.9947   4.4738052728e+01   2.0455653200e+01    0.1877532    0.1170777 -70.10 0.0008102007    2.541    0.607
        68 -11.2788    199.9953    147.7991   3.7458467826e+01   1.4973986133e+01    0.3412241    0.1565507 -47.94   0.00164645    2.042    0.510
        69 -10.8514    121.6282    167.9293   5.7427735317e+01   2.3408676429e+01    0.6025235    0.3066643 -61.76  0.002476181    2.357    0.576
        70 -10.6937     56.1018    145.4515   7.3217400921e+01   3.8859960326e+01    0.5318404     0.253081  57.23  0.001900532    2.669    0.625
        71  -9.9727     38.8598    147.0137   7.9395804968e+01   4.0530244078e+01    0.2679573    0.1483192  65.73  0.001088186    2.117    0.528
        72 -11.0019    148.8095    142.2067   4.6139270424e+01   2.4335049914e+01     0.829241    0.2949893 -50.64  0.003012661    2.847    0.649
        73 -10.2565    106.8171    144.5021   5.7134608525e+01   3.1216881881e+01    0.5423385    0.3275818  79.91  0.001920449    3.226    0.690
        74  -9.2132     55.3157    169.6353   7.6697911805e+01   3.2679203309e+01    0.1625122   0.09884214  59.03 0.0007039951    1.768    0.435
        75  -9.7519    195.0000    143.9315   3.7571022610e+01   1.6385725810e+01    0.2097892   0.06358909 -44.02 0.0008011094    2.933    0.659
        76  -9.3725    165.4938    143.5087   4.2882106449e+01   2.1209312044e+01    0.2382419    0.1228044 -56.54   0.00102749    2.248    0.555
        77 -10.4850    124.9641    142.5780   5.1891465956e+01   2.8474551405e+01    0.4652634    0.2864096 -84.97  0.001708602    3.175    0.685
        78 -10.5976     87.8200    143.3523   6.2518164362e+01   3.4689245862e+01    0.3552624     0.213394 -81.63  0.001395802    2.366    0.577
        79 -10.1118    182.0656    140.6448   3.9187410030e+01   1.9003984475e+01    0.3209116    0.1735195 -53.07  0.001546582    1.919    0.479
        80  -9.8635     81.5586    138.3119   6.3560237154e+01   3.6961122989e+01    0.2902055    0.1539726 -66.10  0.001144703    2.103    0.524
        81 -10.4372     22.9113    137.2858   8.4028360177e+01   4.4727041191e+01    0.6099551    0.2354119  69.46   0.00185243    4.068    0.754
        82 -11.9652    197.6824    136.4825   3.5740861782e+01   1.7252821457e+01    0.3789846    0.2464085 -40.60  0.001841428    1.364    0.267
        83 -11.3635    203.3716    136.4894   3.4842947050e+01   1.6375452763e+01    0.2684401    0.1913147  49.01  0.001409127    1.636    0.389
        84  -9.7474    172.2871    137.4455   4.0371870697e+01   2.1214521588e+01    0.2367042    0.1564108 -62.93 0.0009804639    1.821    0.451
        85 -10.4577     93.3492    160.4560   6.3840975449e+01   2.9619813995e+01    0.4412553    0.2548112  66.60  0.001675184    2.660    0.624
        86 -11.4371    111.7140    130.1115   5.2870338465e+01   3.3694441723e+01     0.581403    0.4218275 -44.41  0.002446873    1.451    0.311
        87 -10.7663    116.9581    124.3146   5.0191011669e+01   3.4031854398e+01    0.4411768    0.3293073  78.65  0.001882103    1.697    0.411
        88 -10.5350    117.3660    119.8151   4.9086204772e+01   3.4960202902e+01    0.2908915    0.2438938 -36.58 0.0007383168    1.310    0.237
        89 -11.1537     83.4094    131.3532   6.1639341520e+01   3.8399796387e+01    0.6450507    0.3514437 -75.88  0.002161725    2.600    0.615
        90 -10.0309    142.9364    130.7290   4.5119749652e+01   2.7756982516e+01    0.3776793    0.1990573 -56.41  0.001594462    2.075    0.518
        91 -10.9416     41.2166    130.6425   7.6362079385e+01   4.4643918459e+01    0.3589434    0.2814794  46.14 0.0008743546    1.230    0.187
        92  -9.6043    162.4972    135.0696   4.1815345615e+01   2.3355909232e+01    0.2160296    0.1273018 -47.48    0.0010407    1.617    0.381
        93 -10.0163    205.1585    130.0139   3.3359381195e+01   1.7181574200e+01    0.2028019    0.1250836 -60.72  0.001074829    1.950    0.487
        94 -11.0642    192.7018    129.0980   3.5138165958e+01   1.9319776448e+01    0.3099694    0.1832295 -41.08  0.001649453    1.524    0.344
        95 -10.4986    152.8363    127.4949   4.2259455843e+01   2.6586386712e+01    0.5465773    0.1889323 -52.57  0.001867543    3.226    0.690
        96  -9.9840     12.8614    129.0071   8.6996427070e+01   4.7767042813e+01    0.3659657    0.1487349  70.53   0.00125316    3.223    0.690
        97 -10.0169    168.6250    128.0056   3.9178244467e+01   2.3626952534e+01    0.4222087    0.1502503 -46.94  0.001616537    2.652    0.623
        98 -11.1223     98.2877    126.6403   5.6023799791e+01   3.6961073261e+01    0.6830692    0.4202425 -80.62  0.002658595    2.464    0.594
        99 -10.9683     98.4842    120.4986   5.4639282128e+01   3.8383579979e+01    0.7174236     0.437236  15.03  0.002678415    2.726    0.633
       100 -10.1989     72.8833    128.5621   6.4597317925e+01   4.0815686804e+01    0.3180223    0.2068848 -87.76  0.001326642    2.021    0.505
       101 -10.7148     59.4151    123.8855   6.8484435285e+01   4.4061304898e+01     0.642939    0.3300177  75.66  0.001979916    3.905    0.744
       102  -9.9661    179.5594    132.5754   3.8069049793e+01   2.0885171064e+01    0.3500302    0.1660985 -48.59  0.001595547    1.992    0.498
       103 -11.3920    180.5814    121.6620   3.5702957979e+01   2.2685677632e+01    0.6580494    0.2509503 -39.21  0.002628005    2.655    0.623
       104 -10.5135    105.2869    123.4827   5.3274610678e+01   3.6419933223e+01    0.2887233    0.2095026  33.87 0.0008389549    1.413    0.292
       105 -11.0404     27.7958    122.5536   8.0414535766e+01   4.8244182892e+01    0.6038475    0.5059329 -77.94  0.003260822    1.185    0.156
       106  -9.9229    172.5012    120.1532   3.6834026732e+01   2.4398867099e+01    0.3557114    0.1686932 -48.94  0.001580484    2.003    0.501
       107 -10.1026    158.4371    119.8794   3.9482486973e+01   2.7042578532e+01    0.4073399    0.1984821 -49.32  0.001766315    1.988    0.497
       108 -11.0968    141.5648    117.3600   4.2546539775e+01   3.0773386472e+01    0.8064834    0.2740087 -52.11  0.002702373    3.198    0.687
       109 -10.5640    130.5510    117.7817   4.5240320843e+01   3.2836484187e+01    0.4151965    0.2470762 -69.54  0.001673017    2.389    0.581
       110  -9.8145     70.8207    119.2391   6.3470337279e+01   4.3514137126e+01    0.2704067    0.1507154  66.58 0.0009506363    2.785    0.641
       111  -9.9585    177.2636    159.9215   4.3664154756e+01   1.6242289931e+01    0.3420041    0.1423867 -51.94  0.001423388    2.617    0.618
       112 -11.2150    186.0721    114.4594   3.3308216291e+01   2.2996407362e+01    0.3662683     0.173462 -43.39  0.001341052    1.904    0.475
       113 -11.6928    108.8570    111.9601   4.9642928380e+01   3.8375848379e+01    0.8468434    0.3443702 -55.34  0.002983572    2.684    0.627
       114 -10.8456    192.9323    113.4932   3.2018163501e+01   2.1966305677e+01    0.2767594    0.1755467 -44.39   0.00153317    1.395    0.283
       115 -11.0136     43.7446    122.0944   7.4080436529e+01   4.6623281403e+01    0.7146441     0.356416  77.60  0.002379344    3.365    0.703
       116 -11.0932     79.2161    112.5748   5.9110302231e+01   4.3768276627e+01    0.6606339    0.3757766 -86.93  0.002217107    3.346    0.701
       117 -10.8981    132.0531    130.1725   4.7574012071e+01   2.9897456948e+01    0.6739925    0.3457488 -63.12  0.002566178    2.626    0.619
       118 -10.7042    121.9872    110.9319   4.5829610007e+01   3.5997261124e+01    0.5199821    0.2203813 -50.16  0.001947522    2.390    0.582
       119 -10.9103     92.4418    111.6152   5.4510184236e+01   4.1606775344e+01    0.7104073    0.3538204 -67.14  0.002515958    2.784    0.641
       120 -10.4010    174.6301    110.2499   3.4369023261e+01   2.5815073288e+01    0.3903462    0.1413393 -46.21  0.001536324    2.549    0.608
       121 -10.5306    159.3063    110.4329   3.7255793672e+01   2.8689187168e+01    0.4150937    0.1778597 -43.51  0.001694793    2.256    0.557
       122 -11.8280     16.8731    104.9227   8.2636067508e+01   5.3911789999e+01    0.6768771    0.3837468 -28.94   0.00295332    2.097    0.523
       123 -10.2082    133.2123    108.2460   4.2409198090e+01   3.4302908437e+01    0.3367833    0.2144283 -49.39  0.001578395    1.560    0.359
       124  -9.4595     99.4892    160.4723   6.2086560587e+01   2.8649769527e+01    0.1473403    0.1394577  41.20 -4.711425e-05    1.007    0.007
       125 -11.3300    189.1510    105.9938   3.1076077376e+01   2.3908376865e+01    0.3131877    0.1662099 -43.50  0.001569199    1.684    0.406
       126 -10.8155    197.0987    156.7706   3.9551357066e+01   1.3869143842e+01    0.2850309    0.1615646 -54.91  0.001461518    2.024    0.506
       127 -10.7888    139.6033    102.8220   3.9654433184e+01   3.4099198621e+01    0.5636751    0.2441289 -47.76   0.00222104    2.278    0.561
       128 -11.2468     45.4641    101.7747   6.9679790218e+01   5.1726622010e+01    0.8013407    0.3571162  60.97  0.002359809    4.302    0.768
       129 -10.5680    166.8043    102.5050   3.4082689110e+01   2.8705162357e+01    0.4696999    0.1553084 -46.02  0.001735051    2.826    0.646
       130 -10.9420    149.9611    101.2823   3.7064340281e+01   3.2285959528e+01     0.658889    0.1786905 -47.91  0.002078519    3.676    0.728
       131 -11.0563    128.6168    100.0482   4.1554844558e+01   3.6926445673e+01    0.5296387     0.298685 -42.01  0.002306258    1.883    0.469
       132 -10.2862    175.5226    100.5577   3.2128775079e+01   2.7371388583e+01    0.2800819    0.1206677 -43.09  0.001204649    2.147    0.534
       133 -10.3119    159.5846     98.8315   3.4594932717e+01   3.0803315285e+01    0.3500892     0.123482 -46.00  0.001305441    2.685    0.628
       134 -11.1869    108.4871     98.2851   4.6418362948e+01   4.1469321045e+01    0.5635017     0.396365  76.51  0.002018661    1.821    0.451
       135 -10.1474    107.4027     92.7644   4.5307876204e+01   4.2876052627e+01    0.3662221    0.2706798   3.70   0.00158956    2.271    0.560
       136 -10.0610     81.7989     98.9150   5.4991413362e+01   4.6583515799e+01    0.4470816    0.2167131 -70.46  0.001428068    3.536    0.717
       137 -11.1403    188.4549    156.4164   4.0979844101e+01   1.5192163001e+01    0.3856242    0.1977465 -49.69  0.001420903    1.926    0.481
       138 -11.2082    188.6488    122.8790   3.4582213949e+01   2.1078408396e+01    0.3135477    0.1732835 -46.26   0.00140354    1.625    0.385
       139 -10.8286     94.7365     96.3545   5.0052540294e+01   4.4678014418e+01    0.4343029    0.2199461 -60.34  0.001659199    2.339    0.572
       140 -10.9216     63.4859     95.2999   6.0868069452e+01   5.0667978030e+01    0.4940499    0.2976947  89.28  0.001787696    2.818    0.645
       141  -9.9272    164.7641     92.8189   3.2265187620e+01   3.0848997371e+01    0.3358953    0.1558705 -38.31  0.001421742    2.269    0.559
       142 -10.9096     66.0437    108.5403   6.2944002729e+01   4.6980358018e+01    0.5739183    0.2575101 -63.97  0.002095511    2.480    0.597
       143 -10.5440    177.1282     91.8687   2.9957341294e+01   2.8565303700e+01    0.2904719    0.1385793 -39.96  0.001315947    2.030    0.508
       144 -12.1241    188.3066    135.3480   3.7078525229e+01   1.8940195928e+01    0.7232456    0.2433425 -49.30  0.002781607    2.994    0.666
       145  -9.9835    195.3165     97.3386   2.8365673907e+01   2.4246116680e+01    0.1195069   0.09876335  -6.70  0.000704836    1.703    0.413
       146 -10.6066    138.7313     90.2179   3.6788907768e+01   3.6735728889e+01    0.5285661    0.2207532 -44.06  0.002057964    2.397    0.583
       147 -10.0385     43.7544     92.3868   6.8422444233e+01   5.4337497285e+01    0.2098492         0.14  13.89  0.000952885    1.675    0.403
       148 -10.8685    124.4229     90.2006   4.0113190925e+01   3.9797487273e+01    0.4243217    0.2517295 -64.49  0.001685172    2.099    0.524
       149 -10.4478    124.6650     85.6621   3.8874453349e+01   4.0639600992e+01    0.4213867    0.3103136   2.96  0.001841663    2.474    0.596
       150 -10.6095     34.5920     88.7275   7.1781140578e+01   5.6402374338e+01    0.4964495    0.2506567 -84.24  0.001829254    2.928    0.658
       151  -9.9489    150.7094     87.5219   3.3643064496e+01   3.4698393656e+01     0.255531    0.1194811 -43.99  0.001075032    2.083    0.520
       152 -10.3372    183.6222     95.2198   2.9662429767e+01   2.6752364653e+01    0.1863836    0.1148159 -35.90 0.0009563795    1.685    0.407
       153 -10.3951     86.3117     86.2132   5.0112782862e+01   4.8603964290e+01    0.3745342     0.240648  86.12  0.001335222    2.643    0.622
       154 -11.9601    189.2793    148.9691   3.9476646276e+01   1.6380410339e+01    0.5023102    0.2176668 -46.85  0.002033429    2.139    0.532
       155  -9.3010    164.0000     85.9854   3.0818201771e+01   3.2204212112e+01    0.2244593   0.07241563 -42.03 0.0008039057    2.953    0.661
       156 -10.3149     48.3148     84.0687   6.4438187577e+01   5.5752660528e+01    0.3761888    0.2133694  65.60  0.001412825    2.792    0.642
       157 -10.7117    104.4792     82.5040   4.3385981136e+01   4.5630870324e+01    0.3959053    0.2662906 -77.47  0.001723157    2.027    0.507
       158  -9.3478    116.8053     83.2089   4.0199251784e+01   4.2828125360e+01    0.1898294    0.1761289  -0.85 0.0003762492    1.345    0.256
       159  -9.2644    170.5122     81.9756   2.8791102751e+01   3.1556650299e+01    0.1769306    0.1191121 -17.25 0.0008101425    2.532    0.605
       160 -10.2660    158.4850     81.4673   3.0721036872e+01   3.4134326519e+01    0.2897485    0.1285223 -41.69  0.001219511    2.204    0.546
       161 -10.5089    140.7752     80.9816   3.4023804854e+01   3.8015548815e+01    0.3547586     0.188648 -34.57  0.001492276    2.305    0.566
       162 -10.5831    182.9814    108.0126   3.2480650574e+01   2.4675329017e+01      0.28198    0.1629504 -44.59   0.00130575    1.565    0.361
       163 -10.2638     24.4994     80.3332   7.4913674201e+01   5.9593018979e+01    0.3493399    0.2088522  69.82  0.001507687    2.286    0.563
       164 -10.1521    150.3647     78.9744   3.1608507822e+01   3.6297547871e+01     0.353495    0.1620941 -42.70  0.001496942    2.144    0.533
       165  -9.8536    119.4746     78.7712   3.8311504708e+01   4.3105987828e+01    0.4515777    0.1438511 -43.15  0.001488894    3.305    0.697
       166  -9.6655     74.5266     80.0430   5.2574788849e+01   5.2254962644e+01    0.2113913    0.1324195 -81.14 0.0008098609    2.620    0.618
       167 -10.7367    186.7468    144.9872   3.9179157253e+01   1.7477751211e+01    0.2824902     0.188905 -33.00 0.0009996075    1.480    0.324
       168 -11.1604    180.3130     77.9215   2.6356282582e+01   3.0247790814e+01    0.3074226     0.151076 -35.41  0.001406153    2.204    0.546
       169  -9.9788    105.2306    157.4592   5.9957745580e+01   2.8437688906e+01    0.3012128    0.2388317  86.91   0.00105619    1.532    0.347
       170 -10.0821    174.6000     77.3101   2.7072543361e+01   3.1496038994e+01    0.2574202    0.1108279 -45.23  0.001132105    2.103    0.524
       171 -10.3405     49.4640     76.8182   6.2027323608e+01   5.7304304975e+01      0.27927    0.1843139 -14.03  0.001002091    2.242    0.554
       172 -11.5320    211.6155     75.1519   2.1745631673e+01   2.4770967144e+01    0.2790441     0.132322 -35.16  0.001152526    2.137    0.532
       173  -9.9971    167.4903     76.4963   2.8001949136e+01   3.3090966932e+01    0.2338748     0.127661 -30.87  0.001037569    2.358    0.576
       174 -10.0383    127.6211     74.4391   3.5174906578e+01   4.2107936200e+01    0.3648238    0.1933023 -61.45  0.001458497    2.417    0.586
       175 -10.2323    128.4771     70.0315   3.3774597277e+01   4.2709194926e+01     0.310767    0.2455424  -0.04  0.001529487    2.041    0.510
       176  -9.7449    157.4829     75.0182   2.9331272793e+01   3.5449278118e+01     0.209093    0.1280847 -42.46  0.001035648    1.609    0.378
       177 -10.3712    140.5371     73.7926   3.2216213383e+01   3.9351904661e+01    0.3500576    0.1296471 -44.21  0.001317404    2.648    0.622
       178  -9.9189     10.0168     74.1465   8.1300698487e+01   6.2331425153e+01    0.1969579    0.1881867 -13.39 0.0003712581    1.028    0.027
       179  -9.8555    167.8845    156.6440   4.4890794656e+01   1.8305897823e+01    0.2677101    0.1720716 -61.95  0.001322475    1.952    0.488
       180  -9.4169    151.4759     71.9937   2.9651127768e+01   3.7257357141e+01    0.2082982    0.1300382 -42.95  0.000884369    1.593    0.372
       181 -10.2916     94.8312     68.7120   4.2260201719e+01   5.0458419123e+01    0.7370216    0.1895841 -49.84  0.002083949    4.587    0.782
       182  -9.2294    157.6080    155.7964   4.6846298303e+01   2.0117817857e+01    0.1905524    0.1250648 -58.44 0.0009436345    1.710    0.415
       183 -12.0341    205.3726    152.8818   3.7505697478e+01   1.3345370945e+01    0.3674037    0.2403355 -27.17  0.001730619    1.564    0.361
       184 -10.2914     51.2009     68.7735   5.8938979961e+01   5.8869454660e+01    0.4351282     0.239996 -80.38  0.001488891    3.765    0.734
       185  -9.7945      7.6576     84.6609   8.4182120702e+01   5.9831202680e+01    0.1530635   0.08849602 -37.78  0.000704936    1.772    0.436
       186 -10.0958    146.9445     65.9012   2.8917056271e+01   3.9272870329e+01    0.4360631     0.195251 -32.64  0.001689973    2.945    0.660
       187 -10.5704    203.6161     66.0169   2.0767664803e+01   2.7558797245e+01    0.2780404    0.1009784 -39.50  0.001247139    2.423    0.587
       188 -10.4654    138.5416     64.7758   3.0221380785e+01   4.1343882710e+01    0.4085937    0.1372191 -39.03  0.001451638    3.164    0.684
       189 -10.8307     68.1348    153.2310   7.0398265713e+01   3.5193133786e+01    0.5140827    0.3026867  82.21   0.00201879    2.422    0.587
       190 -10.0639    110.0926     62.1732   3.5935887777e+01   4.8273378183e+01    0.4183665    0.1957982 -40.91  0.001706156    2.321    0.569
       191 -10.0106     49.2264    154.2471   7.6755326342e+01   3.7414691418e+01    0.4020987    0.1954298  68.63  0.001400903    2.994    0.666
       192  -9.5641    163.0052     69.9965   2.7172782547e+01   3.5100051834e+01    0.2213437    0.1503218 -15.89   0.00102166    2.569    0.611
       193  -9.8489     18.0466     61.9715   7.4298545414e+01   6.4651751439e+01    0.2279281    0.1438951 -31.84 0.0006098555    1.679    0.404
       194 -10.5462    133.4340    152.5286   5.1712398098e+01   2.4825217026e+01     0.495501    0.3295886  84.20  0.002045829    2.702    0.630
       195  -9.2830    130.3241     56.0160   2.9442847102e+01   4.4660147294e+01    0.2081096    0.1225635 -14.17 0.0007051062    4.360    0.771
       196 -10.8472     82.1749     72.0377   4.7442488173e+01   5.2458868564e+01    0.4208644    0.2564198 -75.19  0.001504516    2.699    0.629
       197 -10.0057    121.4168     64.0817   3.3710298004e+01   4.5356171308e+01    0.3959835    0.1382556 -41.27  0.001412001    3.008    0.668
       198  -9.4638    119.3172     55.6512   3.1719934914e+01   4.7268022403e+01    0.1500556     0.103003 -79.06 0.0007047965    1.730    0.422
       199 -11.6997     45.4039     49.3687   5.5368330899e+01   6.3920218226e+01    0.4089173    0.2551912 -39.65  0.001690514    1.781    0.438
       200  -9.1839     62.6997     54.3521   4.9149466817e+01   5.9861669014e+01     0.143595    0.1102709  79.86 0.0007037689    1.696    0.411
       201 -10.2084     81.7623    153.9521   6.6223967780e+01   3.3006386818e+01    0.2821639    0.2085541  83.11 0.0009599043    1.626    0.385
       202  -9.9957     73.0516     59.0061   4.6606793111e+01   5.6922250747e+01    0.3521078    0.1952403 -61.24  0.001449363    2.408    0.585
       203  -9.8771     30.6337     50.8489   6.3857263309e+01   6.5780006870e+01    0.1850576    0.1314264 -73.25 0.0009467142    1.769    0.435
       204 -10.1256     92.3088     49.4956   3.6833365028e+01   5.4505613186e+01    0.3649351     0.115448 -47.03  0.001219112    3.567    0.720
       205 -10.1159      7.3924     57.1682   7.9556820607e+01   6.6608354207e+01    0.1831849     0.123802 -89.61 0.0009485802    1.775    0.437
       206 -10.3944     26.6223     72.2011   7.2027406709e+01   6.1371331019e+01     0.504157    0.2023989 -25.24  0.001150041    8.040    0.876
       207  -9.9537     81.6665     46.2174   3.9062034894e+01   5.7429180107e+01    0.1876713    0.1340467 -32.22 0.0007074606    1.686    0.407
       208 -10.1453    123.0770     41.5714   2.6642175956e+01   4.8570611778e+01    0.3934975    0.2494361  -8.85  0.001622695    3.309    0.698
       209  -9.8327    113.7408     41.7791   2.8691244773e+01   5.0748775388e+01    0.2614582    0.2149764   6.81    0.0011877    1.800    0.444
       210 -10.4682      4.9197     41.0387   7.7363487925e+01   7.0436245314e+01    0.3229271    0.1706141 -87.81  0.001438046    2.818    0.645
       211  -9.2972     37.3076     40.6709   5.6419677533e+01   6.6914175475e+01    0.1327385    0.1033174  65.55 0.0007038914    1.659    0.397
       212  -9.0884     84.4745     39.5099   3.5705485943e+01   5.7897638484e+01     0.140438     0.124874  55.33 0.0008093335    1.060    0.057
       213 -10.3480    182.9780    149.7485   4.0739951896e+01   1.7213131792e+01    0.3519112    0.1750589 -47.24  0.001689876    1.884    0.469
       214  -9.2174     26.3302     36.6615   6.1403460817e+01   6.9254068329e+01    0.1322353   0.09874044  59.25 0.0007051894    1.737    0.424
       215  -9.5440     44.3769     25.2070   4.5954000384e+01   6.8455274245e+01    0.1812923    0.1546579  -6.13 0.0003829949    1.315    0.239
       216  -8.8715    110.4940     24.4925   2.3677839939e+01   5.3885092586e+01    0.1356476    0.1159582  76.28 -8.498204e-05    1.034    0.033
       217  -8.8500     84.6759     21.3076   2.8645862282e+01   6.0426763707e+01    0.1359991    0.0974337 -82.53 0.0003212828    1.648    0.393
       218 -10.1865     13.2939     21.0614   6.4100214620e+01   7.3793285981e+01    0.2375786    0.1624278  26.62 0.0006819824    1.336    0.251
       219  -9.7371     73.7304    244.0072   7.9113858405e+01   1.3654364177e+01    0.2146048    0.1585756   0.94 0.0004955786    1.499    0.333
       220 -11.7783    161.6544    242.1637   5.9416766758e+01   4.0445605008e+00    0.2427751    0.2184575 -39.92  0.001789826    1.404    0.288
