#   1 NUMBER                 Running object number                                     
#   2 MAG_AUTO               Kron-like elliptical aperture magnitude                    [mag]
#   3 X_IMAGE                Object position along x                                    [pixel]
#   4 Y_IMAGE                Object position along y                                    [pixel]
#   5 X_WORLD                Barycenter position along world x axis                     [deg]
#   6 Y_WORLD                Barycenter position along world y axis                     [deg]
#   7 A_WORLD                Profile RMS along major axis (world units)                 [deg]
#   8 B_WORLD                Profile RMS along minor axis (world units)                 [deg]
#   9 THETA_WORLD            Position angle (CCW/world-x)                               [deg]
#  10 FWHM_WORLD             FWHM assuming a gaussian core                              [deg]
#  11 ELONGATION             A_IMAGE/B_IMAGE                                           
#  12 ELLIPTICITY            1 - B_IMAGE/A_IMAGE                                       
         1  -9.2986    235.6301      3.3106   2.8903415255e+02   6.3974473414e+00   0.01776787   0.01358821 -67.62  0.001077217    1.411    0.291
         2  -8.3796    242.9966    250.0000   2.9028510562e+02   3.4903895321e+00   0.01178964  0.003700137  24.73 1.385017e-05    2.988    0.665
         3  -9.2671     57.7341    249.3620   2.9258869450e+02   4.5552955576e+00   0.01227211   0.01041616 -23.86 0.0002518795    1.256    0.204
         4  -7.7232    167.7061    247.6342   2.9120919929e+02   3.9484537268e+00   0.00725882  0.004930098 -29.05  0.000506035    1.715    0.417
         5  -8.6237    227.7916    244.4040   2.9044387100e+02   3.6424357289e+00   0.01026929  0.006390641  10.02 0.0009648136    1.761    0.432
         6  -7.9196    243.4935    239.4924   2.9022193538e+02   3.6096333486e+00  0.006856564   0.00638363  30.26 -5.433266e-05    1.025    0.024
         7  -7.1284    125.4213    237.4449   2.9168080726e+02   4.3083726029e+00  0.006788223  0.006331282  33.56 0.0001295841    1.036    0.034
         8  -7.0440     50.5069    233.5445   2.9259355039e+02   4.7804587579e+00  0.006832693  0.006381544  23.81 0.0001925132    1.004    0.004
         9  -8.3180    130.8622    232.1144   2.9158419211e+02   4.3393343971e+00   0.01103836  0.009120396  50.83   0.00124399    1.244    0.196
        10  -8.6874     35.8596    227.3749   2.9274294597e+02   4.9355076432e+00   0.01184223   0.01009207 -33.02 0.0004017987    1.241    0.194
        11  -7.4869    111.1934    222.0060   2.9177467731e+02   4.5691370327e+00   0.01012081  0.007235105  -5.73 0.0005492721    1.611    0.379
        12  -7.6279     54.9366    204.5311   2.9238182666e+02   5.0929043416e+00    0.0102798  0.006412142  23.95 0.0004624068    1.509    0.337
        13 -10.0025    179.9132    198.4965   2.9079098837e+02   4.4500611847e+00   0.01118384   0.01099445  79.03 -0.0001709071    1.085    0.078
        14  -7.6070     46.4972    199.5032   2.9245998011e+02   5.1994110653e+00  0.006824516  0.006417219  14.06 0.0008105328    1.027    0.026
        15  -7.0837     55.2913    163.3525   2.9215498496e+02   5.5700631355e+00  0.007181958  0.004954282 -28.72 0.0007028535    1.676    0.403
        16  -8.7407      8.2691    153.8355   2.9269072762e+02   5.9479762183e+00   0.01276824  0.008300357 -13.16 0.0005750108    1.943    0.485
        17  -7.5599     10.4757    147.5952   2.9262948535e+02   6.0080668455e+00  0.006824385  0.006285268  24.69 1.942817e-05    1.018    0.018
        18  -8.9962    125.3763    144.3548   2.9117735391e+02   5.3914779045e+00   0.01125663    0.0103565  32.88 0.0003653391    1.039    0.038
        19  -8.4674    190.2125    135.0717   2.9031831684e+02   5.1284657812e+00   0.01090349  0.009011803  22.15 0.0004035834    1.141    0.124
        20  -8.4976    122.9588    129.2267   2.9112546197e+02   5.5812187251e+00  0.009872529  0.009475511 -62.83 0.0002314582    1.111    0.100
        21 -10.2450    236.4152    127.2851   2.8970032580e+02   4.9539782078e+00    0.0137482    0.0109328  32.14 0.0002568516    1.175    0.149
        22  -7.1105    165.6107    119.2352   2.9053901585e+02   5.4534488105e+00   0.00728014  0.004578726  47.17 0.0006912565    1.644    0.392
        23  -7.3061     46.9823    114.9396   2.9199686433e+02   6.1805495648e+00  0.007745489  0.007697841 -20.05 0.0003909648    1.065    0.061
        24  -7.9665    182.9738    112.7182   2.9028703698e+02   5.4297406728e+00  0.009645149  0.008290271  26.12 0.0003040967    1.088    0.081
        25  -8.9205    239.6352    109.0417   2.8956090582e+02   5.1473944845e+00   0.01567818   0.01081729  69.16   0.00155752    1.808    0.447
        26  -7.4492     25.5349    110.4642   2.9224066311e+02   6.3545276173e+00  0.006900252  0.006294771  38.94  0.000142264    1.070    0.065
        27  -7.8234    186.8322    107.8224   2.9021229486e+02   5.4645219669e+00    0.0100239  0.008869862 -13.72  0.000480923    1.179    0.152
        28  -7.1408    217.2915     88.3284   2.8972646182e+02   5.5162596480e+00   0.00705656  0.005008604 -26.99 0.0004177488    1.623    0.384
        29  -7.5773    207.4963     86.9038   2.8984079844e+02   5.5890310710e+00  0.009360201  0.006833669 -64.71  -3.4755e-05    1.460    0.315
        30  -7.5248    153.4320     68.5395   2.9041530794e+02   6.1123173139e+00  0.006766362  0.006393615  18.51 2.775005e-05    1.014    0.014
        31  -8.7615    190.9943     65.0142   2.8992736210e+02   5.9379524000e+00  0.009872637  0.009324355  19.37  0.001192873    1.012    0.012
        32  -8.2780    131.5506     53.5298   2.9060689169e+02   6.4119327087e+00   0.01109357   0.01049321   9.55 0.0002178249    1.036    0.035
        33  -9.7834    246.2011     51.9646   2.8916801429e+02   5.7722768178e+00   0.01384351   0.01150765  -1.68 0.0002627139    1.259    0.206
        34  -8.2790    250.0620     47.6663   2.8909646949e+02   5.7999381024e+00   0.01329065   0.00900667 -44.03 0.0004398369    1.573    0.364
        35  -7.3332    240.3102     41.7324   2.8918557916e+02   5.9248878074e+00  0.006974811   0.00483904  51.82 0.0001853202    1.541    0.351
        36  -7.6871    187.3912     38.7860   2.8982939085e+02   6.2631549528e+00  0.009174978  0.006061098 -49.26 0.0003385058    1.580    0.367
        37  -6.9438    104.7024     36.3396   2.9084887097e+02   6.7651046193e+00  0.007171977  0.004931801  57.90 0.0002457973    1.661    0.398
        38  -8.7927    159.5681     31.3486   2.9013617824e+02   6.5090766040e+00   0.01584379   0.01048501 -33.06 0.0009654238    1.737    0.424
        39 -10.3388    141.4301     29.8507   2.9035456682e+02   6.6303812773e+00   0.01242681   0.01186329 -33.98 0.0002669396    1.095    0.086
        40  -8.3496    152.0927     25.3500   2.9019685394e+02   6.6215550219e+00  0.009663883  0.008263458  27.63  0.000476675    1.092    0.085
