#   1 NUMBER                 Running object number                                     
#   2 MAG_AUTO               Kron-like elliptical aperture magnitude                    [mag]
#   3 X_IMAGE                Object position along x                                    [pixel]
#   4 Y_IMAGE                Object position along y                                    [pixel]
#   5 X_WORLD                Barycenter position along world x axis                     [deg]
#   6 Y_WORLD                Barycenter position along world y axis                     [deg]
#   7 A_WORLD                Profile RMS along major axis (world units)                 [deg]
#   8 B_WORLD                Profile RMS along minor axis (world units)                 [deg]
#   9 THETA_WORLD            Position angle (CCW/world-x)                               [deg]
#  10 FWHM_WORLD             FWHM assuming a gaussian core                              [deg]
#  11 ELONGATION             A_IMAGE/B_IMAGE                                           
#  12 ELLIPTICITY            1 - B_IMAGE/A_IMAGE                                       
         1 -11.0207     20.1568     17.8013   6.8865525453e+01   6.9795729529e+01    0.3140807    0.2176966 -36.97  0.002169963    1.153    0.133
         2 -10.9973     50.6527     13.3700   5.2713899792e+01   6.7137330240e+01    0.3700827    0.2078603  18.56  0.001992435    1.938    0.484
         3 -12.1934     56.1477      9.2747   4.8459415135e+01   6.6885945833e+01    0.4337272    0.2859813   6.38  0.001635747    1.476    0.322
         4 -11.1362     34.2371     12.3103   5.9617812118e+01   6.9324859075e+01    0.2933921    0.2424021 -62.59  0.001631641    2.149    0.535
         5 -10.7742    161.8638     11.6627   2.1507330590e+01   4.3616162636e+01    0.2323663     0.197437   6.20 0.0007103028    1.349    0.259
         6 -11.8439    104.3561     10.7215   3.3065915361e+01   5.7728284768e+01    0.3062321     0.251038 -59.60  0.001609376    1.667    0.400
         7 -12.1094     98.5463      8.2918   3.3609657021e+01   5.9229202071e+01    0.3336056    0.2886647 -50.98 0.0007111076    1.508    0.337
         8 -10.1766     45.0650     11.8256   5.4413098682e+01   6.8098890151e+01    0.2095661    0.1465103 -23.98 0.0008188048    1.217    0.178
         9  -9.8719     27.4299     11.6737   6.2616625111e+01   7.0128264535e+01    0.2008522   0.09575996 -44.40  0.001101895    1.963    0.491
        10 -11.5932     70.1647     10.0627   4.3439083753e+01   6.4525080069e+01    0.3286387    0.2329875  58.28  0.001857331    1.987    0.497
        11 -11.5890     78.3820      8.5506   3.9868230154e+01   6.3225828241e+01     0.252145     0.209504 -30.83 0.0002586183    1.400    0.286
        12 -11.6289    115.0565      8.7669   2.9580329050e+01   5.5518326782e+01    0.2303517    0.1962764  -1.94  0.001353598    1.203    0.169
        13 -10.0158      2.9366      8.3734   7.3926727325e+01   7.2544380521e+01    0.1709087    0.1249909 -45.27   0.00128399    1.270    0.213
        14 -12.3997    123.8506      6.8523   2.6844274216e+01   5.3634257662e+01    0.4109119    0.2876918  72.88  0.001267341    1.560    0.359
        15 -12.6471     86.1759      6.8758   3.6595598554e+01   6.1911226632e+01    0.4809857    0.2554365  40.88  0.002447671    1.670    0.401
        16 -11.5225    101.7390      3.5992   3.0743085885e+01   5.8992855445e+01    0.3309013    0.1361734  51.21  0.001463038    2.044    0.511
        17 -10.4803     68.5126      4.0309   4.1148583914e+01   6.5492008536e+01    0.1828444    0.1104446 -22.10 0.0007584533    1.582    0.368
        18 -12.0411    114.1956      2.1407   2.7117507458e+01   5.6324675335e+01    0.4961861    0.2262368  60.17  0.001988231    1.993    0.498
        19 -11.2282     38.6298      2.4617   5.2698144975e+01   7.0169057383e+01    0.2679797    0.1900657  34.16  0.001469169    1.612    0.380
        20 -10.9787    145.0324      2.1229   2.1070097225e+01   4.8829436102e+01    0.3298776    0.1560391  74.38  0.001364807    2.236    0.553
        21 -11.8423    131.5677      3.7938   2.4110729850e+01   5.2041316630e+01    0.3124481    0.2819731 -37.59  0.001512146    1.268    0.211
        22 -11.0316     79.5847      1.3660   3.6111867619e+01   6.3740852610e+01    0.3130965   0.09013823  47.97  0.001246447    2.889    0.654
        23 -10.7670     71.5135    159.4585   8.4636339068e+01   3.3703201179e+01    0.2004878    0.1677536  37.91   0.00052894    1.371    0.271
        24 -10.9460    138.5084    249.9903   8.2114826171e+01   5.7021092005e+00    0.2480213    0.1279322  52.25  0.001377564    1.627    0.385
        25 -16.5966     74.1907    239.8035   9.2557079502e+01   1.7048595518e+01     4.491952     4.015628 -76.23   0.02320501    1.484    0.326
        26 -12.0867     62.6990    154.9634   8.6126439761e+01   3.5907709451e+01    0.4440309    0.2722879  62.81 0.0006867975    1.682    0.405
        27 -14.6211      7.8176    189.6734   1.0098492976e+02   3.4227234959e+01    0.8416889    0.3500067 -63.96  0.004275403    2.342    0.573
        28 -10.5703     40.7918    145.6103   9.0223186068e+01   4.0612389337e+01    0.2156392    0.1482967  73.30  0.001278743    1.404    0.287
        29 -11.1179     42.9860    142.5346   8.9307044847e+01   4.1088332585e+01    0.2619202    0.1616326 -71.35 0.0008050479    1.369    0.270
        30 -11.5003     32.5349    142.7653   9.1892254236e+01   4.2089268805e+01    0.4377843    0.1795509  63.89  0.001789213    3.385    0.705
        31 -10.9954     35.0367    137.4722   9.0654007281e+01   4.3061163852e+01    0.2583351    0.1605518 -74.49  0.001002927    1.333    0.250
        32  -9.4551    105.1999    138.7997   7.2768963950e+01   3.3194532942e+01    0.1878408    0.1720008 -27.91 0.0005003127    1.289    0.224
        33 -11.1419     46.2463    134.9886   8.7484842143e+01   4.2487849387e+01    0.2968825    0.2214551  53.62  0.001033826    1.399    0.285
        34 -11.3455     26.1548    129.3943   9.1921754893e+01   4.5725811385e+01    0.4998572    0.1816357  56.39  0.001984998    3.827    0.739
        35 -16.5436     28.9510    238.0348   1.0002681215e+02   2.2952589816e+01     1.608273    0.7116747  39.71  0.009879599    2.174    0.540
        36  -9.8744     81.4968    132.0125   7.7700573137e+01   3.8654085394e+01    0.1983575    0.1809598  66.78 0.0003527768    1.110    0.099
        37 -11.4536     26.1694    133.1279   9.2357040019e+01   4.4870280350e+01    0.3008676    0.1542428 -60.64 0.0009265714    1.663    0.399
        38 -11.0931      6.8450    129.2802   9.6733922761e+01   4.7221951218e+01    0.2147927    0.1324323  67.28  0.001079963    1.615    0.381
        39 -12.4919      8.0809    123.5900   9.5870629697e+01   4.8410968468e+01    0.3994662    0.3542455  14.90  0.002275879    1.542    0.351
        40 -11.9677      5.8667    118.8406   9.5948599940e+01   4.9616671584e+01    0.4908302    0.2364691 -32.44  0.002424773    3.347    0.701
        41 -10.6062      1.5232    117.5170   9.6928847544e+01   5.0173948300e+01    0.2120971    0.1308583 -79.09 0.0006045304    1.230    0.187
        42 -11.7987     16.8597    124.7899   9.3767174376e+01   4.7521116179e+01    0.3202255    0.2032411 -59.85  0.001289593    1.392    0.282
        43 -10.4347     52.3744    119.1170   8.3398901001e+01   4.5528380123e+01     0.452457    0.2024171 -44.81  0.001896366    2.534    0.605
        44 -12.3481    248.6612    115.1160   3.6054462069e+01   6.7567481780e+00    0.6258422    0.2356948 -46.72  0.002168272    3.133    0.681
        45 -11.9202     20.6007    116.2082   9.1754613486e+01   4.9193310353e+01    0.3572511    0.2071676 -65.63  0.001921968    1.363    0.266
        46 -11.3505     13.8538    117.1213   9.3674288933e+01   4.9476487951e+01    0.1977791    0.1625338 -52.80  0.001402221    1.303    0.232
        47  -9.4195     91.6574    116.1694   7.1684442706e+01   4.0783121679e+01    0.2012283    0.1230669 -47.51 0.0003454628    1.591    0.372
        48 -10.9696      2.5415    111.6197   9.6062434776e+01   5.1427068582e+01    0.2376318    0.1417478 -71.67 0.0005587745    1.256    0.204
        49 -11.9714     10.2083    102.1710   9.2842068940e+01   5.3089671694e+01    0.4239461    0.1498098 -64.89  0.001650756    2.023    0.506
        50 -11.0787      1.7740    105.0186   9.5550860029e+01   5.2938383172e+01    0.2590322    0.1099663 -66.34  0.001258708    1.704    0.413
        51 -13.3923    248.4204     88.0610   2.9659684999e+01   1.1127874465e+01     1.101476    0.4573511 -24.01  0.003754306    3.275    0.695
        52 -10.2717     28.1390     99.1199   8.7111403004e+01   5.2517186690e+01    0.1989646    0.1411349 -52.71 0.0008734841    1.250    0.200
        53 -10.5365      8.4877     96.5156   9.2594656263e+01   5.4459581637e+01    0.2184827    0.1723443 -71.69  0.001222546    1.032    0.031
        54 -11.4774      3.6914     95.9883   9.3931344572e+01   5.4842491074e+01    0.3420579     0.266096  -6.02  0.002449754    1.730    0.422
        55  -9.3450     63.4975     95.4902   7.5417932374e+01   4.9705990410e+01    0.1365675    0.1198163 -53.72 7.689322e-06    1.018    0.018
        56 -11.8894     14.2339     91.9715   9.0215605551e+01   5.5130099714e+01    0.4336194    0.2140197 -79.49  0.002261616    1.932    0.482
        57  -9.9959    132.1937     92.8475   5.4372379535e+01   3.8147667732e+01    0.2209731    0.2081612  86.42 0.0004085508    1.138    0.122
        58  -9.3333    107.7844     89.3560   6.0211220875e+01   4.3968367103e+01      0.20317    0.1407859  32.36 0.0009340854    1.585    0.369
        59 -15.8615     10.4134    177.5817   9.9750628883e+01   3.6475514752e+01     3.167217     1.972746  22.16    0.0203698    2.381    0.580
        60 -12.4658    249.0935    100.3231   3.2495770307e+01   9.0375303865e+00    0.4778123    0.3303517 -13.56  0.002319721    1.697    0.411
        61  -9.7202     30.3410     84.6688   8.3811334486e+01   5.5614792006e+01     0.122949   0.08826016  76.77 0.0007051434    1.747    0.427
        62  -9.1784     35.4379     82.4988   8.1674378111e+01   5.5669836370e+01    0.1264206    0.1037128 -58.41 7.508029e-05    1.023    0.023
        63  -9.2610    158.5607     80.3703   4.4095635175e+01   3.4410313701e+01    0.1553397    0.1494905  64.73 0.0002256072    1.047    0.045
        64  -9.8219    215.9932     78.4691   3.2218122837e+01   2.0258642473e+01    0.2181893    0.1973285 -40.93 0.0003676764    1.074    0.069
        65 -10.2678    195.3987     78.8112   3.5933957249e+01   2.5364288627e+01    0.2774509    0.2079142  56.89            0    1.333    0.250
        66 -11.0343     52.6785     77.6207   7.4673131402e+01   5.5024253570e+01    0.5121953    0.2551857  44.09   0.00238222    2.503    0.601
        67 -11.2478      4.0822     77.4282   9.1185288791e+01   5.8907291705e+01    0.3434438     0.228739 -70.05  0.002291004    1.180    0.152
        68 -10.9564     91.6052     75.0866   6.0949618720e+01   4.9971685738e+01    0.2403681    0.2169878  30.39 0.0001707621    1.165    0.142
        69  -9.9329     11.8399     72.6418   8.7755418628e+01   5.9541079143e+01    0.1412587    0.1038066  36.24 0.0006504521    1.720    0.418
        70  -9.1010     76.5588     71.4747   6.4787658150e+01   5.3183354018e+01    0.1400657    0.1234395 -30.88 0.0002008133    1.040    0.038
        71 -11.3398      7.6677     67.7844   8.8312067792e+01   6.0812821447e+01    0.2364758     0.166588 -77.54 0.0006894069    1.353    0.261
        72 -11.6032      3.8498     59.5643   8.8124157313e+01   6.2739989342e+01    0.3817697     0.260243 -75.08  0.002429864    1.380    0.275
        73  -9.7788     40.7716     68.6063   7.6572781398e+01   5.8227156177e+01    0.1576587     0.115641  40.07 0.0004299748    1.661    0.398
        74 -11.8260    250.2309     64.0555   2.3641735925e+01   1.4391353644e+01    0.4887341    0.1980552 -32.19  0.001934116    2.338    0.572
        75 -12.7508    249.6740     56.5612   2.1913548605e+01   1.5608729170e+01    0.6450588    0.4561394 -43.11  0.003450482    1.272    0.214
        76  -9.7389    204.3909     65.6751   3.0690745930e+01   2.5252894381e+01    0.2344982    0.1686431 -66.14 0.0006555987    1.602    0.376
        77 -10.1839     24.7825     65.6748   8.1694790858e+01   6.0207271441e+01    0.2146366    0.1493968 -57.62 0.0007722168    1.164    0.141
        78  -8.9335    192.2748     65.7035   3.2807811120e+01   2.8365280879e+01    0.1541859    0.1162674 -67.88 0.0002354456    1.528    0.345
        79  -9.7758     43.5143     62.8556   7.4026653851e+01   5.9174843417e+01     0.185842    0.1729636 -89.57 0.0007841807    1.334    0.250
        80  -9.5633    188.4989     62.4704   3.2562499471e+01   2.9867536726e+01    0.1530213    0.1481884  85.33 0.0001450136    1.005    0.005
        81 -10.7415    117.9518     61.2713   4.8466153760e+01   4.7485078870e+01    0.2529117    0.2307619  17.61   0.00022232    1.080    0.074
        82  -9.5197     98.5696     60.7947   5.4117005220e+01   5.1533427586e+01    0.2026682    0.1318593 -51.44 0.0009343712    1.722    0.419
        83 -10.1725     35.4026     60.7236   7.6490158183e+01   6.0393667806e+01    0.3170724    0.1710974 -22.10   0.00154827    2.422    0.587
        84 -11.3502    229.1071     59.8845   2.5378703901e+01   1.9968941737e+01    0.3465214    0.1934417 -64.27  0.001390313    2.352    0.575
        85  -9.0013     56.7277     60.3039   6.8371491287e+01   5.8218047416e+01    0.1184347    0.1014856 -80.78 0.0002221376    1.537    0.349
        86  -9.6417     22.0145     57.9671   8.0893142291e+01   6.2032480837e+01    0.1736286    0.1360309  85.43 0.0006833563    1.694    0.410
        87 -11.1230     96.2561     55.8018   5.3126512475e+01   5.2896440748e+01    0.2507698    0.2137044 -19.19 0.0003182532    1.119    0.106
        88 -10.0434     22.5128     51.6629   7.9074510070e+01   6.3296227540e+01     0.329072    0.1233709 -39.93  0.001539574    2.384    0.580
        89  -9.9266     94.0384     48.8984   5.1365573690e+01   5.4540725192e+01    0.2029692    0.1805878  -7.49  0.001168077    1.037    0.036
        90  -8.9042     95.3319     45.3352   4.9630643037e+01   5.4899180524e+01     0.257519     0.165264  -3.61  0.001106879    2.124    0.529
        91  -9.1862     87.0158     49.0188   5.3728123185e+01   5.5807303638e+01    0.1629215    0.1466704  -7.04 0.0003590974    1.011    0.011
        92 -11.5116    248.8246     45.9564   1.9478473352e+01   1.7295571182e+01    0.4554084    0.2584937 -33.87  0.002201977    1.664    0.399
        93 -10.9380      6.8201     45.8075   8.3945081257e+01   6.5428058324e+01    0.4508123     0.169272 -35.36  0.002246105    2.553    0.608
        94 -10.5994      3.7879     42.5725   8.4410187657e+01   6.6219593941e+01    0.3104898    0.2005812 -64.86  0.002073976    1.367    0.269
        95 -10.1158     38.8193     43.7454   7.0034410158e+01   6.3475050718e+01    0.2189112    0.1663168  30.53  0.001087453    1.563    0.360
        96  -9.4547     20.5489     44.4968   7.7885293920e+01   6.4871935664e+01    0.1564623    0.1028701  -8.89 0.0006223531    1.702    0.412
        97  -9.6372    119.2790     42.4187   4.1453146800e+01   5.0339390979e+01    0.1946902    0.1399568  60.56 0.0009388411    1.544    0.353
        98  -9.5477     64.2819     41.9217   5.9237189921e+01   6.0717254245e+01    0.1835294    0.1476408 -27.39   0.00049635    1.087    0.080
        99  -9.4298    159.3182     39.3067   3.0998590471e+01   4.0975987184e+01    0.1564179    0.1101042  29.91 0.0004469217    1.633    0.388
       100 -10.0739     69.0903     39.0531   5.6328569067e+01   6.0500168167e+01     0.193364    0.1693111 -12.74 0.0002936457    1.041    0.040
       101  -9.5760     82.1069     36.1290   5.0488485173e+01   5.8833174400e+01     0.207809     0.163666   0.51 0.0004382481    1.237    0.191
       102 -10.1450     40.2060     35.9983   6.6738526851e+01   6.4772798087e+01    0.2003172    0.1670457  -1.85  0.000877907    1.193    0.162
       103 -10.4028    153.8973     33.3487   3.0111257762e+01   4.3178917698e+01    0.4410979    0.1718796 -24.77  0.000783754    2.969    0.663
       104 -10.2111     48.2794     31.9813   6.1792714723e+01   6.4563445980e+01    0.1844496    0.1735826  -1.89 0.0006577605    1.288    0.224
       105  -9.9533     17.5266     31.7926   7.5275380755e+01   6.7517792651e+01    0.1574769    0.1437638 -42.73  0.000556428    1.284    0.221
       106  -9.2918      3.6824     31.3164   8.1449949914e+01   6.8413687402e+01   0.09625478   0.08212246  87.36 0.0005260495    1.653    0.395
       107 -10.0619    160.7609     26.6290   2.6574201744e+01   4.2246160930e+01    0.2278742    0.2003096   0.63 0.0007181462    1.267    0.211
       108 -10.0555    110.0259     24.5109   3.7154591948e+01   5.4901914143e+01    0.2087537    0.1295072  51.55 0.0005790408    1.539    0.350
       109 -11.3448     87.7029     22.5072   4.2985372441e+01   5.9777591938e+01    0.3033105    0.2620094  40.12  0.000194674    1.232    0.189
       110 -11.6302     96.3055     22.1572   4.0139457553e+01   5.8118077480e+01    0.2709227    0.2391024  43.49  0.001639477    1.204    0.170
       111 -10.3363     38.1315     22.8429   6.2476086945e+01   6.7256873842e+01    0.1894886    0.1486607 -18.35 0.0005964065    1.017    0.017
       112 -10.1865     35.2357     19.8116   6.2507823574e+01   6.8058294937e+01     0.170784    0.1455563   2.12  0.000480945    1.226    0.184
       113  -9.9293     72.9176     22.5124   4.8082825713e+01   6.2448630201e+01    0.1804415    0.1195792  37.61   0.00049359    1.494    0.331
       114 -10.9996    138.1933     20.0756   2.8721860051e+01   4.8775460467e+01    0.3290575    0.1863228 -34.19  0.001506892    1.881    0.468
       115 -12.1158    106.5118    182.1263   7.9836376499e+01   2.3300397497e+01    0.3366119     0.300849   6.75  0.001992542    1.539    0.350
       116  -9.4140    147.3239     18.3184   2.6278093643e+01   4.6669461587e+01    0.1531198   0.09842357  33.95 0.0007044662    1.672    0.402
       117 -10.4487     65.8674     16.8304   4.8178047914e+01   6.4389691504e+01    0.1994952    0.1479485   4.15 0.0004693065    1.231    0.188
       118  -9.9614     49.1948     19.1823   5.6009240063e+01   6.6498219066e+01    0.1564336    0.1387319 -29.65  0.001072468    1.351    0.260
       119 -11.4279    131.9469    246.2954   8.2885162703e+01   7.3127790115e+00     0.240852    0.1646576 -89.12  0.001472656    1.945    0.486
       120  -9.8841    243.4986    180.4973   5.1258517362e+01  -2.3742587635e+00    0.1330049    0.1135887   6.99  -0.00012579    1.017    0.017
       121 -11.5365    128.3844     14.3224   2.8703043072e+01   5.1807592402e+01    0.5281906    0.1159876  55.82  0.001682192    3.420    0.708
       122  -9.9662    189.2424    241.9169   7.1880454530e+01  -1.5098822480e+00    0.1716504    0.1397913  44.04 0.0004127752    1.181    0.153
       123  -9.0018    204.2767     13.6722   1.6343418901e+01   3.2328056292e+01    0.1449109   0.09429856 -62.93 0.0001950002    1.592    0.372
       124 -11.9730    115.3712     12.9525   3.1174710680e+01   5.5024109665e+01    0.3909194    0.1930479  58.92  0.001740428    1.939    0.484
       125 -11.8234     84.8622    172.6408   8.3354188021e+01   2.8811064266e+01    0.4064087    0.2361365 -47.16  0.001969788    2.129    0.530
       126 -11.2374     89.2840    168.0743   8.1690694049e+01   2.9147252439e+01    0.2624063    0.1956384  40.73  0.000339135    1.396    0.284
       127 -10.1121    158.9790    229.4944   7.5777606015e+01   5.4116531915e+00    0.1748312    0.1575243  47.99 0.0003823959    1.122    0.109
       128 -10.6789     96.6653    171.3711   8.0472263785e+01   2.7246261332e+01    0.2124041    0.1420398  72.49 0.0005564244    1.619    0.382
       129 -16.7680     23.3909    200.7656   9.8803417606e+01   3.0527293921e+01     3.684554     1.849172  44.66    0.0229873    1.815    0.449
       130 -10.0944    166.0971    212.8701   7.1968389729e+01   6.8165301721e+00    0.1965863    0.1638291  59.14  0.000544996    1.235    0.190
       131 -11.6624    123.9933    206.6800   7.9567651861e+01   1.5407145837e+01    0.2240534    0.1870798 -40.66 0.0007864686    1.553    0.356
       132 -16.1739     20.6918    215.4955   1.0016739640e+02   2.7946314245e+01     1.910701    0.5443559  55.56  0.009417846    2.797    0.642
       133 -15.2721     15.7115    222.8961   1.0139799848e+02   2.7072142576e+01    0.9622877    0.3465976  64.76  0.005264418    2.347    0.574
       134 -11.0059     78.7317    159.4268   8.2912369125e+01   3.2686628415e+01    0.2391778    0.1971164  41.38 0.0006934751    1.323    0.244
       135 -10.9528     78.0219    199.7148   8.8121786888e+01   2.4066194497e+01    0.3003432    0.1864839  54.14  0.001112114    1.384    0.278
       136 -16.1122     23.7863    248.7694   1.0137138486e+02   2.1672162426e+01     2.387016     0.530641  35.52  0.009281494    6.050    0.835
       137 -11.8494    122.5062    190.8178   7.7624703574e+01   1.8751465268e+01    0.2711234    0.2463977  83.84 0.0004624129    1.104    0.094
       138 -12.8516    116.9792    194.2550   7.9308274954e+01   1.9024539525e+01     0.499826    0.3736762 -54.55  0.002254532    1.509    0.338
       139 -12.4180    111.4336    188.5133   7.9681033128e+01   2.1136924626e+01    0.5842603    0.2813339 -72.57  0.002357836    2.939    0.660
       140 -17.4464      6.4552    235.5926   1.0344914736e+02   2.5711847829e+01     4.009907     0.870065 -77.01   0.01830658    3.842    0.740
       141 -11.0771     74.8672    159.8227   8.3890398124e+01   3.3151187293e+01    0.2415171     0.197097  88.93  0.000377795    1.093    0.085
