#   1 NUMBER                 Running object number                                     
#   2 MAG_AUTO               Kron-like elliptical aperture magnitude                    [mag]
#   3 X_IMAGE                Object position along x                                    [pixel]
#   4 Y_IMAGE                Object position along y                                    [pixel]
#   5 X_WORLD                Barycenter position along world x axis                     [deg]
#   6 Y_WORLD                Barycenter position along world y axis                     [deg]
#   7 A_WORLD                Profile RMS along major axis (world units)                 [deg]
#   8 B_WORLD                Profile RMS along minor axis (world units)                 [deg]
#   9 THETA_WORLD            Position angle (CCW/world-x)                               [deg]
#  10 FWHM_WORLD             FWHM assuming a gaussian core                              [deg]
#  11 ELONGATION             A_IMAGE/B_IMAGE                                           
#  12 ELLIPTICITY            1 - B_IMAGE/A_IMAGE                                       
         1 -14.9088      6.9294     70.5514   8.6427350342e+01   6.0458131924e+01     1.154207    0.5991755 -58.81    0.0055486    1.436    0.304
         2 -12.9480      7.9623      2.6185   6.6080857158e+01   7.3079728863e+01     0.471227    0.3090779  32.13  0.003346777    2.005    0.501
         3 -15.8674     11.3212     23.3106   7.2616282496e+01   6.9481971172e+01     1.800199    0.8386195 -33.89  0.008592885    1.849    0.459
         4 -13.7850     25.1546     13.3261   6.1975629706e+01   7.0004596158e+01    0.5947367    0.2654589  29.19  0.003327185    2.402    0.584
         5 -13.3104     42.8673     37.0935   6.3442597846e+01   6.4233676254e+01     1.035923    0.5487253 -35.23   0.00556918    1.704    0.413
         6 -13.9141    166.3724     29.4556   2.4873201160e+01   4.0280532849e+01     1.025345    0.6974289  64.28  0.003749989    1.348    0.258
         7 -12.5895    139.2651     21.4533   2.7346946874e+01   4.8176375164e+01     1.112394     0.349726  64.80  0.003093507    3.392    0.705
         8 -13.6616    148.3865     29.8852   2.8352854669e+01   4.4851478544e+01    0.8811961    0.6983528  64.35  0.003084228    1.183    0.155
         9 -13.3099    188.1279     24.7139   2.0069917768e+01   3.5192429956e+01     1.055075    0.4518338 -58.46  0.003638171    3.319    0.699
        10 -12.4035    120.2170     26.2552   3.3332497298e+01   5.2168856157e+01    0.5408431    0.3617748  40.68  0.002054667    1.427    0.299
        11 -14.9073     99.0551     11.2971   3.2999145232e+01   5.8613260970e+01     1.482731    0.8239252  55.61  0.004235567    1.725    0.420
        12 -12.5655     85.8999     13.8588   3.7907089354e+01   6.0998440251e+01    0.4934384     0.337029 -53.72  0.002590763    2.196    0.545
        13 -12.0531     60.2837     15.2798   4.7463057816e+01   6.5304475063e+01    0.4468832    0.2805486  17.58  0.002521487    1.683    0.406
        14 -12.3609    188.1726      9.5151   1.5796061021e+01   3.6927815113e+01    0.3683284     0.322023  64.02  0.001881325    1.145    0.126
        15 -11.6043     46.6471     12.7316   5.1862321804e+01   6.7617738302e+01    0.2421606    0.2066718  18.46  0.001479207    1.243    0.195
        16 -12.8498    214.6322     10.0289   1.2973168534e+01   3.0125144674e+01    0.4056444    0.3522761  81.91  0.001600264    1.106    0.096
        17 -13.6698     42.0298      3.9340   4.9692165652e+01   6.9385518103e+01    0.5650464    0.4183744  11.63  0.003190244    1.183    0.155
        18 -10.8614    124.5229     11.2584   2.6801283391e+01   5.2878040387e+01    0.2433886    0.1661936  57.98 0.0006300369    1.317    0.240
        19 -11.4574     75.8088      9.2498   3.9145268982e+01   6.3424604083e+01    0.2949654    0.1920421 -24.66  0.001706903    1.527    0.345
        20 -11.3059    152.5597      8.9529   2.0707343226e+01   4.6180828268e+01     0.298779    0.1622509  51.34  0.001392932    1.668    0.401
        21 -13.7757     29.0956      8.2289   5.7767456777e+01   7.0359095248e+01    0.3642506    0.3048567  14.77  0.001341992    1.318    0.241
        22 -11.8073     75.3682      2.8416   3.6381638792e+01   6.4192337839e+01    0.4522774    0.1934375  39.43  0.002155227    2.133    0.531
        23 -11.6454    119.0739      2.6966   2.4762641622e+01   5.4983276384e+01    0.3323013    0.2166887 -83.16  0.001598984    2.263    0.558
        24 -10.5705     40.5232     12.5527   5.4457104975e+01   6.8430845122e+01    0.1584392    0.1015206 -41.37 0.0005439894    1.649    0.394
        25 -10.2201    183.0179      1.2161   1.4098660175e+01   3.9098999671e+01    0.1873499   0.09755857  71.65 0.0007033247    1.665    0.399
        26 -11.0918     61.6801      1.3567   4.0434607320e+01   6.6745930476e+01    0.2608978    0.1085118  50.78  0.001158787    2.655    0.623
        27 -12.5994    204.5165     39.8008   2.1921730363e+01   2.8951852079e+01     0.873305    0.3933012  86.09  0.002765917    3.789    0.736
        28 -11.8649     50.8271    248.7830   9.4690232496e+01   1.8221115510e+01    0.2902988    0.2249682  81.24  0.002259479    1.232    0.188
        29 -12.4742      3.0392    249.4729   1.0224164397e+02   2.3536883673e+01    0.3804633    0.2207484  64.21  0.002283214    1.145    0.127
        30 -13.5483      9.7001    245.6761   1.0108600215e+02   2.3509594218e+01    0.7340312    0.2795699  59.29  0.003637776    1.835    0.455
        31 -11.0907    103.3782    149.8250   7.2627060941e+01   3.0793028558e+01    0.2701154    0.2157974 -31.06  0.001101734    1.676    0.403
        32 -12.3370      6.5397    147.8652   9.5968072629e+01   4.3364410299e+01    0.4172751    0.2418631 -87.35  0.002595609    1.362    0.266
        33 -11.8813     60.4260    147.2663   8.2980582362e+01   3.7995617126e+01      0.33102     0.285094  13.93  0.002009879    1.597    0.374
        34 -12.0400    188.8768    155.8838   5.4116542057e+01   1.2028079852e+01    0.2350643    0.2060324  13.20  0.001248039    1.237    0.192
        35 -13.2957     22.0068    166.0657   9.4071175491e+01   3.8016367434e+01    0.3741792    0.3258522  -5.23  0.001453408    1.836    0.455
        36 -12.2562     41.4569    137.6292   8.6455460563e+01   4.2502501129e+01    0.4224518    0.2324943  64.76  0.002117406    2.043    0.511
        37 -11.6820     45.0507    132.2572   8.4785362407e+01   4.3365035507e+01    0.2423209    0.1627867  58.22   0.00137003    1.548    0.354
        38 -11.9193    135.0401    126.1135   5.9722259277e+01   3.0030103399e+01    0.2827482     0.230947 -50.63  0.001259479    1.239    0.193
        39 -13.8945    107.7375    123.1800   6.6141383208e+01   3.6193110575e+01     1.129023    0.9395532  62.91  0.005914053    1.219    0.180
        40 -13.5440    111.6222    116.5455   6.3576051036e+01   3.6983087811e+01    0.5078773      0.38204  49.77  0.001417837    1.343    0.256
        41 -12.7852     28.1562    121.7448   8.7843012908e+01   4.7498993259e+01    0.4642504    0.3809591  42.23  0.003124173    1.411    0.291
        42 -11.7784    180.8431    121.1494   4.7855018274e+01   2.0668155249e+01    0.2225544    0.1914096  16.15  0.001088028    1.360    0.265
        43 -12.2698     42.5227     90.7005   7.8373483146e+01   5.3269873324e+01    0.3153062    0.2311285 -79.39 0.0006421303    1.411    0.291
        44 -12.1400      4.8364    119.2663   9.3747197138e+01   4.9851614986e+01      0.40558    0.2905127  11.77  0.002745105    1.959    0.490
        45 -12.0912     19.0511     85.9991   8.5087637447e+01   5.6346585470e+01     0.293667    0.2105026 -34.49 0.0003568239    1.509    0.337
        46 -12.1299     36.7055     92.9357   8.0684671951e+01   5.3335742343e+01    0.3666353    0.2589332   8.30  0.001390676    1.867    0.464
        47 -14.5397     24.3600     93.5307   8.4692684632e+01   5.4268108322e+01     1.399778     1.017467 -13.25  0.008725513    1.813    0.448
        48 -13.1998      2.2175     96.9388   9.1920493224e+01   5.4975443295e+01    0.7602548    0.2452355 -75.11   0.00342179    2.586    0.613
        49 -14.1085     17.9811    111.6173   8.9298013372e+01   5.0658538568e+01    0.9097692    0.5377494  15.72  0.005260948    2.324    0.570
        50 -14.2644     12.4852    103.6401   8.9801423756e+01   5.2855600527e+01     0.910334    0.5154983  31.00  0.005454575    2.107    0.525
        51 -11.4748     86.7015    114.8370   7.0116302512e+01   4.1827061330e+01    0.2869928    0.2485545 -12.97  0.001022068    1.462    0.316
        52 -12.3146     82.0029    115.0022   7.1491083209e+01   4.2537733678e+01    0.3794395    0.2874205  61.99  0.001991019    1.438    0.305
        53 -11.8100    121.7511    112.1519   5.9793507160e+01   3.5954719596e+01    0.2881279    0.2527529  76.64 0.0007314897    1.189    0.159
        54 -14.4098    106.4123    104.1009   6.1981594656e+01   4.0816148290e+01      1.05205    0.9936363  83.33  0.004922145    1.064    0.060
        55 -12.1203    136.8920    103.2541   5.3550376565e+01   3.4647721781e+01    0.6551099    0.2674721  51.29  0.002226681    2.555    0.609
        56 -11.6068     62.6027    110.3998   7.6174715558e+01   4.6398453376e+01    0.4685871    0.2363113  55.07  0.002000884    2.574    0.611
        57 -12.0280     61.6261     98.2192   7.3926668330e+01   4.9349966386e+01    0.5701217      0.34649  78.03  0.002445894    2.747    0.636
        58 -11.7636     47.0855     99.6911   7.8742245446e+01   5.0739850809e+01    0.4462169      0.29282  82.57  0.002294052    1.964    0.491
        59 -11.4766     52.8124     97.6313   7.6545839598e+01   5.0567414647e+01    0.3733932    0.2344347 -18.00  0.001722391    2.558    0.609
        60 -11.3201    163.2442     97.0630   4.5516768027e+01   2.9738823725e+01    0.2644123    0.1809167 -69.17 0.0009780226    1.918    0.479
        61 -12.6790    136.7697     94.9865   5.1339490878e+01   3.6428327606e+01    0.5502964    0.3693364  61.60  0.002086959    1.661    0.398
        62 -11.8610     48.9795     93.4126   7.6869188189e+01   5.1966973462e+01     0.347538    0.2634467 -84.92  0.002010608    1.440    0.305
        63 -12.2270     78.9607    110.4730   7.1393985127e+01   4.4067397863e+01    0.4204697    0.2961728 -80.61  0.001703048    1.623    0.384
        64 -11.5525     41.5218    106.1628   8.1636161513e+01   4.9832938919e+01    0.3016187    0.2388057  68.30  0.001856804    1.381    0.276
        65 -12.6005    188.0748     84.2848   3.6808501765e+01   2.5994208496e+01    0.5281178    0.2358025  43.58  0.001831658    2.581    0.613
        66 -13.2147    163.9581     71.6128   3.8153909279e+01   3.4399973033e+01    0.7381013    0.5653896  44.89  0.003512353    1.331    0.249
        67 -13.0040    161.7415     79.6982   4.0992593141e+01   3.3477852451e+01    0.7537692    0.4294914  33.22   0.00227271    2.428    0.588
        68 -13.7730    169.6213     77.1447   3.8550648095e+01   3.1966930231e+01     1.202656    0.5657998  47.43  0.004041592    2.149    0.535
        69 -13.0538     91.6510     58.0529   5.2982984048e+01   5.3174526247e+01    0.5669584    0.4301392 -29.90   0.00297094    1.305    0.234
        70 -13.5545     54.4657     67.2261   6.8591783508e+01   5.7057120997e+01     1.416413    0.9541736   6.96  0.007587427    1.918    0.479
        71 -12.7008     54.5698     81.1762   7.2238259828e+01   5.4059386544e+01    0.5520217    0.4145686 -66.62  0.003186478    1.324    0.244
        72 -13.8499     61.4503     75.1307   6.8339172294e+01   5.4505990554e+01     0.727784     0.477484 -36.31  0.003235665    1.527    0.345
        73 -13.4008     87.3659     65.2391   5.6718561379e+01   5.2572388969e+01    0.9710897    0.6053227   7.95   0.00382914    2.790    0.642
        74 -13.0355     70.9849     75.2254   6.5142160592e+01   5.3162131178e+01    0.5010444    0.3596953  -7.69  0.001202556    1.858    0.462
        75 -12.1799     77.2218     73.5022   6.2573176540e+01   5.2579928167e+01    0.5703839    0.3086256 -34.60  0.001918458    2.074    0.518
        76 -10.8499     43.7804     83.5934   7.6430170445e+01   5.4731623704e+01    0.2078298    0.1557777 -57.09  0.000716757    1.136    0.120
        77 -11.7623     42.5958     79.7417   7.5954081645e+01   5.5703711275e+01    0.2986369    0.1314954 -56.82   0.00127631    1.885    0.469
        78 -13.0286     65.0887     49.0479   5.9014369659e+01   5.9212339477e+01    0.9358531    0.5636976 -44.97  0.004918666    1.558    0.358
        79 -12.2011    216.4769     81.4876   3.1028863691e+01   1.9422166903e+01    0.3211856    0.2565015 -54.44  0.001308051    1.221    0.181
        80 -11.7379    113.9872     79.8432   5.3139089345e+01   4.4538696080e+01    0.3912611    0.3356265 -55.00  0.001475797    1.192    0.161
        81 -12.0996    136.0332     79.6073   4.7109608766e+01   3.9719799244e+01    0.6019164    0.2824893  46.23  0.001970614    2.123    0.529
        82 -12.3284    105.7138    246.5661   8.5015796014e+01   1.0822654421e+01    0.2044749    0.1264293  78.87  0.001207473    1.805    0.446
        83 -14.0147      3.9047     63.4799   8.6199511298e+01   6.2105431761e+01    0.5747198    0.4975711 -51.52   0.00300341    1.135    0.119
        84 -11.3255     26.8484     75.0110   8.0340577088e+01   5.8169286289e+01    0.4985707    0.2382016 -82.65  0.001997087    3.636    0.725
        85 -10.4540     98.1117     75.1482   5.6413001323e+01   4.8640122668e+01    0.1827954    0.1669705  89.51  0.001009615    1.253    0.202
        86 -12.7929    198.9617     70.2433   3.1012272894e+01   2.5685842252e+01    0.7084335    0.4635539  34.71  0.002969531    1.995    0.499
        87 -12.2349    134.7330     66.2614   4.3353185563e+01   4.2546347486e+01    0.5610248    0.3107745  47.66  0.001672105    1.765    0.433
        88 -10.7411     99.8290     65.3229   5.2816651740e+01   5.0259324169e+01    0.2176755    0.1834304  62.54 0.0008240435    1.370    0.270
        89 -11.5884    158.0290     83.5005   4.2922993864e+01   3.3678730513e+01    0.3632304    0.2569155  62.96  0.000650164    1.477    0.323
        90 -12.8583     79.2776     59.3392   5.7487880637e+01   5.5087693037e+01    0.7000638    0.4859469 -36.09  0.003711776    1.370    0.270
        91 -10.9871    117.6452     72.4333   4.9850080620e+01   4.5241802605e+01    0.2501877     0.228313 -51.92  0.000510935    1.120    0.107
        92 -13.0313    177.9680     58.1866   3.1402827173e+01   3.3082780464e+01    0.6464227    0.5731292 -69.31  0.002036663    1.136    0.120
        93 -11.1326     38.8242     59.9842   7.2312047193e+01   6.0275992100e+01    0.2688055    0.1884448  58.14  0.001522895    2.085    0.520
        94 -10.6855     34.9748     59.5476   7.3650741585e+01   6.0734409438e+01    0.8478564   0.05922889 -49.99  0.002433929    5.524    0.819
        95 -11.8618     36.7101     53.9910   7.1422512894e+01   6.1691202720e+01    0.5568449     0.278398  13.00  0.002697282    2.755    0.637
        96 -11.7508    111.0703     58.9002   4.7360818534e+01   4.9176586201e+01    0.2677792    0.2332706   7.45 0.0003648288    1.226    0.185
        97 -14.2337    120.2419     54.7834   4.3414496051e+01   4.7901833521e+01    0.9772235     0.600391  45.84  0.004470158    1.588    0.370
        98 -11.2839     17.7249     55.5179   7.9260654393e+01   6.2942364877e+01    0.3015645    0.1366458 -64.27  0.001553618    2.008    0.502
        99 -13.3723    103.3577     50.4477   4.6735229950e+01   5.2255411975e+01    0.9699216    0.5518613 -59.55  0.002478352    2.919    0.657
       100 -13.1075     97.9806     50.0235   4.8221493388e+01   5.3403839825e+01    0.5218059    0.4158979 -39.41  0.002035087    1.264    0.209
       101 -11.5714     24.8111     58.9830   7.7381197799e+01   6.1717387696e+01    0.3902609    0.1760086 -56.35  0.002034702    1.765    0.434
       102 -12.1764    153.4089     47.1052   3.2908310498e+01   4.1153061543e+01    0.5015711    0.2636522  61.31  0.002049497    1.868    0.465
       103 -11.4423    136.2686     49.6112   3.7585000531e+01   4.5018619627e+01    0.2769125    0.2466092  29.71 0.0006083873    1.151    0.131
       104 -10.4879     23.5352     50.0020   7.5520701895e+01   6.3629490102e+01    0.1737449   0.09455383 -53.52 0.0004732857    1.484    0.326
       105 -13.2239      5.9643     42.9740   8.0901748621e+01   6.6150658386e+01    0.7242169    0.3750693  16.62  0.004437684    2.310    0.567
       106 -12.0207     28.5750    245.1201   9.8101821382e+01   2.1548977038e+01    0.3541304    0.1636584  54.08   0.00229256    1.561    0.359
       107 -13.3318     92.2726    230.4345   8.5907555946e+01   1.5701323405e+01    0.4483915    0.3596017  80.85   0.00307848    1.170    0.145
       108 -12.5770     23.5555    216.5657   9.7356718368e+01   2.7378585990e+01     0.660144    0.3288203  53.92  0.004165539    1.583    0.368
       109 -12.4627    213.0865     42.9337   2.1572899791e+01   2.6324796896e+01    0.5649969    0.2729652  52.67  0.001512461    2.152    0.535
       110 -12.7965    219.6881     41.6908   2.0387796892e+01   2.4842636742e+01    0.6353482    0.4120347  78.74  0.002151112    1.549    0.354
       111 -10.0651     80.2303     44.6696   5.2074409742e+01   5.7588716821e+01    0.1230443    0.1025538 -60.52  0.000270983    1.523    0.343
       112 -11.8794    159.1892     42.9037   3.0399092984e+01   4.0300906553e+01    0.4434085    0.2703327  66.05   0.00182797    1.630    0.387
       113 -11.4549    135.0282     39.5162   3.4482716825e+01   4.6852602994e+01    0.4556392    0.2327226  66.20  0.001573859    2.292    0.564
       114 -11.8792    109.6003     41.9181   4.1878082441e+01   5.2334801614e+01    0.4257154     0.193452  51.29 0.0008657249    2.168    0.539
       115 -12.4502    131.7424     33.0014   3.2998500282e+01   4.8559933466e+01    0.4336289    0.3683898  17.35  0.001367281    1.264    0.209
       116 -13.7158    122.1466     36.2819   3.6485335867e+01   5.0370726787e+01    0.8817984    0.5503289  30.44  0.004023532    1.857    0.461
       117 -12.5804    113.8066     37.8147   3.9225540492e+01   5.2036690209e+01    0.3604039    0.3348003  40.97  0.001298548    1.057    0.054
       118 -13.3592     26.4707    225.8628   9.7395382080e+01   2.5285652130e+01    0.6474401     0.316881 -58.98  0.003764418    2.690    0.628
       119 -12.4217     33.0831     40.4238   6.8678446683e+01   6.4648041519e+01    0.3256835    0.2378169  -3.17 0.0007318103    1.452    0.311
       120 -12.3147    242.1548     36.1951   1.6439600777e+01   2.0162135849e+01    0.4868682    0.2624037  72.72  0.001624143    1.859    0.462
       121 -12.0863     75.8986     36.9568   5.0687742648e+01   5.9602905573e+01    0.3535424    0.2176364  35.37  0.001023024    1.638    0.390
       122 -11.4041     70.6297     36.0980   5.2239223510e+01   6.0606493376e+01     0.270554    0.2098602  37.46 0.0007902044    1.356    0.263
       123 -10.9243     35.0575     34.7340   6.5885051474e+01   6.5487285829e+01    0.2838371    0.1808043   5.32  0.001488773    1.798    0.444
       124 -13.7969     20.5800    224.1706   9.8303546773e+01   2.6248769456e+01    0.6282745    0.4281457  54.39  0.004671576    1.305    0.234
       125 -13.2221     65.1998    223.1926   9.0293734955e+01   2.0984053031e+01    0.7316262    0.5151123  47.45  0.004826836    1.353    0.261
       126 -13.9140     62.4760    213.9911   9.0014042110e+01   2.3145386912e+01     0.679629    0.3399805  56.34  0.003748723    1.659    0.397
       127 -12.7185    142.9905     29.9875   2.9488233410e+01   4.6195818020e+01    0.5735619    0.4035605  85.48   0.00231175    1.728    0.421
       128 -12.4759      4.1388    212.3176   1.0049114699e+02   3.0167980631e+01    0.3768096    0.2076408 -82.92  0.002590314    1.484    0.326
       129 -10.5908     64.8292     29.9017   5.1939995443e+01   6.2498507437e+01    0.1605371    0.1380536 -41.33 0.0004185234    1.332    0.249
       130 -11.2152    216.8033     28.2138   1.7317284893e+01   2.7385348673e+01    0.1891697    0.1656449  45.26  0.001082665    1.364    0.267
       131 -12.2840     72.3477    206.8764   8.7421098483e+01   2.3197281605e+01    0.3679991     0.246039 -85.38  0.001855062    1.407    0.289
       132 -13.0259     55.8952     26.8583   5.4165880863e+01   6.4285310010e+01    0.5934905    0.3159155  38.60  0.003137992    1.992    0.498
       133 -12.1868     62.5614     25.7044   5.1083659296e+01   6.3484166076e+01    0.4046993    0.2691438  12.09  0.002058168    1.652    0.395
       134 -11.6536     30.4132     25.5959   6.4538022741e+01   6.7525842710e+01    0.3405842    0.2010018  -6.93   0.00180142    2.008    0.502
       135 -11.4054     36.2412     23.3970   6.1049807117e+01   6.7285860042e+01    0.3110678    0.1998759 -43.82  0.001931691    1.481    0.325
       136 -13.0742     17.2723    195.7887   9.7218274519e+01   3.2168542389e+01    0.8782042    0.1794648 -61.79  0.003397697    4.719    0.788
       137 -11.6409    249.0420    216.0147   5.4413566053e+01  -8.5614973945e+00    0.1927095    0.1574778  14.54  0.001321891    1.046    0.044
       138 -11.9142     48.4991     20.3570   5.4462400963e+01   6.6280692678e+01    0.5626675    0.2220129  36.24  0.002680897    2.630    0.620
       139 -11.4324     71.0542     16.5173   4.4009616228e+01   6.3386772716e+01    0.2365326    0.1741568 -25.21 0.0006287743    1.316    0.240
       140 -11.3979    185.3922    203.2093   6.3886320513e+01   4.2589105116e+00    0.1735289    0.1300351 -56.62 0.0009525722    1.673    0.402
       141 -13.5951     29.8928    169.3380   9.2653821962e+01   3.6509432135e+01     1.041641    0.6648433 -37.63  0.005681001    2.692    0.629
       142 -15.5733      7.1164    182.2589   9.8301925582e+01   3.5920509186e+01     2.064043     1.092011 -83.27    0.0129805    1.481    0.325
       143 -12.7019     37.0997    194.6395   9.3315210662e+01   3.0279720587e+01     0.356164    0.1942795 -84.54  0.002077343    1.592    0.372
       144 -11.4478    248.0000    194.0250   5.0615951462e+01  -5.5325889620e+00    0.1990055   0.06724732 -34.96 0.0008076251    2.979    0.664
       145 -11.0259    200.7749    191.5980   5.8811209017e+01   3.2682148293e+00    0.1962601    0.1196101  51.37 0.0009467711    1.694    0.410
       146 -11.1150    206.4948    190.4928   5.7500772875e+01   2.3652883764e+00    0.1364149     0.120756  25.21 3.871919e-05    1.007    0.007
       147 -14.3126     15.4728    174.7847   9.6132410607e+01   3.6741114593e+01     1.098039    0.4499999  72.12  0.005329474    2.525    0.604
       148 -11.9952    124.3114    167.0491   7.0673708447e+01   2.3064647921e+01    0.5127045    0.3375757 -78.62  0.002355217    1.879    0.468
       149 -11.2085    178.3247    167.6463   5.8757420071e+01   1.2012806149e+01     0.149967    0.1155294  85.41 0.0007047001    1.763    0.433
       150 -12.9378     40.4110    195.2110   9.2707170619e+01   2.9775595748e+01    0.4104605    0.1982431  87.36  0.002134834    2.028    0.507
       151 -12.0636     76.9592    156.6956   8.0275973682e+01   3.3493955395e+01    0.3823519    0.3586763  85.80   0.00120491    1.160    0.138
       152 -12.9357     73.1816    153.1798   8.0677065121e+01   3.4863589607e+01    0.6607364     0.461273  35.35   0.00315521    1.619    0.382
       153 -11.5668    110.2561    154.5195   7.1782613508e+01   2.8481471615e+01     0.452253    0.2357471 -80.03  0.001529673    3.502    0.714
