#   1 NUMBER                 Running object number                                     
#   2 MAG_AUTO               Kron-like elliptical aperture magnitude                    [mag]
#   3 X_IMAGE                Object position along x                                    [pixel]
#   4 Y_IMAGE                Object position along y                                    [pixel]
#   5 X_WORLD                Barycenter position along world x axis                     [deg]
#   6 Y_WORLD                Barycenter position along world y axis                     [deg]
#   7 A_WORLD                Profile RMS along major axis (world units)                 [deg]
#   8 B_WORLD                Profile RMS along minor axis (world units)                 [deg]
#   9 THETA_WORLD            Position angle (CCW/world-x)                               [deg]
#  10 FWHM_WORLD             FWHM assuming a gaussian core                              [deg]
#  11 ELONGATION             A_IMAGE/B_IMAGE                                           
#  12 ELLIPTICITY            1 - B_IMAGE/A_IMAGE                                       
         1 -10.4311     13.5603     19.6606   8.0745876216e+01   7.2433026186e+01    0.3024815    0.2579291  -0.69  0.001165117    1.327    0.247
         2  -8.5781     93.3183      8.3260   3.9582137284e+01   6.0884797276e+01    0.1518622   0.09773552  24.68 0.0007045703    1.677    0.404
         3  -9.1310     22.5198      6.4992   6.8209299509e+01   7.4037996304e+01    0.1250284   0.09840316 -26.80 2.811467e-05    1.008    0.008
         4 -10.1671      5.0254      3.1374   7.7986480721e+01   7.6355291814e+01    0.2691149    0.1933729   6.65  0.001815329    1.565    0.361
         5  -9.8248    105.7848    248.4978   9.3545942213e+01   1.3585704486e+01    0.2301691    0.1710545  37.68  0.001798991    1.246    0.198
         6  -9.8432    163.0061    250.4653   8.4250821466e+01   5.6051696347e+00    0.1618489   0.07782025  38.82 0.0004447266    1.527    0.345
         7 -14.1493     86.8085    237.7728   9.5913898956e+01   1.7564680339e+01      3.24994     1.436947  29.89   0.01674992    2.886    0.654
         8 -12.9953      3.7589    198.9053   1.0855062058e+02   3.3288831178e+01     1.004367    0.3010485 -72.37  0.005305805    3.058    0.673
         9 -12.8829     26.4814    233.2691   1.0592940935e+02   2.5197013393e+01    0.4835143    0.2780276 -86.63   0.00268389    1.674    0.403
        10 -12.0802     30.6759    248.8286   1.0588497468e+02   2.2347791809e+01    0.3665508    0.2191154  33.47  0.001388977    1.825    0.452
        11 -13.1269     14.9777    227.3049   1.0761732624e+02   2.7299291702e+01    0.7530986    0.4660132 -66.66  0.005711071    2.026    0.507
        12 -13.6070     40.0398    242.7345   1.0411228033e+02   2.2296405240e+01     1.038567     0.659197  50.99  0.007854293    1.152    0.132
        13 -12.3780     19.0919    208.1250   1.0612300836e+02   3.0207362963e+01    0.6519772    0.2644421  82.44  0.002698114    2.329    0.571
        14 -14.3129     40.3372    225.9563   1.0322117829e+02   2.4944966765e+01     1.659667    0.9174427 -54.41   0.01064155    2.738    0.635
        15 -14.3202     33.2312    209.3590   1.0359617818e+02   2.8561396281e+01     1.462461    0.9156905 -82.87   0.01047494    1.531    0.347
        16 -14.2779      7.0004    226.6303   1.0892342280e+02   2.8153315803e+01    0.4857183    0.4157338 -51.57   0.00422447    1.973    0.493
        17 -13.0130      7.2741    219.4521   1.0864458712e+02   2.9334085578e+01    0.5133119    0.1876578  40.32  0.003094698    2.087    0.521
        18 -14.8783     15.6930    244.9287   1.0810750413e+02   2.4422276770e+01    0.7374175    0.5401736  46.42  0.004830764    1.356    0.263
        19 -13.1667      3.5608    249.5076   1.1011256497e+02   2.4853540658e+01    0.3342738    0.1818031  65.02  0.001152942    1.250    0.200
        20 -14.1592      9.5935    236.9425   1.0882224068e+02   2.6243350573e+01     0.594418    0.4659413 -39.09   0.00415319    2.579    0.612
        21 -10.0375     76.2795    250.3180   9.8582424852e+01   1.7038372361e+01    0.1730681    0.1007629  42.85 0.0005160838    1.318    0.241
        22 -10.2452    113.1298    247.1565   9.2200341497e+01   1.2801031057e+01    0.2284095    0.1358321  54.75 0.0003721568    1.457    0.314
        23 -12.0147    113.9933    243.7499   9.1753144344e+01   1.3147283044e+01    0.8811257    0.1996301  44.82  0.003616593    3.197    0.687
        24 -10.7985    100.5322    245.5580   9.4187954832e+01   1.4673970294e+01    0.2878394    0.1903433 -70.67  0.001698044    1.906    0.475
        25  -8.2535    182.6898    247.6919   8.0747368440e+01   3.2002095028e+00    0.1048294   0.06610791  18.45 0.0007023593    1.619    0.382
        26 -10.6444    156.7746    246.9389   8.4887417816e+01   6.8715691175e+00     0.242242    0.1405141  28.56  0.001589638    1.599    0.375
        27  -8.7979    220.3732    245.8082   7.4594454112e+01  -1.7010847324e+00    0.1266696   0.08338868  -6.11 0.0005596407    1.595    0.373
        28 -10.5779    153.4482    243.0244   8.5011686908e+01   7.8033046164e+00    0.2844645    0.2027173  16.55 0.0007828954    1.613    0.380
        29  -9.8476    140.1656    244.6813   8.7416290029e+01   9.4510136115e+00    0.1662067    0.1013252  49.41  0.001132059    1.394    0.283
        30  -8.7599    233.4289    244.4406   7.2437602709e+01  -3.2763810883e+00    0.1022867   0.07274622  21.21 7.356683e-05    1.045    0.043
        31 -10.0897    128.7370    243.3428   8.9211653347e+01   1.1200031212e+01    0.1612112    0.1430886  45.58  0.001132474    1.189    0.159
        32 -10.1127    160.6617    238.9088   8.3335715352e+01   7.2820102730e+00    0.1436374    0.1201794  36.48 0.0008196225    1.117    0.105
        33  -9.1161    144.9305    239.7962   8.6096002159e+01   9.4029685877e+00    0.1551558    0.0669705  39.34 0.0008688734    1.764    0.433
        34  -9.6537    231.2113    237.6659   7.1832390345e+01  -2.3904813529e+00    0.1684877    0.1456587  24.03 0.0008123335    1.443    0.307
        35 -10.3364    227.1854    236.3935   7.2266899931e+01  -1.7405977150e+00    0.1770595    0.1385685  20.90  0.000246863    1.165    0.141
        36 -10.4653    227.9979    233.0051   7.1661773846e+01  -1.5341559286e+00    0.1883022    0.1398878 -23.12 0.0004165944    1.584    0.369
        37  -8.9640    216.7190    238.6730   7.4198444351e+01  -5.4809760694e-01    0.1064311   0.06391206  14.11 0.0005715196    1.598    0.374
        38 -10.1263    245.3030    235.8422   6.9464102840e+01  -4.0595087347e+00    0.2050241   0.09415366  21.23 0.0009055093    2.031    0.508
        39 -10.0896    170.2806    236.0045   8.1373429289e+01   6.2533874840e+00    0.2117801    0.1225556  42.10  0.001377331    1.375    0.273
        40  -9.8058    125.0288    236.0510   8.9125667323e+01   1.2694312729e+01    0.2359254    0.1140717  48.28  0.001258885    1.680    0.405
        41 -10.6023    123.0873    231.6481   8.9019275946e+01   1.3581572785e+01    0.2039545    0.1493658 -88.96  0.001424696    1.810    0.448
        42 -11.2409    113.0808    235.2285   9.1126940441e+01   1.4460867455e+01    0.3110214    0.1731944  48.79  0.002014463    1.410    0.291
        43  -9.7810    177.7289    233.4126   7.9802316808e+01   5.4845630439e+00     0.217982    0.1138358  33.51  0.001326101    1.543    0.352
        44  -9.6148    207.0310    231.9648   7.4806673408e+01   1.4567804209e+00    0.1680246    0.1292276  27.03 0.0006057426    1.089    0.081
        45  -9.5381    188.5498    235.4119   7.8267098503e+01   3.7063128059e+00    0.2532251    0.1480857  52.67  0.001074987    2.131    0.531
        46 -10.2726    236.3231    231.1025   7.0116968496e+01  -2.4715000797e+00    0.3285628    0.1202545  41.62  0.001384534    2.431    0.589
        47 -10.0006    168.2097    230.9769   8.1101515918e+01   7.1576925530e+00    0.1752285    0.1167257   4.16  0.001086776    2.078    0.519
        48  -9.8576    129.4376    231.2211   8.7856545748e+01   1.2742867953e+01     0.130791     0.103113 -87.86 0.0009455539    1.646    0.392
        49  -9.8688    136.3283    235.6660   8.7127143734e+01   1.1157611878e+01    0.1553142   0.09418035 -69.71 0.0009481964    2.603    0.616
        50  -9.8378    192.0979    229.9100   7.6954500773e+01   3.8072333110e+00    0.1593223     0.126982  39.18 0.0004157899    1.253    0.202
        51  -9.8915    143.3294    230.3141   8.5319260028e+01   1.0870341726e+01    0.1681515    0.1184718  15.43 0.0007578405    1.792    0.442
        52 -13.2890    105.1298    228.8743   9.1934110656e+01   1.6479548236e+01    0.9949904    0.5190707 -53.33  0.006116512    2.447    0.591
        53  -9.9290     75.0964    228.8752   9.7286799053e+01   2.0412318827e+01    0.2248657    0.1257392  56.97  0.001482343    1.452    0.311
        54  -9.2244    208.8999    226.8897   7.3793322710e+01   1.7216839078e+00      0.16636    0.1164123  17.96 0.0004603589    1.205    0.170
        55  -9.5896    170.9135    225.4753   7.9936045018e+01   7.4379930671e+00    0.2052766    0.1533029  52.33   0.00142487    1.450    0.310
        56  -9.3458     87.3148    221.2756   9.4469267053e+01   2.0061054821e+01     0.247602    0.1376328  66.43  0.001305838    1.895    0.472
        57  -8.7393     74.0705    213.1415   9.6234344496e+01   2.3135476466e+01     0.157796    0.1152285  56.88 0.0004425697    1.064    0.060
        58  -9.2936     70.1830    215.0422   9.7115888663e+01   2.3302415269e+01    0.1895895    0.1547397 -28.15  0.001317899    2.106    0.525
        59 -10.1996     71.3274    219.6762   9.7266880416e+01   2.2378661902e+01    0.2957046     0.157434  76.83  0.001062449    2.144    0.534
        60 -10.2762     76.6609    222.4704   9.6512655665e+01   2.1246341476e+01    0.3475477    0.2471968  10.31  0.002125662    2.622    0.619
        61  -9.6500     81.9783    220.9985   9.5422778463e+01   2.0804405688e+01    0.1930244     0.141086  25.00 0.0005782674    1.763    0.433
        62 -10.1165    243.2876    223.3011   6.7900469981e+01  -2.6856630925e+00    0.2046166    0.1199642  38.42  0.001279693    1.589    0.371
        63 -11.1583    122.4224    223.1380   8.8244827522e+01   1.4909353014e+01    0.2626674    0.1592382  43.96  0.001502877    1.296    0.228
        64  -9.5237    122.9922    219.4797   8.7741318120e+01   1.5373349801e+01    0.1744149    0.1485146 -10.11   0.00124412    1.641    0.391
        65 -12.6728     63.3851    227.7397   9.9280400128e+01   2.2025324118e+01     1.729785    0.7343704 -79.55   0.00976197    2.815    0.645
        66 -12.2303     52.7394    229.5092   1.0126178546e+02   2.2982728547e+01    0.7671596    0.3199657 -72.86  0.002495698    2.588    0.614
        67  -8.6607    250.6980    221.2960   6.6487001194e+01  -3.4859992631e+00   0.08802123   0.07822786  22.06  0.000227077    1.577    0.366
        68  -8.8016    153.9472    221.4365   8.2383616649e+01   1.0499416881e+01    0.1559707   0.08094183  55.37 0.0005074645    2.331    0.571
        69  -9.9018    102.3843    220.3007   9.1612404903e+01   1.8177474747e+01    0.1627623    0.1327098 -53.25 0.0006204364    1.583    0.368
        70 -10.2439    197.5071    218.5181   7.4456880172e+01   4.3056608903e+00    0.3604626    0.1926855  -9.03  0.001774464    3.215    0.689
        71 -12.0254     16.6448    196.4473   1.0603859312e+02   3.2580513361e+01    0.9324625     0.404423 -72.90  0.005576282    2.196    0.545
        72  -9.4148    222.7397    216.3535   7.0012510816e+01   8.4303050910e-01    0.2902133    0.1304963  25.32  0.001512683    2.260    0.557
        73 -10.1689     88.3852    215.9920   9.3800314045e+01   2.0782283602e+01    0.2298151    0.2142339  61.91  0.001343128    1.255    0.203
        74  -8.8999    139.4540    216.5150   8.4382513190e+01   1.3372443433e+01    0.1158766   0.09383319  40.59 0.0001009686    1.026    0.025
        75 -10.1398    233.4412    214.4283   6.8029622329e+01  -4.8391957862e-01    0.2631163    0.1371518  27.74  0.001451801    1.600    0.375
        76 -13.1832      7.9731    208.7303   1.0814746478e+02   3.1137716120e+01    0.5188918    0.4746515 -39.15  0.004456874    1.855    0.461
        77  -9.0258    166.4813    214.5448   7.9249159005e+01   9.5183833895e+00    0.1171158    0.0937889  34.07 7.276518e-05    1.004    0.004
        78 -10.0920    104.0190    213.6104   9.0636502216e+01   1.9019257310e+01    0.1748264    0.1504789  74.90 0.0003624035    1.182    0.154
        79 -11.2861     95.2421    209.1702   9.1849519062e+01   2.0985855026e+01    0.4310413    0.2886595  88.29  0.002740068    1.733    0.423
        80 -10.8701    101.4765    208.0157   9.0534812476e+01   2.0302770916e+01    0.4019799    0.1518934  40.54  0.001134745    2.172    0.540
        81 -13.2926     97.6974    200.7696   9.0492618333e+01   2.2081452930e+01    0.7229542    0.4813311  34.96  0.004471682    1.493    0.330
        82  -9.9143     85.2870    209.5650   9.3792395418e+01   2.2279445847e+01    0.1937691     0.183636  58.02  0.001506312    1.286    0.222
        83 -10.3148     89.3760    208.2481   9.2883352966e+01   2.1951298769e+01     0.290505    0.1610355  33.52  0.001168942    1.843    0.457
        84  -8.8571    196.5129    212.9797   7.3806193885e+01   5.1040122848e+00    0.1544442   0.08981656  -5.28 0.0008101694    2.527    0.604
        85  -8.9981    216.1949    212.3934   7.0451547866e+01   2.2187066583e+00     0.148859   0.09173448  42.75 0.0002336884    1.581    0.368
        86  -9.7728    233.4917    209.0082   6.7157493456e+01   5.8416144614e-02    0.1807934    0.1212562  28.67  0.000549591    1.213    0.175
        87  -9.6559     70.6718    207.3109   9.6392278107e+01   2.4581203680e+01    0.3113474    0.1694891  69.24   0.00121026    1.884    0.469
        88 -11.3962     77.7808    204.9614   9.4813760376e+01   2.4077808909e+01    0.3319102    0.2872634  51.48   0.00203153    1.194    0.162
        89 -10.3417     68.7603    201.3274   9.6252149226e+01   2.5894639025e+01    0.2534801    0.1944225  80.54 0.0008725827    1.197    0.165
        90 -10.9618     68.8550    196.4490   9.5802213924e+01   2.6777410782e+01    0.3348275    0.2433469 -85.62  0.002276596    1.358    0.264
        91 -10.2937    130.1133    206.4720   8.4878149175e+01   1.6312363965e+01    0.2377296    0.2175768 -10.16 0.0008577463    1.369    0.270
        92 -10.2435    241.5605    204.0827   6.5099953003e+01  -5.9358206724e-01    0.2836691    0.1611912   0.99  0.001249537    1.866    0.464
        93 -11.1603    108.3436    204.1886   8.8788824286e+01   1.9953289407e+01    0.3590632    0.1632717  59.65  0.001627745    2.826    0.646
        94 -12.4367     87.8926    201.4248   9.2495206724e+01   2.3342806536e+01    0.6500057    0.2470286 -54.67  0.003132636    3.085    0.676
        95  -9.6263     61.7918    205.0388   9.7915080030e+01   2.6092642648e+01    0.1504738    0.1423964  66.91  0.001185285    1.346    0.257
        96 -10.5698    234.7496    202.9240   6.5963630466e+01   5.0812514116e-01    0.3222875    0.1822272   9.41  0.001221072    1.902    0.474
        97  -9.3703    190.7971    203.8347   7.3391359298e+01   7.1155339002e+00    0.1771611    0.1351306  17.72 0.0003783996    1.191    0.160
        98  -9.5124    182.9896    204.0317   7.4792585583e+01   8.3270234431e+00    0.1716732    0.1444685  26.71 0.0003580021    1.041    0.039
        99  -9.6472     42.8978    202.4745   1.0136382344e+02   2.8763807138e+01    0.2627658    0.1918944  58.18  0.001186734    1.086    0.079
       100 -10.4070     52.4252    197.7197   9.9174439629e+01   2.8555898307e+01    0.2790609    0.1925189  68.58  0.001366196    1.188    0.158
       101 -10.1080     52.9627    193.6885   9.8755488794e+01   2.9250754487e+01    0.2858621    0.1428766  57.18  0.001482682    1.705    0.413
       102  -9.9924     46.1022    193.8825   1.0014239628e+02   3.0008110271e+01    0.4134975    0.1395551  36.41  0.002020193    2.636    0.621
       103 -11.0791     46.3774    188.2893   9.9668438295e+01   3.1051087171e+01    0.4469458    0.3336001 -36.62  0.002855097    2.252    0.556
       104  -9.6970     41.2172    188.5853   1.0074093153e+02   3.1572145739e+01    0.2483144    0.1838962  25.73   0.00137191    1.774    0.436
       105 -10.1468     47.2583    198.0755   1.0021681495e+02   2.9087196179e+01    0.1946958     0.125002  52.96 0.0003718672    1.247    0.198
       106  -9.4547     43.5522    197.4870   1.0090179101e+02   2.9615357776e+01     0.191355    0.1510468 -85.06 0.0006205085    1.280    0.219
       107 -11.6337    122.8098    200.4264   8.5522498403e+01   1.8407495465e+01    0.5759478    0.2032623  50.98   0.00134664    3.002    0.667
       108  -9.1044    161.7273    201.0368   7.8194031956e+01   1.2149258061e+01    0.1669115    0.1409264  28.86 0.0004979518    1.064    0.060
       109  -9.0151    184.0232    198.2273   7.3705603976e+01   8.9327783813e+00    0.1631032    0.1302249  30.22            0    1.042    0.041
       110  -9.7560    189.7590    196.5355   7.2415023872e+01   8.2285413469e+00    0.2455129    0.1756708  -2.74  0.000677005    1.584    0.369
       111  -9.2698    230.7990    195.9043   6.5403091954e+01   1.8494212110e+00    0.1872824    0.1287012  12.10 0.0008966063    1.269    0.212
       112 -10.7828    211.9046    194.2199   6.8208489982e+01   4.9671552312e+00    0.3734081    0.3281754  21.49  0.002064296    1.190    0.160
       113  -9.7594     62.0626    196.2988   9.7147338607e+01   2.7659706767e+01    0.1606103    0.1210963  55.77 0.0005406706    1.096    0.088
       114 -11.1586    127.2713    183.9806   8.2406643046e+01   2.0501437707e+01    0.2850901    0.1752787  39.94  0.000978854    1.453    0.312
       115 -10.7871    122.6453    185.7194   8.3599855344e+01   2.0943541879e+01    0.2343152    0.1626399  40.54 0.0006547498    1.287    0.223
       116 -11.3156    123.3250    191.7156   8.4285512052e+01   1.9792924126e+01    0.2421936    0.1895379  63.51 0.0007235193    1.276    0.216
       117 -11.3446    120.6258    189.2811   8.4500739866e+01   2.0640086089e+01    0.2629682    0.2192537 -69.81 0.0009430964    1.353    0.261
       118 -11.8273     74.1049    191.4512   9.4269403494e+01   2.7028870623e+01    0.4645593    0.2352938  79.44  0.002249773    2.664    0.625
       119 -10.2240    142.9220    191.8218   8.0420384424e+01   1.6620962114e+01    0.1925155    0.1582106  20.37 0.0008738628    1.312    0.238
       120 -11.8970    113.5220    191.4968   8.6230152598e+01   2.1359130558e+01    0.3666999    0.1843165  35.13   0.00184247    1.957    0.489
       121 -10.3652    247.3263    190.4300   6.1876271721e+01  -2.0669655551e-02    0.2013642    0.1668787   9.00 0.0005004604    1.177    0.151
       122 -10.1653    242.4065    190.1895   6.2587358255e+01   7.3106832808e-01    0.2349256    0.1464491  14.51 0.0009263397    1.458    0.314
       123 -10.0138     94.3116    191.3103   9.0117366448e+01   2.4259845828e+01    0.1078889   0.09524101  -2.77 0.0002767986    1.626    0.385
       124 -12.5047     83.1911    187.6104   9.1997880634e+01   2.6523754561e+01    0.4312977    0.2756793 -58.96   0.00259183    1.745    0.427
       125 -12.6010    106.6523    180.7132   8.6237224746e+01   2.4377304577e+01    0.4095384     0.293151  39.29  0.001333648    1.321    0.243
       126 -13.7882     97.9430    175.4081   8.7393821889e+01   2.6725052867e+01    0.7110519    0.6183782 -10.48  0.004488132    1.633    0.388
       127 -10.9432     90.1710    189.8338   9.0799631559e+01   2.5125588166e+01     0.193915    0.1429727  65.62 0.0006252272    1.236    0.191
       128  -8.5012    187.3525    189.7359   7.1725392139e+01   9.5409381533e+00    0.1153003   0.09240216  60.02 0.0004258495    1.619    0.382
       129 -10.0420     66.8966    188.6945   9.5486001917e+01   2.8490532634e+01    0.2063434    0.1335395  79.54  0.001262988    1.510    0.338
       130 -10.7287    145.8821    186.7155   7.9075414928e+01   1.6961983488e+01    0.2705472    0.1778866 -31.04  0.001483317    1.978    0.494
       131 -11.3707    138.1714    185.5477   8.0431599572e+01   1.8439294887e+01    0.3024754    0.2084292 -43.84  0.001296883    1.685    0.406
       132 -11.3565     30.0163    186.1911   1.0284968731e+02   3.3230850552e+01    0.2823332    0.1770794  37.88 0.0007105388    1.603    0.376
       133  -8.9255      2.2083    186.5701   1.0837862473e+02   3.5742357662e+01    0.1150344   0.09906481  19.62 0.0008186576    1.737    0.424
       134  -8.7014    181.6524    185.3369   7.2020925712e+01   1.1117566067e+01      0.11991    0.0980574  72.86 0.0007047634    1.780    0.438
       135  -9.9071     15.8856    185.0338   1.0562329812e+02   3.4835104906e+01    0.1617734    0.1364488  63.73 0.0003972676    1.235    0.190
       136  -9.3798     18.4488    181.0565   1.0489419499e+02   3.5379179499e+01    0.1779073    0.1191795 -78.24 0.0006601858    1.417    0.294
       137 -11.1122     62.8239    183.2916   9.5825167493e+01   3.0057266362e+01    0.3070411    0.2035175  18.35 0.0009491033    2.345    0.574
       138  -9.3320     40.8811    183.8839   1.0046555152e+02   3.2530246779e+01    0.1553762    0.1397262  77.42 0.0005016093    1.252    0.201
       139  -9.4971    190.9920    183.0409   6.9923717455e+01   9.8557179205e+00    0.1874311    0.1567197  22.75 0.0003111247    1.018    0.018
       140 -12.7153     85.9189    180.7085   9.0643742845e+01   2.7463384729e+01    0.5169163     0.250299 -60.71  0.002653961    2.177    0.541
       141 -12.5568     78.3042    182.0600   9.2419663038e+01   2.8263773302e+01    0.4053998    0.3742941  40.86  0.002867366    1.293    0.226
       142  -9.4394     35.9930    181.6969   1.0132047346e+02   3.3493986489e+01    0.1536542    0.1182188  62.14  0.001093855    1.091    0.084
       143  -9.1715     36.6712    178.7005   1.0096076181e+02   3.4022028351e+01     0.185916    0.1415095  68.26 0.0007692513    1.034    0.033
       144  -9.4495     27.1861    181.3095   1.0311826411e+02   3.4481305708e+01     0.466873     0.175894  27.14   0.00219742    3.437    0.709
       145 -11.2298    105.7446    187.1583   8.7266376576e+01   2.3325958105e+01    0.2553813    0.1595924  32.37 0.0009413201    1.694    0.410
       146  -9.8102     40.2910    172.9480   9.9739426718e+01   3.4801789318e+01    0.3193375    0.1414649  58.61  0.001028067    2.070    0.517
       147  -9.8661     44.9927    179.8395   9.9290410923e+01   3.2876913656e+01    0.2243436    0.1877324 -18.45  0.001501909    2.000    0.500
       148  -9.2559     42.2135    177.9573   9.9729071964e+01   3.3567726310e+01    0.2273096    0.1219355 -77.98  0.001236889    1.739    0.425
       149 -10.6182     11.7005    166.6852   1.0550620516e+02   3.8905568959e+01    0.4231123    0.2134856  41.56   0.00168448    1.801    0.445
       150 -10.4859     19.9885    167.0184   1.0372973425e+02   3.8090799015e+01    0.2944087    0.1553804 -52.75  0.001636775    2.514    0.602
       151 -10.6924     10.4579    177.2953   1.0632773200e+02   3.6854085272e+01    0.3500306    0.1421609  69.93  0.001114234    2.152    0.535
       152 -11.7733     17.6400    173.6913   1.0464238010e+02   3.6934618948e+01      1.04455      0.60195 -36.51  0.003314666    3.798    0.737
       153  -9.1011    211.6829    179.1699   6.5594897369e+01   6.8850889568e+00    0.1746976    0.1540497 -34.14  0.001165135    1.408    0.290
       154 -12.1860    121.3805    174.8113   8.2277711609e+01   2.3119378431e+01     0.527153    0.2171955  48.34  0.002277721    2.295    0.564
       155 -12.1594    114.2795    176.5747   8.4045847409e+01   2.3947866669e+01    0.4578099     0.322226 -25.19  0.001298495    2.264    0.558
       156 -10.6836    146.4975    177.5488   7.7504831054e+01   1.8384785617e+01    0.2650596    0.2128913  54.82  0.001608709    1.236    0.191
       157 -11.3295     69.9007    177.4894   9.3730174090e+01   3.0296610690e+01    0.3912753    0.1307011  43.14  0.001677397    2.499    0.600
       158 -10.7290     68.0357    173.3806   9.3697630162e+01   3.1371351857e+01    0.2108169    0.1830084 -45.45 0.0008444996    1.534    0.348
       159 -10.4149     62.6820    176.3503   9.5178370285e+01   3.1459237441e+01    0.2255778    0.1481085  73.59 0.0006671975    1.426    0.299
       160 -10.5784     60.5133    173.4721   9.5362728363e+01   3.2317779594e+01    0.3093304    0.1533862 -66.80  0.001647983    1.978    0.494
       161  -9.5493    206.8726    176.1333   6.5865353907e+01   8.0943128046e+00    0.1865666    0.1512446  14.15 0.0003540227    1.073    0.068
       162  -9.6361     31.1899    175.5272   1.0189260507e+02   3.5239516094e+01    0.3090768    0.1152163  42.40  0.001607028    2.215    0.549
       163 -10.7732    238.2338    174.2469   6.0321924681e+01   3.1546932190e+00    0.4175975    0.2003606  26.00  0.002049134    2.230    0.552
       164  -8.9873      3.3579    174.2323   1.0763678526e+02   3.8070633718e+01    0.0878865   0.07930516 -59.10 0.0004416746    1.577    0.366
       165  -8.6767    166.2584    172.2951   7.2674318992e+01   1.5784003713e+01    0.1240262    0.0958432   6.92 0.0006894328    1.499    0.333
       166 -10.3472     72.7552    170.4109   9.2319345518e+01   3.1349237441e+01    0.3136486   0.08096915 -59.74  0.001195083    3.658    0.727
       167  -8.5587    211.7395    169.3138   6.3737914286e+01   8.1704794907e+00    0.1086361     0.101666 -61.27 0.0002462807    1.536    0.349
       168 -10.2143     47.7391    168.9463   9.7753774288e+01   3.4793182645e+01    0.2087413    0.1528393 -12.75  0.001163001    2.663    0.624
       169  -8.4851    194.5254    175.4847   6.7933229902e+01   1.0308604981e+01    0.1280535    0.1095735  19.02 2.257291e-05    1.003    0.003
       170  -9.8254    145.3640    168.2118   7.6168107930e+01   2.0198229525e+01    0.1730215    0.1252829 -59.29 0.0005187378    1.632    0.387
       171 -11.1234     55.7178    164.2587   9.5493244482e+01   3.4830256334e+01    0.3717805     0.158283 -68.72  0.001808483    2.223    0.550
       172 -11.7731     38.2216    164.2787   9.9474498809e+01   3.6837922167e+01    0.5354844    0.2531166  86.85  0.002695286    2.187    0.543
       173  -9.9705    151.5162    166.0598   7.4519226083e+01   1.9474365278e+01    0.1870529    0.1321129 -44.25 0.0004328593    1.549    0.354
       174 -13.0060     95.7560    166.4708   8.6656740520e+01   2.8828920845e+01     0.741923    0.3845805 -37.46  0.003046561    3.497    0.714
       175 -10.0213      4.4964    165.5439   1.0699259105e+02   3.9746295369e+01    0.2211828     0.126605  66.13 6.599146e-05    1.372    0.271
       176  -8.5548    201.9592    166.0000   6.4810253819e+01   1.0342061459e+01    0.2009889   0.06768256  44.44            0    2.788    0.641
       177 -10.7117     74.5150    164.9773   9.1275742372e+01   3.2232917904e+01    0.1946751    0.1546252  54.52 0.0006246797    1.144    0.126
       178  -8.8721     51.7443    175.5454   9.7475773011e+01   3.2963496202e+01    0.1698273   0.08822299  50.16 0.0009415923    1.651    0.394
       179 -10.8868     42.9017    163.7089   9.8363221606e+01   3.6445918796e+01    0.2614834    0.1613907 -46.57  0.001451737    2.279    0.561
       180  -9.5600    189.9619    162.7135   6.6352118955e+01   1.2988037921e+01    0.2103475     0.177283 -21.93 0.0005489755    1.211    0.174
       181 -11.8521     69.0206    155.3122   9.1348659555e+01   3.5037713149e+01     0.321719    0.2763399  44.64  0.001313261    1.249    0.200
       182 -12.8226     77.7773    161.2207   9.0050777650e+01   3.2565596189e+01    0.6566623    0.3512215  66.52  0.003091013    2.229    0.551
       183 -11.9384     83.0248    160.5251   8.8741196841e+01   3.1959099945e+01    0.3364018    0.2440131  88.92  0.001340852    1.406    0.289
       184  -9.4527    225.9719    162.0599   5.9924036492e+01   6.6703093170e+00    0.1880452     0.161438   7.34 0.0004018784    1.064    0.060
       185 -10.3141    135.7871    165.7693   7.7759908226e+01   2.2330743970e+01    0.2150265    0.1494847  76.34  0.001065959    2.032    0.508
       186 -13.5158     91.8871    164.4791   8.7251561613e+01   2.9823073927e+01     1.153769     0.586137 -34.93  0.004138327    4.723    0.788
       187  -9.8817      7.6807    153.5023   1.0564121716e+02   4.2024369544e+01    0.2930305    0.1167914  81.50  0.001451545    2.309    0.567
       188 -10.9809     10.7448    159.6179   1.0530991300e+02   4.0467399322e+01    0.3242084    0.1948453 -86.82  0.001523382    1.356    0.263
       189  -9.0787      6.5111    158.0054   1.0616089116e+02   4.1159098620e+01    0.2169957    0.0879431  60.82 0.0004294605    2.113    0.527
       190  -9.1777      3.0549    158.4549   1.0695099224e+02   4.1339538304e+01    0.1703262    0.1094456  21.90 0.0004557068    2.080    0.519
       191 -11.9532     48.5812    159.4268   9.6644180814e+01   3.6715110813e+01    0.5011411    0.1448607  41.56  0.002135589    2.882    0.653
       192 -10.4286     18.9483    159.9913   1.0349628893e+02   3.9666799736e+01    0.2029688    0.1619297  61.66 0.0005105361    1.166    0.142
       193 -12.9338     24.9303    155.7713   1.0182332458e+02   4.0013977327e+01    0.5835344    0.4527661  24.96  0.003964624    1.680    0.405
       194 -10.4250    207.1039    158.2070   6.2354824466e+01   1.0521456359e+01    0.2706419    0.1767177 -27.04 0.0008033353    1.530    0.346
       195 -10.9195    247.0059    155.5537   5.5299066818e+01   3.9405740385e+00    0.3049819    0.2614737 -81.80  0.001016115    2.206    0.547
       196 -12.6113    103.9737    153.5157   8.2804760930e+01   3.0176354870e+01    0.8088001    0.3344813 -38.29  0.002492838    5.326    0.812
       197 -10.7093     61.1506    156.5540   9.3373241995e+01   3.5802143936e+01    0.2456661     0.140259 -55.90   0.00123755    1.879    0.468
       198  -9.9964    227.2153    153.9234   5.8069901385e+01   7.5101914621e+00    0.2963254    0.1878857  10.00  0.001314126    1.750    0.429
       199  -9.7198    173.2120    154.7889   6.7993037121e+01   1.7369195280e+01    0.1873213    0.1527795   5.43 0.0008130849    1.322    0.244
       200 -12.0074     93.9637    147.9930   8.4282698768e+01   3.2959354916e+01    0.3786377    0.2946465 -34.80  0.002093157    1.676    0.403
       201 -13.3731     90.9290    138.6752   8.3468933039e+01   3.5471828723e+01     0.930222      0.44089 -69.23  0.003782629    2.566    0.610
       202 -11.0764     79.4131    154.4379   8.8752605486e+01   3.3775914495e+01    0.2708562    0.2046462 -56.66  0.001591269    1.420    0.296
       203 -11.1151     50.8883    143.3012   9.4301735968e+01   4.0004645569e+01    0.2782921    0.1547423 -78.29 0.0007137154    1.686    0.407
       204 -12.8059     55.7938    150.9891   9.4004065298e+01   3.7692519995e+01    0.5207191     0.453368 -79.51  0.003471334    1.161    0.139
       205 -11.6975     40.3277    148.5068   9.7504411674e+01   4.0038571004e+01    0.3418028    0.1562181  60.20  0.001638182    2.238    0.553
       206 -10.6626     36.1651    151.9179   9.8845258999e+01   3.9728531297e+01    0.1904423    0.1329509  73.23 0.0004483671    1.226    0.184
       207 -11.8819     11.0273    139.0803   1.0390360922e+02   4.4916960318e+01    0.4643743    0.2732361  26.42  0.001837336    2.067    0.516
       208 -10.3010     13.3593    151.1896   1.0418533054e+02   4.2053266418e+01    0.1910827    0.1394655  75.76 0.0004984997    1.068    0.064
       209 -11.2481      4.5960    148.2211   1.0604429809e+02   4.3407705811e+01    0.3307631    0.2712877 -62.33  0.001405907    1.469    0.319
       210 -12.1094     11.2731    146.0094   1.0432912964e+02   4.3360057446e+01     0.597073    0.2334277  48.56  0.003124196    2.231    0.552
       211  -9.1117    226.8294    149.8058   5.7275375609e+01   8.1214185645e+00     0.161095    0.1470468 -28.25 0.0003440308    1.305    0.234
       212 -11.7701    120.8034    148.0724   7.7941877309e+01   2.8408616310e+01    0.4251498    0.2795448 -73.77  0.002031339    1.970    0.492
       213 -12.0764     92.7064    153.7447   8.5491334639e+01   3.1930841340e+01    0.4469068    0.2651056  67.10  0.001952112    2.032    0.508
       214 -12.8841     27.5729    143.1978   1.0013430136e+02   4.2534283995e+01     0.658405    0.3301753 -77.58  0.003560962    1.707    0.414
       215  -9.9164    236.4774    152.4843   5.6290240887e+01   6.0858326179e+00    0.1784217    0.1092868 -34.39  0.000138605    1.666    0.400
       216 -11.6564     86.5360    152.4844   8.6768912594e+01   3.3144572783e+01    0.4076332    0.2809883 -37.88  0.001543563    1.993    0.498
       217 -10.9738     52.5329    148.5155   9.4511422011e+01   3.8638426889e+01    0.2616208     0.153058  61.35 0.0007572121    1.658    0.397
       218 -10.5052     41.2333    140.0120   9.6369317759e+01   4.1852698490e+01    0.2602067    0.1488462  69.73  0.001372924    1.755    0.430
       219 -11.1980     20.5971    140.2639   1.0161455732e+02   4.3840974677e+01    0.3523392     0.200151 -34.80  0.001737758    3.204    0.688
       220 -11.5000    117.7123    138.3065   7.6808331560e+01   3.0975718851e+01     0.378598    0.2732084  -8.86  0.001421672    2.333    0.571
       221 -10.7012    112.6947    138.4258   7.8040380057e+01   3.1852010690e+01     0.274007    0.1268608  46.07  0.001125674    2.106    0.525
       222 -11.0072     40.5101    135.2890   9.6015908672e+01   4.3012834189e+01    0.3361663    0.1657999  61.26  0.001234956    2.146    0.534
       223 -11.1901     47.5089    137.5209   9.4460306905e+01   4.1716459722e+01    0.2389592    0.1953137  86.38  0.000860563    1.028    0.027
       224 -10.9023     44.9956    135.0000   9.4805371014e+01   4.2583235956e+01    0.2239583    0.1639417  43.01  0.001352506    1.423    0.297
       225 -12.1866     80.9403    136.5285   8.5646889211e+01   3.7496806254e+01    0.5387368    0.2192029  40.07   0.00225157    2.411    0.585
       226 -10.6742    133.7915    133.8901   7.2104102696e+01   2.8860531811e+01     0.300321    0.1980563 -33.09  0.001402321    1.797    0.444
       227 -11.4333     66.4640    134.7821   8.9131582388e+01   3.9964525651e+01    0.3584204    0.1866584  39.11  0.001734382    1.942    0.485
       228 -10.6482     60.9045    132.1385   9.0204528292e+01   4.1312127235e+01    0.3926753     0.164294 -73.86  0.001588812    2.619    0.618
       229 -10.2125    243.5301    130.3932   5.0460486130e+01   7.6627770273e+00    0.2769834    0.2145429  69.79  0.001559874    2.004    0.501
       230 -11.5921     97.9974    129.2043   7.9921998895e+01   3.6411548506e+01    0.4157488    0.3055425  -9.66  0.001660171    2.301    0.565
       231 -10.9832     72.5387    129.9020   8.6746663043e+01   4.0239408805e+01     0.235486    0.1751109  68.39  0.001299088    1.354    0.261
       232 -11.9318     30.6910    126.7464   9.7655554104e+01   4.6004357498e+01     0.484742    0.2063895 -48.93  0.002135523    2.915    0.657
       233 -10.7820      3.5059    136.5395   1.0559398431e+02   4.6059863256e+01    0.2769058    0.2133195  31.72  0.001914499    1.584    0.369
       234 -11.3941     18.8476    120.2976   1.0022781096e+02   4.8584035600e+01    0.3506869    0.1829156 -69.26 0.0009549124    1.590    0.371
       235 -11.4529     20.5826    128.1162   1.0052606325e+02   4.6615519760e+01    0.2973204    0.1881624 -44.29 0.0006949024    2.056    0.514
       236 -10.2024    107.2053    126.8224   7.7080562610e+01   3.5332218945e+01    0.1923985    0.1727038 -19.32 0.0005570116    1.349    0.259
       237  -8.9148    211.4577    126.5114   5.4682793590e+01   1.4322135852e+01    0.1388801     0.125351  -5.73 0.0002028173    1.032    0.031
       238 -10.8227     39.2041    124.8682   9.5092343278e+01   4.5578789376e+01    0.2701721    0.1778046   1.09  0.001364135    2.675    0.626
       239 -11.6708      7.7587    127.3671   1.0386315156e+02   4.7819063492e+01    0.5053005    0.3205823 -17.54 0.0007749146    2.802    0.643
       240 -10.8368     93.4578    121.9943   7.9673797920e+01   3.8797118785e+01    0.2699115    0.2367654  89.95 0.0005431941    1.111    0.100
       241  -9.8244    247.7476    122.8154   4.8143152480e+01   7.8715984192e+00    0.2752424   0.07838282  44.73  0.001011929    3.582    0.721
       242  -9.8640    208.0711    122.1174   5.4227730134e+01   1.5671326210e+01    0.2117558    0.1736341   9.38 -0.0009232552    1.211    0.174
       243  -9.4135     62.2857    121.3376   8.8121930237e+01   4.3652566903e+01    0.1319849   0.09804726 -41.20 0.0003274707    1.630    0.387
       244 -10.1762    129.9868    120.0201   6.9896595744e+01   3.2451470920e+01    0.2179548    0.2105675  84.27  0.000307231    1.035    0.034
       245  -8.4796    236.7029    119.2846   4.8945903499e+01   1.0392943120e+01    0.1240833    0.1018606 -51.49 0.0001665671    1.546    0.353
       246  -9.0272    149.0108    117.9230   6.4938028538e+01   2.8941979292e+01    0.1781984    0.1670028 -38.50 0.0004077021    1.067    0.063
       247 -11.1030     54.4458    117.5321   8.9720377177e+01   4.5561848074e+01    0.3262157    0.2201001 -39.67  0.001484656    1.884    0.469
       248 -10.0847     10.7666    117.9855   1.0226225773e+02   4.9763045141e+01    0.2174064    0.1276655  53.72  0.001278188    1.661    0.398
       249 -10.8550     39.0101    117.0066   9.4095382600e+01   4.7460403823e+01     0.198854    0.1655346 -84.10 0.0004632931    1.015    0.014
       250 -11.2210     39.3575    113.0064   9.3421738194e+01   4.8379040983e+01    0.3328133    0.2043816  66.79  0.001748238    1.739    0.425
       251 -11.8896     28.9015    112.9566   9.6501502500e+01   4.9432972156e+01    0.4086096    0.2585839  58.38  0.001580767    1.600    0.375
       252  -9.1366    195.1998    114.3765   5.4625046780e+01   1.9592771475e+01    0.2005422    0.1399764  62.52 0.0009468248    1.761    0.432
       253  -9.5500    112.5080    113.9872   7.2867399607e+01   3.7165716104e+01    0.2053564    0.1241591 -28.78 0.0008094732    2.453    0.592
       254  -9.2003     49.3237    112.7150   9.0427709629e+01   4.7332173741e+01    0.1356631   0.09065181  71.58            0    1.600    0.375
       255 -10.3135      7.4288    110.0921   1.0248852107e+02   5.1851777551e+01    0.3580182    0.1282025 -68.14   0.00143449    2.147    0.534
       256 -10.8426     96.7876    107.6797   7.5617625850e+01   4.1475352511e+01    0.3161439    0.2182311 -30.12   0.00118572    1.901    0.474
       257  -9.0164     47.5005    108.4726   9.0269137338e+01   4.8564031803e+01    0.1340841    0.1138657 -81.60 6.571681e-05    1.008    0.008
       258 -10.1301      9.7010    104.2136   1.0122908167e+02   5.3083467314e+01    0.2602474    0.1612377  52.65  0.001355737    1.656    0.396
       259  -9.0088    132.4727    103.9529   6.5271878824e+01   3.5266829729e+01    0.2212147     0.128501 -64.91 0.0008096944    2.591    0.614
       260  -9.4518     80.6603    102.6776   7.9094414371e+01   4.5363191648e+01    0.1433749    0.1103777 -24.86 0.0003151666    1.721    0.419
       261 -10.6119    111.8699    105.3843   7.0934179100e+01   3.9173852836e+01    0.2858714     0.211785 -41.54 0.0007101226    1.371    0.271
       262  -9.4332    233.0954    100.9758   4.5077177045e+01   1.3604699938e+01    0.2091542    0.1783051 -11.13 0.0003999711    1.043    0.041
       263  -9.6216    120.2486    100.6788   6.7496720970e+01   3.8513857034e+01    0.2567365     0.182845  51.49 0.0007359307    1.463    0.316
       264 -12.1182     91.9152     95.5035   7.3999942764e+01   4.5118485565e+01      0.63546    0.3333859 -50.64  0.000533692    1.781    0.438
       265  -8.8636     29.2965     94.3140   9.3684378333e+01   5.3886631012e+01    0.1294065   0.08481229 -47.28  0.000274481    1.603    0.376
       266  -9.0916    184.0247     90.5055   5.0371308322e+01   2.6044866009e+01    0.2109456    0.1509194  53.45 0.0003210834    1.469    0.319
       267 -10.2585     74.5177     87.4798   7.7267004378e+01   4.9900867816e+01     0.246362    0.1314497 -65.38 0.0006118955    2.060    0.515
       268  -9.8740    107.0399     86.9820   6.7259436922e+01   4.4152019223e+01    0.1798965     0.173873 -60.12 0.0003545852    1.023    0.022
       269  -8.7558     78.4771     84.4912   7.5193243394e+01   4.9955436701e+01    0.1453314    0.1318967 -57.66 7.961884e-05    1.013    0.013
       270  -9.5540    120.0011     81.8443   6.2142930757e+01   4.2524698722e+01    0.2317541      0.16898 -22.66 0.0009585068    1.620    0.383
       271 -10.2625     45.2571     80.3190   8.5437046590e+01   5.5620192402e+01    0.2394735    0.1736424  -8.30  0.001253713    1.995    0.499
       272  -9.0433     55.7017     73.6886   7.9994725346e+01   5.5889571566e+01    0.1394865   0.09873958 -33.44 0.0002607304    1.601    0.375
       273  -9.4782    148.0000     71.0087   5.1817734310e+01   3.8113450089e+01    0.2640368   0.08663074 -35.07 0.0008018123    2.938    0.660
       274  -9.7293    114.4273     71.0976   6.0207227161e+01   4.5926419124e+01    0.2228898    0.2111454  49.92 0.0004100793    1.112    0.100
       275  -8.8290     33.5273     70.5240   8.7504120399e+01   5.9229333557e+01    0.1330612    0.1110215 -68.55 0.0001021353    1.043    0.041
       276  -9.3317     88.6406     69.6946   6.7444503578e+01   5.1478874578e+01     0.150535    0.1158533  -7.76 0.0007039675    1.727    0.421
       277  -9.6951    179.1010     67.9144   4.4625233415e+01   3.0915094566e+01    0.2229628    0.2121472 -24.51 0.0003353923    1.005    0.005
       278  -9.1356     58.3497     68.2977   7.7483560581e+01   5.6778809795e+01    0.1415374     0.102137 -25.98 0.0007035288    1.684    0.406
       279  -9.7011     63.4617     65.4358   7.4721051143e+01   5.6687091515e+01    0.1412691    0.1254133 -50.86 4.100363e-05    1.005    0.005
       280  -9.5695    104.0187     59.6622   5.9191868661e+01   5.0449871538e+01     0.249925    0.1949883 -49.11 0.0003849816    1.269    0.212
       281  -9.5611     92.8743     59.0876   6.2399778095e+01   5.2875672231e+01    0.2165512    0.1952721 -65.06            0    1.195    0.163
       282  -8.6958     30.6571     55.6834   8.4835599445e+01   6.3006634938e+01     0.137746   0.08478707 -36.44 0.0007048576    1.714    0.416
       283  -9.2657    156.2408     52.4104   4.3842450263e+01   3.9155821281e+01    0.2032046    0.1529744  75.98 0.0005217539    1.528    0.346
       284  -8.9827      2.1563     51.7977   9.6519188107e+01   6.6012813681e+01    0.1712266    0.1357086 -85.27 0.0006128912    1.205    0.170
       285  -9.3475    111.0520     49.1620   5.3202145957e+01   5.0840634966e+01    0.2266616    0.1972447   3.24 0.0003292615    1.234    0.189
       286  -9.3921    106.8588     48.8787   5.4270484612e+01   5.1843886917e+01    0.2219104    0.1959735  -2.05 0.0002861225    1.187    0.158
       287  -9.7817    110.9552     44.5587   5.1402559195e+01   5.1658677229e+01    0.2694448    0.1947356 -54.04  0.001251283    1.566    0.361
       288  -9.1432      8.5036     43.4958   9.1663237972e+01   6.7582981717e+01    0.1248637    0.0977173 -61.28 8.579788e-05    1.016    0.016
       289  -9.4933     35.9947     42.4991   7.8181001091e+01   6.5414870395e+01    0.1612968    0.1080203  60.85 0.0004655798    2.276    0.561
       290  -9.0761    187.8082     40.3874   3.4549664016e+01   3.2659266211e+01     0.195761    0.1369687  53.31 0.0002757989    1.484    0.326
       291  -8.8384    106.4705     38.4055   5.0103513557e+01   5.3717549194e+01    0.1469244    0.1408482 -16.13 0.0001007074    1.028    0.027
       292  -8.5747    192.3091     34.3223   3.2013968606e+01   3.2258030186e+01    0.1522654    0.1104325  26.33 0.0002724255    1.647    0.393
       293 -10.1151    199.2524     28.9497   2.9485866617e+01   3.1110190119e+01    0.2386801    0.2065119  62.05 0.0002437008    1.217    0.178
       294  -8.6945    100.3095     28.6938   4.7575100278e+01   5.6643994257e+01    0.1457032    0.1130901 -61.66 0.0003753593    1.613    0.380
       295  -9.8960     26.8460     21.9683   7.4170660249e+01   7.0693111659e+01    0.3568421    0.2346614   3.02  0.001990232    1.917    0.478
       296  -9.2663     35.8689     21.1325   6.8936422225e+01   6.9774904881e+01    0.1898022    0.1665638 -52.20  0.001215778    1.298    0.230
       297 -10.0333    168.9904    248.7523   8.3086254795e+01   4.9731228057e+00    0.1909128    0.1199514  -4.90  0.001179394    2.618    0.618
       298  -8.4968    114.6831     20.7247   4.0273093999e+01   5.4274162899e+01    0.1522399    0.1059849  28.05 0.0002375776    1.567    0.362
       299  -9.3968     66.0977     19.0078   5.4107980103e+01   6.5297164478e+01    0.2051964    0.1796802 -16.43 0.0003606362    1.025    0.025
       300  -9.1054      8.3773     14.1582   8.1456655469e+01   7.3957588419e+01    0.1716235   0.09930689 -63.80 0.0009477043    1.760    0.432
       301  -9.2965    141.9793    249.4926   8.7602662959e+01   8.6050191346e+00    0.1628981   0.07835342  40.39 0.0003945536    1.527    0.345
       302  -9.1123    125.2899    249.6782   9.0392355862e+01   1.0845581434e+01    0.1029524   0.06485846  58.99 0.0002524724    1.605    0.377
