#   1 NUMBER                 Running object number                                     
#   2 MAG_AUTO               Kron-like elliptical aperture magnitude                    [mag]
#   3 X_IMAGE                Object position along x                                    [pixel]
#   4 Y_IMAGE                Object position along y                                    [pixel]
#   5 X_WORLD                Barycenter position along world x axis                     [deg]
#   6 Y_WORLD                Barycenter position along world y axis                     [deg]
#   7 A_WORLD                Profile RMS along major axis (world units)                 [deg]
#   8 B_WORLD                Profile RMS along minor axis (world units)                 [deg]
#   9 THETA_WORLD            Position angle (CCW/world-x)                               [deg]
#  10 FWHM_WORLD             FWHM assuming a gaussian core                              [deg]
#  11 ELONGATION             A_IMAGE/B_IMAGE                                           
#  12 ELLIPTICITY            1 - B_IMAGE/A_IMAGE                                       
         1 -16.1983    212.8706     65.9471   7.6760891388e+01   2.2778897451e+01     2.742142     1.228403 -46.36   0.01041141    2.343    0.573
         2 -16.8473    241.8927     50.5377   6.8955453130e+01   1.7947558062e+01     3.251027      1.44326 -34.27   0.01402681    2.056    0.514
         3 -15.3002    221.3251      4.0399   5.9638117969e+01   2.8383637977e+01     1.495433    0.5864376  75.63   0.00628652    2.371    0.578
         4 -15.7651     24.1961    199.1128   1.4643593059e+02   3.1409939386e+01     1.235316    0.6513634  72.60  0.006790164    1.635    0.388
         5 -15.7370    247.8079    244.5266   1.0916298334e+02  -9.8373061931e+00     1.108952    0.7595959 -27.06  0.006940395    1.724    0.420
         6 -15.7758    248.9841    225.6130   1.0587504679e+02  -8.0226636958e+00       1.0173    0.6154192 -22.68  0.006338623    1.692    0.409
         7 -15.0410    167.6572    247.1741   1.2372708331e+02   2.3145923508e+00      1.28167    0.5202551  37.34  0.005741577    1.989    0.497
         8 -14.7988    185.0683    245.8793   1.2037243248e+02  -3.4663436940e-01     0.924207    0.5550106  25.92  0.005154202    1.592    0.372
         9 -15.1088    180.1941    237.4783   1.2009557614e+02   1.5551820630e+00     0.684058     0.545377 -63.93  0.004005498    1.888    0.470
        10 -14.6390    171.1304    235.9823   1.2158269027e+02   3.2780733854e+00    0.7883795    0.6065416  57.26  0.005058908    1.434    0.303
        11 -18.4136    122.8901    185.4566   1.2401863538e+02   2.0379887602e+01     7.369127     4.438793 -83.85   0.03162688    2.700    0.630
        12 -17.0126    112.3939    236.6396   1.3279385753e+02   1.2799787751e+01     2.223946     1.625468  83.38   0.01450047    1.541    0.351
        13 -19.7392     45.5796    144.8158   1.3669226637e+02   4.0806109883e+01     18.27832      2.18469 -67.37   0.04481939    7.536    0.867
        14 -16.8240     92.5369    169.0500   1.2849715415e+02   2.8965139224e+01      3.01956     1.965111  69.56   0.01516171    1.710    0.415
        15 -12.8011      2.3646    196.3721   1.5037268839e+02   3.3980445931e+01    0.3298941    0.1443283 -75.91  0.001891822    1.933    0.483
        16 -16.0142    246.8450    173.9891   9.6638916536e+01  -1.2722251635e+00     2.346792     0.738227 -31.50  0.008932114    3.192    0.687
        17 -13.4349    227.8574    192.4437   1.0363992090e+02  -4.8861167960e-01    0.3474022    0.1789068 -37.64  0.001696978    2.141    0.533
        18 -13.4298      2.4748    186.8072   1.4986414247e+02   3.5854724801e+01    0.3710512    0.2112019  80.13  0.001893076    1.371    0.271
        19 -14.5758    192.2198    184.2766   1.0892997297e+02   7.3647465566e+00    0.9326018    0.4058174 -39.88  0.003894489    2.549    0.608
        20 -12.0714     77.1474    188.4203   1.3457540294e+02   2.7158537435e+01    0.2310706    0.1404918  49.03  0.001032273    1.451    0.311
        21 -14.6916    201.1413    181.2795   1.0656692475e+02   6.1205703791e+00    0.4463297    0.3853272 -11.31  0.002504059    1.187    0.157
        22 -14.5525    206.6820    174.1935   1.0406496867e+02   6.1760733365e+00     1.226048    0.4519832 -32.79  0.004482638    3.154    0.683
        23 -11.7398     10.8391    249.9709   1.5128229604e+02   2.3558381902e+01    0.1674779   0.09751628 -58.89  0.001170946    2.611    0.617
        24 -12.5679      8.7373    174.6417   1.4791777774e+02   3.7808162868e+01    0.5596983    0.1296241  38.27  0.002616515    3.373    0.704
        25 -12.4240      1.7612    172.9782   1.4923527908e+02   3.8715832974e+01    0.4415748    0.1029428 -73.77   0.00195139    3.220    0.689
        26 -14.8289    195.1492    164.6847   1.0441276386e+02   1.0070080032e+01    0.5528671    0.4632674 -70.23  0.002833025    1.641    0.391
        27 -13.5262    188.0188    167.9822   1.0656512252e+02   1.0960381054e+01    0.3676995    0.2307186 -37.75  0.001742819    1.719    0.418
        28 -11.5325      1.4128    250.8275   1.5273901071e+02   2.4334838620e+01   0.09865881   0.04067028  54.82 0.0006633978    1.626    0.385
        29 -13.5651    218.7075    154.9180   9.7688374436e+01   6.8823668539e+00    0.5313447    0.3314023 -36.47  0.002569346    1.637    0.389
        30 -13.6352    136.1295    154.6695   1.1547220107e+02   2.4211067799e+01    0.5280342    0.4544245  -2.19  0.002292129    1.436    0.303
        31 -13.3007    135.4988    148.1812   1.1429820230e+02   2.5709969511e+01    0.4135523    0.3127082 -74.38  0.001984067    1.620    0.383
        32 -14.0070    196.1691    145.6714   1.0005400785e+02   1.3185459468e+01    0.5787113    0.3828248  53.49  0.002669309    1.604    0.376
        33 -13.8564    134.7420    127.1735   1.0981009341e+02   3.0377374205e+01    0.4314541    0.3165197 -72.75  0.001939751    1.746    0.427
        34 -13.9278    126.1804    124.5591   1.1140448798e+02   3.2733849852e+01     0.681271    0.5431375   2.76  0.003231538    1.659    0.397
        35 -13.5669    125.3008    119.8953   1.1051556978e+02   3.3937362483e+01    0.5485012    0.3916867  57.08  0.002381932    1.503    0.335
        36 -15.0911    232.2620     82.8094   7.8192763437e+01   1.5548456359e+01     1.973842    0.7595655 -54.79  0.005252278    5.524    0.819
        37 -12.5229      8.3106    236.7786   1.5115691101e+02   2.6023919472e+01    0.3017554   0.09083764  57.57   0.00147796    2.386    0.581
        38 -15.3249    248.6984    105.4451   8.1231180117e+01   8.4802330957e+00     2.236496    0.5866899 -35.43  0.007398047    3.308    0.698
        39 -14.9629      9.8832    115.2436   1.4261543143e+02   5.0687396340e+01    0.7115094    0.5696661 -55.56  0.004856274    1.259    0.206
        40 -15.1899     68.5272    101.5402   1.2264974319e+02   4.8038593833e+01    0.8692688    0.5410191 -12.24  0.003626662    2.898    0.655
        41 -12.6520    144.2021    103.1868   1.0125448813e+02   3.3334609082e+01    0.4078442     0.340963 -85.08  0.001809684    1.469    0.319
        42 -13.0126    140.0105    103.2501   1.0233951074e+02   3.4284085643e+01    0.3314161     0.316828  57.77  0.001739197    1.055    0.052
        43 -14.1302     82.5557     96.9624   1.1713741859e+02   4.6988109645e+01    0.5513419    0.4059887 -77.85  0.002721733    1.696    0.410
        44 -15.1462    101.3931     83.9976   1.0768807105e+02   4.6493404061e+01     1.131886    0.9111978  87.62  0.005568248    1.691    0.409
        45 -15.1875    114.8485     77.7770   1.0176020745e+02   4.5029933008e+01     1.912387     0.834571  50.01  0.006970553    2.436    0.590
        46 -18.0100     77.7509    237.2612   1.3927702323e+02   1.7788481317e+01     2.548661     1.921744 -64.58   0.01648853    1.633    0.388
        47 -14.4338    102.2231     58.9757   9.9335598658e+01   5.1224477562e+01    0.8579985     0.605467 -74.41  0.003663748    2.515    0.602
        48 -12.9372     11.3676    205.7354   1.4920914426e+02   3.1369996559e+01     0.294891    0.1816276  54.96  0.001418003    1.331    0.249
        49 -15.3335     64.5686     63.4736   1.1374495022e+02   5.6900418353e+01    0.6835538    0.4948212 -33.60  0.003472487    1.287    0.223
        50 -15.8235    233.4924    111.2902   8.4988275851e+01   1.0814077813e+01     2.015658     1.354387 -22.56  0.009169886    1.524    0.344
        51 -12.1538     16.2017    206.1140   1.4835149582e+02   3.0837530593e+01    0.1512824    0.1246319  86.78 0.0007557446    1.244    0.196
