#   1 NUMBER                 Running object number                                     
#   2 MAG_AUTO               Kron-like elliptical aperture magnitude                    [mag]
#   3 X_IMAGE                Object position along x                                    [pixel]
#   4 Y_IMAGE                Object position along y                                    [pixel]
#   5 X_WORLD                Barycenter position along world x axis                     [deg]
#   6 Y_WORLD                Barycenter position along world y axis                     [deg]
#   7 A_WORLD                Profile RMS along major axis (world units)                 [deg]
#   8 B_WORLD                Profile RMS along minor axis (world units)                 [deg]
#   9 THETA_WORLD            Position angle (CCW/world-x)                               [deg]
#  10 FWHM_WORLD             FWHM assuming a gaussian core                              [deg]
#  11 ELONGATION             A_IMAGE/B_IMAGE                                           
#  12 ELLIPTICITY            1 - B_IMAGE/A_IMAGE                                       
         1 -14.0323     44.2441    111.2572   1.0998071764e+02   4.8172843571e+01     2.368863     1.375443  68.21   0.01090325    2.427    0.588
         2 -14.4896    197.1796     36.6829   4.9247468552e+01   3.1273620653e+01     1.987372     1.494913  20.16  0.006005111    1.784    0.439
         3 -14.6344    208.0435     24.9412   4.4676427965e+01   3.0034865635e+01     1.831675      1.27852   8.23  0.002838367    2.163    0.538
         4  -9.1103    152.6833      9.2761   4.7429453165e+01   4.5792421881e+01    0.1370368    0.1002198 -70.90 0.0002773322    1.569    0.362
         5 -10.9213     61.8442      8.0023   6.9354357253e+01   6.6061403688e+01    0.2138116    0.1636481  31.07 0.0006046927    1.225    0.184
         6 -12.3375    231.8145      2.2969   3.6809715630e+01   2.6874764912e+01    0.7392756    0.2590355  74.64  0.002974042    2.683    0.627
         7 -11.8923     57.3419      2.9326   6.8489453767e+01   6.7378501171e+01    0.4509088    0.1683308  46.26  0.002068456    2.587    0.613
         8  -9.3214    106.7809    210.3734   1.0937041884e+02   1.6750513548e+01    0.1734451    0.1131647  35.02 0.0004626301    1.580    0.367
         9 -11.1896    139.7880    249.7118   1.0772494532e+02   4.6943984323e+00    0.2918131    0.2214099  35.83  0.001962651    1.187    0.157
        10 -12.9726     72.4997    175.0233   1.1230745608e+02   2.9447802589e+01     1.024282    0.5240963 -35.27  0.003525515    4.872    0.795
        11 -13.3885     19.3154    192.3642   1.2538493304e+02   3.1885701827e+01    0.4790085    0.2908629  51.71 0.0006307863    1.483    0.326
        12 -14.5896     46.8069    220.5653   1.2218478667e+02   2.3135551627e+01     1.442453    0.8579444  76.89  0.006717973    1.477    0.323
        13 -16.0443     51.3652    200.3372   1.1963869708e+02   2.6674563016e+01     3.754929     3.087767 -47.02   0.02159727    1.705    0.414
        14  -9.4704    107.4717    203.2369   1.0830616534e+02   1.8053621392e+01    0.1722774    0.1204123 -83.57 0.0007731598    1.615    0.381
        15 -11.1989    208.9810    198.2425   8.6639619506e+01   1.0662265172e+00     0.240513    0.2206302 -56.73 0.0009539968    1.464    0.317
        16 -10.1954    113.0597    198.4876   1.0646869205e+02   1.8098521247e+01    0.3465165     0.226308  85.55  0.001706916    1.995    0.499
        17  -9.2166     98.8422    199.6179   1.0966288073e+02   2.0164158571e+01    0.1862965     0.104254  51.12 0.0001666904    1.622    0.384
        18 -10.1001     82.1101    195.0045   1.1266616568e+02   2.3670791062e+01    0.2204631    0.1738934  49.65 0.0007006838    1.205    0.170
        19  -9.1768     95.5515    188.5388   1.0890524953e+02   2.3015235135e+01    0.1340106    0.1176203  71.90 7.949751e-05    1.006    0.006
        20 -16.4343     62.4470    247.7157   1.2139038322e+02   1.6186244783e+01     8.046861     2.791096  30.45   0.01251078    6.263    0.840
        21  -9.2649    150.2923    187.6416   9.6686508574e+01   1.3685651717e+01    0.1413062    0.1083765  79.49 0.0006538891    1.693    0.409
        22  -9.3644     98.8765    186.3123   1.0785532339e+02   2.2967543690e+01    0.2322311    0.1707107 -83.32 0.0009274692    1.417    0.294
        23  -9.2951    147.3887    184.7696   9.6813507378e+01   1.4792352390e+01    0.1879758    0.1334094 -38.42 0.0006064358    1.602    0.376
        24 -10.1664     99.4053    180.6800   1.0692032873e+02   2.4109837614e+01    0.2326848    0.2254707  74.90 0.0006167705    1.156    0.135
        25 -10.2346     41.9908    178.9967   1.1960122904e+02   3.2406924853e+01    0.1919833    0.1508016  81.22  0.001251566    1.033    0.032
        26 -13.1327     43.8609    146.2196   1.1546585746e+02   3.9785935296e+01     1.581097    0.5048132  31.32  0.005781415    3.461    0.711
        27 -17.1562      5.8689    214.8844   1.2916794963e+02   2.8609181310e+01      12.0248     1.079194 -76.02   0.03278163    7.390    0.865
        28 -14.6868     68.3683    144.1911   1.0884961487e+02   3.7262905806e+01      4.65681      2.07462  62.92  0.009036777    3.996    0.750
        29 -10.5102    124.8172    173.1719   9.9850535475e+01   2.1377910073e+01    0.1953593    0.1768453  -1.85  0.001085891    1.352    0.260
        30 -10.5585    131.8306    172.3925   9.8092265146e+01   2.0254973163e+01    0.2131479    0.1337816  31.30 0.0009570267    1.783    0.439
        31  -8.7524    200.7161    168.3405   8.2340493962e+01   7.5727571279e+00    0.1353131    0.1158779 -78.20 0.0007014726    1.633    0.388
        32  -9.9255    161.8189    166.3972   9.0138366648e+01   1.5689029010e+01    0.2386262    0.2014806 -60.60 0.0007273299    1.317    0.241
        33 -11.1090     32.7920    165.3640   1.2030533783e+02   3.6480593284e+01    0.3140892    0.1637522 -88.26  0.001066314    1.806    0.446
        34 -10.3810     51.8963    164.1058   1.1574222761e+02   3.4645522423e+01    0.3500426     0.192578 -46.49  0.001690526    2.296    0.564
        35  -9.4869     37.2542    162.0069   1.1893455220e+02   3.6787477209e+01    0.2582937    0.1787767   2.19  0.001393614    2.527    0.604
        36  -9.1145    155.8200    158.8296   8.9925890816e+01   1.8452490422e+01    0.2002383     0.175647  85.61 0.0004878685    1.316    0.240
        37 -12.3979     90.2450    155.5252   1.0512864307e+02   3.1321939244e+01     0.624356     0.454412 -26.69  0.002886831    2.024    0.506
        38 -11.2405    133.7261    144.4249   9.2080930126e+01   2.6051349215e+01      1.27129    0.3019749 -54.28  0.002887242    6.230    0.839
        39 -10.7073    174.2355    148.5295   8.3558838981e+01   1.6742166114e+01    0.3750701    0.3291052 -64.69  0.001518182    1.291    0.226
        40 -10.0983    143.6785    145.8510   8.9975764985e+01   2.3716925641e+01    0.3315235    0.1956166 -72.50  0.001160225    2.991    0.666
        41 -10.7777     46.5179    171.3823   1.1781553052e+02   3.3605554078e+01    0.4800333    0.2779105 -85.25  0.002123273    1.611    0.379
        42 -11.2641    103.5806    140.3959   9.8898157454e+01   3.2673640613e+01    0.5623925    0.3642507 -28.20  0.002361067    2.309    0.567
        43 -12.4945     90.9907    140.5367   1.0224079088e+02   3.4766808948e+01    0.2839909    0.2509755 -54.13 0.0003971303    1.144    0.126
        44 -10.9081    138.8210    172.1110   9.6437289167e+01   1.9000678701e+01    0.4017262    0.2643335 -77.95  0.001740356    2.228    0.551
        45 -11.8985     45.5246    136.5969   1.1371467469e+02   4.1910633672e+01    0.4336692    0.2156801 -56.67  0.001043007    1.787    0.440
        46  -9.3625     38.8432    137.8574   1.1565272690e+02   4.2318071097e+01    0.1817888    0.1493695 -65.20            0    1.150    0.131
        47 -10.5464    106.0486    130.7693   9.6214004146e+01   3.4514802584e+01    0.3433559    0.2962261 -76.70  0.001235591    1.176    0.150
        48 -10.3806    112.3721    130.6127   9.4489569653e+01   3.3386264190e+01    0.3016398     0.258257 -12.09 0.0006773839    1.442    0.306
        49 -12.5910     43.0337    126.2912   1.1285186775e+02   4.4667766595e+01    0.6557505    0.3618932  49.49  0.003279593    2.023    0.506
        50 -10.0141     34.0028    131.4698   1.1607487345e+02   4.4330745132e+01    0.1685078     0.130608  26.42  0.001027661    1.604    0.376
        51 -11.3060    135.8116    127.8258   8.7755223118e+01   2.9362984886e+01     0.559266    0.1998382 -49.94  0.001785832    2.874    0.652
        52 -10.6074    160.8506    127.8010   8.1679048072e+01   2.3946247026e+01    0.3666128    0.2408783 -44.60   0.00159654    1.513    0.339
        53 -11.2249     99.1972    127.0210   9.7252438463e+01   3.6623377024e+01    0.3802229    0.2902317   8.78  0.001164944    1.821    0.451
        54 -11.2786    119.1943    123.7982   9.1093974047e+01   3.3663742889e+01    0.6394395    0.4033817 -12.18  0.002167454    3.446    0.710
        55  -9.9643    108.3659    119.3842   9.2970465684e+01   3.6773513529e+01    0.2305378    0.2219157  22.21 0.0003940314    1.123    0.110
        56 -10.5495    134.7980    112.4835   8.4144169047e+01   3.3005963922e+01    0.4511757    0.1226988 -45.11   0.00125497    3.599    0.722
        57  -9.8061    167.7252    112.6813   7.6234508524e+01   2.5535035500e+01    0.3213894    0.2296482 -78.07  0.001309951    2.082    0.520
        58 -11.9751    118.2583    108.4303   8.7480502536e+01   3.7376321978e+01    0.7169622    0.5583396 -55.20  0.003463299    1.280    0.219
        59 -12.9970    196.2063    205.4960   9.0414121874e+01   2.1647575465e+00    0.9042199    0.4828695  19.51  0.003813821    2.667    0.625
        60 -10.1335    205.4712    110.1736   6.7819486243e+01   1.7263883414e+01    0.3166693    0.2176657  40.95 0.0008955499    1.560    0.359
        61 -12.9931     83.4736    162.7135   1.0796232945e+02   3.0686496983e+01     1.208445    0.4705977  54.76 0.0004666041    3.354    0.702
        62 -10.9429     19.0254    110.9639   1.1742852582e+02   5.0504655992e+01    0.1927936    0.1544363 -71.02 0.0004703709    1.017    0.017
        63 -10.3648    134.5120    104.5077   8.2071604788e+01   3.4817830629e+01    0.5229599    0.1529033 -44.03  0.001511068    3.341    0.701
        64  -9.4613     66.9985    104.4964   1.0161822373e+02   4.7054190210e+01    0.2001591    0.1416555  33.95  0.001031996    1.588    0.370
        65 -11.2597     34.4300    100.7358   1.1108531248e+02   5.1656698801e+01    0.2860177    0.2272676  78.33  0.001076347    1.405    0.288
        66  -9.7961    241.6713    101.6907   5.9654550460e+01   1.0787227627e+01     0.141802    0.1082626   7.26 0.0004824639    1.662    0.398
        67 -10.8988     55.4821     94.9869   1.0310606619e+02   5.0788958175e+01    0.3586166    0.2464095  41.84  0.001142557    1.670    0.401
        68 -11.3274     52.5698     91.4568   1.0324356505e+02   5.1961975547e+01    0.4577515    0.3061173 -35.96  0.002399741    1.550    0.355
        69 -11.6612     41.7883     90.7911   1.0669147780e+02   5.3292989534e+01    0.4356518     0.268697 -59.24  0.001135265    1.354    0.261
        70  -9.5707    161.5660     88.7872   7.1002083263e+01   3.1774385651e+01    0.2179697    0.1461725 -49.30 0.0005483805    1.548    0.354
        71  -9.1997     36.6335     83.2501   1.0677399963e+02   5.5543506828e+01    0.1212994    0.0951137  69.19 0.0003859986    1.623    0.384
        72  -9.9466    157.4816     80.8861   6.9595547725e+01   3.4275610423e+01    0.2352154    0.1536791 -37.33 0.0004738503    1.514    0.339
        73  -9.2445    184.4957     77.4687   6.2966816250e+01   2.8204091734e+01    0.1528893    0.1496098 -52.79 4.284276e-05    1.008    0.008
        74  -9.5295     59.1721     67.4356   9.4441850279e+01   5.6518008474e+01    0.2956086    0.1146686  42.12  0.001149503    3.155    0.683
        75 -10.1366    234.8367     60.7124   5.0599745867e+01   1.8752651480e+01    0.2172498     0.178764  42.49  0.001201406    1.438    0.305
        76 -13.4129    187.6583     43.9990   5.2732831608e+01   3.2698684032e+01     1.033752    0.7048668  37.44 0.0009751631    1.741    0.426
        77 -11.1650    171.8900    240.2816   1.0056688596e+02   9.9238757247e-01    0.4298052    0.2771326 -75.96  0.002062103    3.500    0.714
        78 -10.4035    197.6846    223.0959   9.3120038626e+01  -7.3819259041e-01    0.2046459    0.1544036  41.13 0.0004999288    1.266    0.210
        79 -11.0525    151.5487     46.9953   6.0196172017e+01   4.1497473869e+01    0.3560692    0.2856087 -75.65  0.001027259    1.485    0.327
        80 -11.8029    193.1841    194.8991   8.9089812289e+01   4.4169246850e+00    0.9582194    0.5340364 -65.07  0.003114117    5.383    0.814
        81 -10.1486     31.2909     36.5355   9.5235488972e+01   6.5864326037e+01     0.200945    0.1133044  30.27   0.00104828    2.032    0.508
        82 -11.3992     21.9364     33.9344   9.8558096398e+01   6.7195989329e+01    0.5879194   0.09420376  33.69  0.001884708    6.955    0.856
        83  -8.7167    115.5070     31.4367   6.2988072368e+01   5.2405084685e+01    0.1412057    0.1305997  26.67 0.0001479775    1.017    0.017
        84 -11.3197    149.9346     53.4838   6.2673327139e+01   4.0908094993e+01    0.4991351    0.3309597 -76.98  0.001428202    2.337    0.572
        85 -13.7632     71.7594    158.0113   1.1012505351e+02   3.3495229934e+01    0.5848296    0.5251293 -41.88  0.002024874    1.351    0.260
        86  -9.7843    189.6606     14.9955   4.4121576775e+01   3.5783501448e+01    0.1887651    0.1718618 -51.09 0.0006182155    1.129    0.114
        87  -9.3681    111.5148    217.8763   1.0933960438e+02   1.4561468785e+01    0.1639811    0.1234815 -66.40 0.0003898513    1.467    0.318
        88 -16.9446      7.0751    246.1760   1.3036004839e+02   2.2739322514e+01     1.913773      1.25452  37.22   0.01460268    1.825    0.452
        89  -9.6699    130.5053    213.0048   1.0484607160e+02   1.2358986021e+01    0.1876857    0.1571539  52.33 0.0004316436    1.039    0.037
