#   1 NUMBER                 Running object number                                     
#   2 MAG_AUTO               Kron-like elliptical aperture magnitude                    [mag]
#   3 X_IMAGE                Object position along x                                    [pixel]
#   4 Y_IMAGE                Object position along y                                    [pixel]
#   5 X_WORLD                Barycenter position along world x axis                     [deg]
#   6 Y_WORLD                Barycenter position along world y axis                     [deg]
#   7 A_WORLD                Profile RMS along major axis (world units)                 [deg]
#   8 B_WORLD                Profile RMS along minor axis (world units)                 [deg]
#   9 THETA_WORLD            Position angle (CCW/world-x)                               [deg]
#  10 FWHM_WORLD             FWHM assuming a gaussian core                              [deg]
#  11 ELONGATION             A_IMAGE/B_IMAGE                                           
#  12 ELLIPTICITY            1 - B_IMAGE/A_IMAGE                                       
         1 -11.5640    174.9189     45.0056   3.5755319881e+02   3.6018751229e+01    0.9326912    0.8515674 -12.71  0.004862463    1.461    0.316
         2 -11.0701    196.0527     15.9455   3.4848094542e+02   3.5138534608e+01    0.7185651    0.3605278 -23.89  0.003662935    2.488    0.598
         3 -11.4255    190.6442     15.1286   3.4865118887e+02   3.6345001963e+01    0.7487648    0.4374197 -29.37  0.004301975    1.821    0.451
         4  -7.9261    206.5130     19.5167   3.4861961397e+02   3.2643963209e+01    0.1189944   0.09044831 -60.23 0.0001497909    1.018    0.018
         5 -17.9054     47.6088    234.5241   6.4261717032e+01   1.7794512825e+01     3.763759     3.587124   8.53  0.009465846    1.215    0.177
         6 -13.1553     68.9168    240.6328   5.9663327483e+01   1.4301241047e+01    0.3627719     0.280254 -76.17 0.0008307814    1.551    0.355
         7  -7.5717    151.6331    180.8553   3.2502672947e+01   1.5551458081e+01    0.1755961    0.1238482 -56.09 0.0004294779    1.604    0.377
         8  -9.6499     34.3114    178.4402   6.3486277171e+01   3.2234984102e+01    0.8276842    0.3410255   8.93   0.00125157    3.787    0.736
         9  -9.2756     37.2520    161.8475   6.0957161784e+01   3.6291925933e+01    0.2935043    0.2513978  -7.43 0.0006510711    1.373    0.272
        10  -8.8111     53.4767    176.4062   5.7535480028e+01   3.0607670102e+01    0.2583414    0.1947324  30.09 0.0005991653    1.271    0.213
        11  -7.9474     50.5266    174.4914   5.8204344595e+01   3.1452610365e+01    0.2309929    0.2083972 -64.74 2.929486e-06    1.172    0.147
        12 -10.9323     47.1721    170.7412   5.8806185127e+01   3.2820448827e+01      1.02249    0.3401764 -64.20  0.003503165    2.819    0.645
        13 -10.7060     40.9440    167.9696   6.0437070991e+01   3.4257675101e+01     0.627598    0.4786744  51.29  0.002714385    1.225    0.184
        14  -7.8809     26.6999    180.2234   6.5905614486e+01   3.2535103076e+01    0.1805819    0.1574001 -39.41 0.0005603425    1.351    0.260
        15  -9.7907     73.2532    176.0056   5.1662703602e+01   2.8164562818e+01    0.3331522    0.2605538 -84.05  0.001102042    1.393    0.282
        16  -8.5616    188.0798    176.4781   2.4521039840e+01   1.1205102188e+01    0.2620692    0.2216589   7.27  0.001185125    1.176    0.150
        17  -9.5263    192.2201    193.6267   2.6709053448e+01   7.8037621735e+00    0.4904341    0.2446885 -57.99  0.002005147    4.000    0.750
        18  -8.1655    133.7093    195.9340   3.8975970984e+01   1.5133797737e+01    0.1806203    0.1658629 -28.86  0.000601705    1.112    0.101
        19  -7.8060    194.0483    171.9621   2.2660713006e+01   1.1168033727e+01    0.2027663    0.1347223 -13.16  0.001128427    1.695    0.410
        20 -11.7233     18.3443    249.7646   7.1871157383e+01   1.7549546894e+01    0.2232821    0.1865752  23.79 0.0006363864    1.238    0.192
        21  -7.4377    100.2658    165.6189   4.2412680982e+01   2.6748804940e+01    0.1503218    0.1127688  75.15   0.00069865    1.686    0.407
        22  -9.2392     49.0852    164.3084   5.7461142693e+01   3.4285018380e+01     0.372959     0.186693  41.85 0.0009849184    1.848    0.459
        23 -11.2262     24.6728    156.8813   6.4574885064e+01   3.8904978806e+01     0.723705    0.5324816  44.89  0.002697972    1.272    0.214
        24  -8.4390     25.4278    165.2763   6.5078845107e+01   3.6572871050e+01    0.4131484    0.2015972  18.17  0.001718864    2.189    0.543
        25  -9.2819     31.9361    162.3335   6.2721770030e+01   3.6720142928e+01    0.4062224    0.2641394 -69.67  0.001171224    1.512    0.339
        26  -9.7225     12.9344    162.6458   6.8862299582e+01   3.8373115350e+01    0.3612257    0.2577546 -15.69  0.001172837    1.787    0.440
        27  -8.7444    167.1216    224.0109   3.6111081753e+01   5.8612102076e+00    0.2195958    0.1546307 -29.03 0.0006814334    1.337    0.252
        28  -7.3803    124.2684    161.6430   3.5398324317e+01   2.3819421375e+01     0.142306    0.1140581  83.40 0.0006992953    1.637    0.389
        29 -10.5428     26.2453    150.4452   6.3424094294e+01   4.0513605946e+01     0.399529     0.311058  82.30  0.001216935    1.235    0.190
        30  -7.6021    147.7599    155.9706   2.8766664787e+01   2.1162824673e+01    0.1860677    0.1717061 -40.96 0.0002955972    1.062    0.058
        31  -8.5479    134.5266    156.0676   3.1831617004e+01   2.3347101204e+01    0.2487923    0.2032704  23.71  0.001330254    1.278    0.217
        32  -8.9016    100.6740    154.4564   4.0319349024e+01   2.9373024900e+01    0.2608109    0.2402434 -29.33 0.0002979669    1.143    0.125
        33  -8.8016    154.3162    226.9607   3.9076046403e+01   6.8591785117e+00    0.1670112    0.1376828 -16.84 0.0003772566    1.134    0.118
        34 -10.4559     16.4325    150.5616   6.6786864851e+01   4.1360151466e+01    0.3746143    0.2969225 -49.42  0.002001268    1.375    0.273
        35 -10.2954      7.9972    149.2999   6.9565486101e+01   4.2362195535e+01    0.5717589    0.3019997  75.27  0.002506811    1.892    0.471
        36  -9.4790    103.9404    149.9148   3.8547598480e+01   2.9930894601e+01      0.33682    0.2702664 -21.23 0.0006202492    1.473    0.321
        37  -8.6255    134.3975    148.7501   3.0409367465e+01   2.4962058612e+01     0.280077     0.137449 -52.99  0.001020876    2.071    0.517
        38 -10.2609     90.4200    148.1710   4.2121667766e+01   3.2602159685e+01    0.3532405    0.3027691 -20.14 0.0008226813    1.340    0.254
        39 -11.2571     31.0195    142.0175   6.0833407904e+01   4.2366963553e+01    0.7046661    0.3755957  -4.16  0.002621276    2.894    0.655
        40  -9.1174     83.6517    144.1494   4.3427187800e+01   3.4718956879e+01    0.2796458     0.206305  45.10  0.001145356    1.338    0.253
        41 -11.4654      6.3562    139.4607   6.9430568840e+01   4.5181285561e+01    0.7876197    0.5614485  16.73   0.00407915    1.516    0.341
        42  -8.6069    112.3007    136.0093   3.3403213156e+01   3.1796446633e+01    0.3535028    0.2257247  38.38  0.001217864    1.587    0.370
        43  -9.7627    103.7367    133.9525   3.5361683817e+01   3.3838410294e+01    0.5743157    0.3767162 -19.43  0.001173304    2.430    0.588
        44 -11.8007      4.5538    128.9984   6.9292426867e+01   4.8199780166e+01     1.285781    0.5685159  69.05  0.004961854    2.474    0.596
        45  -8.2182    131.0677    140.1232   2.9426929702e+01   2.7449663013e+01     0.434856    0.1975212  33.31  0.001625448    2.559    0.609
        46  -7.7367    118.4564    127.7427   2.9920677569e+01   3.2585024206e+01    0.2080967    0.1397778 -39.45 0.0009285713    1.573    0.364
        47  -7.5888    108.1271    126.8935   3.2553930986e+01   3.4730911527e+01    0.2036335    0.1741893 -29.52  0.001018523    1.294    0.227
        48 -10.6264     40.8175    138.0887   5.6818020409e+01   4.2383705857e+01    0.4367681    0.3080727  76.83  0.002043249    1.514    0.339
        49  -7.7409    106.9763    123.0223   3.1993327166e+01   3.5870323732e+01    0.2334239    0.1875497 -15.78 0.0006715416    1.587    0.370
        50  -7.5288    113.3207    117.2754   2.8855827584e+01   3.5993715433e+01    0.1486877    0.1225654  -5.34 0.0002440433    1.575    0.365
        51  -8.4488    168.6489    113.3542   1.5373944215e+01   2.5939893324e+01    0.2928105    0.2096868 -71.43  0.001384834    1.741    0.426
        52  -9.7960      8.8738    111.4594   6.5910798121e+01   5.2807814612e+01    0.4306121     0.229999 -12.14   0.00127091    2.439    0.590
        53  -9.8340      2.4789    112.0226   6.8672468442e+01   5.3044807715e+01    0.3996739    0.2530411  55.71  0.001876263    1.606    0.377
        54 -10.1128     42.1821    110.2183   5.1691992272e+01   4.9924948829e+01     0.503482    0.3279524 -56.72  0.002288316    1.480    0.324
        55 -10.5958     60.3840    109.4366   4.4313491350e+01   4.7557801115e+01    0.5632087     0.361913 -16.13  0.002166445    2.506    0.601
        56  -9.0266    151.8588    209.8563   3.7127348889e+01   1.0097948399e+01     0.284987    0.1628037  17.04  0.001460239    1.822    0.451
        57  -8.5242     94.9431    105.0859   3.1187238318e+01   4.2486080325e+01    0.2259958    0.2163013  89.70 0.0002982037    1.017    0.016
        58  -7.4206    216.6785    108.2653   6.8748566156e+00   1.8391113434e+01     0.118056   0.08430548 -63.70 0.0002690984    1.559    0.358
        59  -8.3903    136.8177     97.1422   1.7876485263e+01   3.5529313297e+01    0.2157097    0.1872253 -77.52 0.0003276845    1.173    0.148
        60  -8.1505     50.9218     97.0726   4.5225359349e+01   5.2258437205e+01    0.3982407    0.1760315  39.88  0.001096544    2.221    0.550
        61  -7.3389     45.5600     93.4210   4.6641270871e+01   5.3989105098e+01    0.1474498    0.1448392 -78.87 0.0001164826    1.007    0.007
        62  -7.1083    163.2731     91.6703   1.1186089413e+01   3.1020523373e+01    0.1435296    0.1000623 -67.28  0.000383461    1.589    0.371
        63  -8.3049    150.1998    188.1776   3.4056275017e+01   1.4339579603e+01    0.1711417     0.159712  60.73 0.0007355926    1.342    0.255
        64  -8.4871    180.8270     76.9288   4.7721313817e+00   2.9958723189e+01    0.1997998    0.1778426 -80.59 0.0002886387    1.126    0.112
        65 -10.3974    161.1373     59.4459   3.1925374752e+00   3.6936157958e+01    0.3709456    0.3199051 -78.75   0.00103037    1.070    0.065
        66  -8.2637    246.7729     59.8740   3.5418197829e+02   2.0532180348e+01    0.1560961    0.1221284 -42.86 0.0006042589    1.177    0.150
        67  -8.4311    243.9767    250.0000   2.6790529364e+01  -4.9659551767e+00    0.1401013   0.04639275  25.03 0.0008038069    2.952    0.661
        68  -9.9797    179.4229     37.7259   3.5519707296e+02   3.6020859468e+01    0.3398312    0.3121946 -14.10 0.0008544961    1.464    0.317
        69  -7.8709     69.9967     47.2301   2.1051727315e+01   6.0117399884e+01    0.1937016    0.1773208  54.94 0.0001960219    1.040    0.039
        70  -7.7409    101.0317     42.7666   9.5992383861e+00   5.3725809462e+01    0.1889273    0.1133671  61.33 0.0008640867    1.579    0.367
        71  -8.0336     92.8468     39.3419   1.0450132752e+01   5.6215741603e+01    0.2190142    0.1838489 -58.80 0.0003343491    1.229    0.186
        72  -8.1955    207.6670     36.7145   3.5239388979e+02   3.0369311773e+01    0.1819003    0.1545337 -48.69 0.0004128736    1.207    0.171
        73  -8.4911     77.0327     36.8019   1.4180196766e+01   6.0315667345e+01    0.2132526    0.1972273 -53.37  0.000265512    1.143    0.125
        74  -7.8522     93.3454     22.8184   3.6791312332e+00   5.8372098412e+01    0.2224041    0.1647102  78.91 0.0003869671    1.294    0.227
        75  -8.2798    239.0279    239.5088   2.6082489314e+01  -3.3533928109e+00    0.1323068   0.08153554  14.41 0.0004152182    1.501    0.334
        76 -10.2069    149.2458    226.0387   3.9988800728e+01   7.6075220377e+00    0.3939799    0.1899387 -39.26  0.002012581    2.131    0.531
