#   1 NUMBER                 Running object number                                     
#   2 MAG_AUTO               Kron-like elliptical aperture magnitude                    [mag]
#   3 X_IMAGE                Object position along x                                    [pixel]
#   4 Y_IMAGE                Object position along y                                    [pixel]
#   5 X_WORLD                Barycenter position along world x axis                     [deg]
#   6 Y_WORLD                Barycenter position along world y axis                     [deg]
#   7 A_WORLD                Profile RMS along major axis (world units)                 [deg]
#   8 B_WORLD                Profile RMS along minor axis (world units)                 [deg]
#   9 THETA_WORLD            Position angle (CCW/world-x)                               [deg]
#  10 FWHM_WORLD             FWHM assuming a gaussian core                              [deg]
#  11 ELONGATION             A_IMAGE/B_IMAGE                                           
#  12 ELLIPTICITY            1 - B_IMAGE/A_IMAGE                                       
         1 -14.9449      7.4300    150.6239   1.4468508727e+02   4.2769523692e+01      9.75386     4.428684  77.19   0.04690897    2.702    0.630
         2 -13.3909    195.1404     29.6153   6.9634715370e+01   3.3089012795e+01       1.3953     1.308008 -48.13  0.007141857    1.176    0.150
         3 -13.5112    210.7068      9.7582   6.2832005101e+01   3.1586655343e+01     1.308563    0.9898455  37.33  0.007593228    1.739    0.425
         4 -12.5687      2.3139     13.3106   1.1837976735e+02   7.0488178943e+01     1.070848    0.2488635 -43.34  0.005160513    2.946    0.661
         5 -10.3053     46.5769    249.0184   1.4564527090e+02   1.8167207268e+01    0.2349844    0.1204697  66.84  0.001145362    1.617    0.382
         6 -11.3141    248.5815    248.8973   1.0944040989e+02  -1.3725416670e+01    0.4115209    0.2066327  34.46  0.002338627    1.693    0.409
         7 -10.3625     98.3344    248.2944   1.3673197765e+02   1.0979810256e+01     0.243533    0.2036622 -51.06  0.001259503    1.665    0.399
         8 -10.3274    101.2334    246.0051   1.3597302901e+02   1.0936823448e+01    0.1917353     0.153051  61.36 0.0004551904    1.055    0.052
         9 -10.3225     29.2633    249.0365   1.4840832288e+02   2.0267959231e+01    0.3199555    0.1738375 -66.04  0.002099026    1.992    0.498
        10 -11.1792     33.3301    249.5623   1.4780321315e+02   1.9693984955e+01    0.3697072    0.2311887  47.53  0.002594046    1.558    0.358
        11 -11.3426     35.3619    244.0599   1.4711638238e+02   2.0462447370e+01    0.3356658    0.2842016  31.70  0.002307365    1.913    0.477
        12 -11.2621     11.9273    249.6944   1.5109753201e+02   2.2080015605e+01    0.3412971    0.1898199  44.72  0.002402836    1.806    0.446
        13 -10.9467      3.1384    248.5025   1.5233876653e+02   2.3206585608e+01     0.395705    0.2158526  63.42  0.002897272    1.339    0.253
        14 -11.2011    198.1286    246.3888   1.1806576871e+02  -5.4615117501e+00    0.3161407    0.2419764 -55.62  0.001680623    1.786    0.440
        15 -11.3039    124.1453    249.8985   1.3224836470e+02   6.5617238984e+00    0.5442517    0.1331883  43.85  0.002024797    3.286    0.696
        16 -11.2485     21.5111    244.3995   1.4933646232e+02   2.1999490614e+01    0.4686834    0.1591252  66.32  0.002275227    2.925    0.658
        17 -11.2891    139.1994    249.8060   1.2947679891e+02   4.0646202336e+00    0.3378993    0.2515396  53.85  0.002139334    1.108    0.098
        18 -10.8930      5.6782    241.0646   1.5158526466e+02   2.4298243449e+01     0.198506    0.1357811  43.56 0.0005283508    1.736    0.424
        19 -10.0638    183.0383    238.7006   1.1969814606e+02  -1.7391049321e+00    0.1860387    0.1461703  37.78 0.0004197071    1.075    0.070
        20 -11.4591     12.5130    240.7610   1.5052289487e+02   2.3646886280e+01    0.2537227    0.1826815  67.15  0.001369475    1.181    0.153
        21  -9.8963    225.9866    250.0000   1.1358336429e+02  -1.0459955800e+01    0.2022317   0.05728918  40.77 0.0008091143    2.989    0.665
        22 -14.1834     39.9849    225.5411   1.4498574894e+02   2.3460478089e+01     1.399822      1.14514 -37.37  0.006208965    2.222    0.550
        23  -9.9204    173.9327    222.7906   1.1893856721e+02   2.4818712184e+00    0.3215114     0.160508  48.30   0.00147462    1.848    0.459
        24 -10.2482      1.7317    216.0639   1.5082357229e+02   2.9444431662e+01    0.2963798    0.1088298 -79.47  0.001631347    2.149    0.535
        25 -12.5627      9.3782    206.8953   1.4895220484e+02   3.0551082495e+01    0.6908644    0.4369543  43.45  0.003145278    1.728    0.421
        26 -10.4420     10.0285    232.9979   1.5047071054e+02   2.5358638317e+01    0.2158873    0.1055682  32.90  0.001272758    2.837    0.648
        27  -8.9514     91.7963    214.0896   1.3413221083e+02   1.8582779069e+01    0.2781811    0.1268799  62.20  0.001167415    2.591    0.614
        28  -8.5084    152.4851    212.9909   1.2165492255e+02   8.2232867600e+00    0.1770703    0.1369837 -52.77 0.0003164083    1.438    0.305
        29 -11.5273     61.1470    198.9014   1.3850118675e+02   2.6296637084e+01    0.2853431    0.2288931 -58.69 0.0005221585    1.460    0.315
        30 -10.9835     16.8858    198.0602   1.4697021464e+02   3.1639887739e+01     0.258994    0.1644845  64.08 0.0004819934    1.371    0.270
        31  -9.4219    192.1056    193.2579   1.1004246224e+02   4.2724520774e+00    0.3554285    0.2006966 -62.31  0.001386087    2.963    0.662
        32  -8.8865     50.1039    196.6088   1.4046841257e+02   2.8228156268e+01    0.1611628    0.1320566  74.00 0.0004103206    1.107    0.097
        33 -10.0279    135.1895    231.3826   1.2783050158e+02   7.9396709578e+00    0.1934328    0.1027335  51.74 0.0006074522    1.670    0.401
        34 -11.7852     67.3386    190.5977   1.3625770277e+02   2.7271249016e+01    0.2752565    0.2293506 -66.34 0.0004563501    1.277    0.217
        35 -13.0528     64.1967    176.0047   1.3507258027e+02   3.0991679873e+01    0.4903804     0.269379 -47.11  0.001580828    2.246    0.555
        36 -10.7242     77.5337    177.7146   1.3233844365e+02   2.8711949298e+01    0.2333241    0.2082577 -88.19 0.0004346517    1.086    0.079
        37  -9.9570     98.1316    174.9115   1.2724215476e+02   2.6108834855e+01    0.2661444     0.196912 -74.10 0.0004315444    1.310    0.237
        38 -11.6205     84.9821    168.4787   1.2924531297e+02   2.9711955858e+01     0.597551    0.5525635 -59.57  0.003637822    1.218    0.179
        39 -10.1233     54.5114    229.3818   1.4274696527e+02   2.0868968002e+01    0.2607872    0.1605593  76.90 0.0008163408    1.398    0.285
        40  -9.7447     97.7200    152.4835   1.2341345578e+02   3.1391071596e+01     0.275232    0.2476873 -72.55 0.0007653799    1.040    0.039
        41 -11.9453     86.2585    151.6913   1.2610145873e+02   3.3445907637e+01    0.2981816    0.2447556 -47.19 0.0004742403    1.307    0.235
        42  -9.0602    100.7199    148.2537   1.2185592685e+02   3.1872485407e+01    0.1886497     0.166085 -34.41 0.0004907949    1.321    0.243
        43 -10.3245     56.3604    223.5733   1.4189960700e+02   2.1779526570e+01    0.3024978    0.2606501 -31.79  0.001843891    2.037    0.509
        44 -12.1999     67.2364    143.6872   1.2945675688e+02   3.8117726985e+01    0.7129402     0.454963  65.67  0.003053483    1.867    0.464
        45  -8.6621    134.0000    145.0151   1.1295482602e+02   2.6324646619e+01    0.2575045   0.08604843 -49.38 0.0008054046    2.963    0.663
        46 -12.6245     34.5471    233.0004   1.4647883647e+02   2.2652303007e+01    0.2857018    0.2252625 -86.59   0.00073126    1.264    0.209
        47  -9.6151    109.5070    137.3190   1.1737535665e+02   3.2868147092e+01    0.3943337    0.2446607 -27.57   0.00155716    2.537    0.606
        48 -10.2997     96.6109    134.7030   1.2014999567e+02   3.5759772570e+01    0.2624285    0.2309747 -35.28 0.0005388283    1.258    0.205
        49 -10.8875     57.1059    131.5922   1.2996281011e+02   4.2265800482e+01    0.4726214    0.2559277 -83.45  0.002012494    2.539    0.606
        50 -10.0985      5.5097    227.7542   1.5088745596e+02   2.6811895984e+01    0.2028356     0.141407 -40.01  0.001288408    3.110    0.678
        51  -9.3687     89.9792    130.7361   1.2105861799e+02   3.7790182765e+01    0.2080593    0.1772677  80.21  0.000499065    1.254    0.202
        52  -8.8268     79.1737    131.4040   1.2406937882e+02   3.9315506044e+01    0.1874851    0.1258172  53.58 0.0004060217    1.662    0.398
        53 -11.1011     21.5049    126.1224   1.3838880058e+02   4.7151763135e+01    0.2397469    0.1662953  47.70 0.0008598547    1.682    0.406
        54  -8.8583    106.6395    124.0387   1.1513631644e+02   3.6470335553e+01    0.1973283    0.1734978 -51.88 0.0004519357    1.086    0.079
        55  -9.7658    167.6111    112.7170   9.7180874573e+01   2.5954100728e+01    0.3001055    0.2600286 -82.93 0.0009993229    1.278    0.218
        56  -9.3071    203.2208    111.7447   8.9561395752e+01   1.7710917164e+01     0.207694    0.1829033   5.94 0.0005352474    1.344    0.256
        57  -8.7929     38.6808     94.9468   1.2806548544e+02   5.2597822274e+01    0.1729365    0.1378343 -57.81 0.0003385723    1.073    0.068
        58  -8.5120    184.4949     77.4841   8.4232128124e+01   2.8592472798e+01    0.1501182    0.1466653  63.85 1.359888e-05    1.063    0.059
        59  -9.6116    157.7631     76.5951   8.9474647219e+01   3.5315501361e+01    0.2139836    0.1455065  65.09 0.0008173873    1.606    0.377
        60  -9.7227     43.1689     67.6490   1.1989315845e+02   5.7808809906e+01    0.2269577    0.1855178  55.62 0.0009788956    1.714    0.416
        61 -10.8702     14.8095     55.1084   1.2660494518e+02   6.2645400994e+01    0.2182762    0.1619937  19.18 0.0008121074    1.614    0.381
        62 -10.4245      1.7583     42.9994   1.2831641511e+02   6.5655294982e+01    0.1596996    0.1177584 -79.03  0.001092218    1.952    0.488
        63 -10.7294      2.0000     50.9951   1.3031330002e+02   6.4181803523e+01    0.2433809    0.1192816 -56.38   0.00139939    1.579    0.367
        64 -10.0712    161.9951    249.5169   1.2522089811e+02   2.2850944245e-01     0.202031    0.1033322  42.85  0.001036375    1.602    0.376
        65  -9.5596     82.0143    249.0262   1.3967807599e+02   1.3313724824e+01    0.2032045    0.1115096  68.88  0.001139492    1.742    0.426
