#   1 NUMBER                 Running object number                                     
#   2 MAG_AUTO               Kron-like elliptical aperture magnitude                    [mag]
#   3 X_IMAGE                Object position along x                                    [pixel]
#   4 Y_IMAGE                Object position along y                                    [pixel]
#   5 X_WORLD                Barycenter position along world x axis                     [deg]
#   6 Y_WORLD                Barycenter position along world y axis                     [deg]
#   7 A_WORLD                Profile RMS along major axis (world units)                 [deg]
#   8 B_WORLD                Profile RMS along minor axis (world units)                 [deg]
#   9 THETA_WORLD            Position angle (CCW/world-x)                               [deg]
#  10 FWHM_WORLD             FWHM assuming a gaussian core                              [deg]
#  11 ELONGATION             A_IMAGE/B_IMAGE                                           
#  12 ELLIPTICITY            1 - B_IMAGE/A_IMAGE                                       
         1 -11.8833     17.3740     20.8713   7.8820989856e+01   7.5062638817e+01    0.6171358    0.3244039  27.19  0.001945671    1.970    0.492
         2 -11.6749      2.2979     20.5883   9.2347762922e+01   7.6288872053e+01    0.4903576    0.2629204 -75.53 0.0008242214    1.874    0.466
         3 -12.4139     70.6736     18.5764   4.5331446332e+01   6.5779069824e+01    0.4864203    0.2689164  57.43 0.0001363836    1.769    0.435
         4 -10.6779     61.9566     17.4739   4.8198444189e+01   6.7963490992e+01    0.6418425    0.2588358 -49.97  0.002082145    3.868    0.741
         5 -11.3595     34.4510     12.3575   5.9941484580e+01   7.4338639291e+01    0.3974895    0.2783675  46.10  0.001387648    1.518    0.341
         6 -11.6898     29.8163      7.9141   5.9971514899e+01   7.5882797217e+01    0.4572174    0.3316108  19.64   0.00252994    1.459    0.315
         7 -12.0234    125.3529     16.9612   3.0791840361e+01   5.1683792144e+01    0.3520403    0.2573229 -72.91 0.0002501441    1.423    0.297
         8 -12.0438    125.9748     10.9040   2.8199142516e+01   5.2146947643e+01    0.3288669    0.2590971 -58.79 0.0003022177    1.251    0.201
         9 -11.6862    236.0478     14.8229   1.9868517272e+01   2.5060004068e+01     0.317994    0.2219216 -64.81  0.001921688    1.325    0.246
        10 -10.4763    165.1434     11.9910   2.4005311071e+01   4.1590467263e+01    0.2828902    0.1745986  37.45  0.001055088    2.124    0.529
        11 -11.3325     13.7203     14.6931   7.8667256951e+01   7.6773327051e+01    0.4863315    0.2639709 -65.83  0.001406168    2.140    0.533
        12 -10.5451      8.4684      8.6775   8.0291288336e+01   7.8545286024e+01    0.3531316    0.2096604  62.98  0.001140696    3.269    0.694
        13 -10.6191      3.5333      7.9480   8.5340753479e+01   7.9090601151e+01    0.3849106    0.2197504 -44.92  0.002087789    1.509    0.337
        14 -10.6727    171.7824     11.0676   2.3111819961e+01   3.9987084171e+01    0.3119538    0.1443092 -39.56  0.001382568    1.867    0.464
        15  -9.7540     90.3155     12.2881   3.5735944674e+01   6.1623777853e+01    0.3304673    0.1098934  41.61 0.0006795102    4.096    0.756
        16 -10.6505     50.9984     10.6720   4.8869606408e+01   7.1359335349e+01    0.3294018    0.2281528  59.32  0.000868458    1.555    0.357
        17 -11.1923     55.7211      9.5175   4.5813943350e+01   7.0476318566e+01    0.2443282    0.2420322  14.94  0.000251208    1.089    0.082
        18 -11.4249     45.9248      9.7633   5.0898435051e+01   7.2557915939e+01     0.311967    0.2590514   7.92 0.0004169414    1.237    0.192
        19 -10.6395     42.3654      9.1836   5.2508333421e+01   7.3364590618e+01    0.2629715    0.1808785 -39.56  0.000100277    1.511    0.338
        20 -10.0308     97.4986     10.4924   3.3121370159e+01   5.9913648587e+01    0.2498766    0.2096332 -47.50 0.0009349214    1.236    0.191
        21 -10.3115     98.0772      7.1250   3.1304676602e+01   6.0095828537e+01    0.2369517    0.2047774  25.20 0.0002901627    1.257    0.205
        22 -11.8081    192.7085      9.8474   2.1143568994e+01   3.4977046665e+01    0.5025117     0.175131  74.70  0.002032459    2.853    0.649
        23 -12.2479    195.8468      4.8693   1.9538110424e+01   3.4708721122e+01    0.6357796    0.2833991  80.60   0.00292786    2.275    0.560
        24 -10.0584    148.5045     10.0906   2.5034889192e+01   4.6139181537e+01    0.2071715    0.1369338 -26.00  0.000424608    1.541    0.351
        25 -10.0415    116.9261      8.9418   2.8748721240e+01   5.4807483648e+01    0.2429344    0.1563567 -64.96 0.0008416182    1.679    0.404
        26 -12.3718     18.2610      3.3183   6.6122278447e+01   7.8461494902e+01     0.607136    0.4574274   8.95   0.00311913    1.366    0.268
        27 -10.0039    247.1097      5.9171   1.7315341743e+01   2.3773003750e+01    0.1763067    0.1127858 -49.60 0.0002950067    1.206    0.171
        28 -10.1009     88.7897      6.2106   3.2862424421e+01   6.2658849886e+01    0.1936216    0.1531085  37.61 0.0003170777    1.299    0.230
        29 -11.0278    236.3654      3.5246   1.7198079908e+01   2.6070986878e+01    0.2109011     0.179028  -8.09  0.001320965    1.442    0.307
        30 -10.2924    104.8577      4.1338   2.8549047953e+01   5.8539244642e+01    0.2106297    0.1919742  64.98 0.0004768784    1.053    0.050
        31 -10.4797     59.9558      3.7537   4.0045305546e+01   7.0187116472e+01    0.3506567    0.2294512  88.16  0.001363576    2.149    0.535
        32 -10.0564     43.6592      2.4929   4.6589767072e+01   7.4011455438e+01    0.3383723    0.1645084 -19.21 0.0002788897    2.445    0.591
        33 -10.8735    164.2043      3.3814   2.1259327239e+01   4.2639796043e+01    0.1991391    0.1171143 -82.91 0.0007981878    1.667    0.400
        34 -10.4864    123.6783      2.3222   2.4931227358e+01   5.3558043864e+01    0.3396126    0.1938535 -57.90  0.001522126    1.825    0.452
        35 -10.7670    148.4789      2.2313   2.2208767605e+01   4.6861117348e+01    0.2545008    0.1823525  82.33 0.0005735379    1.309    0.236
        36 -11.4476     79.9553      1.5085   3.2341639524e+01   6.5410924289e+01    0.2456529    0.1498553  62.05 0.0004021246    1.488    0.328
        37  -9.8892     29.3961      1.3135   5.4752474486e+01   7.6985997383e+01    0.2949703    0.1177231  50.62  0.001030905    2.792    0.642
        38  -9.1306     22.6561    179.6878   1.0284791757e+02   3.4467166887e+01    0.1165362   0.09358404 -34.57 0.0005585706    1.705    0.414
        39 -10.2272    110.0350    250.5682   8.8163340452e+01   1.1543310012e+01    0.1706573   0.08148771  31.47 0.0004794225    1.528    0.346
        40 -11.0929     28.6396    250.2540   1.0443194572e+02   2.0353158008e+01    0.2993277   0.09753192  31.01  0.001596017    2.140    0.533
        41 -11.9775      3.6158    233.2106   1.0903217364e+02   2.5459840910e+01    0.3645194    0.2066959  37.82  0.001496789    1.290    0.225
        42 -13.0756      3.8463    245.7511   1.0920735391e+02   2.3288729826e+01    0.7037301    0.4929866 -73.33  0.005411043    1.856    0.461
        43 -12.9357     10.7664    243.9971   1.0780782275e+02   2.2997702634e+01    0.4492527    0.4195772 -56.93  0.003863494    1.579    0.367
        44  -8.9059      3.6645    177.6669   1.0773346914e+02   3.6509812595e+01    0.1135093   0.08805524 -44.52 0.0006753975    1.737    0.424
        45  -9.7668      1.7826    170.9856   1.0803501907e+02   3.8145847348e+01     0.157487   0.08807843  89.70 0.0004001115    1.660    0.398
        46 -10.7577      5.2305    154.4286   1.0651503982e+02   4.1754393356e+01    0.3949971    0.1452348  47.12  0.001787749    2.155    0.536
        47 -10.2420     16.9966    149.7647   1.0277053486e+02   4.1975494237e+01    0.1666174    0.1031165  26.54 0.0006260122    1.611    0.379
        48 -11.0269      6.5696    145.3480   1.0572982468e+02   4.3863084874e+01    0.2446763    0.1858209  58.39 0.0002543176    1.115    0.103
        49 -10.5344     57.9277    143.3788   8.9402610079e+01   3.9193675252e+01    0.2137165    0.1790781  67.32    0.0004448    1.117    0.105
        50  -9.4373     29.0631    143.2160   9.8530016186e+01   4.2519185775e+01    0.1688108    0.1062659  25.55 0.0003337641    1.622    0.384
        51  -9.2943    235.6958    138.3353   4.7770077294e+01   1.0040086457e+01    0.1119013   0.08663247 -47.90  0.000703855    1.666    0.400
        52  -9.4485     25.4650    136.0828   9.9080290075e+01   4.4663704477e+01    0.1875433    0.1239816 -82.30 0.0002740246    1.424    0.298
        53  -9.6771     95.8723    133.8740   7.6228427926e+01   3.5700046222e+01    0.2049535    0.1713916  75.10 0.0007454375    1.299    0.230
        54  -9.2898    213.9335    134.0000   5.0094598164e+01   1.4030651191e+01    0.1940814   0.07085886  46.23 0.0008118767    3.008    0.668
        55  -9.4798     50.5032    131.5019   9.0188285441e+01   4.3135390695e+01    0.1425396    0.1319173  72.35 0.0008104908    1.031    0.030
        56 -10.7027     41.1647    127.2734   9.2809159527e+01   4.5336289234e+01    0.3891708    0.1755568 -51.10  0.001318196    2.440    0.590
        57 -11.0105     25.6206    123.7715   9.7876757510e+01   4.7833690112e+01    0.2708207    0.1813491 -79.82  0.000860261    1.391    0.281
        58 -10.5878     22.4614    121.3715   9.8772884780e+01   4.8742008230e+01    0.2696975    0.1964095  -8.63  0.001404375    1.792    0.442
        59 -12.0183     10.2335    120.3420   1.0309778022e+02   4.9953862651e+01    0.5331964    0.3533299  12.20  0.001308527    1.754    0.430
        60 -10.7492     69.8138    116.6098   8.1097589205e+01   4.4245351068e+01     0.373896    0.2470863  15.54  0.001626911    1.974    0.494
        61 -10.4821     86.0098    118.9934   7.6206642057e+01   4.0973015791e+01    0.2317692    0.1843946 -21.60  0.000466524    1.612    0.380
        62  -9.7229    233.3268    116.3272   4.3557208142e+01   1.3291390905e+01    0.1260206   0.08555533   1.86 0.0007050219    1.700    0.412
        63  -9.7717     56.9119    114.5085   8.5253268123e+01   4.6689808501e+01    0.2314871    0.1407709  34.36  0.001039317    1.621    0.383
        64 -11.6597      2.7467    112.6379   1.0535204245e+02   5.2428434580e+01    0.3579982    0.2486977  87.20 0.0007336338    1.257    0.204
        65 -10.6006     40.0198    112.4441   9.1168287906e+01   4.9363031493e+01    0.2150047    0.1394169  28.40  0.001026539    1.591    0.371
        66 -11.1060     24.1498    112.1076   9.7177605928e+01   5.1045053219e+01    0.2100521    0.1773144 -53.85 0.0006456719    1.267    0.211
        67 -11.5071     16.0140    111.8400   1.0026704700e+02   5.1777012927e+01    0.3391368    0.1684728  39.61  0.001558422    1.895    0.472
        68 -10.0084     27.5120    108.0277   9.5381585703e+01   5.1829939568e+01    0.2162798    0.1301258 -78.94 0.0005037923    1.557    0.358
        69 -11.0282      8.1213    105.9573   1.0283364129e+02   5.3874558490e+01    0.3202622    0.1560983 -42.11    0.0012213    2.466    0.594
        70 -10.4721     66.2409    104.7699   7.9900245970e+01   4.7832719686e+01    0.2024585    0.1762981 -28.14 0.0003907262    1.337    0.252
        71  -9.6074     85.9514    104.7956   7.2970253809e+01   4.4455750496e+01    0.2072838    0.1214756  37.80  0.000790829    1.709    0.415
        72 -11.3970     13.1500    103.6044   1.0061975465e+02   5.4173993399e+01    0.2846298    0.1717029 -69.99 0.0006490805    1.503    0.335
        73 -10.2603      1.2339    103.2056   1.0537467756e+02   5.4983796329e+01    0.3373696     0.100262 -85.14  0.001201399    3.028    0.670
        74 -10.5525    247.2011    101.7610   3.8750677432e+01   1.2937180721e+01    0.1650145    0.1232641  -7.09 0.0009406143    1.341    0.254
        75 -10.9618     61.1344     99.4414   8.0636487500e+01   4.9997262682e+01     0.251856    0.1773282 -70.85 0.0006264671    1.436    0.304
        76 -10.7541     11.6211     97.8178   1.0068896226e+02   5.5822681306e+01    0.2625441     0.156324 -88.89  0.001127881    1.544    0.353
        77 -10.7372      7.0579     95.0986   1.0237027358e+02   5.6826532930e+01     0.243416    0.1929836  82.01            0    1.129    0.114
        78 -10.8521     10.8634     93.3347   1.0056105602e+02   5.7071592537e+01    0.3326383     0.198285 -65.17 0.0005245131    1.523    0.343
        79 -10.2156      7.3552     90.6296   1.0183213508e+02   5.8003720395e+01    0.2629032    0.2004229 -89.62 0.0005930479    1.166    0.142
        80  -9.2874    217.9662     98.7173   4.1702700351e+01   1.8353550028e+01    0.1421709    0.1163591  47.29  0.000451633    1.404    0.288
        81 -10.8924    196.9787     97.5135   4.4473626313e+01   2.2559200222e+01    0.2292236    0.1749519 -29.58 4.685378e-05    1.186    0.157
        82  -9.5743    147.3454     96.3251   5.3495160763e+01   3.3389912627e+01    0.1561579    0.1191394   9.30 0.0002495952    1.742    0.426
        83 -10.2584     37.0418     95.9867   8.9665980663e+01   5.4088922223e+01    0.2194836    0.2013784  89.27 0.0003491146    1.010    0.010
        84 -11.9425     20.2079     92.9642   9.6435646369e+01   5.6506498047e+01    0.4647217    0.3114003 -32.09  0.002304249    1.786    0.440
        85 -10.2009     87.3186     94.9895   6.9971896557e+01   4.6576501511e+01    0.2626835    0.1703995   1.18 0.0007298458    3.224    0.690
        86 -10.4723     28.9138     93.5324   9.2724196873e+01   5.5588833694e+01    0.3821304    0.2151356 -70.60  0.001746297    1.627    0.385
        87 -12.0082    125.2383     93.0574   5.7955595241e+01   3.9002976851e+01    0.2753801     0.262353  32.39 0.0002965448    1.089    0.082
        88 -10.5643    105.4173     91.2407   6.3054083922e+01   4.3752711224e+01    0.3032969    0.2334648 -83.68 0.0008190301    1.637    0.389
        89 -11.5739     58.0721     91.4001   7.9973549782e+01   5.2544722149e+01     0.332415    0.2725386   3.96 0.0007609552    1.496    0.331
        90  -9.9188     54.3311     89.6884   8.1095828733e+01   5.3543551781e+01    0.2510008    0.2360669 -40.81 0.0009403803    1.135    0.119
        91 -10.9041    159.8964     89.1226   4.8840249460e+01   3.1885388256e+01    0.2331116    0.2197392 -48.69 0.0002911385    1.040    0.038
        92  -9.4927      1.7150     89.6852   1.0424544338e+02   5.8541805610e+01    0.1373464   0.08785623 -51.62 0.0003522502    1.581    0.368
        93  -9.5726     92.1290     87.1684   6.6115181846e+01   4.7470373313e+01    0.2047858    0.1777699  84.74 0.0002442988    1.256    0.204
        94 -10.5990     73.0567     83.1829   7.1826738805e+01   5.2123558934e+01    0.4000906     0.305894 -16.77 0.0006238889    1.767    0.434
        95 -13.3745     65.2608     81.6783   7.4486676155e+01   5.3867901195e+01      0.38417    0.3415187  52.83  0.001014411    1.137    0.121
        96  -9.4355     17.6770     84.6783   9.6429424675e+01   5.8930879956e+01    0.1476098   0.09383809 -43.27 0.0003019041    1.678    0.404
        97 -10.0213      7.6858     83.8870   1.0100082973e+02   5.9789196482e+01    0.3946534    0.1999612 -43.38   0.00177743    2.129    0.530
        98  -9.9585     12.4557     81.2714   9.8431411900e+01   6.0206882569e+01    0.2470885    0.1895329  48.50 0.0006336592    1.338    0.253
        99 -11.0680      8.5325     79.4492   1.0009657493e+02   6.0929497555e+01    0.2605954    0.2011786  41.26 0.0006953957    1.356    0.262
       100 -11.7773     12.3953     76.6045   9.7826268926e+01   6.1460501721e+01    0.4487359     0.246303 -25.30  0.001328795    2.305    0.566
       101  -9.2897    187.6400     82.7444   4.2176901468e+01   2.6779477382e+01    0.1381451       0.1056  21.35 0.0004642527    1.619    0.382
       102  -9.9801    250.2094     80.7782   3.3904755736e+01   1.5035405933e+01    0.1584389    0.1238018  -9.75  0.000621654    1.310    0.236
       103 -10.0373    159.0160     80.0646   4.6445770410e+01   3.3670880890e+01    0.2186964    0.2077012 -49.71 0.0003394547    1.015    0.014
       104 -10.0314     85.8469     78.8817   6.5750454593e+01   5.0677867468e+01    0.4011651    0.3001535  47.34  0.001042215    1.342    0.255
       105  -9.6589     87.5044     75.4524   6.4051763053e+01   5.1121514049e+01    0.2129102    0.1526724  31.69 0.0005803741    1.570    0.363
       106 -10.2316     48.0295     78.9518   8.1152248962e+01   5.7228870763e+01    0.2176846    0.2047393 -54.37 0.0003393388    1.065    0.061
       107 -10.7158     53.0492     75.7049   7.8006263722e+01   5.7335493591e+01    0.3867802    0.2805959  48.98   0.00114272    1.444    0.307
       108  -9.6788     22.5936     76.7973   9.2784794346e+01   6.0652591288e+01    0.1959537    0.1256118 -88.53 0.0003906756    1.591    0.371
       109  -9.1513    240.3571     76.3346   3.3902485773e+01   1.7272287471e+01    0.1233536    0.0884353   8.15 0.0007042044    1.801    0.445
       110  -9.9173    177.1345     76.1342   4.2075151057e+01   3.0140206988e+01    0.2225963    0.1976569   6.61 0.0009158571    1.272    0.214
       111  -9.3671     74.5286     76.5088   6.9224489796e+01   5.3465722163e+01    0.1549444    0.1465532  88.53 4.462549e-05    1.062    0.058
       112  -9.5935     41.9669     77.0000   8.3448366817e+01   5.8542487784e+01     0.237949    0.0841761  27.84 0.0008087133    2.986    0.665
       113 -10.0549     70.1912     74.2897   7.0243097643e+01   5.4807724282e+01    0.4738927    0.2677053  25.63  0.001823573    2.334    0.572
       114 -10.8004     76.1885     71.2674   6.6863966831e+01   5.4380948608e+01     0.587951    0.3227076  39.52  0.002388076    1.871    0.466
       115 -11.9717     81.0337     66.8764   6.3481381468e+01   5.4402655227e+01    0.3121867    0.2811527 -32.82 -0.0009232552    1.169    0.145
       116  -9.0606    191.3898     74.5091   3.9423214366e+01   2.7211942399e+01     0.139603     0.123725 -34.37 9.481869e-05    1.033    0.032
       117  -9.4624    143.6642     74.2803   4.7874364995e+01   3.8337449143e+01    0.1553302    0.1177486 -76.76 0.0007005704    1.616    0.381
       118 -10.0927     34.7496     73.5578   8.6078871842e+01   6.0310129727e+01    0.2584322    0.1783445  38.86  0.001177101    1.499    0.333
       119 -11.2424      4.2763     74.1018   1.0159153760e+02   6.2572821688e+01     0.431198    0.1906534  13.56  0.001883054    2.530    0.605
       120 -11.3940      8.6754     70.0812   9.8813439895e+01   6.3419948441e+01    0.2749132    0.2298114  11.87 0.0009834162    1.350    0.259
       121 -11.8137      5.8989     65.7247   9.9699285148e+01   6.4718137303e+01    0.7015759     0.213003 -57.99  0.002669295    2.646    0.622
       122  -9.9577    151.1956     72.3752   4.5710157407e+01   3.6854114070e+01    0.2025703    0.1445694  71.27 0.0002665163    1.582    0.368
       123 -10.1258    117.6858     71.4968   5.3299142645e+01   4.5134020259e+01     0.360544    0.2342755  25.79  0.001416044    2.256    0.557
       124  -9.6559    105.8831     71.8559   5.6808448061e+01   4.7841171609e+01    0.2131266    0.1746884  71.48 0.0005266411    1.331    0.249
       125  -9.6316     91.9545     70.8960   6.0965814955e+01   5.1184507813e+01    0.2417862    0.1884627 -87.70 0.0007365447    1.615    0.381
       126  -9.5148     70.0074     69.9675   6.8901141376e+01   5.5872378292e+01    0.1771606    0.1691881 -62.45            0    1.025    0.025
       127  -9.6914     46.3926     69.3317   7.9260183336e+01   5.9925733351e+01    0.3360968    0.1773395  35.42  0.001419962    1.927    0.481
       128 -11.9633    211.8106     67.4847   3.4915252087e+01   2.3871460395e+01    0.2390975    0.2153347 -39.35 0.0003395526    1.046    0.044
       129  -9.8491     58.5653     67.1646   7.2893452876e+01   5.8581076032e+01     0.417503    0.1434107 -54.98  0.001376543    2.829    0.647
       130 -10.9744     16.4659     50.3187   9.0463191602e+01   6.8084426306e+01     1.232585    0.2962381  36.21  0.004055399    4.031    0.752
       131 -14.0455     20.6470     58.4076   8.9956686753e+01   6.5665662187e+01    0.5833332    0.3879483 -47.21  0.001044499    1.434    0.303
       132 -11.4969     11.5964     59.5736   9.5479380660e+01   6.6025006718e+01    0.4784296    0.3108674  72.84 7.378168e-05    1.703    0.413
       133 -10.2445     63.3780     63.9203   6.9636495123e+01   5.8518497845e+01    0.3430555    0.2477551 -87.83  0.001514862    1.907    0.476
       134 -10.1112    128.5424     62.9522   4.7629361393e+01   4.4086384847e+01    0.2389095    0.2109327  40.99  0.000380527    1.205    0.170
       135 -11.8155     55.0220     61.0619   7.2447959477e+01   6.0644609926e+01    0.2743341    0.2526266 -25.49 0.0002933785    1.141    0.123
       136  -9.3405    153.5220     60.5871   4.1582300107e+01   3.8245011425e+01    0.1537098    0.1355148 -66.95  0.000108201    1.134    0.118
       137 -10.5358    146.7533     58.9527   4.2344343622e+01   4.0199410144e+01    0.3252916    0.2173787  61.41  0.001294944    1.525    0.344
       138  -9.4818     90.9186     59.3068   5.7112296684e+01   5.3869818375e+01    0.2116644    0.1924189  51.80 0.0003200333    1.098    0.089
       139 -11.2591     58.8960     58.8904   6.9843506140e+01   6.0495739999e+01    0.3284468    0.2095241  40.69  0.001486875    1.600    0.375
       140  -9.4446    229.3616     56.7510   3.0408760542e+01   2.1736001287e+01    0.1787039    0.1064206 -21.83 0.0009398535    1.626    0.385
       141  -9.3000    130.7111     57.2942   4.5166035806e+01   4.4530876889e+01    0.1557558    0.1161894 -69.94 0.0002583292    1.549    0.354
       142 -10.7681     71.9440     57.0696   6.3413608335e+01   5.8436061619e+01    0.2208675    0.2114983 -70.96 0.0003563124    1.057    0.054
       143  -9.8221     68.2958     56.2648   6.4636501871e+01   5.9340381478e+01    0.1492985    0.1457767  88.91 0.0001769852    1.042    0.040
       144 -12.2008     67.2299     52.5433   6.3603245312e+01   6.0364501984e+01    0.5021474    0.2689869  39.04  0.001279589    1.944    0.485
       145 -10.1103     32.7600     56.0207   8.2332942228e+01   6.5052035300e+01    0.3108892    0.1874494 -12.50  0.001296414    2.462    0.594
       146  -9.3604     36.3448     54.3162   7.9761734184e+01   6.5037724053e+01    0.2220776    0.1014779 -40.66 0.0008328885    2.489    0.598
       147  -9.9498     38.5385     51.5190   7.7553806432e+01   6.5433046007e+01    0.2637077    0.1271569 -53.47 6.612846e-05    1.906    0.475
       148 -13.1090    114.6003     53.3449   4.7670551925e+01   4.9294277858e+01     0.370712    0.3244353  59.73 0.0005235329    1.132    0.117
       149 -12.9565    106.3775     50.4435   4.8799547473e+01   5.1869511852e+01    0.4066995    0.3513826 -67.77 0.0004212117    1.221    0.181
       150 -11.4148     86.8059     54.1489   5.6528240241e+01   5.5849627105e+01     0.592637    0.2958751  38.30   0.00213352    2.337    0.572
       151  -9.8588    225.3229     53.3112   2.9953735792e+01   2.2950722056e+01    0.1216154   0.09536029  13.36 0.0003618238    1.653    0.395
       152  -9.5616    197.0000     52.8924   3.2831082241e+01   2.9006131474e+01    0.2347158   0.07089677 -29.49 0.0008071868    2.975    0.664
       153  -9.9438     44.9853     52.4777   7.4372513159e+01   6.4281166139e+01    0.2092962    0.1827301 -48.52  0.000652174    1.095    0.087
       154 -10.0937    148.8467     52.1152   3.9688852899e+01   4.0750113791e+01    0.2293791    0.1927184 -66.58 0.0004551417    1.202    0.168
       155 -10.7437    138.4922     50.0254   4.0958021542e+01   4.3728890016e+01    0.4291197    0.3418041  20.88  0.001287858    1.582    0.368
       156 -10.0629    136.5580     46.5244   4.0106270347e+01   4.4771652405e+01    0.3020035     0.153345  70.27  0.001149826    2.215    0.549
       157 -10.3879    121.3500     51.2488   4.5179486193e+01   4.7942507292e+01    0.2985829    0.2354789  80.82 0.0002803062    1.378    0.274
       158 -11.5130    119.5642     47.4889   4.4192365680e+01   4.9027181823e+01    0.2759275    0.2680699 -58.81 0.0002266889    1.037    0.036
       159  -9.5316    232.6543     49.6826   2.8416548710e+01   2.1945634335e+01    0.1199717    0.0925792  15.11 0.0007048616    1.723    0.420
       160 -10.5758     53.8327     48.4316   6.8169655516e+01   6.3772969593e+01    0.3455415    0.3110755  64.92 0.0008160977    1.222    0.182
       161 -10.8354     74.1208     47.5101   5.8570561509e+01   5.9991249420e+01    0.2781185    0.2541701 -74.62 0.0005322056    1.179    0.152
       162 -10.1185    155.1217     46.9053   3.6872484710e+01   3.9926909392e+01    0.2455188    0.2135191  52.96 0.0004163742    1.224    0.183
       163 -11.0464     79.2344     45.5684   5.5708060954e+01   5.9248999254e+01    0.2739233    0.2541746 -77.13 0.0003003172    1.146    0.128
       164 -10.3668     68.9025     46.2205   6.0184719137e+01   6.1355145810e+01    0.2161855    0.2075948   1.02  0.000642694    1.073    0.068
       165 -10.2827     68.6811     41.0216   5.7914621500e+01   6.2438136501e+01    0.5181527    0.3064579 -76.94   0.00152769    4.840    0.793
       166 -10.8950     26.6056     44.5789   8.2224685913e+01   6.8578851039e+01    0.4371802     0.376366  34.54  0.002529273    1.245    0.197
       167 -10.7807     16.7622     43.0734   8.8232085747e+01   6.9887600171e+01    0.4448315    0.2976789 -82.42  0.001528539    1.623    0.384
       168 -10.8489      1.7740     43.5756   9.8699315865e+01   7.0652428980e+01    0.3697838    0.1739294  85.01  0.001584321    2.421    0.587
       169  -9.6396    220.9752     43.3029   2.7866729780e+01   2.5035152612e+01       0.1697    0.1510423 -51.39 0.0001611506    1.083    0.077
       170 -11.9722    141.8123     41.1891   3.7209253327e+01   4.4189900868e+01    0.2585184     0.236048 -71.38 0.0002876162    1.051    0.048
       171 -10.5618     91.3570     42.6100   5.0118525108e+01   5.6957947043e+01    0.3489853    0.1436393  53.42  0.001238258    2.380    0.580
       172  -9.7980     36.6975     41.9729   7.4911299129e+01   6.7944025724e+01    0.2043593    0.1774801 -46.19 0.0005905057    1.087    0.080
       173 -10.6827    184.4807     40.4328   3.0776031845e+01   3.3525626859e+01    0.3529274    0.2546327 -81.26  0.001847472    1.487    0.328
       174 -10.7126    170.3017     40.2613   3.2488461965e+01   3.7009966887e+01    0.3336115    0.2287088 -75.51 0.0008406764    1.605    0.377
       175 -12.2057    120.9241     37.7690   4.0088795736e+01   5.0190272890e+01    0.6607297     0.388013  35.25  0.001093179    2.238    0.553
       176 -11.6076      4.7305     40.1150   9.5893819857e+01   7.1403363456e+01    0.3622653    0.1581842 -81.61  0.001527605    2.356    0.576
       177  -9.4346     87.3525     39.9149   5.0251956518e+01   5.8397910369e+01     0.202969    0.1432367 -23.43   0.00045283    1.626    0.385
       178  -9.7901     43.7263     39.9240   6.9865837553e+01   6.7353062146e+01    0.1922075    0.1775597 -50.66 0.0003755224    1.079    0.073
       179  -9.3390     77.4528     37.4420   5.2662796662e+01   6.1163998344e+01    0.1474396    0.1434982  25.72 0.0001107412    1.032    0.031
       180  -9.3272    110.7926     41.4250   4.3977908810e+01   5.2274395654e+01     0.202795    0.1398946  49.29 0.0003127315    1.457    0.314
       181 -10.0612     81.7513     35.9893   5.0381193343e+01   6.0414660379e+01    0.2009209    0.1894438 -37.77            0    1.076    0.071
       182 -10.3501     50.0442     34.1890   6.3561147982e+01   6.7481586794e+01    0.3423648    0.2011016 -53.55  0.001294081    1.856    0.461
       183  -9.3248    151.5435     35.4324   3.3580149110e+01   4.2434884805e+01    0.1471958    0.1355912 -68.78 7.931912e-05    1.012    0.012
       184 -10.1374    146.1149     33.5924   3.3783469186e+01   4.4099649351e+01     0.442167    0.1405565 -47.08  0.001373684    3.402    0.706
       185  -9.8294     71.9695     35.5378   5.3900010356e+01   6.2748457410e+01     0.216288    0.1440258  50.66 4.050853e-05    1.494    0.330
       186  -9.3274     40.5531     34.6107   6.9218273411e+01   6.9010965513e+01    0.1374759    0.1308231 -14.85 0.0001495071    1.020    0.020
       187 -10.1970     28.1860     33.5158   7.6719510426e+01   7.1002629374e+01    0.2603626     0.174842 -32.43 0.0007181267    1.560    0.359
       188 -10.3438     19.7674     34.5590   8.3156297735e+01   7.1692383099e+01    0.1727531    0.1232348  37.33 0.0003425058    1.532    0.347
       189 -13.3391      9.2736     29.5758   8.9405339012e+01   7.3745122120e+01    0.4059545    0.3227751  22.05  0.002428362    1.368    0.269
       190 -11.2756    205.9781     32.2419   2.6307004124e+01   2.9543353594e+01    0.2399497    0.1760972 -36.61  0.000343465    1.181    0.154
       191  -9.7003     78.0218     32.5366   5.0059650600e+01   6.1880856674e+01    0.2945799    0.1716708 -68.04 0.0008884314    3.256    0.693
       192 -10.8874     90.0494     30.9017   4.5177413238e+01   5.9217558153e+01    0.4137933    0.2830678  72.35 0.0009315282    1.638    0.389
       193 -11.8611     91.2476     26.7924   4.2832594653e+01   5.9527484795e+01    0.3240439    0.2622707  62.09  0.000266809    1.203    0.169
       194 -11.3248    135.7628     29.2235   3.3884904729e+01   4.7414472158e+01    0.2776995    0.2358549 -67.46  0.000274853    1.152    0.132
       195  -9.5998     38.9832     30.3044   6.7997124551e+01   7.0168301537e+01    0.1863074    0.1708473  10.59    0.0005383    1.092    0.085
       196 -10.7865    145.0806     28.3662   3.2076153224e+01   4.5038525337e+01    0.2926732    0.2699068  19.90 0.0006050944    1.255    0.203
       197  -9.1677     54.4646     29.4684   5.8736150005e+01   6.7556543186e+01    0.1403187    0.1373069  -6.00 2.407711e-05    1.034    0.033
       198 -10.0187     69.1625     27.1327   5.0710491647e+01   6.4827121060e+01    0.2838486    0.2042758 -56.58  0.001358624    1.647    0.393
       199 -11.1080    217.5268     26.1508   2.3793262134e+01   2.7701541796e+01    0.3497887    0.1825413 -59.53  0.001163226    1.882    0.469
       200  -9.9124    106.4783     21.4993   3.6392607586e+01   5.6253559394e+01    0.1937623    0.1413774  81.40 -1.188392e-06    1.426    0.299
       201  -9.8400    102.6383     26.3184   3.9509825025e+01   5.6643868908e+01    0.2466381    0.1942117 -45.18  0.001236758    1.296    0.229
       202 -10.3430    102.9386     22.3229   3.7591945315e+01   5.7091624572e+01    0.3293637    0.2392948  42.55 0.0008867657    1.443    0.307
       203 -10.2629     45.5243     26.4944   6.1948365980e+01   6.9812716297e+01    0.2905867     0.134459 -43.30  0.001198059    2.126    0.530
       204  -8.8830    169.3215     26.6886   2.8325758480e+01   3.8937051001e+01    0.1541768   0.09356287 -59.26 0.0005051365    1.650    0.394
       205  -9.5135     18.5978     26.2698   8.0493319150e+01   7.3732368288e+01    0.2005602     0.119758 -55.00  0.000725606    1.526    0.344
       206 -11.8879     18.3321    247.8998   1.0640267092e+02   2.1683270661e+01    0.2972587      0.21456  23.57    0.0022272    1.439    0.305
       207  -9.2436      7.3318     20.0606   8.7414660936e+01   7.6116880895e+01    0.2711729    0.1473861 -62.14  0.001367648    1.654    0.396
       208  -9.4088    191.6610     25.3114   2.5649735733e+01   3.3615860056e+01    0.1494128   0.08490271 -57.45 0.0007045498    1.691    0.409
       209  -9.6834     51.4797     23.9936   5.7187090496e+01   6.9140486898e+01    0.1938374    0.1210242 -61.97 0.0008086769    2.431    0.589
       210  -9.6199    230.1478    247.1937   6.6558161933e+01  -1.6076444400e+00    0.1221706   0.09116382  11.94 0.0004602193    1.278    0.218
       211  -9.8210    128.1261     23.0874   3.2808672567e+01   5.0228258944e+01    0.2217237    0.1906498  43.55 0.0003240507    1.256    0.204
       212 -10.2297    199.5658     22.0059   2.4051089887e+01   3.2132530945e+01    0.2006125    0.1641134  89.94 0.0006494419    1.250    0.200
       213  -9.9079     80.8098     26.8257   4.6175131980e+01   6.2125949004e+01    0.2138773    0.1976391  19.18 0.0004748348    1.128    0.114
       214  -9.9236    132.0220     20.7221   3.1226784789e+01   4.9453027353e+01    0.2007547    0.1775727  81.27 0.0003039908    1.078    0.072
       215  -9.4153     31.3441     20.7864   6.7752668892e+01   7.3284781100e+01    0.1850203     0.115488 -37.84 0.0002798772    1.564    0.361
       216  -9.0026    112.3055     20.3122   3.4610263593e+01   5.4834869234e+01    0.1523463    0.1088261  34.24 0.0007022716    1.617    0.382
       217 -10.1244     79.6328     20.2054   4.3079532218e+01   6.3373960707e+01     0.310104    0.2289162 -69.77 0.0007496566    1.703    0.413
       218  -9.8351    170.8368    246.8524   7.6305220085e+01   4.8545081697e+00    0.1694618    0.1132993   9.13 0.0009731314    1.298    0.229
       219  -9.8383    116.1279    246.8275   8.6622410329e+01   1.1351304428e+01    0.1638697    0.1232654  40.96  0.001195702    1.221    0.181
       220 -10.1739    188.4158    248.2184   7.3404935287e+01   2.7017142288e+00    0.1153155   0.09689689 -28.63 0.0004678801    1.633    0.387
       221 -10.1402     52.3305    244.5614   9.9400861716e+01   1.8933972119e+01    0.1549158    0.1311299 -34.29  0.001036762    1.712    0.416
       222 -10.5168     38.1451     18.3866   6.1566970914e+01   7.2632732454e+01    0.3618701    0.2423931  57.84  0.001561311    1.969    0.492
       223 -10.6331     39.9031     15.0648   5.8222323782e+01   7.2900986882e+01    0.2662111    0.2255797  -2.70 0.0006533352    1.197    0.164
       224  -9.3093    140.1869     17.9069   2.8935521487e+01   4.7565201525e+01    0.1919608     0.157025  49.22   0.00100989    1.315    0.240
       225  -9.5965     39.6470    243.3128   1.0194360202e+02   2.0431807689e+01     0.122692   0.05380195  49.95 0.0007045312    1.730    0.422
       226  -9.1594    202.3389    241.2887   7.0184693876e+01   1.9025164957e+00    0.1087431   0.06158699   6.69 0.0003195404    1.640    0.390
       227  -9.2662     50.0000     17.9238   5.4244157410e+01   7.0467992875e+01    0.2179368   0.07791592 -37.13 0.0003195215    2.808    0.644
       228  -9.0688     60.6898    240.7210   9.7454487837e+01   1.8675459717e+01    0.1001018   0.07971494   6.75 0.0002544926    1.561    0.359
       229 -10.4080    170.9985     16.0634   2.4767045013e+01   3.9681470645e+01    0.2096754      0.18239 -61.48 0.0003562018    1.018    0.018
       230 -11.3134    160.5731     15.9097   2.5761068277e+01   4.2374784124e+01    0.4124269     0.186049  70.15 0.0008148948    2.126    0.530
       231  -9.2458     59.0342    235.9968   9.7515290950e+01   1.9643484171e+01    0.1352789    0.1025019  43.29 0.0003634809    1.029    0.028
       232  -9.5304    204.1729    235.4128   6.9100245808e+01   2.3300577138e+00    0.1345845   0.08047703  31.88 0.0005959186    1.532    0.347
       233  -9.9830     54.5268    235.5504   9.8444673989e+01   2.0205592415e+01    0.1184389   0.08220749  45.06 5.094715e-06    1.089    0.081
       234  -9.3500    238.8481    234.2000   6.3490780360e+01  -1.2561646118e+00    0.1366743   0.08251981   2.91 0.0004325533    1.275    0.215
       235  -9.9034    197.2071     14.5555   2.2157517688e+01   3.3454947979e+01     0.171628    0.1178169  65.45 0.0004613405    1.589    0.371
       236 -11.4260    207.2911     13.0230   2.1060228476e+01   3.1304703329e+01    0.3427682    0.1775252  78.31  0.001269381    2.028    0.507
       237  -8.9184     69.7227    177.6575   9.0157875773e+01   2.9650136592e+01    0.1254819    0.1014863 -26.20 0.0007004358    1.624    0.384
       238  -9.9980     32.1747    233.1639   1.0307031442e+02   2.2903601634e+01     0.157002    0.1260594  36.65 0.0004509035    1.181    0.153
       239 -10.3613    245.1935    230.0485   6.1974770124e+01  -1.5013627654e+00    0.2811672    0.1053084  29.03  0.001702631    2.299    0.565
       240 -10.6711    140.3808    227.9297   7.9788816076e+01   1.1042377964e+01    0.2360696    0.1873738  63.60  0.001190073    1.832    0.454
       241  -8.9362    152.3177    227.2961   7.7364584832e+01   9.6012196597e+00    0.1155872   0.07586725   5.84 0.0006782412    1.609    0.379
       242 -10.2744     12.4131    226.7666   1.0705124210e+02   2.5870404683e+01    0.1253178   0.09727617 -84.62 0.0003014048    1.501    0.334
       243 -10.4221    220.3407     11.2926   1.9842706570e+01   2.8627155345e+01    0.1140652   0.09300735  33.76 0.0003060845    1.652    0.395
       244  -9.5449    108.7616     11.6389   3.1384048959e+01   5.6760565497e+01    0.2033434    0.1300243  88.15 0.0004711007    1.679    0.404
       245 -11.3472      2.2276    225.0758   1.0917111682e+02   2.7035208725e+01    0.3231215    0.1173177  65.76  0.001265369    2.308    0.567
       246  -9.6016    223.4541    226.5037   6.4748269602e+01   1.1348706779e+00     0.106101   0.07500961   5.40 5.471889e-05    1.008    0.008
       247  -9.1503     61.4594    224.5094   9.6245693650e+01   2.1370286312e+01    0.1198762   0.09090713  43.39 0.0001352584    1.016    0.016
       248 -11.4599      8.5746    218.9050   1.0767622532e+02   2.7655055159e+01    0.3695495    0.1513773 -70.56  0.001439497    2.821    0.646
       249  -9.9269    131.1449    221.2895   8.0867665928e+01   1.3228676382e+01    0.2462703   0.09093856  27.57  0.001075519    2.537    0.606
       250 -10.8290      2.3972    219.6017   1.0903165452e+02   2.8034720764e+01    0.3181041   0.07202719  57.46  0.001413203    3.061    0.673
       251 -10.2540     27.7627    219.6599   1.0346988478e+02   2.5783893771e+01    0.2336707    0.1111707  31.82  0.001321663    1.656    0.396
       252 -10.1737     85.8894    215.0248   9.0004182469e+01   2.0156559400e+01    0.1764029    0.1431465  39.53            0    1.020    0.020
       253  -9.5312    205.4309    211.7248   6.5506457697e+01   4.8840025247e+00    0.1498865   0.08927903 -17.76 0.0009459076    1.633    0.388
       254  -9.6004     20.2865    209.4452   1.0475513727e+02   2.8447683013e+01    0.1657237   0.07887106  40.34 0.0009286252    1.539    0.350
       255 -10.4494     39.4843    207.0674   1.0016254341e+02   2.7043888986e+01    0.2247918     0.177342  51.53 0.0007014659    1.029    0.029
       256 -11.1300      3.1645    206.1307   1.0858167980e+02   3.0570548414e+01    0.2921241    0.1185353  73.30  0.001529164    2.234    0.552
       257  -9.4228    123.9975    205.9758   8.0489770319e+01   1.6656686490e+01    0.1447812    0.1164583  29.36 0.0009279693    1.024    0.023
       258  -9.4502    193.7996    201.3920   6.5927528645e+01   7.6621867940e+00    0.1655498   0.09097516  22.74  0.000601362    1.662    0.398
       259 -10.7395      4.5130    201.0369   1.0815107164e+02   3.1484074320e+01    0.1641823    0.1010387  87.00 0.0006818314    1.581    0.368
       260  -9.6593     18.5508    194.9791   1.0459699391e+02   3.1540437459e+01    0.1734868    0.1077717 -88.18   0.00103758    1.623    0.384
       261  -9.8807     13.5340    180.7793   1.0528232223e+02   3.5030607020e+01    0.2728038   0.09380421  81.31  0.001120389    3.080    0.675
       262  -9.7027     86.4542     10.4051   3.5722252596e+01   6.2840218263e+01     0.142194    0.1335971  75.68 -4.558929e-05    1.046    0.044
