#   1 NUMBER                 Running object number                                     
#   2 MAG_AUTO               Kron-like elliptical aperture magnitude                    [mag]
#   3 X_IMAGE                Object position along x                                    [pixel]
#   4 Y_IMAGE                Object position along y                                    [pixel]
#   5 X_WORLD                Barycenter position along world x axis                     [deg]
#   6 Y_WORLD                Barycenter position along world y axis                     [deg]
#   7 A_WORLD                Profile RMS along major axis (world units)                 [deg]
#   8 B_WORLD                Profile RMS along minor axis (world units)                 [deg]
#   9 THETA_WORLD            Position angle (CCW/world-x)                               [deg]
#  10 FWHM_WORLD             FWHM assuming a gaussian core                              [deg]
#  11 ELONGATION             A_IMAGE/B_IMAGE                                           
#  12 ELLIPTICITY            1 - B_IMAGE/A_IMAGE                                       
         1 -16.3479     22.4000    132.9674   1.2965039879e+02   4.4900670122e+01     4.489011       3.2828  36.53   0.02946686    1.667    0.400
         2 -11.9851      6.7398      4.4643   1.0599156748e+02   7.0509894307e+01    0.7045918    0.4547177  -0.93  0.005346863    1.486    0.327
         3 -10.3053     30.0937      8.7795   9.7702483448e+01   6.7926512482e+01    0.2120915    0.1305733   0.96  0.001385523    1.617    0.382
         4  -9.8697     40.8734      3.5781   9.1133992939e+01   6.7405853568e+01    0.3224179    0.1250603 -37.04  0.001668986    2.451    0.592
         5 -10.5480     19.3849    215.0636   1.3745345068e+02   2.8751558951e+01   0.08254034   0.04624078  39.00 0.0005344197    2.067    0.516
         6 -13.8151    242.9560    232.6967   1.0016287094e+02  -9.1207912074e+00     2.836947     1.174388 -29.82  0.002804205    2.786    0.641
         7  99.0000     32.2914    186.5702   1.3312606672e+02   3.2844879223e+01    0.8109659    0.4194761  67.62  0.004809278    1.841    0.457
         8 -16.8988    105.7976    229.1573   1.2409957001e+02   1.4941145712e+01     2.996103     2.705572  -7.87    0.0195832    1.853    0.460
         9 -17.8256     73.2122    245.3545   1.3109224887e+02   1.6965350974e+01     5.555633     1.705421  47.68     0.025778    2.499    0.600
        10 -17.7953     59.9225    234.3416   1.3233975683e+02   2.0604657500e+01      1.87952     1.298491  89.88   0.01377452    1.254    0.203
        11 -10.4752      1.3225    211.5830   1.4006648522e+02   3.1117164480e+01    0.1501197    0.0687445 -80.24 0.0009967501    1.702    0.412
        12 -11.2392     15.8510    210.2981   1.3771293445e+02   2.9978972868e+01    0.1149567    0.1037016  58.01 0.0009820196    1.559    0.359
        13 -10.9128     53.7146    208.2614   1.3119985603e+02   2.6146144472e+01    0.1429502     0.107517  82.47 0.0003476411    1.046    0.044
        14 -10.5463     21.7062    206.6647   1.3652168317e+02   3.0065142656e+01   0.09427644   0.07333806 -77.08  0.000729912    1.364    0.267
        15 -11.4965     17.6829    205.6996   1.3711667336e+02   3.0649985890e+01    0.1135531   0.07316628 -61.70 0.0007972945    1.809    0.447
        16  99.0000     19.9733    202.7588   1.3653815048e+02   3.0973710683e+01    0.1940839    0.1269885  46.96  0.001422922    1.596    0.373
        17  -8.8709    163.5974    201.5347   1.0951280210e+02   9.6703298693e+00    0.2488021    0.2079246  71.09 0.0005814544    1.268    0.212
        18 -11.4620     10.5970    200.6901   1.3794853834e+02   3.2270223196e+01   0.09489301   0.07433865  86.70   0.00076475    1.187    0.157
        19  -8.4824     20.0951    198.1372   1.3619074479e+02   3.1838556354e+01    0.1946526   0.07133288 -74.43  0.001058107    2.244    0.554
        20  99.0000     26.8324    194.3888   1.3474860758e+02   3.1878497897e+01    0.3338686    0.2210465  78.56   0.00238514    1.189    0.159
        21  99.0000     20.7488    194.1298   1.3578583725e+02   3.2542986898e+01    0.3300671   0.08617856  49.83  0.001580429    3.257    0.693
        22  -7.9085    193.5023    197.0195   1.0293546600e+02   4.6524528154e+00    0.1691266    0.1196291 -73.17 0.0006768845    2.327    0.570
        23 -14.4096     78.7576    202.0086   1.2603216667e+02   2.4009655135e+01     1.621799     1.185035   2.06  0.008114353    3.523    0.716
        24  -7.8015    193.6481    191.8434   1.0196787426e+02   5.4664654598e+00    0.1821963    0.1277944 -53.63 0.0009382193    1.760    0.432
        25  -7.8616     92.7774    187.3575   1.2153558452e+02   2.4836542190e+01     0.126805   0.08509222  84.75 0.0004128688    1.564    0.360
        26 -11.1214      6.3948    186.3496   1.3770198200e+02   3.5379998104e+01    0.1421155   0.07619309 -78.30 0.0009543436    1.443    0.307
        27  -8.5761     83.1326    185.8324   1.2327377873e+02   2.6598293887e+01    0.2007781    0.1156738  78.64 0.0008780865    2.066    0.516
        28 -11.7824     42.2394    183.3612   1.3098093758e+02   3.2402405835e+01    0.2435063    0.1682165  34.81  0.001598773    1.826    0.453
        29 -10.7737     20.8425    184.8769   1.3505788391e+02   3.4338933999e+01   0.07122765   0.05964965  87.05            0    1.213    0.176
        30  -8.1460     92.8861    182.0468   1.2079867201e+02   2.5901759202e+01    0.1774181    0.1398557  75.46            0    1.143    0.125
        31 -10.0744     16.8342    182.3750   1.3557954886e+02   3.5213539245e+01    0.1035559   0.06679448 -85.55 0.0001807011    1.185    0.156
        32  99.0000     57.5001    199.9594   1.2975197601e+02   2.7271213996e+01     3.322452     1.748774  43.14   0.01945077    1.879    0.468
        33 -15.2565     84.8000    212.5109   1.2605817261e+02   2.1131653566e+01     1.048279    0.6127292  84.00  0.005855953    1.874    0.466
        34  -7.6853     86.1633    178.6002   1.2171260529e+02   2.7636535484e+01    0.1244363   0.08047553 -84.39 0.0003483452    1.608    0.378
        35 -10.7783     44.6178    177.2062   1.2990981435e+02   3.3387106783e+01    0.1602983    0.1349642  77.36 0.0002851268    1.136    0.120
        36  -8.2507     92.5572    174.7316   1.1984017525e+02   2.7467885400e+01    0.1845866    0.1767252  13.33 0.0006306414    1.411    0.291
        37  -9.5422     94.6351    170.3581   1.1875705106e+02   2.8061065812e+01    0.3634549    0.2783357 -32.99  0.001493364    1.895    0.472
        38 -11.4943     39.1430    172.5840   1.3050825300e+02   3.4946181106e+01    0.3384524    0.1619546 -71.25  0.001598219    1.763    0.433
        39 -10.0640     36.0199    174.2632   1.3128623574e+02   3.4935760357e+01    0.1569868    0.1223344  87.29 0.0002671717    1.016    0.015
        40 -11.5711     30.8951    174.4652   1.3229384240e+02   3.5427798942e+01    0.1681661    0.1217951 -80.44 0.0003228666    1.128    0.113
        41  -9.6050    175.4162    172.2110   1.0188533350e+02   1.2584734571e+01    0.3162123    0.2786428  51.42 0.0006481252    1.066    0.062
        42  -8.4909    196.8085    171.4744   9.7419632383e+01   8.2771651880e+00    0.2454097    0.1994802 -39.68 0.0005744077    1.327    0.247
        43 -10.5264     48.1627    171.5891   1.2860913431e+02   3.4142044848e+01    0.1721961    0.1302326 -85.08 0.0003023691    1.082    0.075
        44  -9.1386     24.8241    172.7534   1.3329622774e+02   3.6380018862e+01   0.09388544   0.06491347 -67.90            0    1.348    0.258
        45 -11.3059     23.8450    168.9171   1.3313503030e+02   3.7255401580e+01    0.1971005    0.1331041  58.49 0.0004048623    1.427    0.299
        46  -7.8281    155.4750    168.4680   1.0533112614e+02   1.7379169079e+01    0.1433738    0.1326772  55.85   0.00010298    1.009    0.009
        47  -8.0577     76.8689    167.6815   1.2217048638e+02   3.1282746713e+01    0.1695162    0.1329529  60.99 0.0006220749    1.210    0.174
        48  -7.9517     58.2161    168.8033   1.2623606851e+02   3.3519921966e+01    0.1052823   0.07470202  75.82            0    1.308    0.235
        49  99.0000     22.3160    245.9185   1.3882225904e+02   2.3076205662e+01    0.2052316   0.06682527  77.70 0.0008891886    4.348    0.770
        50  -8.5357    248.8584    159.1483   8.5145431594e+01  -2.7385202314e-01    0.1918908    0.1869099  -6.14 0.0005509043    1.178    0.151
        51  -8.8128    169.9615    157.3373   1.0002704900e+02   1.6545118059e+01    0.3416886    0.2203884 -49.02  0.001215617    1.662    0.398
        52  -8.4353    110.3812    157.5190   1.1320577145e+02   2.8187638716e+01     0.227853    0.1985127  66.68 0.0005566785    1.085    0.078
        53  -9.6856    104.3131    154.4123   1.1403403878e+02   2.9891637308e+01    0.3854865    0.2941082  57.64  0.001385008    1.284    0.221
        54 -13.0613     67.6410    143.7307   1.2071367938e+02   3.7721130773e+01    0.9973599    0.5677497  67.96  0.003332799    2.258    0.557
        55  -9.4622     50.0626    165.6781   1.2755051759e+02   3.5160178288e+01    0.1681755    0.1348444 -88.76 0.0003046413    1.007    0.007
        56  -9.9770    216.5847    152.2041   8.9493204937e+01   7.4358226473e+00    0.2544203     0.236088  44.60 0.0003585083    1.103    0.093
        57  -7.7378    114.4745    153.1749   1.1149747932e+02   2.8398878231e+01    0.1871593    0.1289431 -72.21 0.0007434636    1.590    0.371
        58  -8.5291    133.9977    145.7468   1.0557773642e+02   2.6320058294e+01    0.3531415     0.195577 -60.19  0.001479849    2.074    0.518
        59  -8.0450     38.2166    166.0844   1.3001633903e+02   3.6393813807e+01    0.1457859    0.1068155 -85.53            0    1.095    0.087
        60  -8.8893    102.2048    145.7395   1.1296640880e+02   3.2126950254e+01     0.312675    0.1949249  65.47    0.0014627    1.940    0.485
        61  -8.2848     27.6752    165.7733   1.3208963060e+02   3.7531783941e+01    0.1250712   0.09245795  80.86 0.0002274286    1.135    0.119
        62  -9.2325    161.6270    128.1453   9.5368473331e+01   2.4163053312e+01     0.440354    0.3131393 -83.56  0.001868365    2.098    0.523
        63  -8.4849    168.2236    114.1027   9.0462085987e+01   2.5467541696e+01    0.2987423    0.2067411  79.12  0.001227531    2.099    0.524
        64  -8.2849    116.8357    108.9331   1.0148566528e+02   3.7501555879e+01    0.2469342    0.2068204  41.04 0.0006619017    1.239    0.193
        65  -9.1238    196.5841    107.1305   8.2726277439e+01   2.0074849167e+01    0.2818017     0.242106  45.97 0.0004688336    1.152    0.132
        66  -7.9951    135.0186    105.6997   9.6095119057e+01   3.4536209969e+01    0.2121692    0.1959576  53.25  0.001141807    1.094    0.086
        67  -7.4845    223.6890     96.3059   7.4979829875e+01   1.5480386587e+01    0.1511711    0.1150689 -70.93 0.0005057401    1.616    0.381
        68  -7.8499    122.5051     95.5919   9.6606349319e+01   3.9165004718e+01    0.1428675     0.141059 -13.46 8.788813e-05    1.018    0.018
        69  -8.5668     91.0902     93.3056   1.0446429861e+02   4.5308685583e+01    0.1772844    0.1752995  52.23 0.0002522216    1.099    0.090
        70  -7.8843    176.0614     87.5069   8.1742900027e+01   2.8634678663e+01    0.2298049    0.1511166  55.29 0.0005054795    1.514    0.339
        71  -7.8319    104.2461     82.3905   9.7877569577e+01   4.5282060041e+01    0.1878815    0.1336719  52.72 0.0009360915    1.599    0.375
        72  -9.3562    156.0184     78.1459   8.3501135674e+01   3.5149668484e+01    0.3076855    0.2404547 -24.32            0    1.378    0.274
        73  -8.4990    232.0417     78.9519   6.9294992157e+01   1.6330603673e+01    0.2126889    0.2054459 -70.58 0.0003035249    1.013    0.013
        74  -8.2054    146.0152     76.6264   8.5389329331e+01   3.7753516391e+01    0.3135405    0.1683173 -24.98  0.001182453    2.408    0.585
        75  -8.1438     81.7934     77.1608   1.0285496060e+02   5.0035638301e+01    0.1963719    0.1788923 -66.85 0.0008264791    1.239    0.193
        76  -7.5819    141.2906     76.2988   8.6429583511e+01   3.8885726721e+01     0.149338    0.1164174  10.50 0.0002563928    1.561    0.359
        77  -7.9568    120.0079     66.6359   8.8921755350e+01   4.5200298409e+01     0.196418    0.1788653  33.00 0.0004553992    1.095    0.086
        78  -8.7134    248.1337    163.6002   8.6212313943e+01  -8.0712621811e-01    0.2552239    0.1285071  50.36  0.001133824    2.139    0.533
        79 -11.4957    161.6726     52.3755   7.4610989292e+01   3.8038809744e+01    0.6308089    0.4671386  37.58   0.00179966    1.379    0.275
        80  -8.1699    131.1671     49.3049   8.0544260831e+01   4.5677935279e+01    0.2354657    0.1870658 -13.76 0.0004637531    1.325    0.245
        81 -11.6990    173.0046     47.0280   7.0754332732e+01   3.5998149629e+01     1.053933    0.6065007  17.72  0.003649612    3.165    0.684
        82 -11.3800    174.1815     37.2070   6.7622597353e+01   3.7048380278e+01    0.7397926    0.5838076  67.45  0.003460097    1.230    0.187
        83 -10.8379    179.7041     29.5805   6.4424686222e+01   3.6615988442e+01    0.6799723    0.4773241   5.35  0.002380084    1.901    0.474
        84  -8.0734     62.9909     34.5041   9.5357348836e+01   6.0306770128e+01    0.1822707    0.1411248 -24.05 0.0004505561    1.108    0.097
        85  -7.9544    226.2076     30.9948   5.8139629655e+01   2.4665385638e+01    0.1792299    0.1090179 -32.51 0.0003945189    1.703    0.413
        86  -8.4878     43.0605     22.9545   9.8242380358e+01   6.4534893706e+01    0.1872238      0.11622 -10.60 0.0008295766    1.650    0.394
        87  99.0000      7.5513    220.5502   1.3960908031e+02   2.8934177060e+01    0.1874154   0.07171829  50.68  0.001181653    2.118    0.528
        88 -10.4506     16.3479    216.5642   1.3802578943e+02   2.8786208009e+01   0.09872162   0.08436641  82.35 0.0008350188    1.382    0.276
