#   1 NUMBER                 Running object number                                     
#   2 MAG_AUTO               Kron-like elliptical aperture magnitude                    [mag]
#   3 X_IMAGE                Object position along x                                    [pixel]
#   4 Y_IMAGE                Object position along y                                    [pixel]
#   5 X_WORLD                Barycenter position along world x axis                     [deg]
#   6 Y_WORLD                Barycenter position along world y axis                     [deg]
#   7 A_WORLD                Profile RMS along major axis (world units)                 [deg]
#   8 B_WORLD                Profile RMS along minor axis (world units)                 [deg]
#   9 THETA_WORLD            Position angle (CCW/world-x)                               [deg]
#  10 FWHM_WORLD             FWHM assuming a gaussian core                              [deg]
#  11 ELONGATION             A_IMAGE/B_IMAGE                                           
#  12 ELLIPTICITY            1 - B_IMAGE/A_IMAGE                                       
         1 -14.7379    105.9439    104.8654   5.7779303526e+01   4.0365680931e+01     1.359772      1.17431  63.96   0.00570447    1.192    0.161
         2 -15.0032      6.2974     70.8684   9.2137262978e+01   6.3928027778e+01     1.182327    0.9082494 -69.13  0.005675789    1.166    0.142
         3 -14.7255    188.6233     23.3988   1.8314220408e+01   3.5588382217e+01     1.555927      0.76214 -49.61   0.00767822    1.681    0.405
         4 -13.2205      7.8688      2.6331   6.5828002536e+01   8.0296222197e+01    0.6690835    0.5078084  46.55  0.004047405    1.602    0.376
         5 -15.9388     11.2422     23.4152   7.5705071000e+01   7.5657343902e+01     2.073733     1.190265 -37.92  0.008170513    1.721    0.419
         6 -14.0117    122.0808     36.8676   3.1305277588e+01   5.0105617766e+01     1.075272    0.6019922  40.32  0.003071926    2.394    0.582
         7 -13.1841     43.6505     32.6427   5.6662732756e+01   6.9149180659e+01    0.9307386    0.6950645  38.02  0.004895218    1.342    0.255
         8 -14.7431    166.4742     28.8477   2.1975083491e+01   4.0068190265e+01     1.064673    0.8640084 -83.69  0.003997498    1.170    0.145
         9 -13.6961    216.6817     28.4006   1.7524669688e+01   2.9067899624e+01     0.739781    0.3480097 -52.52  0.003786342    1.740    0.425
        10 -14.6396    217.8295     12.0264   1.3509910482e+01   3.0658430621e+01     1.171334    0.9902989 -33.59  0.006110994    1.283    0.221
        11 -12.9238    120.4947     25.7551   2.7314149219e+01   5.2052002037e+01    0.6981801    0.5320903  45.15  0.003439069    1.495    0.331
        12 -14.7552    147.4536     29.2100   2.4397430740e+01   4.4695888973e+01     1.286131    0.9699009 -87.24   0.00464851    1.281    0.219
        13 -15.2244     99.0317     11.4627   2.5176922536e+01   5.9346595848e+01      1.51176    0.9858219  68.07  0.004158248    1.419    0.295
        14 -12.7265     86.1852     14.4533   2.9491228564e+01   6.2341555930e+01     0.796697    0.4220516 -57.13  0.003310862    2.320    0.569
        15 -11.6022     70.9463     16.4062   3.4986262434e+01   6.5912103513e+01    0.2857119     0.229476 -35.32 0.0007784587    1.297    0.229
        16 -12.3105     60.2439     15.1672   3.8201057156e+01   6.8619051737e+01    0.5680916    0.3321829  37.39  0.002211551    1.920    0.479
        17 -11.6323    175.9129     13.8158   1.6609811143e+01   3.9576017042e+01    0.2307058    0.1546789 -50.31 0.0002426256    1.237    0.192
        18 -11.8592     46.8586     12.8951   4.2840073109e+01   7.1917560716e+01     0.322003    0.2799404  72.16  0.001289406    1.281    0.219
        19 -13.9131     41.8412      4.3865   3.9228231109e+01   7.4123716615e+01    0.7315577    0.6033735  21.95  0.003506209    1.239    0.193
        20 -11.3202    122.9549     10.5012   2.0881716083e+01   5.3171374658e+01    0.3324474    0.1915126 -65.57  0.001227537    1.788    0.441
        21 -12.2975    152.7114      8.8909   1.7014494297e+01   4.5707303690e+01    0.3168252    0.2868733  45.29  0.001948731    1.364    0.267
        22 -11.9629     75.1489      9.1408   2.9556515596e+01   6.5736527663e+01    0.3442544    0.2953454   5.83  0.001966081    1.329    0.248
        23 -13.5301    187.8304     10.8878   1.4935648058e+01   3.7151825868e+01    0.6721398    0.4300099 -26.97  0.003316093    1.569    0.363
        24 -10.8007     80.4237      7.3047   2.7139880027e+01   6.4593372241e+01    0.1858155    0.1251696 -39.33  0.000714273    1.532    0.347
        25 -12.1395    118.5038      2.3850   1.8166706361e+01   5.5107709748e+01    0.4443881     0.227411 -79.61  0.001933361    2.068    0.517
        26 -11.1636     67.6127      2.7393   2.7886672282e+01   6.8270118918e+01    0.3033262    0.1921848  36.74  0.001500671    1.719    0.418
        27 -11.3397    232.5816      1.7666   1.0503397389e+01   2.8838930835e+01    0.1976759    0.1407465 -78.63  0.001148284    1.374    0.272
        28 -14.5344     27.1712     11.7093   5.4518502265e+01   7.5896156138e+01     1.000542    0.7215875  -3.13  0.005351225    1.712    0.416
        29 -11.7793     77.6710      2.0781   2.4874252172e+01   6.5795192667e+01    0.9205851          nan  61.10  0.002393717    5.392    0.815
        30 -11.3165     61.3190      1.4515   2.8975459939e+01   6.9941157316e+01    0.3674128    0.1228378  65.56  0.001364442    2.759    0.638
        31 -12.9126     73.5252    153.2188   7.7598726226e+01   3.3909557694e+01    0.6922744     0.493167  19.86   0.00238753    1.569    0.363
        32 -12.9248    107.7624    246.1705   8.0022671135e+01   1.0391331795e+01    0.5653848       0.4526  70.94  0.003995096    1.671    0.402
        33 -13.7709     97.6361    239.3296   8.1518164984e+01   1.2641273144e+01     0.696862     0.530021  33.00   0.00478262    1.066    0.062
        34 -14.0062     91.2884    231.5762   8.2185345330e+01   1.4701916932e+01    0.5649322    0.4940137 -41.09  0.004004273    1.381    0.276
        35 -12.9870     50.9796    248.3748   9.2226494135e+01   1.6103230695e+01    0.7557151    0.4613228  -4.59  0.004145333    2.596    0.615
        36 -13.1090     28.5700    246.1961   9.6927491631e+01   1.8647104250e+01    0.4460801     0.287685  57.84  0.003014268    1.336    0.252
        37 -12.2436      2.9430    249.5171   1.0240545007e+02   2.0273503660e+01    0.4028015    0.1954783  36.49  0.001786327    1.432    0.302
        38 -13.7709      9.5065    245.7445   1.0096271649e+02   2.0410553816e+01    0.8949063    0.3249967  43.97  0.003808284    1.801    0.445
        39 -12.7865      8.1223    149.7768   9.8055635135e+01   4.2041801379e+01    0.7273838    0.3753732  59.11  0.003405046    1.722    0.419
        40 -11.0114     12.6508    148.6808   9.6527839252e+01   4.1988592951e+01    0.1906466    0.1638096  89.22 0.0008430386    1.113    0.102
        41 -12.2588     60.2960    147.4314   8.0859389903e+01   3.7237476135e+01    0.4179413    0.3007241  10.91  0.001989359    1.707    0.414
        42 -11.3023    103.3298    149.8533   6.8421363250e+01   3.0092936870e+01    0.3696566    0.2261673 -36.91  0.001332131    1.986    0.496
        43 -12.2608    245.9940    134.4380   3.7694407343e+01   9.8600587651e+00    0.2509198    0.1825552 -83.20  0.001439952    3.075    0.675
        44 -12.1422    136.4922    132.3037   5.6283014294e+01   2.8168950154e+01    0.4860728    0.2261547  37.17  0.001900097    2.323    0.570
        45 -12.4692     44.1941    132.6087   8.4209385585e+01   4.3256759355e+01    0.2738316    0.2183497  -8.41  0.001058898    1.600    0.375
        46 -14.0947    105.4868    120.7834   6.1831927419e+01   3.6655076595e+01     1.478904     1.226447  31.88  0.007419567    1.288    0.223
        47 -13.5531    171.2060    242.7387   6.7267565837e+01   3.8836157858e+00    0.4479907    0.3151224  12.46   0.00326337    1.118    0.105
        48 -13.0322      5.6054    118.3285   9.7114275156e+01   5.0750051369e+01    0.9625211    0.5382268 -62.54  0.004388185    1.722    0.419
        49 -12.2328     48.9043     93.1487   7.5362974416e+01   5.3539058670e+01    0.4933321    0.3501818  63.52  0.002015622    1.549    0.354
        50 -12.6695     42.3994     90.4852   7.7614342530e+01   5.5146784121e+01     0.383971    0.3098677 -89.08 7.302099e-05    1.246    0.197
        51 -14.6712     24.5503     93.1184   8.6274814314e+01   5.6398627234e+01     1.661753     1.411673 -42.52  0.008985305    1.258    0.205
        52 -12.1486     36.9503     92.9013   8.0570830573e+01   5.5153630095e+01    0.4209305    0.3137767  -2.16  0.001257321    1.690    0.408
        53 -13.6350      2.2594     96.9565   9.6958571297e+01   5.6896846995e+01     1.199394    0.4389771  88.39  0.004131882    2.675    0.626
        54 -14.1583     18.3493    111.7485   9.1456517092e+01   5.1687309608e+01    0.8104426    0.6500813 -20.02  0.002981872    1.508    0.337
        55 -14.0993     11.7318    102.3257   9.3252393095e+01   5.4832993342e+01     1.059835    0.6957728 -84.29    0.0041553    1.382    0.276
        56 -11.5188     88.0605    109.1592   6.4447204381e+01   4.2799875238e+01    0.4085546     0.272275 -68.30  0.001763267    1.625    0.385
        57 -12.4543     78.7070    110.2284   6.7853872968e+01   4.4214458599e+01    0.5703346    0.3886477 -81.21  0.002446793    1.746    0.427
        58 -12.0496     86.5575    114.9173   6.6302877281e+01   4.1613991025e+01     1.024756    0.5464596  14.34  0.002936172    4.553    0.780
        59 -12.4733     82.2031    115.3956   6.7848887136e+01   4.2264490055e+01    0.4563024    0.3329942  35.18  0.002076235    1.416    0.294
        60 -11.9313    121.6887    111.9714   5.5213462599e+01   3.5524828770e+01    0.2898513    0.2287769  53.12 0.0007851133    1.314    0.239
        61 -11.8895     63.2584    110.6534   7.3489038178e+01   4.6655381959e+01    0.5621457    0.3993776  77.19  0.002519254    1.620    0.383
        62 -10.7388     46.1882    109.9922   7.9920837933e+01   4.9261850803e+01    0.2620353     0.152307 -43.68  0.001076031    1.973    0.493
        63 -11.2480     42.7860    106.6753   8.0689103894e+01   5.0614119870e+01    0.2814099    0.2256457 -22.18  0.001183946    1.535    0.348
        64 -12.5126    136.3194    103.2234   4.9303213860e+01   3.4391884164e+01    0.5212004    0.3166014  53.41  0.001852789    1.771    0.435
        65 -13.2497     28.8400    121.8769   8.8471264580e+01   4.7903838103e+01      0.77388    0.3883713 -62.65  0.003276694    1.866    0.464
        66 -12.1956     61.6242     97.7430   7.1202714574e+01   5.0382299728e+01    0.5942289    0.3814841  75.26  0.001926639    2.068    0.516
        67 -11.9039    163.6316     97.7147   4.2079284235e+01   2.9729084166e+01     0.288993    0.2463652 -61.43 0.0005345291    1.176    0.150
        68 -13.0476    136.9743     94.7363   4.6866043901e+01   3.6011069273e+01    0.5241727    0.4398507 -89.79  0.001950612    1.332    0.249
        69 -11.9310    181.0280    120.5144   4.4381760354e+01   2.2188324061e+01    0.1923637    0.1369158  46.88 0.0009169496    1.578    0.366
        70 -11.4166    129.5792     96.2567   4.9051646122e+01   3.7305649436e+01    0.2831085    0.1922421  62.45   0.00126004    1.673    0.402
        71 -11.3672     35.0757     86.6752   8.0149065661e+01   5.7095149958e+01    0.3396692    0.1962584 -55.56  0.001043122    1.631    0.387
        72 -13.2496    188.4908     83.8887   3.4403187873e+01   2.7027314544e+01    0.5518423    0.3484176  42.26  0.002299566    1.994    0.499
        73 -13.1800    187.2992     79.0301   3.3346977613e+01   2.8055473633e+01    0.3291345    0.2582038 -44.19  0.001262033    1.091    0.084
        74 -11.9966    158.5343     64.4498   3.3822365274e+01   3.6753800379e+01    0.7842261    0.2510887 -47.67  0.002559232    3.138    0.681
        75 -13.4174    163.8985     71.4769   3.4947435678e+01   3.4347658528e+01     1.144627    0.5017721  49.88   0.00453682    2.587    0.613
        76 -13.4278    161.1055     80.5557   3.7971262167e+01   3.3395318789e+01    0.9549268    0.6082926  19.14   0.00323012    3.189    0.686
        77 -14.4806    169.3680     77.1081   3.5599758067e+01   3.2177566832e+01     1.240565    0.6209333  51.88  0.004234911    2.212    0.548
        78 -12.6716    237.2377     80.0785   2.7636885051e+01   1.8644679398e+01    0.3507538    0.2252839 -82.65  0.002005268    2.298    0.565
        79 -12.2136     40.5609     68.0773   7.2715784121e+01   6.1390163655e+01    0.9921399    0.2562333  32.96  0.003034981    3.646    0.726
        80 -13.3094     65.9742     49.1059   5.3398949113e+01   6.1448235863e+01     1.032531    0.7050498 -45.86   0.00486314    1.461    0.315
        81 -13.8824     55.5828     65.8757   6.4616784864e+01   5.9606952651e+01     1.653708     1.125374 -25.69  0.007130101    2.008    0.502
        82 -13.4953     92.0469     57.2815   4.6988434706e+01   5.4009714800e+01    0.5725695     0.529779 -54.32  0.001656737    1.073    0.068
        83 -13.6509     87.4144     65.2700   5.1519372553e+01   5.3399394606e+01     1.071836     0.716179  19.04  0.003939628    2.527    0.604
        84 -12.6937     54.8135     81.2554   6.9756263229e+01   5.5834402474e+01    0.7091168    0.4828264 -48.30  0.003123492    1.475    0.322
        85 -13.9081     61.2937     75.6227   6.5254125999e+01   5.6196297252e+01      0.81954     0.601446 -37.13   0.00137329    1.532    0.347
        86 -13.1846     70.9888     75.2106   6.1093820206e+01   5.4518615784e+01     0.625288    0.4977519   1.25  0.001650886    1.725    0.420
        87 -12.1661     77.1573     73.0934   5.7985977883e+01   5.3809429500e+01    0.5934134    0.3459534 -34.58  0.001942714    2.202    0.546
        88 -12.6675    216.3751     80.6890   3.0003258865e+01   2.2172556565e+01    0.4439025    0.3627463 -34.58  0.002598762    1.100    0.091
        89 -12.7131    210.5745     76.9712   2.9811310888e+01   2.3790403450e+01    0.5332235    0.2979822 -55.41  0.002690834    1.842    0.457
        90 -11.9775    114.0450     80.0411   4.8319999219e+01   4.4214041580e+01    0.4827833    0.3468625 -53.36  0.001731792    1.361    0.265
        91 -12.5910    135.2686     79.3326   4.2828890295e+01   3.9479053585e+01    0.7375424    0.3821559  58.40  0.002955354    2.095    0.523
        92 -11.0312     42.5204     79.4837   7.4921667676e+01   5.8115708382e+01    0.3042245    0.2025182 -43.00  0.001155033    1.600    0.375
        93 -11.1758     41.7661     75.9819   7.4360222747e+01   5.9151618108e+01    0.3208236    0.2136005 -60.85 0.0007161974    1.415    0.293
        94 -11.4186    147.4923    238.9960   7.1261774019e+01   6.9974699785e+00      0.12937    0.1012415  81.35 0.0008095542    2.458    0.593
        95 -14.3134      4.5891     63.0793   9.1973617730e+01   6.6131407075e+01     0.878695    0.7215738  -8.90  0.004536985    1.346    0.257
        96 -12.4860     49.8276     98.5658   7.6180254894e+01   5.1929138507e+01    0.9423339    0.5484946  17.24    0.0038083    2.182    0.542
        97 -11.4310     27.1146     75.2180   8.1598854686e+01   6.1107398037e+01    0.5660385    0.2818075  84.73  0.002009555    2.944    0.660
        98 -12.5395    214.6069     71.2658   2.8004825364e+01   2.3861858464e+01    0.3149182    0.2200631 -64.62  0.001835596    1.516    0.340
        99 -10.5467     97.8251     84.1870   5.4390025800e+01   4.6897498395e+01    0.2154924    0.1937541   2.42  0.001070335    1.369    0.270
       100 -13.7045    199.3558     69.7997   2.9415272787e+01   2.7036950274e+01    0.6666768    0.4622939  48.72  0.002731795    1.778    0.438
       101 -13.0844    133.8540     65.8144   3.8948259672e+01   4.2364032389e+01    0.8554705    0.7091263   0.41  0.003584043    1.642    0.391
       102 -11.0430    117.8010     72.0700   4.4774006021e+01   4.4989884947e+01    0.2615711    0.2269139  60.63 0.0007212879    1.173    0.147
       103 -11.4872     99.5684     64.5623   4.7323792120e+01   5.0785931762e+01    0.3920732    0.2666451 -72.25  0.001654773    1.882    0.469
       104 -12.0089    200.0553     61.6146   2.7278087510e+01   2.8097471849e+01    0.2919841    0.2448589 -39.26  0.001199135    1.109    0.098
       105 -13.0484     79.0311     60.0972   5.2609519249e+01   5.6350295675e+01     0.699824    0.5413103 -42.25  0.003189226    1.318    0.241
       106 -13.6699    177.7510     56.8205   2.8754031754e+01   3.3572588255e+01    0.9464788    0.4974877 -45.69  0.003309701    1.644    0.392
       107 -11.9050     38.8066     59.9681   7.1078504592e+01   6.3703029227e+01    0.3746757    0.2586952  66.66  0.001712382    1.840    0.456
       108 -11.6193     34.9521     59.8826   7.3184426485e+01   6.4246137811e+01    0.8775835    0.1640567 -51.29  0.002389682    4.414    0.773
       109 -12.1116     36.6133     54.1722   7.0295876546e+01   6.5448428128e+01    0.4407552    0.3862075 -23.71   0.00211088    1.216    0.178
       110 -11.6010     24.8745     58.6960   7.8676127710e+01   6.5739008711e+01    0.5584847    0.2533715 -56.94  0.002308486    1.955    0.488
       111 -11.4628    111.2115     58.7800   4.1948559084e+01   4.9151040118e+01    0.2724797    0.2243368 -34.51 0.0003810177    1.291    0.225
       112 -14.5789    120.1734     54.6299   3.8242166955e+01   4.7708733970e+01     1.063374    0.7131946  56.60  0.004938502    1.506    0.336
       113 -11.6121     17.5477     55.7056   8.2375772617e+01   6.7218651160e+01    0.3719913    0.2267476 -68.38  0.001652654    1.530    0.346
       114 -11.9522    247.6587     54.2192   2.1184051665e+01   2.0272794454e+01    0.4286235    0.1225544 -41.24  0.001972179    2.316    0.568
       115 -11.8634    248.5764     48.8339   1.9971391706e+01   2.0777323074e+01    0.2493432    0.1893049   2.57  0.001618511    1.991    0.498
       116 -12.3898    135.7486     51.2954   3.3780364154e+01   4.4409369435e+01    0.6549536    0.4431315 -38.42  0.002332148    1.426    0.299
       117 -13.5899    103.3723     50.4594   4.0958823216e+01   5.2597030220e+01     1.038565    0.5298131 -51.11  0.001450997    2.091    0.522
       118 -13.3672     97.9860     49.9987   4.2311750342e+01   5.3993967435e+01    0.8329433    0.4752402 -49.55  0.002554585    1.790    0.441
       119 -10.5233     23.5379     49.9518   7.6823084005e+01   6.8112515573e+01    0.2057077    0.1304397 -61.31 0.0004455007    1.474    0.322
       120 -12.0361    151.9958     47.0000   2.9549884547e+01   4.1081393365e+01    0.3815529    0.2000865  66.35  0.001149797    1.967    0.492
       121 -13.1445    158.2997     43.1919   2.7416564183e+01   4.0111422810e+01    0.5599739    0.5274095  59.29  0.002510434    1.238    0.192
       122 -10.9995     38.9402     45.9848   6.5753536090e+01   6.7058977381e+01    0.2142546    0.2079943 -52.71   0.00049469    1.024    0.024
       123 -14.5398    211.8240     41.0335   2.0977069725e+01   2.8500120477e+01     1.888188    0.6565329  81.07  0.007076601    4.349    0.770
       124 -11.1307     27.6651    235.3332   9.6703831074e+01   2.0739639055e+01    0.2001156   0.09284467  51.22   0.00110342    1.707    0.414
       125 -12.8472     23.4507    216.2770   9.6893656694e+01   2.4922802496e+01     1.108282    0.2092584  39.07   0.00441225    2.882    0.653
       126 -13.6113     26.2286    226.5276   9.6670681040e+01   2.2582435122e+01    0.6946929    0.4015621 -51.49  0.003912365    2.366    0.577
       127 -11.1932     25.8096     44.1491   7.3261867839e+01   6.9283657773e+01    0.2182564    0.1947744  72.38  0.001245899    1.257    0.204
       128 -12.0266    135.0471     39.2082   2.9746899001e+01   4.6455927938e+01    0.4798948     0.295962  79.11  0.001455895    1.726    0.421
       129 -12.5381    109.9551     41.9136   3.5912401301e+01   5.2417226199e+01    0.5018876    0.2238193  59.98 0.0006933458    2.193    0.544
       130 -13.8037     20.6260    224.0054   9.7863907845e+01   2.3599564821e+01    0.7066801    0.5036229  28.18  0.004047268    1.292    0.226
       131 -12.8676    113.6439     37.7548   3.3419679313e+01   5.2132495897e+01    0.3920681      0.34271  72.74  0.001214491    1.113    0.102
       132 -12.9494    131.5848     33.3605   2.8256051314e+01   4.8170818644e+01    0.5659686    0.4345678 -11.54  0.001918782    1.653    0.395
       133 -12.1167     40.5589     40.3932   6.2326551207e+01   6.8059985625e+01     0.519348    0.3458823  32.22  0.002534528    1.558    0.358
       134 -12.6664     32.9834     40.3025   6.6957180923e+01   6.9244491589e+01    0.4012792    0.3123498   4.20 0.0006526085    1.484    0.326
       135 -11.6946    181.9082     38.1688   2.3040572519e+01   3.5266906858e+01    0.3003992    0.1857617 -28.88  0.001435931    1.604    0.377
       136 -12.5549     76.0034     36.9877   4.3880124883e+01   6.1562395257e+01    0.5323949    0.3608411  54.15  0.001374082    1.445    0.308
       137 -11.7522     70.9526     36.2184   4.5425959567e+01   6.2857786802e+01    0.3495142    0.2893732  77.39   0.00103064    1.329    0.247
       138 -13.0221    242.3055     35.9867   1.7609680773e+01   2.3379312941e+01    0.5170459    0.2896005  86.95  0.002277795    2.146    0.534
       139 -11.8978    104.5437     36.2792   3.4952247670e+01   5.4678506369e+01    0.3496448    0.1496514 -31.20  0.001285971    2.514    0.602
       140 -13.9256     66.0840    223.1488   8.7195184821e+01   1.9145455829e+01     1.061855     0.716581  34.59  0.006467705    1.199    0.166
       141 -12.0408     36.1433     23.3648   5.6010808942e+01   7.2273812606e+01    0.3367118    0.2833394 -30.93  0.001940517    1.188    0.159
       142 -13.6912     64.4694    214.0067   8.6846050835e+01   2.1140277457e+01    0.4954485    0.3701238  51.94  0.002819468    1.203    0.169
       143 -10.9974    113.6166     31.6721   3.1002610980e+01   5.3034134287e+01    0.3174057    0.1877289 -67.66  0.001086286    2.057    0.514
       144 -12.7309    223.5007     20.7646   1.5278895205e+01   2.8596018964e+01    0.3202588     0.265461  54.44    0.0019424    1.648    0.393
       145 -12.9906     59.6617    212.4677   8.7888183221e+01   2.1999588810e+01    0.4747618    0.3229716 -31.99  0.001571871    2.064    0.516
       146 -10.6335      5.6054    219.2273   1.0119691468e+02   2.5862974615e+01    0.1474234    0.1032123 -78.45 0.0006366004    1.613    0.380
       147 -12.4952     30.9115     25.2160   6.0679172425e+01   7.2784299650e+01    0.4252334    0.2631152  26.18  0.001632806    1.767    0.434
       148 -12.3232     94.3421    218.0701   8.0174555686e+01   1.6795827838e+01    0.2615951    0.1556311  35.69  0.001454587    1.393    0.282
       149 -13.5293     57.7468     26.6077   4.6024128148e+01   6.7445248568e+01     1.140059    0.3936514  47.66  0.003144532    2.796    0.642
       150 -12.2627      4.4825    212.0950   1.0128586863e+02   2.7440544886e+01    0.4051034    0.2220372 -76.16  0.002298404    1.988    0.497
       151 -10.8769     97.5348     26.5200   3.2456172428e+01   5.7895344927e+01    0.3563292    0.1921328 -50.57  0.001500839    1.990    0.497
       152 -12.4978     72.3588    207.0085   8.4306674473e+01   2.1650852685e+01    0.3169657     0.262561  75.49  0.001990125    1.291    0.225
       153 -12.2771     57.4782    202.5098   8.7625339394e+01   2.4347429141e+01     0.640655    0.2876531 -82.60  0.002798117    2.806    0.644
       154 -12.0213     48.6603     20.0132   4.6572043429e+01   7.0455774419e+01    0.6931363    0.2373902  52.13  0.002477281    2.981    0.665
       155 -12.0812     41.3857    205.7400   9.1930706783e+01   2.5404393607e+01    0.2551991    0.1199501  40.04   0.00126041    1.672    0.402
       156 -13.2073     17.1244    195.6372   9.7591575149e+01   2.9992133880e+01    0.9466583     0.251365 -62.74  0.003507045    4.048    0.753
       157 -12.5814    139.2418     21.4873   2.2827524216e+01   4.7735376867e+01     0.550777    0.2961472  64.26  0.001793913    1.814    0.449
       158 -12.9488     40.3960    195.1969   9.1477555563e+01   2.7844409606e+01    0.4610102    0.2538767  76.87  0.002273906    1.955    0.489
       159 -12.5134     36.5155    194.4940   9.2451269615e+01   2.8406496834e+01    0.3457575    0.2325728  80.96  0.001599791    1.489    0.328
       160 -13.6774     29.8576    169.4024   9.2572708327e+01   3.5093976358e+01     1.240635       1.0525  43.39  0.007379089    1.110    0.099
       161 -13.4822     21.8111    166.0787   9.4739043803e+01   3.6693956714e+01    0.5963647    0.3819926  23.98  0.001718338    1.580    0.367
       162 -10.1918     55.3499     11.2922   3.7766405944e+01   7.0256223968e+01     0.144079   0.09834994  29.83 0.0007029334    1.672    0.402
       163 -13.3302     22.1379    180.7919   9.5516909806e+01   3.3022354597e+01    0.7239567    0.4339478 -69.30  0.003657233    1.749    0.428
       164 -15.3287      8.1963    183.2755   9.9472446228e+01   3.3620253929e+01     1.475528     1.209596  78.13  0.009374441    1.146    0.128
       165 -11.2580    200.9784    191.4758   5.4591397930e+01   7.5706265816e+00    0.2101937    0.1748637 -10.21   0.00106182    1.077    0.072
       166 -11.6148     48.7755    181.4723   8.8128280305e+01   3.0121050766e+01    0.3553756    0.2109362 -49.48   0.00171963    2.021    0.505
       167 -12.2465    198.7009    181.3473   5.3279980617e+01   9.3499515862e+00    0.2180799    0.2046281 -76.46  0.001529197    1.680    0.405
       168 -12.4060    124.2054    166.4713   6.5976564082e+01   2.2996010777e+01    0.5204477     0.367607 -82.74  0.002477549    2.113    0.527
       169 -15.2751     15.3630    174.7386   9.7110917367e+01   3.5095502382e+01     2.487414    0.8464296  54.49  0.009924325    2.554    0.608
       170 -13.3217      6.3792     42.9202   8.6732267681e+01   7.1324683178e+01     1.013934    0.4723212  15.71  0.004522544    2.276    0.561
       171 -11.6511    111.5839    156.3948   6.7388101140e+01   2.7227755655e+01    0.3843173    0.2377294  83.00   0.00144077    3.134    0.681
       172 -11.9090     76.8875    156.8210   7.7133422059e+01   3.2524291487e+01     0.428781    0.3322102  23.52  0.001164943    1.362    0.266
