#   1 NUMBER                 Running object number                                     
#   2 MAG_AUTO               Kron-like elliptical aperture magnitude                    [mag]
#   3 X_IMAGE                Object position along x                                    [pixel]
#   4 Y_IMAGE                Object position along y                                    [pixel]
#   5 X_WORLD                Barycenter position along world x axis                     [deg]
#   6 Y_WORLD                Barycenter position along world y axis                     [deg]
#   7 A_WORLD                Profile RMS along major axis (world units)                 [deg]
#   8 B_WORLD                Profile RMS along minor axis (world units)                 [deg]
#   9 THETA_WORLD            Position angle (CCW/world-x)                               [deg]
#  10 FWHM_WORLD             FWHM assuming a gaussian core                              [deg]
#  11 ELONGATION             A_IMAGE/B_IMAGE                                           
#  12 ELLIPTICITY            1 - B_IMAGE/A_IMAGE                                       
         1 -14.7818    164.7791     41.0195   7.8115768226e+01   3.8971662122e+01     1.322415     1.068056  -2.93  0.003981633    1.430    0.301
         2 -14.4535    179.1935      8.4495   6.5813085386e+01   3.9029470311e+01    0.9797129    0.9244121  80.90  0.003674807    1.044    0.042
         3 -11.5584    133.7857    247.3911   1.2985385878e+02   7.5920289408e+00    0.1486648     0.124117  55.93 0.0002750074    1.101    0.092
         4 -19.8298     72.4158    167.4409   1.3241276644e+02   3.1958657084e+01     17.77031     6.989087 -67.22   0.07521392    2.536    0.606
         5 -12.0285    163.9112    203.0637   1.1819434473e+02   9.5905633658e+00     0.299962    0.2355085  71.26 0.0004026203    1.568    0.362
         6 -11.9113    157.7769    201.9781   1.1923489046e+02   1.0873984695e+01    0.5380805    0.3530084  77.12  0.002138679    2.579    0.612
         7 -11.0311    154.6285    196.1198   1.1892184504e+02   1.2462735343e+01    0.3658262    0.2378121  77.56  0.001645552    2.612    0.617
         8 -11.5483    169.1094    202.8190   1.1713316429e+02   8.6979924682e+00    0.1970188    0.1670025  60.08 0.0004883198    1.267    0.211
         9 -10.3966    139.2409    201.0272   1.2281094329e+02   1.4328515020e+01    0.1899513    0.1561835  80.60 0.0005524685    1.357    0.263
        10 -10.3569    150.6969    245.8321   1.2667385243e+02   5.1735945658e+00    0.1422095    0.1264068  55.44  0.000487583    1.167    0.143
        11 -13.1333    180.5276    193.2793   1.1326675854e+02   8.1916619950e+00    0.3726518    0.3553462 -78.11  0.001574774    1.264    0.209
        12 -13.7762    174.7802    193.2523   1.1439532354e+02   9.2590552479e+00    0.6604728    0.4542853 -64.27  0.002659022    2.079    0.519
        13 -13.6002    175.3415    186.1521   1.1301713083e+02   1.0364858204e+01    0.6545056    0.4038782 -61.75  0.002574023    2.408    0.585
        14 -12.9993    166.8919    188.1383   1.1507779363e+02   1.1609518623e+01    0.4372555    0.4086625 -78.48  0.001879324    1.235    0.190
        15 -12.3922    163.4623    188.4682   1.1583289355e+02   1.2193219002e+01    0.3430972    0.2698786 -45.84  0.000939892    1.412    0.292
        16 -11.4465    169.8225    195.1605   1.1570996008e+02   9.8508004278e+00    0.1993707    0.1741747  58.77   0.00120333    1.210    0.173
        17 -11.3406    153.8701    185.3252   1.1726042692e+02   1.4556067878e+01    0.2260662    0.1936613 -72.00  0.001129358    1.347    0.258
        18 -10.5796     13.4832    233.1870   1.4934662986e+02   2.5765877228e+01    0.1216411   0.07676025  86.43 0.0004538424    1.268    0.212
        19 -12.1744     29.9624    183.6652   1.4329691717e+02   3.3597604152e+01    0.3231662    0.1673619  59.44  0.001239228    1.734    0.423
        20 -12.1949    117.0933    180.4064   1.2430171777e+02   2.2166818152e+01    0.8217259    0.3832854  66.95  0.002414603    5.377    0.814
        21 -10.8607     21.9531    244.1783   1.4853238904e+02   2.3000963581e+01    0.1320722   0.08756044  76.57  0.001034776    1.128    0.114
        22 -11.9418      4.0481    180.3659   1.4817496951e+02   3.6710491555e+01    0.2376179    0.1963825  16.76  0.001576434    1.867    0.464
        23 -10.2754     28.6654    228.7303   1.4662648287e+02   2.4977472167e+01   0.08497592   0.07996725 -81.93 0.0006983205    1.592    0.372
        24 -11.5957    170.4962    185.0560   1.1379552972e+02   1.1472780478e+01    0.3268386    0.2586242 -54.28 0.0008464438    1.460    0.315
        25 -13.3472    195.7515    170.1340   1.0588039008e+02   9.1724575439e+00    0.6104881    0.4473425 -47.41  0.001876042    1.544    0.352
        26 -11.7760    193.8223    165.0021   1.0520945926e+02   1.0433904525e+01    0.3197975    0.3020311  65.07  0.001118462    1.217    0.178
        27 -11.0549     10.7143    174.7909   1.4649913668e+02   3.7291520182e+01    0.1525562    0.1146382 -85.00 0.0003265805    1.134    0.119
        28 -12.5294    138.6469    171.1250   1.1800208238e+02   2.0155817716e+01    0.6690031    0.4759949 -81.61  0.003254419    1.880    0.468
        29 -12.4520    143.4675    167.9971   1.1636642832e+02   1.9866362602e+01    0.6347398    0.3868393 -86.74  0.002294654    3.574    0.720
        30 -11.6197    125.8003    171.8205   1.2096951180e+02   2.2388131089e+01    0.2912936    0.2285953 -78.53 0.0009785225    1.412    0.292
        31 -12.0626    112.4272    169.2637   1.2354476464e+02   2.5291526899e+01    0.5111328    0.3440292  56.16  0.002020461    1.457    0.314
        32 -11.8765    177.4716    169.9182   1.0949861554e+02   1.2821793604e+01    0.3125314    0.1365819 -48.77  0.001212431    2.651    0.623
        33 -11.9064     25.0219    225.6307   1.4706145831e+02   2.5927551259e+01    0.3186743    0.1254947 -64.53  0.001809267    2.667    0.625
        34 -10.7827    219.1577    224.1535   1.1136974723e+02  -2.9567018253e+00    0.1479003    0.1339573  34.34 0.0003388472    1.310    0.237
        35 -11.3526    201.3537    164.3587   1.0360553929e+02   9.0454452284e+00    0.4882867    0.2781965 -41.55  0.002263612    1.842    0.457
        36 -10.8905    110.2228    222.9287   1.3141228303e+02   1.5212766728e+01    0.1662086     0.135561  69.86 0.0004035789    1.125    0.111
        37 -10.1852     24.6901    165.4319   1.4284683137e+02   3.8003301081e+01    0.1255594    0.1150089  31.49 0.0005203449    1.482    0.325
        38 -10.1985     14.1289    163.7915   1.4497359290e+02   3.9324125930e+01     0.200029    0.1221539  54.39   0.00128542    1.543    0.352
        39 -11.6192     19.5992    222.9607   1.4782611996e+02   2.6978504475e+01    0.1497714    0.1224386 -85.08  0.001216708    1.370    0.270
        40 -10.7375    222.6901    161.8656   9.9098518572e+01   5.2886751821e+00    0.2422183    0.1781962 -47.41  0.000832566    1.599    0.374
        41 -11.4028    130.0943    161.1974   1.1809252642e+02   2.3804144455e+01    0.2414059    0.2027378 -86.44 0.0004761435    1.294    0.227
        42 -12.6082    163.1082    155.1787   1.0951763772e+02   1.8499387871e+01    0.3721032     0.320581 -61.10  0.001410858    1.277    0.217
        43 -12.5231    134.6409    109.6711   1.0550924988e+02   3.3929264065e+01     1.109816    0.1728876 -44.98  0.002424226    6.337    0.842
        44 -14.2302    135.7442    127.8935   1.0974761818e+02   2.9803536159e+01     1.844396    0.3595599 -49.25  0.004360049    5.721    0.825
        45 -11.9537    139.5603    120.5091   1.0704320131e+02   3.0579942313e+01    0.3708661    0.2145097  54.58  0.001523956    1.886    0.470
        46 -14.2578    133.8229    145.4480   1.1410357751e+02   2.6423655963e+01     1.638404    0.4504257 -54.94  0.004273564    5.208    0.808
        47 -12.7702    128.2831    142.9560   1.1489965265e+02   2.8045331959e+01    0.3706747    0.2450525  41.87  0.001207637    1.513    0.339
        48 -13.8544    144.0990    145.2434   1.1166079977e+02   2.4406190583e+01    0.9657772    0.4715042 -62.48   0.00329825    3.239    0.691
        49 -11.1802    174.5381    148.8009   1.0569602194e+02   1.7352944602e+01    0.3026212    0.2436839 -80.87 0.0009057484    1.647    0.393
        50 -12.2996    116.1377    212.0704   1.2896287375e+02   1.6213047361e+01    0.2615047    0.1861407  84.76  0.001182285    1.620    0.383
        51 -10.1401    172.3287    138.6814   1.0388921186e+02   1.9776792336e+01    0.1515852    0.1206565 -88.00  0.000474079    1.684    0.406
        52 -11.2140     22.1514    138.0606   1.4072641880e+02   4.4305518243e+01    0.1783279    0.1668874  71.41 0.0005100605    1.254    0.203
        53 -11.0324    110.4841    211.8606   1.3004978879e+02   1.7156062664e+01    0.4505331    0.2450705  78.71  0.001947929    3.117    0.679
        54 -12.1266      5.5660    137.1212   1.4463789934e+02   4.5833022045e+01     0.279151    0.2385006 -40.01  0.001799107    1.539    0.350
        55 -12.1944    160.5017    127.9553   1.0395998272e+02   2.4489540516e+01    0.4251793    0.3299538 -54.21  0.002003818    1.366    0.268
        56 -11.6105    108.4732    207.5518   1.2991397191e+02   1.8274441781e+01     0.203906     0.146711  45.10  0.000693825    1.252    0.201
        57 -10.6930    167.6301    112.6373   9.8537025704e+01   2.5936482959e+01    0.3194405     0.229226 -81.07  0.001333991    2.093    0.522
        58 -13.1648     11.8673    206.1413   1.4823389153e+02   3.0894943961e+01    0.3944353    0.2728758  38.73  0.002295579    1.669    0.401
        59 -10.8303    205.3221    110.2289   9.0332072879e+01   1.7659233132e+01    0.3140351    0.2083347  44.99  0.001077485    1.551    0.355
        60 -11.1413      7.3654    102.0428   1.4033620990e+02   5.3566377279e+01    0.2106202    0.1919733  49.66  0.001203735    1.346    0.257
        61 -11.0992      7.3502    111.0187   1.4146708812e+02   5.1548606085e+01    0.1829714    0.1457988 -52.74   0.00129033    1.300    0.231
        62 -10.3339      9.4677    201.5271   1.4840307848e+02   3.2011060929e+01    0.1063371   0.07939756  81.06 0.0003271847    1.078    0.072
        63 -10.5196    144.7677     80.4233   9.4759051443e+01   3.7522802834e+01    0.2129859    0.1435933  40.02 0.0004632314    1.558    0.358
        64 -12.1743    161.4563    197.6397   1.1779676056e+02   1.0956391727e+01    0.3031036    0.2468519  78.98  0.001745632    1.532    0.347
        65 -14.4498    153.3450     55.9623   8.5159039988e+01   3.9672256738e+01     1.261403      1.02885  55.77 0.0009972021    1.209    0.173
        66 -10.2887    159.9822    248.4810   1.2535440942e+02   3.3383454726e+00    0.1517434    0.1505445  18.20 0.0006615135    1.278    0.218
        67 -12.8395    168.7520     33.0829   7.4909302249e+01   3.8990697044e+01    0.4230796    0.3596714  19.72 0.0008800213    1.323    0.244
        68 -10.5358     13.5193     59.9413   1.3084205834e+02   6.2429391045e+01    0.1651118    0.1376191 -49.01 0.0004108348    1.076    0.071
        69 -10.3332    141.8011     33.0453   7.9896995816e+01   4.5836151292e+01    0.2148992    0.1926036 -76.74 0.0005383557    1.251    0.201
