#   1 NUMBER                 Running object number                                     
#   2 MAG_AUTO               Kron-like elliptical aperture magnitude                    [mag]
#   3 X_IMAGE                Object position along x                                    [pixel]
#   4 Y_IMAGE                Object position along y                                    [pixel]
#   5 X_WORLD                Barycenter position along world x axis                     [deg]
#   6 Y_WORLD                Barycenter position along world y axis                     [deg]
#   7 A_WORLD                Profile RMS along major axis (world units)                 [deg]
#   8 B_WORLD                Profile RMS along minor axis (world units)                 [deg]
#   9 THETA_WORLD            Position angle (CCW/world-x)                               [deg]
#  10 FWHM_WORLD             FWHM assuming a gaussian core                              [deg]
#  11 ELONGATION             A_IMAGE/B_IMAGE                                           
#  12 ELLIPTICITY            1 - B_IMAGE/A_IMAGE                                       
         1 -16.0867    191.5582    155.6067   4.9174682191e+01   1.3975611358e+01      5.30582     3.014363 -61.54  0.008311966    3.519    0.716
         2  99.0000    131.8161    106.5135   5.0520579233e+01   3.4922510699e+01     6.841329     5.190488 -26.52   0.03248616    1.496    0.332
         3 -15.7689    198.2272     67.2174   2.7958421917e+01   2.7460923183e+01     7.874563    0.7405989 -34.25   0.01689207    8.730    0.885
         4 -15.1686    172.6087     89.0760   3.7301524683e+01   2.9411585686e+01     2.093503     1.219599 -22.88  0.008894072    2.247    0.555
         5 -16.4301    246.4793     24.3873   1.4152362293e+01   2.3563368854e+01     2.513756     1.032985 -55.43   0.01350744    1.996    0.499
         6 -18.4846    240.6438     72.2452   2.4520939710e+01   1.8714266690e+01     6.740309     3.966237 -35.56   0.03999645    1.384    0.277
         7 -11.5142    182.4527     37.3436   2.2147621045e+01   3.4980839487e+01    0.3906185    0.2461262 -19.61  0.001574438    1.958    0.489
         8 -11.0028    155.6440     12.6551   1.7967608076e+01   4.4078525988e+01    0.4828573    0.2373192  -1.85    0.0017778    4.296    0.767
         9 -11.3971    138.0100      6.6807   1.7944140453e+01   4.8975469192e+01    0.2837693    0.1999125 -15.00 0.0009308127    1.714    0.416
        10 -10.8699    130.6943      5.8370   1.8499895229e+01   5.0876042376e+01    0.1973279    0.1645542  25.92  0.001023296    1.477    0.323
        11 -10.0935    209.3732      2.7376   1.1452258725e+01   3.2926881565e+01    0.1902033    0.1413513 -24.08  0.001140181    1.553    0.356
        12  -9.7494    213.0014      2.0087   1.1105380288e+01   3.2254067740e+01    0.1393237    0.1066335 -64.71            0    1.040    0.038
        13 -13.3159     37.8925    139.9943   8.7257723702e+01   4.2558262636e+01    0.5316854    0.3584654  17.28 0.0008815487    1.666    0.400
        14 -13.0766    172.6356    150.6078   5.1779513860e+01   1.8048697330e+01    0.4864396    0.3919981 -21.50  0.002629644    1.206    0.171
        15 -11.9844    133.5386    145.3496   5.9418258997e+01   2.6170211055e+01     1.045848    0.2713525 -53.57  0.002614741    5.437    0.816
        16 -10.4958    132.4305    138.5000   5.8192244423e+01   2.7874516040e+01     0.255865    0.2236257 -69.19 0.0009277901    1.276    0.216
        17 -10.9337    207.1865    161.9113   4.7672308261e+01   1.0493732463e+01    0.2175326    0.1779302 -49.19 0.0006989482    1.444    0.307
        18 -11.6948    164.3623    149.4633   5.3244062973e+01   1.9718212663e+01     0.263244    0.2436134 -75.51 0.0001587794    1.312    0.238
        19 -11.0123    217.8042    148.7491   4.3355539801e+01   1.1011966970e+01      0.22921     0.197481 -14.01 0.0006380246    1.081    0.075
        20 -12.0998    201.8953    147.2351   4.5644816032e+01   1.3739213416e+01    0.3080846    0.2217267 -47.55 0.0007802573    1.444    0.308
        21 -11.5305    199.2111    143.6107   4.5355528963e+01   1.4790360506e+01    0.2802832    0.2040195  10.01 0.0008655994    1.649    0.393
        22 -11.5622    143.8678    145.7252   5.7006943020e+01   2.4184977282e+01    0.5891464    0.3065397 -62.17  0.002110843    3.047    0.672
        23 -11.8831    147.4830    143.9663   5.5784188877e+01   2.3884358467e+01     0.458904    0.3466423 -81.52  0.002148013    1.975    0.494
        24 -10.1732    221.3145    145.2800   4.2124932113e+01   1.1029308392e+01    0.1228416   0.08736128  -6.32 0.0002195723    1.571    0.364
        25 -10.7100    214.8950    142.4176   4.2537844899e+01   1.2467183729e+01    0.2762899    0.1472621 -33.50  0.001109922    1.625    0.385
        26 -11.5910    209.1864    140.8391   4.3120773539e+01   1.3628185472e+01    0.2267839    0.2013637 -41.81 0.0006686708    1.191    0.160
        27 -13.1978    246.2363    169.9241   4.3147640109e+01   4.0064099672e+00    0.6263334    0.5044441 -54.56    0.0033159    1.850    0.459
        28 -12.7052    205.7568    134.5413   4.2359783560e+01   1.5231223856e+01    0.5293577    0.2863366 -56.31  0.002303091    2.681    0.627
        29 -11.9521    210.9974    134.5027   4.1516683957e+01   1.4371902303e+01    0.3608919    0.2367308 -29.01  0.001419934    1.373    0.272
        30 -10.5540    210.1395    129.8614   4.0673392286e+01   1.5272354280e+01    0.1932037    0.1903132 -19.83 0.0003779995    1.194    0.162
        31 -11.9707    247.3939    210.3769   4.9855808320e+01  -1.4571781829e+00    0.4064344    0.2029564  39.92  0.002400816    2.782    0.641
        32 -10.7588    218.3510    132.5254   3.9980892861e+01   1.3501417832e+01    0.2502767    0.1643224 -52.00  0.001120958    1.690    0.408
        33 -12.8520    161.4639    128.4522   4.9195708201e+01   2.4368261789e+01    0.5178971    0.4298243  42.36  0.001863028    1.276    0.216
        34 -12.7634    172.1101    124.3088   4.6073196782e+01   2.3106765451e+01    0.5344366    0.4433186 -85.21  0.002856776    1.572    0.364
        35 -12.5911    246.5743    164.2435   4.2075240345e+01   4.7542461385e+00    0.4296846    0.3898043 -49.04  0.002812986    1.549    0.354
        36 -13.8128     53.7710    136.3267   8.1305802278e+01   4.1640339072e+01    0.9029016    0.4716802 -59.50  0.001807259    1.814    0.449
        37 -12.1102    188.1154    175.4530   5.3680167815e+01   1.1094554220e+01    0.4023029    0.2252486 -56.63  0.001772096    2.843    0.648
        38 -10.1034     93.1634    123.1925   6.5665417986e+01   3.8838377035e+01    0.2266287    0.2102164 -17.37 0.0004654239    1.165    0.142
        39 -10.4833      6.3397    208.3013   1.0174686150e+02   2.8550239806e+01    0.1127017   0.09063635 -38.10 0.0007037275    1.670    0.401
        40 -12.8436    166.1058    116.8963   4.5504100840e+01   2.5690399360e+01    0.6306638    0.4217415  25.90  0.002902383    1.967    0.492
        41 -10.7587    226.2900    114.5885   3.5113066904e+01   1.5014722581e+01    0.2330106    0.1781894 -30.28 0.0005918362    1.125    0.111
        42 -12.2473    185.1186    170.2421   5.3261636278e+01   1.2446801404e+01    0.2998285    0.2113859 -55.79  0.001015725    1.841    0.457
        43 -11.1001     11.9784    206.4944   1.0030454890e+02   2.8473966476e+01    0.1864447    0.1094914  28.70 0.0008089285    1.591    0.371
        44 -13.2562    177.0118    169.8878   5.4773764387e+01   1.3776845451e+01    0.6967417    0.4334205 -19.52   0.00340569    1.869    0.465
        45 -11.6578    215.7473    105.2317   3.4518933022e+01   1.8262545863e+01    0.3925823    0.2382642  39.90   0.00193364    2.082    0.520
        46 -10.4719    143.7156    171.0530   6.2150194289e+01   1.8968892423e+01    0.1975972     0.175789 -30.52  0.000410768    1.111    0.100
        47 -11.3596    113.5273     94.8756   5.2123375903e+01   4.1347316508e+01    0.3595449    0.2817762  22.46 0.0005025396    1.546    0.353
        48 -14.6116    233.9604     65.4529   2.3700006318e+01   2.0797351660e+01    0.5581355    0.3393627 -39.13  0.001828855    1.310    0.237
        49 -11.0944    211.9884    166.3340   4.7715887580e+01   9.0840324996e+00    0.2278145    0.2123732 -84.02  0.000609786    1.619    0.382
        50 -13.1230    191.9717    193.9247   5.6290851580e+01   7.4946251262e+00    0.9267824    0.5053855 -60.29  0.003434387    4.991    0.800
        51 -12.6403    204.5400    198.8412   5.4861670827e+01   5.0686039580e+00     0.396706    0.2592137 -25.79  0.002250493    1.350    0.259
        52 -11.3697    158.4930     69.6838   3.4511375167e+01   3.5844440850e+01    0.3043092    0.2381129 -35.09 0.0003682242    1.276    0.216
        53  -9.7327    162.3729     66.7432   3.3011064087e+01   3.5422613464e+01    0.1933753    0.1325907 -29.05  0.000939425    1.553    0.356
        54 -15.0866      7.6230    148.9577   9.8175240272e+01   4.2880717436e+01     2.087599     1.365928 -16.93  0.004153096    2.040    0.510
        55 -12.3179    185.8961     63.1839   2.8528184375e+01   3.0677769638e+01    0.3286085    0.2258791 -39.97 0.0009085207    1.309    0.236
        56 -14.7230     45.7904    137.4621   8.4205359028e+01   4.2334935056e+01     1.870306     1.196221 -20.44  0.007209885    2.237    0.553
        57 -10.5746    205.0533     54.0428   2.3963933063e+01   2.7903587930e+01    0.1904529    0.1577734 -55.84   0.00120178    1.019    0.019
        58 -11.8909    176.9796     53.5190   2.7158286385e+01   3.4062284802e+01    0.2500213     0.191581 -15.46 0.0008145255    1.623    0.384
        59 -10.5036     67.3946    144.0268   7.8111727705e+01   3.7742134386e+01     2.766082     1.311504 -72.74  0.008857465    2.549    0.608
        60  -9.9003    131.5782     51.5337   3.4030655097e+01   4.5178195472e+01    0.1427586    0.1362729 -82.73 0.0001599958    1.024    0.024
        61 -11.8494    248.3831    195.3694   4.7252241841e+01   3.4441976714e-01      0.24124    0.1707526 -25.21 0.0008124712    1.164    0.141
        62 -11.9521    191.5584     35.6126   2.0758930987e+01   3.3164393664e+01    0.3840457    0.2610886  54.55  0.001775143    1.724    0.420
        63 -12.8685    148.9638     35.0320   2.5687766919e+01   4.3197802531e+01    0.3901466     0.368987 -71.70  0.002392085    1.081    0.075
        64 -10.9710    171.0199     35.7317   2.2999077354e+01   3.7814418718e+01    0.1875685    0.1642833 -75.83  0.000446005    1.037    0.036
        65 -11.1210    169.9928     31.9144   2.2043351695e+01   3.8524657996e+01    0.2311544    0.1790232 -41.12 0.0006453922    1.238    0.192
        66 -10.3936    116.2949     36.3298   3.1884836304e+01   5.1156644463e+01    0.1432288    0.1076888  29.05 0.0003163216    1.633    0.388
        67 -12.9547    142.2472     32.1117   2.5756861185e+01   4.5219966284e+01    0.4870666    0.2756217  73.15   0.00201805    1.733    0.423
        68 -11.7497    125.4880     32.4944   2.8683547610e+01   4.9357347556e+01    0.2632344    0.1760582 -67.34 0.0009667744    1.683    0.406
        69 -11.7855    152.1139     26.5285   2.2612606003e+01   4.3454901212e+01    0.5472094    0.1407135  59.00  0.001901572    3.394    0.705
        70 -10.3413    169.4265     23.3635   1.9688155693e+01   3.9652634027e+01    0.3281816     0.137256 -19.61  0.001274658    3.298    0.697
        71 -11.2769    152.8205     21.8733   2.1089872855e+01   4.3806350132e+01    0.2264649    0.1963072 -76.18 0.0006827303    1.018    0.018
        72 -10.9684    166.8268     41.0150   2.5016517773e+01   3.8123049916e+01    0.2379314    0.1250894 -54.99 0.0007185181    1.918    0.479
        73  -9.7643    171.1550     16.8954   1.7701408846e+01   3.9946465754e+01    0.1570217    0.1484397  -5.16 0.0005880939    1.340    0.254
        74 -10.3321    231.1246    214.6846   5.3034020897e+01  -2.8549548457e-01    0.1763538    0.1304294 -27.78 0.0006547122    1.324    0.245
        75 -12.5925    249.8997    187.1462   4.5644931562e+01   1.2512992502e+00    0.8326263    0.1553808 -39.52  0.002979163    4.792    0.791
        76  -9.8367    172.8887     13.2048   1.6522294391e+01   3.9921284800e+01    0.1518027    0.1445491 -13.69 0.0005486265    1.319    0.242
        77 -12.3795    206.7207    150.3824   4.5470914691e+01   1.2449537145e+01    0.6266026    0.1824187  38.14   0.00223794    4.220    0.763
        78 -11.0599    207.5076    157.5083   4.6757794599e+01   1.1161095473e+01    0.2683895    0.2241025  38.38  0.001462336    1.405    0.288
        79 -11.9431    210.8382    153.1688   4.5347549014e+01   1.1359866616e+01    0.4896883    0.2766498 -17.97  0.002346059    2.184    0.542
        80 -13.2823    245.3990    184.7583   4.5879347561e+01   2.0803003579e+00    0.6165865    0.3252329 -46.66  0.003394136    2.445    0.591
        81 -11.2477    168.9923    159.0134   5.4253097866e+01   1.7089680577e+01    0.1676375    0.1525225 -12.11 0.0003816692    1.007    0.007
