#   1 NUMBER                 Running object number                                     
#   2 MAG_AUTO               Kron-like elliptical aperture magnitude                    [mag]
#   3 X_IMAGE                Object position along x                                    [pixel]
#   4 Y_IMAGE                Object position along y                                    [pixel]
#   5 X_WORLD                Barycenter position along world x axis                     [deg]
#   6 Y_WORLD                Barycenter position along world y axis                     [deg]
#   7 A_WORLD                Profile RMS along major axis (world units)                 [deg]
#   8 B_WORLD                Profile RMS along minor axis (world units)                 [deg]
#   9 THETA_WORLD            Position angle (CCW/world-x)                               [deg]
#  10 FWHM_WORLD             FWHM assuming a gaussian core                              [deg]
#  11 ELONGATION             A_IMAGE/B_IMAGE                                           
#  12 ELLIPTICITY            1 - B_IMAGE/A_IMAGE                                       
         1 -14.7015    244.8745     50.6086   3.5337712199e+02   2.1957655228e+01      5.06621    0.6308714 -47.19   0.01738898    4.771    0.790
         2 -13.2705    234.3316     47.0371   3.5341988938e+02   2.4177625729e+01     1.136392    0.4099793 -35.78  0.005620995    2.232    0.552
         3 -14.6534    247.2667     14.3764   3.4619531020e+02   2.5796180942e+01     1.465277    0.8851705 -44.83  0.009809886    1.213    0.175
         4 -13.8510    247.2637      4.1449   3.4424370844e+02   2.6867037814e+01     0.840557    0.4009672 -86.00  0.004424352    2.089    0.521
         5 -12.7752    207.5371     19.1908   3.4929286002e+02   3.2510190988e+01     1.123317     0.301612 -36.56  0.004964955    2.721    0.633
         6 -13.4227    204.0312      5.7982   3.4646342021e+02   3.4652009932e+01    0.8245015    0.6372485 -82.80  0.005016889    1.216    0.178
         7 -12.3154      7.3693     24.7633   4.8459141505e+01   7.4755408995e+01    0.6265639    0.4877724  20.47  0.003864717    1.261    0.207
         8 -12.0651    186.1164      5.8743   3.4749988718e+02   3.8352207228e+01    0.4518228    0.2157004 -60.17  0.002273948    1.748    0.428
         9 -11.7463    191.9410      2.6392   3.4637507442e+02   3.7446211334e+01    0.3789667     0.230713  82.18  0.002343185    1.569    0.363
        10 -12.0227    177.0550      2.4291   3.4719653350e+02   4.0657004834e+01    0.4459797    0.2075537 -88.46   0.00228033    2.014    0.503
        11 -10.7227    146.1406      4.3025   3.5005479543e+02   4.7562874066e+01    0.2529867    0.1202881 -41.58  0.001262244    1.887    0.470
        12 -13.0743    223.4464      3.8967   3.4512877931e+02   3.1100272724e+01    0.9107552    0.3889488 -84.11  0.004437482    2.316    0.568
        13  -9.9739    160.3159      3.3323   3.4859587458e+02   4.4335161037e+01    0.1167859   0.09082416  47.30 0.0007046758    1.686    0.407
        14 -12.2390    246.1587    211.6294   2.2061826129e+01  -5.2696457872e-01    0.3953752    0.2253651 -34.77  0.002784975    1.453    0.312
        15 -11.4771    220.0581    242.7742   3.0464534214e+01  -2.0903338870e+00    0.3167518    0.2102901 -31.51  0.002216816    1.422    0.297
        16 -12.9509    213.1996    244.2334   3.1763941358e+01  -1.6562803200e+00    0.5553152    0.4891724 -33.94  0.004569859    1.684    0.406
        17 -11.5472    235.2477    248.9905   2.8969142820e+01  -4.1277335878e+00    0.3148212    0.2383996   0.65  0.002323544    1.230    0.187
        18 -12.0193    225.5028    249.5259   3.0525149779e+01  -3.3828485560e+00    0.5705685    0.2060744  22.84  0.003260096    2.638    0.621
        19 -13.8397    235.7295    234.0662   2.6843472551e+01  -2.3944716269e+00     1.065432    0.6521254  -7.37  0.007868608    1.363    0.266
        20 -10.1218    198.2097    204.4241   2.8452896411e+01   5.4375186095e+00    0.2473673    0.2095436  77.46  0.001573418    2.325    0.570
        21 -11.9557      6.8842    203.3479   7.3570372153e+01   2.8761037882e+01    0.4069663    0.2675355  37.97  0.002326895    1.296    0.229
        22 -12.1997      2.3755    201.4077   7.4673793394e+01   2.9575068385e+01    0.4674007    0.2920456 -64.32   0.00256643    1.784    0.439
        23  -9.8719    228.1133    203.4518   2.3442809017e+01   2.3096357016e+00    0.2523525   0.09982207  31.00  0.001054969    2.756    0.637
        24  -9.0539    144.5886    200.4405   3.8292920141e+01   1.2895459872e+01    0.1277147    0.1145621   0.74 0.0001288259    1.011    0.011
        25 -12.9982      3.4514    182.0625   7.3616949171e+01   3.4198848805e+01    0.7526445     0.455653  64.61  0.003935508    1.465    0.318
        26 -11.3648      2.2723    152.1078   7.2500485287e+01   4.2079738366e+01    0.3357457    0.1135408 -85.95  0.001208588    2.838    0.648
        27  -9.9863      2.3330    130.3328   7.1107891477e+01   4.8006982171e+01    0.1498343   0.09423681 -45.51 0.0007052231    1.730    0.422
        28 -12.4249    246.6902    119.1962   6.3932575831e+00   1.2261217449e+01    0.5249295    0.3332791 -39.24  0.002380897    1.180    0.153
        29 -11.9790    224.1557    118.3443   8.9270589968e+00   1.5619125136e+01    0.3912942    0.2495971 -65.91  0.002145757    2.195    0.544
        30  -9.2232    167.3535    118.2600   1.7796722925e+01   2.5311454624e+01     0.133559    0.1083642   3.03 0.0005144278    1.614    0.380
        31 -11.5638    196.2436    113.6077   1.1857082684e+01   2.0923696301e+01    0.4292928    0.1690805 -47.68  0.001461111    2.341    0.573
        32 -10.0506    202.1964    115.3979   1.1345702403e+01   1.9603909935e+01    0.1617949    0.1231636  72.19 0.0009469568    1.713    0.416
        33  -9.8477     25.0789    111.8240   6.0111496062e+01   5.1408015347e+01    0.2212264    0.1878127  62.61 0.0003611635    1.176    0.150
        34 -11.0098    249.0005    108.6374   4.1818002033e+00   1.3455896177e+01    0.2788627     0.132894 -37.91  0.001331727    1.576    0.366
        35 -11.2500    199.0245    107.8387   1.0203474387e+01   2.1416076423e+01    0.3033924    0.2334656 -22.94  0.001787374    1.442    0.306
        36 -10.0046     85.9341    107.0295   3.5741081069e+01   4.3840272029e+01    0.2317656    0.2138968  80.92  0.000352858    1.087    0.080
        37 -11.0808    208.0728    104.2905   8.1761538436e+00   2.0437633666e+01    0.3627988    0.2333914 -76.25  0.001843422    2.356    0.575
        38  -9.9475    156.4765    105.5324   1.6927609694e+01   2.9881260553e+01    0.1435089    0.1309584 -57.70 0.0003117231    1.012    0.012
        39 -14.1130    239.7917     86.7663   9.2684650626e-01   1.7917776213e+01     1.290748    0.8589112 -34.64  0.008436233    1.306    0.234
        40 -12.8187    245.7754     68.0062   3.5671392641e+02   1.9558249557e+01    0.9759053    0.2636822 -36.75  0.004276122    2.801    0.643
        41 -11.5796    178.3817    248.7211   3.8366320166e+01   1.0868045729e+00    0.2914256    0.2092557  14.20  0.002102635    1.158    0.136
        42 -11.4202    240.0452    246.0410   2.7860261474e+01  -4.1756194749e+00    0.2785756     0.199346 -40.03  0.002202185    1.885    0.469
        43 -12.5067    244.6704    225.4673   2.4310397082e+01  -2.1184934498e+00    0.4912851    0.2468251 -24.77  0.002997531    1.598    0.374
        44 -12.8504      3.3974    218.6624   7.5000294658e+01   2.5556770361e+01    0.7961908    0.3530019 -89.24  0.003901005    2.284    0.562
        45  -9.5813    169.0181     98.4679   1.2878190941e+01   2.8689299758e+01    0.1783304    0.1198405  26.25 0.0008063946    2.348    0.574
        46  -9.0694     47.7108     97.7220   4.7872966967e+01   5.2595745630e+01    0.1491246    0.1144839 -28.42 0.0002083551    1.520    0.342
        47  -9.4210    127.4850     89.9802   1.9227040710e+01   3.9102011593e+01    0.2179177    0.1425491 -47.29 0.0005181053    1.475    0.322
        48 -10.6378      5.9494     90.0634   6.5646395058e+01   5.8876024870e+01    0.2187971    0.1980496 -61.50 0.0005949868    1.044    0.042
        49  -9.6135     12.6993     79.3251   6.0559396723e+01   6.1303920267e+01    0.1458049    0.1003485  60.33 0.0004167167    1.635    0.388
        50  -9.8728    177.7191     71.4286   4.8575257397e+00   3.1545788585e+01    0.2403807    0.1352329 -48.89 0.0004594729    1.564    0.361
        51 -10.3031    171.9628     66.1744   4.3561664987e+00   3.3602417704e+01    0.2561313    0.1787218 -45.46      0.00114    1.275    0.216
        52 -10.8937    116.5625     62.8767   1.3791551289e+01   4.6806838768e+01    0.5671986    0.4167906  50.64  0.002830686    1.398    0.285
        53 -10.3174    150.3351     60.7140   6.2738815933e+00   3.9286414177e+01    0.2497987    0.2375078 -48.15 0.0007015523    1.182    0.154
        54  -9.3200    173.3386     57.3112   1.8790911060e+00   3.4673653963e+01     0.124562    0.1061456  23.59 0.0007045264    1.690    0.408
        55 -10.7018      7.3157     54.8673   5.8540554397e+01   6.7927679211e+01    0.3530807    0.1505629  -0.01  0.001362239    2.994    0.666
        56 -12.2885    224.3407     47.4332   3.5426519472e+02   2.5887851104e+01    0.5296493    0.3852351 -35.28  0.003528691    1.352    0.260
        57 -10.7684    218.1691     46.8292   3.5463662220e+02   2.7094299155e+01    0.2600216    0.2018283  79.07  0.001780541    1.437    0.304
        58 -10.5186     78.6074     48.2707   1.9551302802e+01   5.8192756368e+01    0.8123687     0.355865  59.18  0.002959993    2.664    0.625
        59  -9.6971     91.0121     34.0583   9.9721326827e+00   5.7620688866e+01    0.2250458    0.1669091  28.21  0.001123985    1.733    0.423
        60 -11.1902      4.6534    236.3741   7.5246471372e+01   2.1680942268e+01    0.2858776    0.2106817 -87.24  0.001896246    1.460    0.315
        61 -12.8808      5.7134    228.2585   7.4752534654e+01   2.3288111838e+01    0.8488109    0.2783875  64.28  0.003599724    2.926    0.658
        62 -10.7821     16.6177    249.1897   7.2975127596e+01   1.8095660968e+01    0.2385486     0.156785  77.86  0.001402922    1.550    0.355
        63  -9.9341     29.8754     27.3709   3.2961385684e+01   7.1412581445e+01    0.2838633    0.1434415 -47.47   0.00131992    2.077    0.519
        64 -11.2461     27.2534    239.1493   7.0145819704e+01   1.9112657659e+01    0.2616193   0.09767039  45.57  0.001244125    2.048    0.512
        65 -12.5994     19.8784    244.3270   7.2061131288e+01   1.8756335540e+01    0.4841225    0.3218663  66.88   0.00284415    1.412    0.292
        66 -11.1571    244.8143    200.2902   2.0518777323e+01   1.0659002731e+00    0.5633869    0.4147812 -66.34  0.003307064    3.626    0.724
        67 -11.8170    243.7168    216.5942   2.3148657094e+01  -9.3283868621e-01    0.2800232    0.1567174 -17.60  0.001702914    1.534    0.348
        68 -10.7247    250.4804    214.5121   2.1889531744e+01  -1.2778765628e+00    0.1725437    0.1241096 -22.65 0.0008132011    1.125    0.111
