#   1 NUMBER                 Running object number                                     
#   2 MAG_AUTO               Kron-like elliptical aperture magnitude                    [mag]
#   3 X_IMAGE                Object position along x                                    [pixel]
#   4 Y_IMAGE                Object position along y                                    [pixel]
#   5 X_WORLD                Barycenter position along world x axis                     [deg]
#   6 Y_WORLD                Barycenter position along world y axis                     [deg]
#   7 A_WORLD                Profile RMS along major axis (world units)                 [deg]
#   8 B_WORLD                Profile RMS along minor axis (world units)                 [deg]
#   9 THETA_WORLD            Position angle (CCW/world-x)                               [deg]
#  10 FWHM_WORLD             FWHM assuming a gaussian core                              [deg]
#  11 ELONGATION             A_IMAGE/B_IMAGE                                           
#  12 ELLIPTICITY            1 - B_IMAGE/A_IMAGE                                       
         1 -12.9122     57.4576     34.4335   6.6020259724e+01   6.3102481397e+01    0.3420401    0.2899749  -2.39  0.002171112    1.105    0.095
         2 -13.2747     37.7196     49.7434   8.0858891643e+01   6.3503685476e+01    0.7882373    0.6458427  -7.40  0.002935242    1.015    0.015
         3 -11.9164     74.9974     35.8013   5.9896827230e+01   5.9730116866e+01    0.6339818    0.3526859  11.98  0.002632468    2.844    0.648
         4 -11.6688     22.9007     24.3185   7.8160928430e+01   6.9462985848e+01    0.5708565    0.2146774 -32.84  0.002607842    2.625    0.619
         5 -12.0248     22.9616     14.9372   7.3758262271e+01   7.0793729877e+01    0.7930077    0.3364511  16.81  0.003522753    2.926    0.658
         6 -11.8671      3.5444     16.6653   8.6169608814e+01   7.2466902525e+01    0.3289387    0.2453488  19.84   0.00188908    1.503    0.335
         7 -11.7543     99.5020     23.1688   4.7729530883e+01   5.6100044736e+01    0.6429272    0.3872821  20.02  0.001029583    2.154    0.536
         8 -11.6113    128.2435     24.8365   4.1966174021e+01   4.9333048731e+01    0.4438533    0.2674183 -31.38  0.002333357    1.880    0.468
         9 -11.7932    128.7597     18.9311   4.0041434754e+01   4.9815474262e+01    0.3192597    0.2152639  46.49 0.0003236636    1.410    0.291
        10 -11.7275    159.8627     22.8229   3.6244542936e+01   4.2108592054e+01     0.366436    0.3069478  29.67  0.001812521    1.512    0.339
        11 -10.7550    185.7645     22.6211   3.2994570460e+01   3.6192570538e+01    0.2332618    0.1671271 -65.50 0.0008161036    1.301    0.232
        12 -11.1786     60.3211     14.1672   5.6147404645e+01   6.5072321375e+01    0.3949995    0.2677947  62.86  0.002185663    2.041    0.510
        13 -11.7571     46.9035     14.2418   6.1577251753e+01   6.7423837306e+01    0.6952206    0.4448458  38.29  0.003901757    1.379    0.275
        14 -10.7230     39.7026     11.0324   6.3271484984e+01   6.8941049643e+01    0.2384339    0.1668699  39.85 0.0005293753    1.450    0.310
        15 -11.6552     40.0595     15.4060   6.5221555530e+01   6.8381818333e+01    0.2988918     0.247118 -10.51 0.0005246912    1.248    0.199
        16 -11.9340    237.9945     17.7522   2.7375914649e+01   2.5868527611e+01     0.272729    0.1694515 -81.35 0.0003240044    1.387    0.279
        17 -11.1486     43.7059      8.7842   6.0355868040e+01   6.8539845609e+01    0.2458686    0.2071119  27.46 0.0009172969    1.233    0.189
        18 -10.7150     77.0969     11.1164   4.9238877608e+01   6.2074509041e+01    0.4779949    0.1962849  56.19  0.002189596    2.161    0.537
        19 -11.0192     73.7207     16.9317   5.2692681826e+01   6.2203091930e+01    0.4467303    0.2300757  39.13   0.00228201    1.664    0.399
        20 -10.4596     70.7100     13.7190   5.2324120611e+01   6.3122127755e+01    0.2902517    0.1987219  -1.08  0.001190485    1.609    0.378
        21 -10.9466     33.0712     16.5303   6.9167396742e+01   6.9267220267e+01    0.5059825    0.2219046  22.56  0.001843764    2.497    0.600
        22  -9.8337    118.3144     12.3363   3.9877875932e+01   5.2864050967e+01    0.2057892    0.1544566  36.60  0.001103623    1.374    0.272
        23 -10.0493    118.0000      8.9257   3.8830503113e+01   5.3231021493e+01    0.2291553    0.1732653 -21.52   0.00141636    1.593    0.372
        24 -12.3687    128.5886     11.2001   3.7695459963e+01   5.0576408029e+01     0.404139    0.2841011 -82.87 0.0004858203    1.599    0.374
        25 -10.3499    156.8398     11.9886   3.3788495963e+01   4.3905901347e+01    0.2165103    0.1657355 -48.19  0.001363496    1.401    0.286
        26 -10.3306    155.4726      7.4468   3.2764928326e+01   4.4640873041e+01    0.2795071    0.1840218  35.46  0.001578006    1.981    0.495
        27 -11.4259      8.7090      9.3072   7.9421197104e+01   7.3109126624e+01    0.4742491    0.2527843  14.57  0.002139717    1.652    0.395
        28  -9.8850    138.0140     10.9987   3.6134516732e+01   4.8391209099e+01     0.200036     0.135346 -73.41 0.0005513373    1.676    0.403
        29 -10.1398    164.1901      9.4083   3.2228137931e+01   4.2450973543e+01    0.2378799    0.1345805 -52.35 0.0008276347    1.838    0.456
        30 -10.2897    164.6717      5.3408   3.1152511074e+01   4.2713313820e+01      0.22961    0.1696949 -67.17 0.0007658291    1.316    0.240
        31 -10.5167      9.5836     15.9078   8.2060439047e+01   7.2076855363e+01     0.277238     0.144968 -20.63  0.001211076    1.761    0.432
        32 -10.1633    240.8076      9.4055   2.5666775250e+01   2.6261082900e+01    0.1370551   0.08781726  73.48 0.0006128103    1.555    0.357
        33 -12.5640    213.9294      6.0095   2.6854651534e+01   3.1906036427e+01    0.6965147    0.3621967 -71.90  0.004013337    1.773    0.436
        34 -10.9997    202.8134      3.2294   2.7131821944e+01   3.4496387642e+01    0.3369968    0.2051646  53.47   0.00203736    1.980    0.495
        35  -9.5244    150.5212      5.5593   3.2880918021e+01   4.5953546153e+01    0.2185393    0.1036479  72.23 4.056994e-05    1.779    0.438
        36 -10.9816    146.1370      7.1038   3.3872542368e+01   4.6838381059e+01    0.3037437    0.2376321  35.38  0.001115176    1.524    0.344
        37 -11.3832    148.6702      2.1190   3.2186627775e+01   4.6671520180e+01     0.359217    0.1814325  70.07 0.0003585697    1.611    0.379
        38 -10.9744    191.1553      7.6677   2.9058433528e+01   3.6565285553e+01    0.3847545    0.2543796 -48.81  0.001690694    1.467    0.318
        39 -10.5232    187.2459      5.9866   2.9038884975e+01   3.7585126000e+01    0.2160559    0.1353005 -58.38 0.0006374526    1.497    0.332
        40 -10.9487     12.3726      2.2372   7.3422618646e+01   7.3648245609e+01    0.3074229    0.1788055  -5.20  0.001910449    1.581    0.367
        41 -11.0778     27.0646      2.8243   6.5325015173e+01   7.1715232349e+01    0.2532102    0.2025737  37.69  0.001775447    1.575    0.365
        42 -11.0196     22.8141      7.6699   7.0185254109e+01   7.1737236744e+01    0.3080795    0.1752356  34.91 0.0007378933    1.716    0.417
        43 -11.4165     19.9375      3.1662   6.9423148863e+01   7.2633729625e+01    0.6367977    0.2747621  17.45   0.00297522    2.809    0.644
        44 -10.6017     90.2147      6.8481   4.3990985312e+01   5.9656691744e+01    0.4240647    0.1468849  54.09 0.0006112547    2.163    0.538
        45 -10.3389     73.4832      6.4582   4.8379766258e+01   6.3220163240e+01    0.2423278    0.1999095 -64.68  0.001537428    1.797    0.444
        46 -10.2739     74.4651      2.3587   4.6366324231e+01   6.3347688207e+01    0.2360013    0.1835986  82.48 0.0009144504    1.729    0.422
        47 -11.7948    234.2120      5.5882   2.5390552105e+01   2.7921052593e+01    0.2258531    0.1501075  67.30 0.0009440234    1.631    0.387
        48  -9.3536    108.6971      5.7100   3.9522501212e+01   5.5625655717e+01    0.1288677   0.07803669  41.23 0.0003291396    1.567    0.362
        49 -10.7354     98.6606      3.8322   4.0926452413e+01   5.8031897153e+01     0.272164    0.2348679  58.31   0.00116219    1.085    0.078
        50  -9.6255     61.7348      5.1971   5.1606929823e+01   6.5652533766e+01    0.1645016     0.109891  28.71 0.0003459453    1.283    0.220
        51 -11.1003    223.3293      3.8047   2.5765310440e+01   3.0232221394e+01    0.2213438    0.1509602  75.89 0.0008948103    1.384    0.278
        52 -10.5223    179.0186      4.0635   2.9369610052e+01   3.9588183783e+01    0.1825479    0.1454224 -89.18 0.0003390702    1.009    0.009
        53 -10.5368    118.8910      3.9461   3.7069868888e+01   5.3428050334e+01    0.2990909    0.1563834  75.29  0.001085451    1.849    0.459
        54 -10.5200     68.1662      3.5743   4.8772291865e+01   6.4529193742e+01    0.1833434    0.1534959  16.91 0.0004234207    1.171    0.146
        55 -11.1163    242.8591      2.7871   2.4367642831e+01   2.6579748413e+01    0.2095762    0.1110015 -74.04  0.001201161    1.581    0.367
        56 -10.1027    126.4797      2.6867   3.5434013381e+01   5.1772003468e+01    0.2013456    0.1518271  38.07 0.0004582335    1.424    0.298
        57 -11.2147    194.8723      1.9158   2.7488096860e+01   3.6314236368e+01    0.3286178    0.1385406  84.92  0.001617213    2.250    0.555
        58 -10.0733    230.7500      1.4120   2.4841462774e+01   2.9019253812e+01    0.1381792   0.08607054  73.03  0.000332404    1.548    0.354
        59  -9.5196    158.5025      1.5961   3.0892523768e+01   4.4450897071e+01    0.1222677    0.0973997  79.95 0.0001079158    1.023    0.022
        60  -9.9938     32.5354      1.4234   6.1798022654e+01   7.1055775854e+01    0.2395438   0.09606194  42.75  0.001204569    2.235    0.553
        61  -9.1186    113.2739      7.6097   3.9279057919e+01   5.4427608714e+01    0.1232091   0.08924131 -67.39  0.000699323    1.726    0.421
        62 -13.2672     49.6752    161.6637   1.0260434706e+02   3.5382732794e+01    0.7825246    0.4421436  31.48 0.0008966937    1.831    0.454
        63 -10.5962    247.7034    250.0047   7.0376888108e+01  -1.1739791335e+01    0.1655715    0.1164788 -13.64 0.0008236705    1.071    0.066
        64 -12.3096    232.5530    245.0237   7.2278322401e+01  -9.4103115560e+00    0.5487682    0.2226214 -31.54  0.002722154    2.240    0.554
        65 -11.3199    238.1753    246.3892   7.1479422204e+01  -1.0229365310e+01    0.2078269    0.1714866  34.37  0.001342265    1.823    0.452
        66 -11.6549     88.9267    249.4862   1.0347789218e+02   9.3036141406e+00    0.3500334    0.2511429  33.53 0.0009072273    1.229    0.186
        67 -10.2124     72.5018    250.2356   1.0718144588e+02   1.1338091438e+01    0.2266956    0.1618009   9.68 0.0008628542    1.829    0.453
        68 -13.0489     19.1652    237.2048   1.1758603821e+02   2.0262323309e+01     1.640296     0.422243  54.28   0.00608719    3.811    0.738
        69 -11.7269      5.1737    235.8491   1.2036441311e+02   2.1889810125e+01    0.4432934    0.3165405  38.29  0.002964482    1.393    0.282
        70 -13.3014      6.3694    245.0677   1.2058535401e+02   1.9849192980e+01    0.9396296    0.5997351  35.60  0.005009571    1.527    0.345
        71 -12.6525     22.1961    249.0374   1.1767273616e+02   1.7473791951e+01    0.8672011    0.2460262  31.76  0.003755869    3.038    0.671
        72 -11.2494     17.2421    247.3856   1.1856672724e+02   1.8317439643e+01    0.2898104    0.1810905  43.88 0.0009422183    1.367    0.269
        73  -9.4618    177.0099    168.7509   6.9289989250e+01   1.2375692051e+01    0.1837637    0.1269531  36.14 0.0003319947    1.498    0.333
        74  -9.7124      4.6454    168.7385   1.1614057476e+02   3.7692974883e+01    0.1271516   0.08750066 -43.81 0.0006977458    1.619    0.382
        75 -12.0891     36.5623    166.5103   1.0709346032e+02   3.5538191117e+01    0.5341741    0.4727832 -81.21   0.00246441    1.024    0.023
        76 -11.1548     35.4877    161.9790   1.0683299266e+02   3.6833618367e+01      0.38576    0.2618677 -36.16  0.001324935    1.694    0.410
        77  -9.3399    111.5486    164.4879   8.4957901736e+01   2.5431382219e+01    0.1553519    0.1523245 -18.73 0.0001779311    1.005    0.005
        78  -9.3117     99.2805    164.6765   8.8477494186e+01   2.7490794969e+01    0.1562347    0.1218849  75.00 0.0002965155    1.590    0.371
        79  -9.1523    200.5253    162.5049   6.3009977575e+01   9.4600865211e+00    0.1437951    0.1297725 -31.66 0.0008092443    1.066    0.062
        80 -12.8555     21.1612    157.4666   1.1046402571e+02   3.9324681210e+01    0.6706184    0.4698241  10.04 0.0009458097    1.743    0.426
        81 -10.3780     10.8480    153.2513   1.1299650634e+02   4.1208673874e+01    0.2861412    0.1803173  24.63  0.001315316    1.804    0.446
        82 -10.0773    177.2741    150.8975   6.5354951183e+01   1.6118667187e+01    0.2672699    0.2193341  74.62  0.001308792    1.633    0.388
        83 -10.6017    207.0372    146.6590   5.8381421272e+01   1.1416815137e+01    0.1910138     0.181771  11.56 0.0006112286    1.139    0.122
        84  -9.3991     41.1355    146.1533   1.0289351902e+02   4.0431636808e+01    0.1878435    0.1587972  69.73            0    1.269    0.212
        85  -9.6773    216.2311    155.1799   5.8492709727e+01   8.1786622013e+00    0.1811629    0.1521343 -54.46 0.0003474404    1.309    0.236
        86 -10.1884    220.2848    143.9812   5.5435471717e+01   9.5913156423e+00    0.2010869    0.1597733 -38.15 0.0006213924    1.088    0.081
        87 -10.8201     57.9891    139.6365   9.6368762335e+01   4.0203053182e+01    0.6922869    0.2945273  48.82  0.002186335    3.121    0.680
        88 -10.6128     17.6967    137.4105   1.0908638097e+02   4.4821889189e+01    0.3118595    0.2069323  54.04  0.001348218    1.718    0.418
        89  -9.8743     20.8107    134.8333   1.0774293267e+02   4.5257530093e+01    0.2080997     0.156513 -70.31  0.000889478    1.168    0.144
        90 -10.7771      9.0777    136.9993   1.1174985267e+02   4.5519335327e+01    0.3107101    0.1537743 -66.33 0.0006142457    1.639    0.390
        91 -10.4782      2.4790    136.7153   1.1375954284e+02   4.5985630807e+01    0.3331152    0.1031146 -71.08  0.001292245    2.531    0.605
        92  -9.2930    143.5631    137.4696   7.0260518244e+01   2.5832809990e+01    0.1568689    0.1526851 -37.44 0.0001943671    1.034    0.033
        93 -10.0393    249.1447    134.1207   4.8907295836e+01   6.6032977439e+00    0.1909635    0.1532866 -27.55 0.0004791401    1.195    0.163
        94 -11.5613     55.5051    132.6327   9.5861903053e+01   4.2355202290e+01    0.6407769    0.2941607  23.62  0.002474132    2.435    0.589
        95  -9.5144     79.9845    132.7727   8.7787666270e+01   3.8862185811e+01    0.2010402    0.1295554  30.43  0.000523678    1.611    0.379
        96 -11.4555     36.6003    130.2769   1.0180973048e+02   4.5071086743e+01    0.5630416    0.2721421 -43.31  0.002332543    2.048    0.512
        97 -11.1475     73.9732    129.1356   8.8958077286e+01   4.0722538167e+01    0.3665752    0.3109765 -47.33 0.0008504397    1.117    0.105
        98 -11.3981     24.1511    126.0326   1.0534486371e+02   4.7281489247e+01    0.2813166    0.2105559  19.60 0.0007590542    1.510    0.338
        99 -10.4086     20.4578    122.0379   1.0599152992e+02   4.8597197780e+01    0.3377427    0.1290288 -40.91  0.001288405    2.712    0.631
       100 -11.1823     10.6698    123.0490   1.0947962017e+02   4.9002424284e+01     0.299361    0.2710327  47.75  0.001000091    1.278    0.218
       101 -10.5231     17.5282    125.5478   1.0751708799e+02   4.7906624917e+01    0.2721146    0.2027004 -37.27 0.0009286846    1.337    0.252
       102 -10.6637     13.6769    125.7025   1.0883284140e+02   4.8130659155e+01    0.2145425    0.1961436  84.78 0.0006684405    1.168    0.144
       103  -9.9473    220.0264    124.2702   5.1295823683e+01   1.3284429616e+01    0.1876293    0.1699049 -44.90 0.0004608902    1.045    0.043
       104  -9.4174     32.4792    121.5461   1.0171894180e+02   4.7728751358e+01    0.1425606    0.1254247 -52.21 3.767178e-05    1.008    0.008
       105 -10.4222     73.0672    118.1425   8.6740916663e+01   4.3647673859e+01    0.3903902    0.2423963 -89.92  0.001247048    3.242    0.692
       106  -9.8857      1.4332    118.9463   1.1205704482e+02   5.0554009683e+01    0.1995063     0.108279 -70.72 0.0003374707    1.522    0.343
       107 -10.1636     23.4743    117.8091   1.0425583185e+02   4.9451828596e+01    0.2062803    0.1629977  -3.62 0.0003702411    1.418    0.295
       108  -9.7195    179.2274    116.3888   5.6918849088e+01   2.2877141872e+01    0.1983835    0.1436365  61.17 0.0006097374    1.574    0.365
       109  -9.6430     85.5758    116.4724   8.2097200961e+01   4.2039930473e+01    0.1564735    0.1453396 -25.19 6.190056e-05    1.035    0.034
       110 -11.1204     16.5250    115.2659   1.0631075204e+02   5.0607278094e+01    0.3899389    0.2079203 -29.88  0.001401456    2.083    0.520
       111  -9.7828    214.0394    115.3346   5.0330820528e+01   1.6037041096e+01    0.1802163     0.176312 -73.75 0.0004616422    1.121    0.108
       112 -11.1767    249.4378    112.4149   4.4587296646e+01   1.0218480576e+01     0.250136    0.1847993 -56.47  0.000643448    1.260    0.206
       113  -9.1364     74.0000    112.9785   8.5161116865e+01   4.4784139627e+01    0.2466398    0.0840878 -54.05 0.0007852896    2.825    0.646
       114 -11.5723     37.0370    110.1191   9.7896492512e+01   5.0211197492e+01    0.4452821    0.3092744  66.17   0.00153762    1.989    0.497
       115 -10.3191     37.0070    103.6753   9.6548433201e+01   5.1820951085e+01    0.3621557    0.2617748  44.88  0.001868938    1.655    0.396
       116 -11.5593     55.2466    109.4145   9.1005364747e+01   4.8326793471e+01    0.4684857    0.2716188 -48.69  0.001394583    1.562    0.360
       117  -9.2684    207.4957    110.5362   5.0343081152e+01   1.8188171119e+01    0.1404677    0.1260403 -49.34 0.0001478538    1.004    0.004
       118 -11.9427     13.9211    109.1680   1.0627251381e+02   5.2316895068e+01    0.4653316    0.2879621  -2.20  0.002394976    1.900    0.474
       119 -10.6204      1.2395    108.7268   1.1078958848e+02   5.3120617395e+01    0.3596585    0.1765356 -74.77  0.001139299    1.823    0.451
       120 -10.3547      2.4856    105.4430   1.0987713348e+02   5.3875983891e+01    0.2170027    0.1629241 -70.93  5.44042e-05    1.182    0.154
       121 -11.1869     23.6997    106.4073   1.0215868877e+02   5.2318089510e+01    0.3736022    0.2880433  78.08  0.001673163    1.611    0.379
       122  -9.4750     99.5174    107.4131   7.5170557393e+01   4.1669726225e+01    0.1534677    0.1498804   9.39 0.0001741803    1.045    0.043
       123  -9.0573     82.6471    108.2511   8.0967212823e+01   4.4521746454e+01    0.1504605     0.119753  62.97 0.0006950537    1.597    0.374
       124 -10.3553     95.1825    112.3114   7.7872861138e+01   4.1339061193e+01    0.2870684    0.2646626 -45.61 0.0009007811    1.090    0.083
       125 -11.0330    120.1873    101.0486   6.7167397435e+01   3.8895201374e+01    0.6978015    0.3137798 -29.51  0.002077283    3.709    0.730
       126 -10.7721     52.0389    103.9223   9.0892571486e+01   5.0082883053e+01    0.2372348    0.1973933 -33.34   0.00108391    1.110    0.099
       127 -10.1113     77.6680    102.3378   8.1113225778e+01   4.6750807597e+01     0.152575      0.12238  75.36 0.0007051968    1.740    0.425
       128  -9.7091     25.6908    102.2916   1.0060668236e+02   5.3182334613e+01    0.1299409    0.1040182  66.16 0.0002550134    1.583    0.368
       129 -11.0516     19.3674    100.9591   1.0278536482e+02   5.3991945169e+01    0.2325468    0.1812077 -16.09 0.0002130629    1.331    0.249
       130  -9.9204     24.0215     99.2334   1.0064129920e+02   5.4067669973e+01    0.2486576    0.1862531  11.10 0.0007218667    1.462    0.316
       131 -11.5315    143.6083     98.4158   6.0256056868e+01   3.4303606148e+01     0.684495    0.4253131  51.13  0.002974659    1.632    0.387
       132 -11.8345     62.9783     98.6306   8.5446072903e+01   4.9890436371e+01    0.5343477    0.3238912  17.28  0.002339461    1.876    0.467
       133 -11.1954     64.6476     93.9280   8.3545509631e+01   5.0741610841e+01    0.6600091    0.2086277  37.22  0.002194999    3.199    0.687
       134 -10.8044     50.7269     99.2802   9.0254920282e+01   5.1369513792e+01    0.3044409    0.2213245  -6.34   0.00102799    1.518    0.341
       135 -11.7274     10.9602     90.6438   1.0414767041e+02   5.7038220723e+01    0.3633282    0.3196163  32.02 0.0008011432    1.372    0.271
       136 -12.6777    157.2391     83.0126   5.2982235993e+01   3.4122348779e+01     1.651679    0.9741004 -35.44  0.007293794    1.787    0.440
       137 -11.8298     14.6690     97.6965   1.0399907667e+02   5.5108673539e+01    0.3965568    0.2436355 -62.64  0.002081122    1.404    0.288
       138 -10.8650      5.1429     98.0745   1.0775124358e+02   5.5556277545e+01     0.239909    0.1689923  -6.12 0.0008657888    1.579    0.367
       139  -8.9303     33.2866     97.3024   9.6587817732e+01   5.3739777159e+01    0.1465339   0.09103501 -33.37 0.0002010774    1.560    0.359
       140  -9.2650    250.3116     95.6817   4.1188992695e+01   1.2797243893e+01    0.1279763   0.08158067 -63.79  0.000462005    1.644    0.392
       141 -10.6182     37.2721     94.7973   9.4429208446e+01   5.3954300841e+01    0.2508862    0.2354415  67.41 0.0006223719    1.306    0.235
       142  -9.4854    205.4849     97.5125   4.7729152399e+01   2.0932279025e+01    0.1401614    0.1238663 -58.70 0.0002000338    1.032    0.031
       143  -9.1770    113.4509     93.4965   6.6964931998e+01   4.1913948432e+01    0.1551084    0.1458333   4.01 0.0001260389    1.059    0.055
       144  -8.9617     31.3041     93.3061   9.6472625589e+01   5.4885664564e+01    0.1475101   0.08956573 -32.28 0.0005987703    1.602    0.376
       145  -9.9133    127.4994     92.5182   6.2735456228e+01   3.9076317288e+01    0.1520033    0.1488104  25.03 0.0001014833    1.001    0.001
       146 -10.5869     56.5873     90.2314   8.5609076541e+01   5.2734260058e+01    0.3625865     0.266712 -55.58  0.001841652    1.407    0.289
       147 -10.5787     59.6834     89.6611   8.4247647249e+01   5.2434447934e+01    0.2599824    0.1918797 -34.71 0.0007989972    1.274    0.215
       148  -9.3458     46.5264     92.5085   9.0179732495e+01   5.3483651837e+01    0.1420312    0.1294473 -31.45 2.585037e-05    1.052    0.049
       149 -10.6863     25.5200     91.3215   9.8368014767e+01   5.5860240886e+01    0.2869702    0.2063377 -54.54  0.001015172    1.225    0.184
       150 -11.6609     21.9419     87.6215   9.9016145494e+01   5.7020147935e+01    0.5300979    0.2138615 -51.35  0.001978354    1.960    0.490
       151 -10.3264     96.7613     89.5313   7.0955890602e+01   4.6145205005e+01    0.3714984    0.1455164  42.82  0.001291747    2.542    0.607
       152 -10.0204     83.0218     88.8773   7.5396641106e+01   4.8860793649e+01    0.2272361    0.2068119  -9.92 0.0005419808    1.041    0.039
       153 -10.5426     78.5183     87.7184   7.6646706756e+01   4.9901306271e+01    0.3407378    0.2605121 -60.31  0.001667096    1.562    0.360
       154 -11.9833      4.8787     84.5647   1.0548580635e+02   5.8802229540e+01    0.7350866    0.2810023 -44.38  0.003083311    2.069    0.517
       155 -10.5197     65.1611     87.6516   8.1569763063e+01   5.2082587535e+01    0.2581805    0.2069597 -44.61 0.0009724639    1.222    0.182
       156 -11.3407     63.3375     83.0180   8.0903013663e+01   5.3374341667e+01    0.6270877    0.2127182  37.37    0.0021987    2.979    0.664
       157 -10.0475     46.9405     87.7784   8.8767724701e+01   5.4531959236e+01    0.2222586    0.1558991  52.04 0.0009675735    1.934    0.483
       158  -9.7272    120.9822     86.7324   6.2836564746e+01   4.1657839829e+01    0.2120655    0.1938525  37.89  0.000552481    1.065    0.061
       159  -9.5257    116.4678     83.7019   6.3203546358e+01   4.3233975510e+01    0.2772973    0.1329102  44.94  0.001064953    2.025    0.506
       160 -10.3285     73.9911     82.6971   7.6773278490e+01   5.1744926631e+01    0.2098036     0.184278  18.64 0.0004961524    1.105    0.095
       161 -11.1587     30.9441     81.7327   9.3813303480e+01   5.7623618986e+01    0.4053323     0.249357 -18.69  0.001344399    1.735    0.424
       162  -9.3877     79.5322     82.5077   7.4699377321e+01   5.0830171194e+01    0.1504724    0.1353662  -4.56 8.502193e-05    1.043    0.041
       163 -10.5763     41.7756     81.6008   8.9202573218e+01   5.6534972105e+01    0.3664811    0.2545975 -84.41  0.001221739    2.404    0.584
       164 -12.0150     21.1636     76.9576   9.6840333287e+01   5.9540482593e+01    0.7158252     0.399933 -50.75  0.002816603    1.494    0.331
       165 -11.9111      6.4604     52.2425   9.7223989159e+01   6.5834163049e+01    0.8184069    0.3079273 -47.64  0.003930126    1.989    0.497
       166 -10.9462      6.7783     41.5208   9.3773390693e+01   6.7924059129e+01    0.7498614    0.1258469 -42.38  0.002669216    3.864    0.741
       167 -10.7732     14.4563     59.4137   9.5285634870e+01   6.3843606132e+01    0.4105686    0.2229176  39.54  0.001555281    2.519    0.603
       168 -12.0191     12.2792     48.6882   9.3163683294e+01   6.6167687482e+01     1.026633    0.4338694 -56.55  0.004856978    2.308    0.567
       169 -12.9114     10.4519     74.9561   1.0109951750e+02   6.0719324317e+01     1.008695    0.7158537  33.89  0.005891524    1.728    0.421
       170 -14.1758     16.7038     67.5248   9.6439415486e+01   6.1959216460e+01    0.5829002    0.4882911   8.28  0.001743538    1.279    0.218
       171 -11.8608      6.4550     67.5834   1.0120703941e+02   6.2585946517e+01    0.4498701    0.1741435 -57.73 0.0009395859    2.052    0.513
       172 -12.2742      2.4730     61.8907   1.0172523459e+02   6.4023904902e+01    0.4146697    0.3002204 -52.39   0.00159953    1.192    0.161
       173  -9.7321    112.3903     79.7699   6.3183774457e+01   4.4871071900e+01     0.195211    0.1424724 -27.10 0.0002513674    1.499    0.333
       174 -10.9278     60.6409     77.8135   8.0376255121e+01   5.4890205694e+01    0.3166196    0.2929262  78.99  0.001168376    1.450    0.310
       175 -11.2840     51.6729     62.5798   7.9123699538e+01   5.9265107905e+01    0.3961086    0.3546562  48.58   0.00235409    1.465    0.317
       176 -10.8609     54.4319     74.6690   8.1904239185e+01   5.6443934454e+01    0.3917017    0.2543562  38.38  0.001040021    1.684    0.406
       177 -12.0965     50.1404     68.6275   8.1779810883e+01   5.8277203755e+01     0.401085    0.2693177 -35.78 0.0007994208    1.380    0.275
       178 -12.8181     44.6026     75.0777   8.6135419883e+01   5.7635961654e+01    0.3368112    0.2788078  34.91 0.0004480044    1.387    0.279
       179 -10.7758     36.1457     68.5154   8.7844059621e+01   5.9999143210e+01    0.4374848    0.2496289  46.84  0.001102208    2.606    0.616
       180 -10.5933     74.2048     75.3944   7.4400033063e+01   5.3213017305e+01    0.2522539    0.1825552 -28.06 0.0007614004    1.390    0.281
       181  -9.4603     70.1870     76.5682   7.6282185416e+01   5.3652076974e+01    0.1881043    0.1327046  18.34 0.0009144717    1.464    0.317
       182 -11.1372     93.0325     73.9649   6.7342271625e+01   4.9993785554e+01    0.5087274    0.2765439  30.82  0.001289633    2.024    0.506
       183 -10.6646    207.4941     73.4045   4.1965736959e+01   2.4542942876e+01     0.215069     0.195759 -71.89   0.00024516    1.057    0.054
       184 -12.5417    164.4018     88.7267   5.3010075251e+01   3.1450735033e+01    0.4904829    0.3468569  -8.94  0.001695785    2.162    0.538
       185  -9.8671    137.4774     73.9683   5.4858731232e+01   4.0285963253e+01      0.21128    0.1464857 -37.45 -5.104395e-05    1.505    0.336
       186 -10.1464    101.5476     72.6470   6.4200885107e+01   4.8504590510e+01    0.3452449    0.2331492  78.29  0.001356848    2.819    0.645
       187 -12.2770    166.7522     83.9172   5.1283647818e+01   3.1780401472e+01    0.8745542    0.4729373  55.72  0.003778025    1.863    0.463
       188 -11.5386     77.7879     70.1072   7.1354641191e+01   5.3617382366e+01    0.4614796    0.2678925  33.45  0.002097571    1.682    0.406
       189  -9.9625    195.0104     69.9947   4.2965421644e+01   2.7757728378e+01      0.19788    0.1819391 -74.81 0.0003759306    1.044    0.042
       190 -10.3919    167.8333     69.8221   4.7394426616e+01   3.3918658806e+01    0.1947955    0.1862916  48.67 0.0003041185    1.140    0.123
       191 -12.2471    122.7954     64.1262   5.5506887176e+01   4.5321163948e+01    0.3613687    0.2585256 -38.97 0.0003157458    1.480    0.324
       192  -9.7629    119.6294     60.7150   5.5252381974e+01   4.6592781625e+01    0.2604539    0.1867839  41.26 0.0007254105    1.339    0.253
       193 -10.6001     42.9518     68.3855   8.4797484750e+01   5.9245551314e+01    0.2779707    0.2063937   5.23  0.001537157    1.314    0.239
       194  -9.2525    110.4830     68.6217   6.0253937952e+01   4.7315056754e+01    0.1471785    0.1332713  32.96 4.275174e-05    1.040    0.039
       195 -11.2267     94.3786     66.2366   6.4371035501e+01   5.1138434330e+01    0.4479796    0.3103028   9.21 0.0009497758    1.854    0.461
       196 -12.0004     44.8865     38.6669   7.3238145490e+01   6.4435278806e+01    0.6156293    0.2946487  44.82  0.001545616    2.695    0.629
       197 -11.6166     52.5818     40.3801   7.0502216352e+01   6.3011371117e+01    0.4372932    0.2310562  36.19  0.001350753    1.775    0.436
       198 -12.0891     37.0056    243.5669   1.1427329731e+02   1.7019606952e+01    0.6782893    0.3251142 -88.49  0.002891281    2.319    0.569
       199 -11.0499     26.6990     55.9875   8.8294169887e+01   6.3520099442e+01    0.3188063     0.206501 -32.21 0.0003499701    1.329    0.248
       200 -11.9569     26.9687     49.9030   8.6116536029e+01   6.4671009324e+01    0.5021085    0.3919314 -53.81  0.001999526    1.534    0.348
       201 -11.8806     30.3831    234.2190   1.1501991800e+02   1.9747114016e+01    0.5368792    0.2271089  80.92  0.002261116    3.000    0.667
       202  -9.2107    127.5164     66.4844   5.5043713898e+01   4.3852167921e+01    0.1452485    0.1375765  50.23 0.0002666664    1.009    0.009
       203  -9.4657    143.9275     64.4965   5.0664119576e+01   4.0358255084e+01    0.2105054    0.1355096  56.03 0.0004118754    1.474    0.321
       204 -10.9387     76.5089     63.5521   6.9603048889e+01   5.5066839195e+01    0.3386931    0.2578968  28.09   0.00180187    1.235    0.190
       205  -9.4947    113.3546     61.1886   5.7069923488e+01   4.7929891257e+01    0.1970394    0.1317382 -47.24 0.0009316743    1.688    0.408
       206 -10.7219     69.3332     58.7947   7.0627401424e+01   5.7190036425e+01    0.4466992    0.2424652 -40.68  0.002060796    1.889    0.471
       207  -9.4513    183.5141     60.3981   4.2381233736e+01   3.1789395415e+01    0.1358773    0.1198672 -83.71 0.0001244858    1.039    0.038
       208  -9.9814     98.1340     60.1449   6.1144288983e+01   5.1403719802e+01    0.1809567    0.1698284  79.77  0.001028979    1.278    0.217
       209 -12.0055     60.5333     56.2028   7.3181252956e+01   5.9115700965e+01    0.7548332    0.4283073 -19.86  0.003346756    2.206    0.547
       210 -10.1290     55.8056     53.6707   7.4220029958e+01   6.0304896507e+01    0.2689637    0.1817445   5.58  0.001382626    1.583    0.368
       211  -9.7734    124.4864     58.1026   5.3210104270e+01   4.5890966221e+01    0.1947874    0.1432433 -34.11 0.0003341695    1.463    0.316
       212  -9.8262    147.0261     56.9396   4.7853315997e+01   4.0793900623e+01    0.2181348     0.161536 -74.87 0.0004371186    1.620    0.383
       213  -9.9632    231.1834     55.3914   3.5271124480e+01   2.2413012531e+01     0.251949    0.1515136 -68.91  0.001400774    1.665    0.399
       214 -10.3548     75.0989     56.0398   6.7477111152e+01   5.6639334249e+01    0.2047178    0.1828957   5.12 0.0003364498    1.033    0.032
       215 -12.9574    105.5578     52.5979   5.6403206182e+01   5.0999519600e+01    0.4629052    0.3123429  48.82 0.0006206722    1.364    0.267
       216 -11.6318    128.9269     49.4267   4.9469959668e+01   4.6140150155e+01    0.4512533    0.3825948   9.75  0.001689821    1.384    0.277
       217 -10.4636    131.1877     42.0626   4.6705452585e+01   4.6607539278e+01    0.3105378    0.2146723 -54.53 0.0006770842    1.693    0.409
       218 -10.5810    132.4034     54.0374   5.0101837225e+01   4.4663526052e+01    0.4111035    0.2159461  48.57  0.001817057    1.775    0.437
       219  -9.1004     82.4472     54.5040   6.4307325820e+01   5.5506587557e+01    0.1420837     0.124685  15.26 2.147631e-05    1.029    0.029
       220  -9.9183    120.1467     52.5718   5.2534671461e+01   4.7722112722e+01    0.2672755    0.1813777  32.86 0.0008729574    1.610    0.379
       221 -10.9127     87.8649     51.4179   6.1379598001e+01   5.4922669502e+01    0.3340735    0.1874269 -31.18  0.001543467    1.926    0.481
       222  -9.5769    172.5618     52.5211   4.2100395316e+01   3.5445064484e+01    0.1345269    0.1226068 -89.75 0.0004227886    1.017    0.017
       223  -9.8277    237.3910     51.2272   3.3824374634e+01   2.1791253847e+01    0.1766923   0.08858433 -49.30 0.0009508171    1.653    0.395
       224 -10.0905     78.0017     51.0002   6.4599350115e+01   5.6924846445e+01    0.2868025    0.1938079  50.71  0.001194601    1.624    0.384
       225 -11.0382     78.6431     47.0651   6.2920754956e+01   5.7414299394e+01    0.2339738    0.1965657  14.59 0.0004476809    1.092    0.084
       226 -11.6413     34.9895     42.5212   7.9456382989e+01   6.5113797740e+01    0.6521515    0.3174905   8.64  0.002754289    2.822    0.646
       227 -10.6413    200.0802     49.6324   3.7548178237e+01   2.9651272909e+01    0.2059146    0.1717039 -49.43 0.0003195044    1.192    0.161
       228 -10.1800     52.9438     50.0041   7.4079710009e+01   6.1378603391e+01    0.2103149    0.1771931   2.43 0.0006418267    1.012    0.012
       229 -10.2532    151.1375     46.8276   4.4199925214e+01   4.1260163207e+01    0.3588839     0.200185 -20.06  0.001559296    2.549    0.608
       230  -9.1196    205.7382     48.7062   3.6655680593e+01   2.8556994847e+01    0.1094315    0.1001641  28.79 0.0001606576    1.502    0.334
       231  -9.7479     59.2648     47.4653   7.0456100201e+01   6.0812348277e+01    0.1716183    0.1216597  41.39 0.0006190638    1.503    0.335
       232 -10.3265    143.0450     45.5721   4.5359662520e+01   4.3344854904e+01    0.2688384    0.1958102 -68.80 0.0006255353    1.619    0.382
       233 -10.3216    139.1430     43.1616   4.5414343863e+01   4.4587820410e+01    0.2152474    0.2029396 -34.28 0.0005320472    1.181    0.153
       234  -9.2326     62.6713     46.7553   6.8801464535e+01   6.0360803905e+01     0.136049   0.09293937  10.77 0.0002245774    1.539    0.350
       235 -10.6480     95.1010     44.0504   5.6475800543e+01   5.4505778352e+01    0.7638141     0.333483 -17.54  0.002391053    4.849    0.794
       236 -10.9572     91.0103     41.9890   5.6974384783e+01   5.5656880551e+01    0.5535814    0.2314825 -44.76  0.002155267    3.125    0.680
       237 -10.2338     83.1332     44.7049   6.0504806031e+01   5.6884508047e+01    0.2049206    0.1821657 -38.28 0.0003999839    1.315    0.240
       238  -9.2971     51.0000     44.9567   7.2996562539e+01   6.2521044625e+01    0.1990218    0.0713382 -41.30 0.0005740501    2.824    0.646
       239 -10.9263     81.3006     35.8809   5.7785086092e+01   5.8474975639e+01    0.3752517    0.2316997 -33.63  0.001948806    1.778    0.438
       240  -9.3627     84.7670     34.6811   5.6206586838e+01   5.7925052395e+01    0.1812934    0.1573543  17.76  0.000300334    1.083    0.076
       241 -12.3375    226.5618    245.0187   7.3388766795e+01  -8.7237200813e+00    0.6830329    0.3304014  -7.33  0.003021891    2.962    0.662
       242 -11.0929     69.7176     36.9039   6.2233392348e+01   6.0581342637e+01    0.4572827    0.2606031  -8.73  0.001931294    2.483    0.597
       243 -10.9277     72.7508     43.0001   6.3496191385e+01   5.9142417052e+01    0.4693469    0.3373947  77.85  0.001629629    2.912    0.657
       244 -11.2421     67.5097     41.5174   6.4880612719e+01   6.0323292292e+01    0.2513115    0.2107835  30.07  0.001514471    1.129    0.114
       245 -10.3036    107.9203     42.2171   5.2239018225e+01   5.1950161005e+01    0.4135986    0.1897493  37.25  0.001258792    2.475    0.596
       246 -10.4087     18.5100     42.3401   8.7764376801e+01   6.6877252684e+01    0.5579017    0.1346199 -42.08  0.002109096    3.337    0.700
       247 -11.1692     23.4408     41.2103   8.4772437485e+01   6.6619950445e+01    0.5717326    0.3981172 -82.51  0.002532678    4.088    0.755
       248 -12.8632     27.6929     38.0402   8.1359051824e+01   6.6726989036e+01    0.5660265    0.3325228 -16.79  0.001174228    1.700    0.412
       249 -11.6370     24.2798     34.9829   8.1922485704e+01   6.7612176140e+01     0.262901    0.1825854  -5.67 0.0008304421    1.249    0.199
       250 -10.2126    148.2191     41.3711   4.3185175546e+01   4.2671731800e+01    0.3103912    0.1895363 -27.31   0.00153206    1.927    0.481
       251 -12.1865     30.5844     64.1229   8.9028595347e+01   6.1492788355e+01    0.7330538    0.5213527 -36.38  0.002730786    1.211    0.174
       252 -10.3999    112.6656     46.0106   5.2283434872e+01   5.0364763262e+01    0.2779061    0.1793848  45.31 0.0007954765    1.408    0.290
       253 -11.0903    225.2527     38.2019   3.2373724315e+01   2.5897325042e+01     0.219782    0.1695172 -80.79 0.0003298221    1.118    0.105
       254 -10.1655    152.4984     39.0468   4.1783889456e+01   4.1954776109e+01     0.197373    0.1677515  72.39 0.0004558821    1.055    0.052
       255  -9.8949     85.9702     38.7577   5.7361273726e+01   5.7143074516e+01    0.1829913     0.150614  37.06 0.0001940434    1.073    0.068
       256  -8.8286    160.2845     38.2709   4.0298103640e+01   4.0216081177e+01    0.1258072   0.09678458  40.42 0.0001761532    1.500    0.333
       257  -9.9191      1.4342     37.8939   9.5538957385e+01   6.8929911437e+01    0.1714029    0.0950458 -48.48 0.0003734686    1.511    0.338
       258 -10.6243    101.0028     36.1815   5.1991275698e+01   5.4269790429e+01    0.2818109    0.2289854  67.04  0.001614319    1.340    0.254
       259  -9.8437    171.9559     36.0575   3.7987512782e+01   3.7766861207e+01    0.1993052    0.1440876  42.51 0.0006294438    1.655    0.396
       260  -9.7776    134.4939     35.9964   4.4182106651e+01   4.6591542163e+01    0.1946388    0.1358264 -30.89  0.001041128    1.614    0.381
       261 -10.1012     15.0798     13.8594   7.7764930591e+01   7.1833735994e+01    0.1751196    0.1312661  -3.35 0.0004214189    1.025    0.025
       262 -10.8420      8.2460     33.3607   9.0110783130e+01   6.9324647138e+01    0.4366581    0.2540601 -54.06  0.002511645    1.869    0.465
       263 -11.5289     16.7926     31.6000   8.4621309095e+01   6.8923147991e+01    0.6036751    0.2634978  13.37  0.002769421    2.418    0.586
       264 -10.1704     72.7429    245.4251   1.0666544154e+02   1.2290107875e+01    0.2445686    0.1909302  36.39 0.0008048293    1.165    0.142
       265 -13.1760     74.8219    237.5395   1.0539988676e+02   1.3673371966e+01    0.8337184    0.6697978  60.29  0.005042911    1.171    0.146
       266 -11.0301      7.1007     25.1078   8.7574184379e+01   7.0831118665e+01    0.3619356     0.151141  19.38  0.001126269    2.276    0.561
       267 -11.1495     14.2412     23.1372   8.2532027689e+01   7.0538555310e+01    0.3962826    0.1987673  -5.68  0.001985534    2.295    0.564
       268 -11.3022      6.0047     20.7443   8.6415140770e+01   7.1629770302e+01    0.2775013    0.1698795  -3.11 0.0003561657    1.410    0.291
       269  -9.7828    109.5406    242.6902   9.8023953127e+01   7.7695852158e+00    0.2319896    0.1346483  48.18 0.0007023246    1.719    0.418
       270 -10.4448    108.4354     34.4298   4.9445023089e+01   5.2825838610e+01    0.2384716    0.2092655  86.87 0.0005315311    1.325    0.246
       271 -11.2892    221.7342     32.2133   3.1484405735e+01   2.7359908993e+01    0.2224544    0.1666047 -60.28  0.000290546    1.129    0.114
       272 -10.2753    205.8933     32.2812   3.3028608092e+01   3.0652741173e+01    0.1662493    0.1376103  89.83 0.0002707445    1.088    0.081
       273  -9.3704    189.6625     32.2844   3.4805695559e+01   3.4198887679e+01    0.1327367   0.08333408 -73.03 0.0007013788    1.628    0.386
       274  -9.9613    166.6087     32.2461   3.7763670277e+01   3.9469999798e+01    0.1626716    0.1285404 -17.06 0.0005625009    1.636    0.389
       275 -10.7217     48.3187     31.6061   6.8748376146e+01   6.4985024192e+01    0.2477349     0.176483   8.88 0.0001897719    1.285    0.222
       276  -9.9256     50.6294     27.6676   6.6038543316e+01   6.5163805279e+01    0.2816343    0.1597757  17.43  0.001408416    1.923    0.480
       277 -10.2648     44.1884     30.9178   7.0325805405e+01   6.5710752372e+01    0.2432974    0.1585239 -20.14 0.0009234466    1.496    0.331
       278 -10.1483     90.3504     20.3601   4.9101672448e+01   5.8392318271e+01    0.3686382    0.1337077  52.76  0.000825913    2.239    0.553
       279  -9.4297     98.4862    242.4614   1.0052712882e+02   9.3932932031e+00    0.1339643    0.1157839  41.32 0.0004374069    1.022    0.022
       280 -10.5042     94.1833     22.4087   4.8833949733e+01   5.7349732472e+01    0.2607431    0.2172887  46.66  0.001066637    1.040    0.039
       281 -11.5772    103.7960     29.3900   4.8860206142e+01   5.4462045608e+01    0.6144253    0.2121474  45.23 0.0002606635    2.611    0.617
       282 -11.1659    100.7234     27.7128   4.9050463118e+01   5.5336369020e+01    0.5097005    0.2377344  30.65 0.0002232718    3.004    0.667
       283 -10.7259    237.5003     29.3527   2.9586304404e+01   2.4598722331e+01    0.2181155    0.1512709  40.91  0.001304842    2.471    0.595
       284 -10.6677    111.5775     27.3634   4.6281281578e+01   5.2927782951e+01    0.4034838    0.2249495 -12.69  0.001393005    2.493    0.599
       285 -10.4670     60.1064     27.1243   6.1884630860e+01   6.3624553879e+01    0.1957624    0.1766499 -11.12  0.001289692    1.253    0.202
       286 -10.6225    175.0097     26.9108   3.5291384566e+01   3.8147901443e+01    0.1924889    0.1659992 -65.67 0.0002723568    1.137    0.120
       287  -9.7191    132.5824     26.0935   4.1539393888e+01   4.8178682170e+01    0.2281737    0.1759946 -24.46  0.001333952    1.524    0.344
       288 -10.6900     88.7796    241.3220   1.0261595004e+02   1.0983852948e+01    0.2400243     0.157141 -34.64   0.00121395    2.069    0.517
       289 -10.5075     59.9882    241.4769   1.0912655837e+02   1.4745464872e+01    0.1965517    0.1132622  33.51  0.001029162    1.583    0.368
       290 -10.7001     69.8750     26.3314   5.7894519547e+01   6.1918231483e+01     0.429498    0.1874219  36.57  0.001915069    2.139    0.533
       291 -10.0789    204.1795     26.1875   3.1880249347e+01   3.1748610311e+01    0.1753945     0.117457 -65.91 0.0005261901    1.340    0.254
       292 -11.2550    193.1856     24.4196   3.2608005355e+01   3.4341600246e+01    0.4579685    0.1451216 -47.35  0.001919207    2.957    0.662
       293  -9.3162    143.9926     26.4732   3.9656192522e+01   4.5445245767e+01    0.1867759    0.1043975 -87.75 0.0008086497    2.455    0.593
       294  -9.8791      1.4653     25.9067   9.1277768070e+01   7.1091764190e+01    0.1651205   0.09396356 -43.73 0.0003727067    1.504    0.335
       295  -9.5855    214.4830     25.5203   3.0769433613e+01   2.9654321960e+01    0.1193569   0.09723371 -77.02 0.0002756657    1.029    0.029
       296 -11.9454    165.0843     23.0001   3.5584495592e+01   4.0873509400e+01    0.2723969    0.2045551  75.63  0.001650744    1.154    0.133
       297 -10.0200    195.5133    238.8336   7.8453568363e+01  -3.8824727761e+00    0.2240622    0.1542274   0.91  0.001279721    1.358    0.263
       298 -10.8578    244.0379    237.2353   6.8906727797e+01  -9.5713682356e+00    0.2150237     0.141803 -26.58 0.0008826713    1.265    0.210
       299  -9.6295    226.1896     22.2923   2.9125236025e+01   2.7649630241e+01    0.1639522    0.1248311  70.63 0.0006938427    1.399    0.285
       300 -10.8585     59.3674     20.7334   5.9413832200e+01   6.4530230545e+01    0.3576331    0.1929251 -15.18  0.001074407    2.203    0.546
       301  -9.6472    134.6979    238.6535   9.1709751613e+01   4.8733382140e+00    0.1386474   0.09913965  -9.23 0.0004400997    1.687    0.407
       302  -9.0384    197.6070     21.2824   3.1455727133e+01   3.3727996451e+01    0.1324459   0.07564811 -72.72 0.0004566538    1.755    0.430
       303  -9.4609    120.4774     20.9340   4.2242941526e+01   5.1550035323e+01    0.1642895    0.1314133 -24.50 0.0003495756    1.462    0.316
       304 -10.1429     67.4797     21.4028   5.6687270886e+01   6.2947761626e+01    0.2543509    0.1398857  49.20  0.001312114    1.679    0.404
       305 -10.1610    173.1956     20.4065   3.3908689816e+01   3.9281584247e+01    0.1847782    0.1044973  85.04 0.0009453903    1.743    0.426
       306 -10.3500    159.8748    235.8969   8.5604935741e+01   1.6594622765e+00     0.211337    0.1648697  -0.31 0.0004814835    1.242    0.195
       307 -10.1608    221.2588    234.5829   7.2640493053e+01  -6.5196195619e+00    0.1709144    0.1015686  13.90 0.0008573604    1.611    0.379
       308 -10.8607     41.5355     19.4694   6.6444438637e+01   6.7658398027e+01    0.3252676    0.1974885  34.14  0.001265916    1.459    0.314
       309 -10.3609    153.1944    231.3915   8.6392905384e+01   3.4978029665e+00    0.4048153    0.2187313 -71.29  0.001274977    5.615    0.822
       310 -10.0975     23.9602    232.4824   1.1627764120e+02   2.0798860050e+01    0.2066689    0.1534455 -64.70 0.0006557213    1.465    0.317
       311 -11.1837    107.9741     17.8066   4.3825598260e+01   5.4733586455e+01    0.3292002    0.2048897  36.97   0.00176424    1.611    0.379
       312  -9.3638    227.5022    231.5040   7.0935442467e+01  -6.8077086408e+00    0.1264789    0.0970001  -8.41  0.000810679    1.004    0.004
       313  -9.5446     82.4269     17.7123   5.0324558579e+01   6.0341550242e+01       0.1555    0.1170265   3.09 0.0004645791    1.448    0.309
       314 -10.1795     38.2276    232.8085   1.1320751135e+02   1.9198302561e+01    0.1857257    0.1439722  66.05 0.0005838476    1.119    0.106
       315  -9.5218    169.9801    229.0288   8.2254901037e+01   1.4293349776e+00    0.1661093    0.1428902   2.94 0.0004278666    1.019    0.018
       316 -11.1979      4.4066    226.4843   1.2003382674e+02   2.3983408668e+01    0.3280898     0.204269  66.84  0.001884312    1.354    0.262
       317 -10.9213     86.6786    233.2782   1.0218230182e+02   1.2973826812e+01    0.2709425     0.137068  42.90   0.00125371    1.760    0.432
       318  -9.2066    143.2959     16.7239   3.6977777539e+01   4.6617393359e+01    0.1251482   0.08879801 -77.40  0.000152136    1.529    0.346
       319 -10.3720    106.2036     23.0976   4.6066547222e+01   5.4606109302e+01    0.2214569     0.177055  73.24 0.0002972975    1.320    0.242
       320  -9.2190    114.2559     12.6411   4.0760748600e+01   5.3773108512e+01    0.1982282    0.1367306 -52.30 0.0007847337    1.785    0.440
       321  -9.7828    116.0350     15.4944   4.1352481057e+01   5.3104382412e+01    0.2534359    0.1424829  58.35  0.001323498    1.463    0.316
       322 -11.1842    120.8266    226.2923   9.3158231661e+01   9.4580279017e+00    0.2263516    0.1979676 -78.02 0.0008147793    1.365    0.267
       323  -9.8259     66.0123    226.4765   1.0628910134e+02   1.7255983079e+01    0.2004143    0.1219954  33.02 0.0008228081    1.542    0.352
       324  -9.3421    105.3132    223.3384   9.6470522618e+01   1.2438995978e+01    0.1417378    0.1066581 -15.74  0.000370955    1.694    0.410
       325 -10.2197    226.3202     13.3391   2.7378998728e+01   2.8631711059e+01    0.1677855    0.1075641 -39.13 0.0008042479    1.611    0.379
       326 -11.0246    229.3074     12.2912   2.6965082487e+01   2.8156912275e+01    0.1772774   0.08606371  68.00 0.0005284786    1.986    0.496
       327  -9.5875     31.0647     12.6447   6.8296370876e+01   7.0031407229e+01    0.1635706    0.1179947  17.49 0.0005438837    1.112    0.101
       328 -10.7301     21.0565    221.5449   1.1616733986e+02   2.3528552611e+01    0.2781999      0.12748  78.81  0.001047287    2.391    0.582
       329  -9.1852    190.3375    226.3214   7.7413092655e+01  -1.0453775759e+00    0.1425903   0.09146085  -5.98 0.0007050329    1.712    0.416
       330  -9.5862     13.2949    221.3113   1.1785029858e+02   2.4326856828e+01    0.1132794    0.0881563 -50.10 0.0002503708    1.594    0.373
       331 -10.0810    175.5185     11.4694   3.1471271504e+01   3.9669293554e+01    0.1228642    0.1012252  86.94  5.05337e-05    1.020    0.020
       332  -9.3984    176.0347    219.4641   7.9293225180e+01   2.3006558916e+00    0.2015358    0.1107792   8.94 0.0008093913    2.545    0.607
       333 -10.0950    194.9742     16.9657   3.0758532472e+01   3.4774554326e+01    0.1775334    0.1440457 -83.88            0    1.006    0.006
       334 -11.4532      9.9216    217.2350   1.1833059735e+02   2.5559495454e+01    0.3470052    0.2101844  41.76  0.001669104    1.530    0.346
       335  -9.9611     38.0958    217.5158   1.1198521247e+02   2.2671852956e+01    0.1893555    0.1200856  33.30 0.0009440823    1.551    0.355
       336  -9.2489    107.5061     10.4928   4.1402384474e+01   5.5503426997e+01    0.1285946    0.1059527  54.64 0.0008106175    1.005    0.005
       337 -11.0301     29.3697    215.9362   1.1387653390e+02   2.3974767171e+01    0.3100727    0.2645946 -17.08  0.001229575    1.591    0.371
       338 -11.5511    235.9376    214.3531   6.6373970051e+01  -5.1516882993e+00    0.3195727    0.1707106 -27.44  0.001060252    1.651    0.394
       339 -11.6418    238.1347    210.4716   6.5283080993e+01  -4.8040162761e+00     0.405322    0.3355124  68.77  0.002350354    2.534    0.605
       340  -9.9522    136.7691    215.8002   8.7714888272e+01   9.1827392024e+00    0.2442591    0.1468436 -10.42 0.0009465481    2.745    0.636
       341  -9.8099     73.9918    215.9955   1.0319348700e+02   1.8596657659e+01    0.1678532    0.1527934  55.13 0.0004713325    1.009    0.009
       342 -10.4556     24.0647    216.3231   1.1511937752e+02   2.4425859487e+01    0.1824796     0.163525  -4.12 0.0009311581    1.479    0.324
       343 -10.4227     21.0986    212.4969   1.1551251236e+02   2.5607618368e+01    0.3160545    0.1564612  46.98  0.001215208    1.819    0.450
       344  -9.5805    208.5182    211.9765   7.1136091650e+01  -1.1101835951e+00    0.1975062    0.1164279 -35.16  0.001010941    1.548    0.354
       345 -10.3770      1.5784    211.2290   1.1979443217e+02   2.7651328763e+01    0.2812673    0.1671717 -64.37  0.001399744    1.665    0.399
       346 -11.7617      5.5979    208.5628   1.1875025951e+02   2.7931599930e+01    0.4440421    0.2284569 -82.63  0.002351456    1.711    0.415
       347 -11.0048      2.5182    205.4957   1.1925143253e+02   2.8900941366e+01    0.2967803    0.1303018 -73.28    0.0014709    1.969    0.492
       348 -10.3979     10.8219    208.3871   1.1756497774e+02   2.7521276881e+01    0.2365071    0.1708619 -42.16  0.000568872    1.788    0.441
       349  -9.2414    188.2195    205.0355   7.4042917493e+01   3.1628053674e+00    0.1783673    0.1066531 -40.02 0.0004869974    1.610    0.379
       350 -10.8755    245.9116    203.0192   6.2577397967e+01  -4.5756404179e+00    0.3359739    0.2442183  54.05  0.001900104    2.511    0.602
       351 -11.1380     16.7926    193.2046   1.1504761454e+02   3.0630054809e+01    0.3867483    0.2723131  25.60  0.001667753    1.601    0.375
       352 -10.5097    175.4123    202.5538   7.6376617423e+01   5.6707153501e+00    0.2447128    0.2159496   4.12  0.000477958    1.035    0.033
       353  -9.7451    117.0401    201.7663   9.0287132835e+01   1.5471498161e+01    0.2019863    0.1178786  33.89 0.0008765449    1.622    0.383
       354 -11.1220     19.9524    201.5218   1.1494512569e+02   2.8320731497e+01    0.6639352    0.1680074 -74.04  0.002341017    3.543    0.718
       355  -9.5864    222.3099    192.3645   6.4800458237e+01   3.7876286786e-01    0.1431443   0.09027126 -13.08    0.0007039    1.752    0.429
       356 -10.3085    244.7374    188.5422   6.0104151456e+01  -2.0576440585e+00    0.2340872    0.1266907 -29.76 0.0005996828    1.598    0.374
       357  -9.6090    212.2190    188.3668   6.5948423654e+01   2.5948963663e+00    0.1747253    0.1263008  41.41 0.0006225701    1.637    0.389
       358 -10.1136     58.8040    182.1994   1.0287067859e+02   2.8912862987e+01    0.2233999    0.1899305  71.39 0.0007470667    1.170    0.145
       359 -11.3622     16.0343    182.7404   1.1436555609e+02   3.3288407405e+01    0.4881268    0.2579785  79.71  0.002294389    1.985    0.496
       360 -10.3966    167.7663    183.5941   7.4447477488e+01   1.0867401364e+01    0.2081498    0.1380103  44.09 0.0009525937    1.642    0.391
       361  -9.2606      1.5563    180.5178   1.1783776237e+02   3.4975458733e+01    0.1277287    0.1054997 -87.21 0.0001246888    1.025    0.025
       362  -9.9041    244.4796    178.4876   5.8249134557e+01  -3.3133108635e-01    0.2400188   0.09813616 -32.20  0.001027255    2.316    0.568
       363 -10.7296     46.5818    177.6778   1.0566382691e+02   3.1548758942e+01    0.3159722    0.2621828 -87.24   0.00105971    1.145    0.126
       364 -10.7835     34.0415    173.9876   1.0869529627e+02   3.3849154710e+01    0.2195086      0.17885 -76.14 0.0003378186    1.109    0.098
       365 -10.7388     18.2755    173.3280   1.1292242505e+02   3.5476668628e+01    0.2970823    0.2090735  55.96  0.001410259    1.428    0.300
       366  -9.1125     74.3215    171.3092   9.6868696164e+01   2.9649064118e+01    0.1542269    0.1134219 -27.55 0.0005459806    1.646    0.392
