#   1 NUMBER                 Running object number                                     
#   2 MAG_AUTO               Kron-like elliptical aperture magnitude                    [mag]
#   3 X_IMAGE                Object position along x                                    [pixel]
#   4 Y_IMAGE                Object position along y                                    [pixel]
#   5 X_WORLD                Barycenter position along world x axis                     [deg]
#   6 Y_WORLD                Barycenter position along world y axis                     [deg]
#   7 A_WORLD                Profile RMS along major axis (world units)                 [deg]
#   8 B_WORLD                Profile RMS along minor axis (world units)                 [deg]
#   9 THETA_WORLD            Position angle (CCW/world-x)                               [deg]
#  10 FWHM_WORLD             FWHM assuming a gaussian core                              [deg]
#  11 ELONGATION             A_IMAGE/B_IMAGE                                           
#  12 ELLIPTICITY            1 - B_IMAGE/A_IMAGE                                       
         1 -12.1492    191.6240     33.5501   6.1263423478e+01   3.3566892006e+01    0.8719572    0.7500783 -78.38  0.003567505    1.073    0.068
         2 -12.6277    200.4300     22.2339   5.7767248747e+01   3.2981251850e+01    0.7504781    0.6868505  31.93  0.001861798    1.562    0.360
         3 -10.9908     49.7333      8.1015   8.3644296418e+01   6.5524100778e+01    0.3499552    0.1312293  41.88  0.001799111    2.225    0.551
         4  -9.1778     46.5910      2.2014   8.2306187324e+01   6.6533280989e+01    0.1492875   0.09024502  -3.95 0.0009554759    1.677    0.404
         5  -9.9445     92.8727    235.9449   1.2628767106e+02   1.1756389375e+01    0.2666434    0.2233072 -84.09  0.000353922    1.189    0.159
         6 -19.1032      6.5164    133.9768   1.3400806324e+02   4.6761549267e+01     19.15433     2.723787 -69.96   0.04717322    7.052    0.858
         7  -8.0542     66.3038    225.6955   1.3079015725e+02   1.7971999294e+01    0.1396799   0.08886232  69.29 0.0003907784    1.598    0.374
         8  -7.4708    164.6712    206.6587   1.0564725288e+02   5.8593713672e+00    0.1518557    0.1125061  -8.38 0.0007051424    1.741    0.426
         9  -9.9479    193.3050    192.8239   9.6814022103e+01   3.5879689606e+00    0.6224478    0.4757402 -79.96  0.002992454    1.975    0.494
        10 -10.3654    168.2325    233.5739   1.0960495647e+02  -1.6608337747e-01    0.4301619    0.2296847  18.83  0.001718376    2.745    0.636
        11 -10.5312     75.6003    180.2758   1.2243683970e+02   2.7578282025e+01    0.4564543    0.2850596 -38.96  0.002032411    1.993    0.498
        12 -10.5285     80.0011    174.4914   1.2035034791e+02   2.8370073289e+01    0.4590806     0.302038 -42.33  0.001342843    1.697    0.411
        13  -8.2635     99.5032    180.4940   1.1638718728e+02   2.3703735044e+01    0.1504521    0.1419682 -83.37 -7.488105e-05    1.006    0.006
        14  -8.0028    211.3272    178.6496   9.0333150216e+01   3.2404650533e+00     0.142244      0.11329 -78.84 0.0007048469    1.761    0.432
        15  -8.5026     66.0003    175.5302   1.2414127830e+02   3.0164182013e+01    0.2013053    0.1419033  36.84 0.0007797373    1.527    0.345
        16  -9.8151     48.2746    174.7402   1.2855551374e+02   3.2687202559e+01     0.344579    0.2133378  48.26  0.001719237    1.701    0.412
        17 -10.1572     43.3611    172.3268   1.2946576562e+02   3.3879863282e+01    0.2660092    0.2476746 -13.17   0.00155461    1.348    0.258
        18  -9.3724    110.0041    172.5289   1.1222468970e+02   2.3850201690e+01    0.2330051    0.1512081  39.65 0.0008360927    1.578    0.366
        19  -8.6488    195.7123    170.5225   9.1759284624e+01   7.7695734514e+00    0.2883991    0.2498465   5.52  0.001537861    1.281    0.219
        20  -8.2094    124.5829    171.1786   1.0825102130e+02   2.1496935965e+01    0.2201122    0.1412988 -42.45 0.0004985719    1.629    0.386
        21  -9.7984     98.0747    169.5898   1.1475352277e+02   2.6672568832e+01    0.4686534     0.255837  40.03  0.001950533    1.875    0.467
        22 -13.0580     58.1915    130.4979   1.1824342257e+02   4.2533553092e+01     1.670992    0.7623787 -66.57  0.006425834    2.461    0.594
        23 -12.0330     75.9438    160.2949   1.1892695701e+02   3.2583876517e+01    0.7106918    0.4935308 -53.47  0.001197332    1.347    0.257
        24 -10.6395     93.5644    157.4441   1.1359634881e+02   3.0491612349e+01    0.6579309    0.3925211 -36.48  0.001945594    2.048    0.512
        25  -8.2620    141.5415    158.7054   1.0139689144e+02   2.1193895922e+01    0.2087741    0.1499804 -62.55 0.0006776641    1.497    0.332
        26 -10.8228     47.8605    151.9584   1.2518849977e+02   3.8476591683e+01    0.3389625    0.2383153 -58.80  0.001786716    1.245    0.197
        27  -7.7885    113.2933    151.6611   1.0708482955e+02   2.8413604927e+01    0.1597161    0.1222812  85.95 0.0002287228    1.650    0.394
        28 -12.2814     68.2434    144.3168   1.1805702890e+02   3.7743393243e+01     1.017076    0.7157986  78.73  0.003628341    1.860    0.462
        29 -11.2375     46.8335    145.4001   1.2437057371e+02   4.0241346796e+01    0.4423939    0.2594147 -38.90  0.002052809    1.914    0.477
        30  -9.2584    105.8163    142.0418   1.0698009151e+02   3.2160480301e+01    0.5037861    0.3062725 -27.20  0.001914952    2.420    0.587
        31 -10.5712     93.8785    141.9879   1.1028351209e+02   3.4294784153e+01    0.3141143    0.2672735 -39.06 0.0004025207    1.191    0.161
        32  -9.0996    133.5764    142.8350   9.9813715293e+01   2.6570850017e+01    0.3748012    0.1491203 -56.97   0.00114275    3.109    0.678
        33 -10.6961     69.8900    135.1383   1.1572291318e+02   3.9788726792e+01    0.3553861    0.3264289 -68.31  0.002008669    1.066    0.062
        34  -9.3852    113.9099    131.6765   1.0236018422e+02   3.3129513565e+01    0.3026698    0.2546597 -28.85 0.0008780925    1.281    0.219
        35  -9.1573    101.3551    127.9262   1.0495231628e+02   3.6379601829e+01    0.2846549    0.2359097 -22.85  0.000591454    1.349    0.259
        36  -8.9129    105.6154    130.8315   1.0444640694e+02   3.4904368578e+01    0.3340894    0.2618658 -63.86  0.001173257    1.335    0.251
        37  -8.1082    109.5024    119.9994   1.0071406445e+02   3.6699741613e+01    0.2209826    0.1470636 -46.75 0.0009834797    1.453    0.312
        38  -8.0585    114.4715    118.4910   9.8958728611e+01   3.6073785053e+01    0.1525586    0.1482283 -56.43  8.31951e-05    1.025    0.024
        39  -8.6024    205.3692    110.1611   7.6627288980e+01   1.8175692610e+01    0.2357197    0.1949234  47.98 0.0005770719    1.356    0.262
        40 -10.8957     87.1126    164.5685   1.1670774732e+02   2.9759359171e+01    0.7728512    0.4173575  58.61 0.0008965892    2.485    0.598
        41  -7.5871    102.5101    110.4665   1.0025640893e+02   4.0177424102e+01    0.1491335    0.1440256 -30.60 1.913542e-05    1.002    0.002
        42  -8.2812    168.0609    112.2325   8.4279436390e+01   2.5936398543e+01    0.3043512    0.1940623 -69.27  0.001227506    2.138    0.532
        43  -9.0094    134.3671    102.9933   8.9693538071e+01   3.5293292890e+01    0.3502547    0.1432084 -43.61  0.001239169    2.436    0.590
        44  -9.3715     71.7621    230.1771   1.3012919590e+02   1.6184939271e+01    0.3224844    0.2195536  83.89  0.001643357    1.504    0.335
        45 -11.3806    162.9185    226.2109   1.0950349853e+02   2.1562454978e+00    0.5069221    0.3813092  30.22  0.002004007    1.278    0.217
        46  -8.1757    182.1475     78.1369   7.3166015917e+01   2.9155362376e+01    0.2026756    0.1594178 -81.57 0.0007400506    1.325    0.245
        47  -9.1733    163.6852     64.6402   7.3106400743e+01   3.5605610412e+01     0.271696    0.2118473 -84.15 0.0004624806    1.394    0.283
        48  -8.8196    127.5932    223.8165   1.1691408811e+02   8.7136364317e+00    0.1969783    0.1358718 -70.83  0.000954938    1.713    0.416
        49 -11.4491    181.4963     42.0262   6.4578456240e+01   3.4764304787e+01    0.5991948    0.4862208  36.34  0.002162669    1.590    0.371
        50  -8.8007    139.7769    249.1739   1.1806412215e+02   1.5453581761e+00    0.2283114    0.1363709  69.00 0.0009598007    2.882    0.653
        51 -10.0387     84.6533    234.7558   1.2790626000e+02   1.3270881027e+01    0.5566907    0.2757232 -74.53  0.002332297    2.404    0.584
        52 -10.5479    155.2455    236.6005   1.1286926177e+02   1.4123206636e+00    0.3995909    0.2009803  25.80  0.001648635    2.411    0.585
        53  -8.9438     61.9312    220.8863   1.3119059906e+02   1.9682033094e+01     0.219928    0.1379154  70.11 0.0007227411    1.639    0.390
