#   1 NUMBER                 Running object number                                     
#   2 MAG_AUTO               Kron-like elliptical aperture magnitude                    [mag]
#   3 X_IMAGE                Object position along x                                    [pixel]
#   4 Y_IMAGE                Object position along y                                    [pixel]
#   5 X_WORLD                Barycenter position along world x axis                     [deg]
#   6 Y_WORLD                Barycenter position along world y axis                     [deg]
#   7 A_WORLD                Profile RMS along major axis (world units)                 [deg]
#   8 B_WORLD                Profile RMS along minor axis (world units)                 [deg]
#   9 THETA_WORLD            Position angle (CCW/world-x)                               [deg]
#  10 FWHM_WORLD             FWHM assuming a gaussian core                              [deg]
#  11 ELONGATION             A_IMAGE/B_IMAGE                                           
#  12 ELLIPTICITY            1 - B_IMAGE/A_IMAGE                                       
         1 -14.8772      2.6894     78.1472   1.3429250743e+02   6.1736584174e+01       14.826     1.779914 -80.72   0.02359391   16.020    0.938
         2 -13.1585    202.3564     34.4013   5.8360009702e+01   3.0209050222e+01     1.144794    0.9468749 -31.95  0.006451246    1.292    0.226
         3 -13.6312    219.8455     17.7469   5.2970358814e+01   2.8319608631e+01     1.018996    0.8757391  14.91  0.006768788    1.705    0.414
         4 -12.5360      2.2043     15.0662   1.2012287324e+02   7.6727963627e+01     1.062015    0.2777069 -52.76  0.004428091    2.779    0.640
         5 -10.6241     22.8263     28.2458   1.0900791042e+02   7.2253226762e+01     0.346556    0.1478853  37.37  0.001499241    2.490    0.598
         6 -11.3952    160.2992    249.7621   1.0980665402e+02   3.2673998806e+00    0.3885404    0.1460254  30.55  0.001934364    2.064    0.516
         7 -11.8221    138.7533    248.6957   1.1400672334e+02   6.1245007997e+00    0.3957924    0.2907367  29.38  0.002682565    1.089    0.082
         8 -11.3640     36.5229    242.0043   1.3556688173e+02   1.9647286444e+01    0.5923817    0.2229906  64.14  0.002749132    2.889    0.654
         9 -11.5395     32.7900    248.7020   1.3667547300e+02   1.8810792895e+01    0.6902115    0.2563956  21.28   0.00307624    3.055    0.673
        10 -12.0355      4.3817    247.2845   1.4253624414e+02   2.1759738387e+01    0.7985985    0.3827294  67.27  0.002176653    1.794    0.442
        11 -11.6097     21.4134    243.9968   1.3889921766e+02   2.0795090245e+01    0.4849149    0.1801954  50.47  0.002181993    1.949    0.487
        12 -12.7882     12.3871    236.1762   1.4056521984e+02   2.3106523990e+01    0.8679341    0.5442536  82.41  0.004667364    1.583    0.368
        13 -12.5082      4.3545    226.0164   1.4202218914e+02   2.5789198766e+01    0.9101146    0.4301958  78.37  0.005125392    2.000    0.500
        14 -13.1691     10.3755    206.9658   1.4004399372e+02   2.9192682529e+01    0.9039438    0.6215452  23.64  0.002913347    1.495    0.331
        15 -14.4040    102.4409    228.6378   1.1964837276e+02   1.4177056188e+01     6.716955          nan  36.75   0.01273755   11.492    0.913
        16 -12.8548     24.0772    223.1932   1.3747907814e+02   2.4547531453e+01    0.3430725     0.301239  77.36   0.00078975    1.237    0.191
        17 -14.0337     30.0855    216.1203   1.3572988912e+02   2.5396658561e+01     1.247671     0.778173 -87.54  0.002367107    1.687    0.407
        18  -9.9189    101.0650    249.5029   1.2202256479e+02   1.0786574278e+01    0.1885348   0.09279852  31.29 0.0004040072    1.538    0.350
        19 -13.1220     40.7026    206.4807   1.3255788560e+02   2.6319739628e+01     1.233828    0.7595043 -84.31  0.005142513    1.742    0.426
        20 -10.5385    225.2097    199.7510   9.0500679371e+01   1.8752105488e+00     0.298847    0.2064565 -49.89 0.0005685108    2.283    0.562
        21  -9.2637    192.4578    193.9392   9.5322057861e+01   7.1035149337e+00    0.1594371    0.1115082 -62.36  0.000808698    2.683    0.627
        22 -11.5545     53.7125    191.6881   1.2802299839e+02   2.8104247837e+01    0.3240626    0.2639802 -27.69  0.001229667    1.619    0.382
        23  -8.2153    181.6828    192.3072   9.7135240497e+01   8.9377934616e+00    0.1151224    0.1021422  60.82 0.0003790247    1.632    0.387
        24 -11.3916      7.6690    186.2818   1.3993154700e+02   3.4009567988e+01    0.3527246    0.2230817  74.65 0.0006861149    1.400    0.286
        25 -11.7523     60.5366    184.1718   1.2543692349e+02   2.8983646020e+01    0.2822399    0.2614141 -15.61 0.0004787811    1.315    0.239
        26 -10.8181     71.8014    172.4110   1.2090130954e+02   3.0242954614e+01      0.25216    0.2376441  31.07 0.0003090614    1.120    0.107
        27 -13.1776     58.0536    169.6434   1.2455423517e+02   3.2761112545e+01    0.5403528    0.3053212 -44.35  0.001856869    2.239    0.553
        28 -11.7678     80.0467    163.9699   1.1735087853e+02   3.1065477940e+01    0.6174933    0.5892386  25.64  0.003560392    1.114    0.103
        29 -10.4074     22.8838    156.1526   1.3388762301e+02   3.9999630967e+01    0.2245128    0.1611704  59.21  0.000745979    1.253    0.202
        30 -10.0447     94.0669    149.1623   1.1078225144e+02   3.2395962945e+01    0.3418821    0.3074924  40.03 0.0009029838    1.049    0.047
        31  -9.0520     97.2413    145.3118   1.0912593623e+02   3.2777310012e+01    0.2283044    0.1845713  17.19 0.0007827572    1.372    0.271
        32 -11.8856     82.3316    147.8476   1.1410457923e+02   3.4654683499e+01    0.3047034    0.2684509 -41.04 0.0005190561    1.264    0.209
        33 -12.2868     67.6972    143.7569   1.1805630562e+02   3.7926062627e+01    0.7813425    0.4705906  56.96  0.002622865    1.795    0.443
        34 -10.1406     94.0852    132.0803   1.0746306477e+02   3.6555177386e+01    0.2489723    0.2314543 -17.38 0.0004567398    1.200    0.167
        35  -9.5910    107.0965    134.4218   1.0401508130e+02   3.3586926414e+01    0.5070257    0.3173309 -51.68  0.001667447    1.662    0.398
        36  -9.2149    105.0709    122.3346   1.0192792113e+02   3.6844724597e+01    0.2141405    0.1849815  43.17 0.0003511156    1.115    0.103
        37 -10.1135     53.4257    118.7096   1.1878199275e+02   4.6457679888e+01    0.2939817    0.1476644 -72.66  0.001144604    2.162    0.537
        38  -9.4288    167.6582    112.6734   8.3650064290e+01   2.5720087332e+01    0.2823449    0.2049159 -79.29   0.00114282    2.014    0.503
        39  -8.8983    203.4474    111.4879   7.6874762970e+01   1.8666138688e+01    0.1347351    0.1207767 -23.65 0.0001021983    1.068    0.064
        40 -10.5716    242.1641     94.1751   6.7851710981e+01   1.4259787723e+01     0.174046    0.1263009 -52.03  0.001086852    1.334    0.250
        41 -13.6029     59.3202    213.5912   1.2846578730e+02   2.2665860743e+01     9.169177     2.419001  57.50   0.01485025   18.570    0.946
        42  -8.8588    184.5247     77.4945   7.1670313077e+01   2.8155683582e+01    0.1400813    0.1307496 -54.71  6.33029e-05    1.026    0.025
        43 -10.8851     13.1076     61.5935   1.2607447364e+02   6.5407924815e+01    0.2794292    0.1785655 -58.63  0.001226437    1.389    0.280
        44  -9.3653     52.4293    241.2843   1.3203416889e+02   1.8058187060e+01    0.1524605   0.09943965  71.75  0.000939791    1.616    0.381
        45 -10.8161    104.8944    239.3422   1.2020854988e+02   1.1984970144e+01    0.1900793     0.163823  65.88 0.0005651622    1.376    0.273
        46 -10.1993     39.8901    234.2713   1.3442655926e+02   2.0747736784e+01    0.5793682    0.1486414  57.00  0.002023926    4.507    0.778
