#   1 NUMBER                 Running object number                                     
#   2 MAG_AUTO               Kron-like elliptical aperture magnitude                    [mag]
#   3 X_IMAGE                Object position along x                                    [pixel]
#   4 Y_IMAGE                Object position along y                                    [pixel]
#   5 X_WORLD                Barycenter position along world x axis                     [deg]
#   6 Y_WORLD                Barycenter position along world y axis                     [deg]
#   7 A_WORLD                Profile RMS along major axis (world units)                 [deg]
#   8 B_WORLD                Profile RMS along minor axis (world units)                 [deg]
#   9 THETA_WORLD            Position angle (CCW/world-x)                               [deg]
#  10 FWHM_WORLD             FWHM assuming a gaussian core                              [deg]
#  11 ELONGATION             A_IMAGE/B_IMAGE                                           
#  12 ELLIPTICITY            1 - B_IMAGE/A_IMAGE                                       
         1 -12.3456    161.9257     51.6292   4.4972126596e+01   3.7687623174e+01     1.800245     1.008968 -27.37  0.007732428    1.863    0.463
         2 -12.2130    151.2905     46.4505   4.5260522126e+01   4.1094529093e+01     3.372621     1.101508 -23.21  0.009305215    4.736    0.789
         3 -13.0157     87.2951     75.3505   7.1186278696e+01   5.0351831742e+01     2.107058     1.574494  11.01   0.01024304    1.782    0.439
         4 -14.0367    118.5944     58.7760   5.6673205536e+01   4.7020126814e+01     4.261161     2.732166  26.46   0.01817733    2.097    0.523
         5 -11.4796     29.9979     61.0137   8.7903252273e+01   6.1731462620e+01      1.39877    0.8282636 -36.97  0.007365439    1.709    0.415
         6 -12.7218     99.5503     45.5820   5.7069176363e+01   5.3493673411e+01     1.609618     1.002466 -51.20  0.007352532    1.861    0.463
         7  99.0000     62.0903     34.1873   6.4919042982e+01   6.2699007184e+01     2.895148      2.37207 -18.44   0.01723349    1.155    0.134
         8 -10.7397      6.4800     50.2842   9.5416518640e+01   6.6013832902e+01     1.535549     1.011224 -38.78  0.009533058    1.405    0.288
         9 -11.8987      4.7056     33.0688   9.1436041570e+01   6.9777609408e+01     0.913528    0.5883015 -50.57  0.005747115    1.224    0.183
        10 -11.2852     82.5935     29.9056   5.5820124412e+01   5.9508602322e+01    0.7584013    0.4987036 -17.06   0.00378434    1.670    0.401
        11 -12.0327    177.6677     53.0974   4.2767246752e+01   3.3571238702e+01     1.430807    0.9109136  -0.56  0.005941755    2.412    0.585
        12 -12.8160     51.3385     83.1170   8.5544225725e+01   5.4294430909e+01     2.367716     1.546905 -33.16   0.01190358    1.775    0.437
        13  -9.6262     38.0070     21.9877   6.9651431913e+01   6.8471685375e+01    0.5900053    0.4238624 -68.67  0.003108384    2.480    0.597
        14 -10.7857     44.6440     18.3703   6.4777945271e+01   6.8076493573e+01    0.4596579    0.3785662   6.03  0.001717787    1.148    0.129
        15  -9.0774     37.8455     16.0969   6.6774455129e+01   6.9437306762e+01    0.2607533    0.2195583 -61.72  0.001451654    1.712    0.416
        16 -12.6864    244.8241      8.8577   2.3953926794e+01   2.3237301414e+01     1.528026    0.8070988 -47.32  0.008390737    1.563    0.360
        17  -9.7415     92.1606     20.1993   4.8702942418e+01   5.8784085745e+01     0.756184    0.4323765 -21.80    0.0035944    1.830    0.454
        18 -10.0995      7.1376    166.2728   1.0993484430e+02   3.9381228625e+01    0.3387862    0.1360576  24.28  0.001677856    3.042    0.671
        19  -9.8322    215.1515    249.3251   7.7830433141e+01  -2.9632172507e+00    0.2595378     0.170901 -23.19   0.00187711    1.658    0.397
        20  -8.8605    206.3138    250.3239   7.9397081114e+01  -1.9072643410e+00      0.11016   0.06749933  11.71 0.0007041327    1.661    0.398
        21 -10.0046    188.2462    249.1424   8.2236666937e+01   6.6399418880e-01    0.2449767    0.1783122  35.18    0.0013919    1.169    0.145
        22 -10.3018    160.0136    249.5110   8.7122207922e+01   4.5467728064e+00    0.2914622    0.1252188  48.78   0.00148902    2.433    0.589
        23  -8.7233     37.9579    160.3009   1.0216147787e+02   3.7752241122e+01    0.2094683   0.04920085  48.78  0.000703769    4.210    0.762
        24 -10.0346      5.6465    158.3166   1.0975975711e+02   4.1237665374e+01    0.2841939    0.2087274 -68.32  0.001358972    1.365    0.267
        25 -10.1050     30.8640    156.4089   1.0351361635e+02   3.9374919290e+01    0.2654333    0.1890265  26.15   0.00161653    1.695    0.410
        26  -8.8147     51.0233    156.1146   9.8460505209e+01   3.7195540041e+01    0.1896752    0.1613797  85.37  0.000425563    1.022    0.021
        27  -8.3705    236.6908    146.6797   5.6605509430e+01   6.6754411622e+00    0.1317594   0.09012967   3.91 0.0007034542    1.643    0.391
        28 -10.0131     34.4103    144.0184   1.0130165584e+02   4.1842308852e+01    0.2251381    0.1780801  40.41 0.0007881614    1.360    0.265
        29  -9.0928     29.5238    143.2977   1.0250576730e+02   4.2505458252e+01    0.2928863    0.1023064 -69.33  0.001264536    2.433    0.589
        30  -8.6869      1.0000    143.0007   1.0983375432e+02   4.5001782446e+01    0.1884062   0.05466052 -78.34 0.0006792044    2.827    0.646
        31  -9.1877     15.6999    136.9536   1.0551718064e+02   4.5239667369e+01    0.3108215    0.1563548  81.81  0.001546952    2.014    0.504
        32  -7.9742     24.5205    134.4755   1.0287769190e+02   4.5036963793e+01    0.1266636    0.1031918  86.02 5.009665e-05    1.047    0.045
        33  -9.9537      8.6996    131.6654   1.0690558790e+02   4.7022838138e+01    0.2829123    0.2073636 -75.76 0.0005792812    1.160    0.138
        34  -8.8683     30.5179    133.0405   1.0106041162e+02   4.4799056872e+01    0.1927417    0.1093169 -74.37 0.0003707191    1.540    0.351
        35 -10.0805     73.7021    130.3426   8.8586858989e+01   4.0118799873e+01    0.2833084    0.2164622 -48.54  0.001358385    1.371    0.271
        36  -8.8592     43.4938    132.1088   9.7322252641e+01   4.3643268063e+01     0.191276    0.1151608 -70.24 0.0003700193    1.485    0.327
        37  -9.6560     83.3855    129.5280   8.5764332445e+01   3.8826232277e+01    0.2562365    0.2211576  82.54 0.0003622356    1.157    0.136
        38  -9.7821     24.3534    129.1483   1.0231652708e+02   4.6301533423e+01    0.2693139    0.2629131  47.42 0.0008010245    1.258    0.205
        39  -7.7314    130.3221    129.7174   7.3652595721e+01   3.0341055959e+01     0.146181    0.1146643  81.26 0.0002429388    1.591    0.372
        40  -8.4631     61.8253    132.8432   9.2316225393e+01   4.1204972476e+01    0.1846062    0.1441594  74.47 0.0002737054    1.289    0.224
        41  -9.6798      3.6439    124.9562   1.0768989864e+02   4.8942720906e+01     0.288847    0.1756047 -86.65  0.001145141    1.364    0.267
        42  -8.9016     10.2654    125.2137   1.0585737640e+02   4.8403315712e+01    0.1712829    0.1175444  76.86 0.0007366697    1.332    0.249
        43  -9.6554     88.4421    124.5252   8.3375550482e+01   3.9159971089e+01    0.2254198    0.1994948  26.99 0.0006796058    1.277    0.217
        44 -10.7026     41.5963    109.6711   9.4376653425e+01   4.9196083493e+01     0.429837    0.2796336 -33.37 0.0007437723    1.991    0.498
        45 -10.8533     43.2891    122.4308   9.5953183440e+01   4.5961661112e+01    0.4263734    0.2946312 -65.05 0.0002425429    1.289    0.224
        46  -9.7586     47.2120    111.2230   9.2898612928e+01   4.8181865173e+01    0.2776458    0.2074115 -48.57 0.0005191664    1.357    0.263
        47 -10.5584     76.6267    120.0280   8.5784956558e+01   4.2087403928e+01    0.4329391    0.2799623 -69.35  0.001626827    1.590    0.371
        48 -10.0653     44.2305    115.5431   9.4563857763e+01   4.7497152840e+01    0.4565477    0.2766288  42.86  0.002383847    1.735    0.424
        49  -9.2755     10.8823    120.0137   1.0514449880e+02   4.9573762788e+01    0.2827072    0.1816889 -44.52  0.001120813    1.792    0.442
        50  -8.1006    108.0051    119.9978   7.7086880554e+01   3.6736236582e+01    0.1704411    0.1649091  79.35 0.0009620167    1.023    0.023
        51  -9.8748     94.3927    119.9704   8.0763918140e+01   3.9193597965e+01    0.2482901    0.2107875  31.07 0.0004203271    1.298    0.229
        52  -9.4054     70.2148    120.1248   8.7656740349e+01   4.3024899465e+01    0.2011491    0.1792151 -48.85 0.0006012747    1.179    0.152
        53 -10.9411      3.8648    113.8711   1.0656792144e+02   5.1509365562e+01    0.5182471    0.2283125 -62.26  0.002142071    1.877    0.467
        54  -9.4719     81.7503    115.8536   8.3437700369e+01   4.2253598845e+01    0.2497416     0.210057  29.79 0.0005923272    1.332    0.249
        55  -9.2205     82.0593    111.2557   8.2337218409e+01   4.3268081700e+01    0.3307036    0.1878033 -39.81  0.000800964    2.048    0.512
        56 -10.0545     13.1369    113.5658   1.0375161712e+02   5.0920904395e+01    0.4751412    0.2328228 -64.10  0.002177147    1.683    0.406
        57  -8.6061     64.5268    114.2383   8.8179030477e+01   4.5226674409e+01    0.1996018    0.1169659 -49.99 0.0009418393    1.664    0.399
        58 -11.9442     56.1283    108.3319   8.9576260951e+01   4.7762233485e+01    0.8039937    0.6390878  20.45  0.004548349    1.520    0.342
        59  -9.6280     85.2458     94.2286   7.7234848624e+01   4.6617472414e+01    0.3693438    0.3411991 -76.22   0.00144238    1.092    0.085
        60 -10.4678     77.4772    107.4803   8.2844105434e+01   4.4878193750e+01    0.4078044    0.2892963  61.60  0.002029147    1.626    0.385
        61 -11.1164     80.6011     99.8491   8.0089276175e+01   4.6130954971e+01    0.4779023    0.3614619  42.39 0.0005271425    1.393    0.282
        62 -10.9565     75.3948     98.9612   8.1477667872e+01   4.7177052726e+01     1.121183    0.4992364 -38.11  0.003990949    3.107    0.678
        63 -10.5386     70.8837    104.1576   8.4098838598e+01   4.6670938723e+01    0.4029668    0.3258207 -62.68  0.001320029    1.153    0.133
        64 -11.3012     64.6880    102.7307   8.5712297287e+01   4.7915214991e+01    0.6427585    0.4362729 -20.39  0.002991696    2.230    0.552
        65  -9.2937     90.6345    113.0701   8.0271422804e+01   4.1415291854e+01    0.2527877    0.2070377  30.16 0.0006587835    1.362    0.266
        66  -8.7856     32.7756    112.8425   9.7641144276e+01   4.9367548798e+01    0.1869546     0.172815 -12.13 0.0004457149    1.344    0.256
        67  -8.4883     26.6505    111.2987   9.9306729602e+01   5.0323165416e+01    0.1327742   0.08567275  67.75  0.000703629    1.686    0.407
        68  -9.2864     89.8595    107.9084   7.9288731725e+01   4.2725493324e+01    0.2111899    0.1935262 -25.60 0.0003229763    1.214    0.176
        69 -13.7464    112.4495     94.0521   6.9315489390e+01   4.1503348122e+01     2.802381     2.526553  37.72  0.008432308    1.158    0.136
        70  -9.2686    139.5052    249.0363   9.0674235259e+01   7.4913296881e+00    0.1375967    0.1124383 -52.37  0.000569422    1.578    0.366
        71  -9.5930    133.5066    247.5119   9.1576433714e+01   8.5445108812e+00    0.1129332   0.08769182  41.26 2.767415e-05    1.012    0.011
        72 -11.9345     63.1073     82.9617   8.1403239413e+01   5.2708612114e+01    0.9556661    0.6744652 -37.62  0.002220575    1.470    0.320
        73 -11.8294    178.8542    242.5007   8.2976836751e+01   2.7727565161e+00    0.6102542    0.2714061  26.52  0.003046984    2.465    0.594
        74  -8.0098    212.2784    241.3265   7.7185590843e+01  -1.7214715740e+00    0.1094279   0.06914949   8.83 0.0002213559    1.593    0.372
        75 -11.9368     57.6264     55.0623   7.4835572855e+01   5.9529845498e+01     1.171032    0.8692716 -16.78  0.006319265    1.553    0.356
        76 -12.0945     34.3076     71.5927   8.8964750086e+01   5.8919747371e+01     1.055491    0.6733852 -20.84 0.0005669799    2.083    0.520
        77  -8.5883    221.0038    239.2963   7.5479066796e+01  -2.6663878234e+00    0.1580074    0.1142747  22.89  0.001158918    1.080    0.074
        78 -11.6846    128.1273     80.0821   6.1137713613e+01   4.0954505117e+01    0.7843137    0.4380731 -41.85 0.0002831545    1.750    0.429
        79 -11.3127    176.1967    239.2156   8.3008329610e+01   3.5655014153e+00     0.261743    0.2235241  35.04  0.001803627    1.170    0.145
        80 -11.7135     85.9998     47.4934   6.1932052049e+01   5.5984541248e+01    0.9716606    0.6838688  41.87  0.004984986    1.457    0.314
        81 -11.2418     40.1769     61.6530   8.3903912464e+01   6.0481810404e+01     0.667418    0.4801594  15.36  0.003773083    1.648    0.393
        82 -11.2909     43.0241     53.4190   8.0127464187e+01   6.1888993932e+01    0.5592068    0.3727982 -18.96 0.0007150069    1.849    0.459
        83  -8.3830    245.0000    242.0325   7.2118939062e+01  -6.0143919319e+00    0.1470447   0.05323581 -30.91 0.0005886926    2.893    0.654
        84 -12.0250    135.7030     76.5667   5.8224855658e+01   3.9889817958e+01    0.5984471    0.4644603 -71.52 0.0005341023    1.577    0.366
        85 -12.3151    140.5914     72.7420   5.5914373615e+01   3.9443447081e+01     1.125041    0.5300639  58.41  0.001301984    2.343    0.573
        86  -9.3099     13.3558    105.5148   1.0268461573e+02   5.2808021249e+01    0.2928793    0.1618357   0.10  0.001446638    2.872    0.652
        87  -8.3536    161.3069    104.9511   6.0512045499e+01   2.8734395611e+01    0.2083827    0.1847302 -35.82 0.0003795679    1.109    0.098
        88  -8.6710     35.8424    105.2127   9.5433559170e+01   5.0877993846e+01    0.2039182    0.1426724 -23.62 0.0006082496    1.950    0.487
        89  -8.5919     29.9130    103.4627   9.7056011067e+01   5.1886008656e+01    0.2072522    0.1493742 -66.72 0.0007123853    1.185    0.156
        90  -9.8644      2.3445    100.5205   1.0559198992e+02   5.4733592542e+01    0.4771292    0.1754302 -58.14  0.002267498    2.207    0.547
        91  -8.9110    144.9668    103.0229   6.3613132591e+01   3.2728277366e+01    0.2319698    0.2247069 -38.86 0.0003908283    1.021    0.020
        92  -8.3513    238.2071    220.6222   6.9901704327e+01  -2.9290613467e+00    0.1595125   0.08300786  26.78 0.0003659705    1.694    0.410
        93  -9.0421     55.1106    100.6539   8.8319753404e+01   4.9712986150e+01    0.1765395    0.1704276  12.25 0.0004677261    1.190    0.160
        94  -9.4947     61.4038     98.0356   8.5704190308e+01   4.9479266792e+01    0.4166669   0.09100836 -51.95  0.001269416    3.828    0.739
        95  -9.6580     34.1609     99.2352   9.4928586805e+01   5.2475174170e+01    0.2257835    0.1896596 -88.48 0.0002294385    1.148    0.129
        96  -8.1196     14.6552     99.7539   1.0148177560e+02   5.4074172857e+01    0.1196045    0.0833578 -41.56 0.0002525951    1.572    0.364
        97 -11.5071     46.0072     96.3938   9.0418540400e+01   5.1850829809e+01    0.7835975    0.4785979 -89.22   0.00211879    2.147    0.534
        98 -10.0693    219.7769    218.6972   7.2569442042e+01  -1.6270828605e-01    0.1819953    0.1492487 -10.27 0.0006081617    1.212    0.175
        99  -9.0713     21.0562     96.1799   9.8803564689e+01   5.4412237301e+01     0.378149    0.2107443  69.70  0.001404816    2.290    0.563
       100  -9.1980     10.8462     97.2935   1.0239838550e+02   5.4934315294e+01    0.2452366    0.1657387  -5.21  0.000940262    2.052    0.513
       101 -10.7991     72.0469     76.0304   7.6389659394e+01   5.2861858567e+01    0.4424219    0.3818136 -36.41  0.001301094    1.130    0.115
       102 -10.0320    134.9839     93.3032   6.3313242651e+01   3.6849424539e+01    0.2158242    0.1938838  48.37 0.0004488871    1.133    0.117
       103  -7.7704    178.6565     92.2767   5.3688155672e+01   2.7083752109e+01    0.1484474    0.1152416 -75.85 0.0007003805    1.625    0.385
       104  -9.9645    212.7051    216.2818   7.3368919123e+01   1.1484309819e+00      0.19611    0.1564232  17.37  0.000644556    1.018    0.018
       105  -9.0696     23.2906     90.0482   9.6991887617e+01   5.5674185390e+01    0.3588799    0.2431807 -21.14   0.00198616    1.948    0.487
       106  -8.9967    173.9765     87.1276   5.3174606054e+01   2.9050143628e+01    0.2135728    0.2088979 -13.32 0.0003722839    1.038    0.037
       107  -8.4714    177.4735     85.5435   5.2084039795e+01   2.8505992933e+01    0.2502074    0.1438426  55.93  0.001076121    1.812    0.448
       108  -9.5649    166.3814     85.0251   5.4064237099e+01   3.1188725018e+01    0.3347598    0.2415336 -26.56  0.001467549    1.460    0.315
       109  -9.8109    161.4956     84.1672   5.4803740501e+01   3.2485439161e+01    0.4728217    0.2988372  79.12  0.001883966    2.407    0.585
       110  -8.8377     14.9114     85.2597   9.9140919681e+01   5.7474730182e+01    0.3134439    0.2930691  78.61  0.002196938    1.177    0.150
       111  -8.2661      7.9913     87.5386   1.0197739733e+02   5.7423460942e+01    0.1517902    0.1237032  18.30 0.0003961754    1.513    0.339
       112  -9.1654     88.1917     84.0608   7.3517474877e+01   4.8334523204e+01    0.3076453    0.2022336  28.94 0.0008786642    1.819    0.450
       113  -8.3432     55.8817    216.8299   1.0329302658e+02   2.4028673582e+01     0.151645    0.1021411  62.88            0    1.235    0.190
       114 -11.6520    170.2794     76.6670   5.0939727018e+01   3.1695216192e+01    0.8190788    0.5688817  73.70  0.003775262    1.724    0.420
       115 -10.0632    174.1858     72.0465   4.8894992728e+01   3.1519767243e+01    0.3354035    0.3052164   4.99  0.001270732    1.211    0.174
       116  -9.7523    177.9633     68.0444   4.7079665641e+01   3.1248496407e+01    0.2652924    0.2525014 -53.44 0.0003409697    1.018    0.018
       117 -11.6294    170.1784     66.7810   4.8087259952e+01   3.3332122879e+01    0.7248822    0.4530988  53.50  0.003307817    1.621    0.383
       118  -9.9651     15.3387     75.3675   9.7180223617e+01   5.9749256242e+01    0.3154613    0.2281936  41.84  0.001437497    1.611    0.379
       119  -8.9899      7.4412     80.5334   1.0108701942e+02   5.9095536285e+01     0.470869    0.2233292 -27.94   0.00216703    3.027    0.670
       120  -8.8835      8.7982     75.9681   9.9804875911e+01   6.0067925468e+01    0.2974753    0.1845156  44.19  0.001719413    1.891    0.471
       121 -10.8275    186.5708     44.7110   3.8975720007e+01   3.2542330995e+01    0.4989643    0.1646466 -37.77   0.00171403    2.667    0.625
       122  -9.4657    160.9422     74.2752   5.2050754309e+01   3.4330742428e+01    0.2078493    0.1977617  55.03 0.0003798137    1.074    0.069
       123 -11.4863    192.6497     70.8205   4.5436015731e+01   2.7318600547e+01    0.5346546    0.3537846  70.83  0.002528249    1.725    0.420
       124 -12.0501     82.3627     56.3748   6.6432376526e+01   5.5067880012e+01     1.173047    0.6433318 -53.36  0.001726288    2.101    0.524
       125  -9.3206      6.8709     71.0471   9.9672061229e+01   6.1325651634e+01    0.2662735    0.2006015 -20.63 0.0009340596    1.560    0.359
       126 -10.9984     11.8742     67.5455   9.6982275792e+01   6.1797156342e+01    0.3063227    0.2563206 -67.78 0.0003685145    1.064    0.060
       127  -9.8657     18.2897     65.9653   9.4014324167e+01   6.1676526588e+01    0.2932202    0.2073807 -22.62 0.0006473481    1.635    0.388
       128  -8.6689     43.9760     69.1819   8.4577209225e+01   5.8370319863e+01    0.3014571    0.1820778 -18.73  0.001357929    2.522    0.603
       129 -11.0524    204.7082     57.4449   4.0037630335e+01   2.6444493249e+01    0.4572369    0.2148894  78.68  0.001668044    3.227    0.690
       130  -9.7986    213.8539     55.9282   3.8450482418e+01   2.4539341517e+01    0.2078915    0.1850985   1.81 0.0005371735    1.289    0.224
       131 -10.4455    190.1033     54.8240   4.1365771653e+01   3.0287691972e+01     0.228591    0.1863501 -61.38 0.0005636131    1.245    0.197
       132 -10.5774    193.7968     53.1811   4.0370900277e+01   2.9627962126e+01    0.3760515   0.09792658 -39.53  0.001203675    3.281    0.695
       133  -7.8800     21.6455     49.2520   8.8140259233e+01   6.5079300921e+01    0.1135688   0.09297474  66.75 0.0002360472    1.601    0.375
       134  -8.8682     23.6817     43.8902   8.5492990859e+01   6.6017987174e+01    0.2408554    0.1620414 -56.48 0.0007510298    1.337    0.252
       135  -9.7603     25.3422     39.3669   8.3134883975e+01   6.6777848653e+01    0.2484343    0.2300432 -48.96 0.0008572839    1.168    0.144
       136 -10.8581     30.7767     37.4828   7.9839538177e+01   6.6569551221e+01    0.2578305    0.2367289 -31.85  0.000424859    1.110    0.099
       137 -10.8897     72.4925     88.9442   7.9862901422e+01   4.9923728516e+01    0.5700227    0.4140095  53.06  0.001559488    1.542    0.351
       138  -8.8007     30.2584     42.9407   8.2100250737e+01   6.5540194332e+01    0.1845838    0.1682377  32.14   0.00041816    1.293    0.227
       139 -10.8162    111.9734     35.9176   5.0008705726e+01   5.2180133376e+01    0.7094774    0.5337889 -11.25  0.002649019    1.476    0.323
       140  -9.6643    164.0558     36.4239   3.9812906491e+01   3.9254190566e+01    0.2710714    0.2038085 -41.40 0.0005814155    1.307    0.235
       141 -10.5426    159.3307     32.3038   3.9236222265e+01   4.0972618176e+01    0.4047265    0.2364368 -64.58  0.001669279    2.204    0.546
       142  -8.0579    219.6583    210.2706   7.1234682953e+01   8.7603770047e-01    0.1020944   0.08949381  50.64 0.0002787434    1.609    0.378
       143  -9.9280    120.6340     31.4929   4.6265120228e+01   5.0732693331e+01    0.3482643     0.267361  88.97 0.0008205992    1.586    0.370
       144  -8.6391     32.4236     19.5528   7.1191765478e+01   6.9625007084e+01    0.2395774    0.2090698   5.67  0.001634076    1.151    0.131
       145  -8.7725    202.3837    208.7957   7.3942656884e+01   3.6493097450e+00    0.1577872    0.1043519 -20.16 0.0009443044    1.628    0.386
       146  -8.1872    101.1544    176.1370   8.9153794692e+01   2.5758920151e+01    0.1675784    0.1356024  69.11   0.00098022    1.220    0.180
       147  -8.6366      7.6745    174.6814   1.1033511311e+02   3.7537235587e+01    0.1053435   0.07935161 -53.92 0.0007045674    1.676    0.403
       148  -9.6829    107.5782     25.1816   4.6824962683e+01   5.4652799137e+01    0.2664745    0.2412177 -34.85 0.0005198424    1.147    0.128
       149  -9.3127    102.9331     24.5764   4.7730338356e+01   5.5806057152e+01    0.3466227     0.233947  18.27 0.0008199199    1.798    0.444
       150  -8.0556     23.2880     26.5874   7.9130050035e+01   6.9463593954e+01    0.1488271    0.1091166   2.72 0.0004816235    1.469    0.319
       151 -10.4046    132.8462     24.6453   4.1182296129e+01   4.8589032828e+01    0.3579682    0.2229563  49.01  0.001704537    1.562    0.360
       152  -9.1416     20.4942    173.5051   1.0741140875e+02   3.6630721950e+01    0.1173801   0.09448717  79.06 -0.0002504156    1.033    0.032
       153  -9.2344     84.7468     21.6563   5.1491716971e+01   6.0204392293e+01    0.3713506    0.2616806 -14.24  0.001969445    1.483    0.326
