#   1 NUMBER                 Running object number                                     
#   2 MAG_AUTO               Kron-like elliptical aperture magnitude                    [mag]
#   3 X_IMAGE                Object position along x                                    [pixel]
#   4 Y_IMAGE                Object position along y                                    [pixel]
#   5 X_WORLD                Barycenter position along world x axis                     [deg]
#   6 Y_WORLD                Barycenter position along world y axis                     [deg]
#   7 A_WORLD                Profile RMS along major axis (world units)                 [deg]
#   8 B_WORLD                Profile RMS along minor axis (world units)                 [deg]
#   9 THETA_WORLD            Position angle (CCW/world-x)                               [deg]
#  10 FWHM_WORLD             FWHM assuming a gaussian core                              [deg]
#  11 ELONGATION             A_IMAGE/B_IMAGE                                           
#  12 ELLIPTICITY            1 - B_IMAGE/A_IMAGE                                       
         1 -14.1386    171.0212     49.8576   6.6381698947e+01   3.6220328838e+01     1.952338     1.347639  24.51  0.005499598    1.787    0.440
         2 -14.2350    184.9463     35.7492   5.9406785936e+01   3.4509394554e+01     1.045493     1.007716  11.03  0.003633229    1.071    0.067
         3 -13.7671    189.5305     29.3843   5.6687832235e+01   3.4088494463e+01    0.7483107    0.6721628  52.19  0.001325665    1.111    0.100
         4 -13.4507    190.3243     15.3718   5.2146042342e+01   3.5478049596e+01     1.185817    0.5892364 -61.59   0.00441944    2.702    0.630
         5 -14.4917    206.8764      5.4730   4.7233783522e+01   3.2085169177e+01     1.846214     1.380279  13.12  0.007285914    1.633    0.388
         6 -11.9878     50.1840      4.9903   8.2662584290e+01   6.9180768142e+01    0.2163803    0.1720448  23.70  0.001031964    1.286    0.222
         7 -10.7297     67.0552    225.5078   1.2313333154e+02   2.2635011401e+01    0.2597411     0.142763  42.15  0.001727315    1.562    0.360
         8 -13.5307     11.9121    206.7196   1.3151917953e+02   3.1768123238e+01    0.6327536    0.3250064  30.12  0.004190465    2.438    0.590
         9 -18.5745     43.3060    242.9048   1.2803922677e+02   2.2690969476e+01     6.267547     4.956116  47.72    0.0529363    1.432    0.302
        10 -12.1979    153.1392    193.8694   1.0387139165e+02   1.4923546689e+01    0.3373163    0.2260625  61.77  0.001366693    1.649    0.393
        11 -10.7805     60.0189    188.5731   1.2159472032e+02   2.9932880029e+01    0.2555751    0.2013999 -71.75 0.0009209219    1.405    0.288
        12 -11.2074     99.8294    186.1028   1.1338631292e+02   2.4952844298e+01    0.2223437    0.1509434  48.73 0.0008438735    1.253    0.202
        13 -12.8381    135.9749    199.3057   1.0791142850e+02   1.6951054498e+01    0.3926873    0.2835414  71.78  0.002280833    1.576    0.366
        14 -11.3141    151.0053    182.9862   1.0265724126e+02   1.7044002060e+01    0.1973085    0.1679615  52.50 0.0004581458    1.068    0.063
        15 -11.7546     99.3641    180.7963   1.1284391549e+02   2.6004416201e+01    0.2490689     0.200324  58.62  0.000609383    1.045    0.043
        16 -12.1860    193.0379    194.9606   9.6606506805e+01   7.8033127650e+00    0.7918619    0.4558161 -63.59  0.003224621    4.583    0.782
        17 -11.4267    158.3423    201.8796   1.0403264349e+02   1.2814062213e+01    0.4205778    0.2592133 -87.61    0.0017767    4.179    0.761
        18  -9.7357    168.2869    176.6630   9.8226889157e+01   1.4941634985e+01    0.1926013    0.1660838  60.00  0.000458553    1.223    0.182
        19 -10.4456    165.8437    173.0424   9.8090239632e+01   1.5977678182e+01    0.2672393    0.2109262 -80.03 0.0008561203    1.755    0.430
        20  -9.7847     69.4802    172.9953   1.1820014492e+02   3.1733819986e+01    0.1671583    0.1314945  77.66 0.0004441706    1.079    0.073
        21 -10.0637     65.6445    171.0800   1.1881306015e+02   3.2608108715e+01    0.2459374    0.1268975  51.10 0.0005632874    1.689    0.408
        22 -10.6272    201.5680    168.9875   9.0511877067e+01   9.8693882758e+00    0.3375207    0.2308578 -52.36  0.001669012    2.012    0.503
        23 -11.1695    204.3663    165.4950   8.9333985304e+01   9.8413475531e+00    0.4741126    0.2717499 -42.07  0.001939392    2.029    0.507
        24 -11.8035    140.0049    169.1840   1.0270528067e+02   2.1383546744e+01    0.3698732    0.2118332  37.32  0.001828501    1.699    0.411
        25 -11.6523    194.0455    166.9883   9.1535872634e+01   1.1588804151e+01    0.3010386    0.2946076  45.37 0.0007525993    1.206    0.171
        26 -10.8740    190.1807    160.9973   9.1126934431e+01   1.3244481956e+01    0.3158031    0.2473065 -61.41  0.001072808    1.741    0.426
        27 -11.3846    189.1365    155.0522   9.0160655439e+01   1.4379889120e+01    0.4008924    0.3542451  60.51  0.001850116    1.274    0.215
        28 -10.7358    161.1882    166.2858   9.7844744625e+01   1.7974193312e+01    0.2704121    0.1897228  89.22 0.0007496262    2.370    0.578
        29 -10.8923    230.4889    166.4904   8.4917975673e+01   4.8519917886e+00     0.128957    0.1091656  17.68 -2.859163e-05    1.028    0.027
        30 -11.3547     85.7308    201.2611   1.1777138187e+02   2.4269160541e+01     0.483952     0.212947  63.72  0.002305536    2.680    0.627
        31 -10.2880      5.8471    161.9593   1.3056912082e+02   4.0599401199e+01     0.292873    0.1410341  28.47  0.001192729    2.491    0.599
        32 -12.9034     99.1662    153.5556   1.0918313584e+02   3.1373910085e+01    0.5603247    0.4106069 -41.36  0.003136414    1.752    0.429
        33 -11.6898    133.8046    145.2680   9.9867939233e+01   2.7013223859e+01     1.046937    0.2867372 -55.67  0.002920392    5.515    0.819
        34 -10.6750    113.1398    151.2167   1.0561800548e+02   2.9546348584e+01     0.263898    0.1679232 -88.46  0.001233856    2.199    0.545
        35 -11.2810     81.8867    195.0266   1.1790909358e+02   2.5906404566e+01    0.3150529    0.2353311  54.64  0.001603862    1.112    0.101
        36 -10.3234    174.7559    149.1083   9.1821392057e+01   1.8240630264e+01    0.2429136    0.1809874  54.43  0.000572776    1.356    0.262
        37 -10.8317     88.6670    145.1038   1.1035258729e+02   3.4759935129e+01    0.4869855     0.202436  60.49  0.001716312    3.793    0.736
        38 -12.3598    109.2515    139.5382   1.0452158151e+02   3.2607404552e+01    0.5577517    0.3538519 -32.09  0.002546358    2.437    0.590
        39 -12.5109     98.2329    139.0226   1.0708170570e+02   3.4553502595e+01     0.262863    0.2432716  72.98 0.0004754905    1.058    0.055
        40 -19.0772     24.5005    105.7981   1.2151469319e+02   5.1041785791e+01     15.30612    0.9000612 -71.25   0.02852436   14.295    0.930
        41 -11.5162    105.9650    130.7126   1.0370524030e+02   3.5032899378e+01    0.3656426    0.2989155 -79.81  0.001171306    1.245    0.197
        42 -11.5454    104.1249    125.8766   1.0324069046e+02   3.6384279035e+01    0.2698419    0.2478042 -12.41  0.000565671    1.364    0.267
        43 -10.9891    116.2945    129.8152   1.0099338248e+02   3.3396106069e+01    0.2967541    0.2453916 -28.02 0.0006554385    1.516    0.340
        44 -10.9856    135.8225    128.2776   9.5996737464e+01   2.9993283131e+01    0.4301549    0.1568493 -52.14   0.00149526    3.087    0.676
        45 -10.7565    160.4438    127.4139   9.0213768026e+01   2.5086581562e+01    0.3570271     0.250035 -69.34  0.001622958    1.999    0.500
        46 -10.4655    120.6754    123.9540   9.8722108315e+01   3.3812637728e+01    0.2230639    0.1753606 -33.74  0.001133645    1.503    0.335
        47  -9.8923    135.0000    119.9952   9.4373559119e+01   3.1829512853e+01    0.2374649   0.08285376 -46.89 0.0008038299    2.952    0.661
        48 -10.2100    111.1555    118.9892   1.0005926669e+02   3.6623657227e+01    0.2279811    0.1923132  52.73  0.000267932    1.163    0.140
        49 -10.7337    168.1867    113.0632   8.5141291359e+01   2.6053293448e+01    0.3254606    0.2691143 -74.07 0.0009358216    1.493    0.330
        50 -10.7301    135.0000    111.9574   9.2506296337e+01   3.3462611513e+01    0.3984334   0.08368691 -45.74  0.001042565    4.855    0.794
        51 -10.9307    117.4503    109.7164   9.6383450658e+01   3.7428628945e+01    0.3169373    0.1688155  55.81  0.001296366    2.161    0.537
        52 -10.5967    205.4952    110.1615   7.6975950335e+01   1.8096849807e+01    0.3255957    0.2009148  41.57 0.0009894276    1.605    0.377
        53 -10.5404     41.4079     91.9059   1.1447142704e+02   5.2661697152e+01      0.18874    0.1620673  65.45  0.000483621    1.235    0.190
        54  -9.4587    152.4939     80.4963   7.9880462925e+01   3.5724009748e+01    0.1518904    0.1501689  19.67 0.0002599785    1.002    0.002
        55  -9.1955     73.7715     73.6435   9.9981805111e+01   5.2790504527e+01    0.1371528   0.09532119 -34.56 0.0002774086    1.569    0.363
        56 -12.5798    168.3426     68.0943   7.2663060746e+01   3.4019571217e+01    0.7681361    0.4686215 -73.84 0.0009695084    3.080    0.675
        57  -9.5241    229.7076    244.6724   9.7824950698e+01  -3.5245730818e+00    0.1083706   0.06256084  18.93 0.0004108511    1.623    0.384
        58 -11.7121    158.9239    237.6719   1.0845998827e+02   7.8348477590e+00     0.233938    0.1873582 -21.27  0.001735901    1.765    0.433
        59 -11.0763    169.0072    235.8566   1.0654537083e+02   6.5100937583e+00    0.1644961    0.1567259  23.88 0.0003563339    1.295    0.228
        60 -12.3628    141.0463    198.1243   1.0678399190e+02   1.6300885451e+01    0.2929085    0.2584607 -69.34 0.0007763757    1.345    0.256
        61 -12.7070    133.5074    204.1358   1.0899817280e+02   1.6582314079e+01    0.4083277    0.2569289  85.03   0.00183726    2.528    0.604
