#   1 NUMBER                 Running object number                                     
#   2 MAG_AUTO               Kron-like elliptical aperture magnitude                    [mag]
#   3 X_IMAGE                Object position along x                                    [pixel]
#   4 Y_IMAGE                Object position along y                                    [pixel]
#   5 X_WORLD                Barycenter position along world x axis                     [deg]
#   6 Y_WORLD                Barycenter position along world y axis                     [deg]
#   7 A_WORLD                Profile RMS along major axis (world units)                 [deg]
#   8 B_WORLD                Profile RMS along minor axis (world units)                 [deg]
#   9 THETA_WORLD            Position angle (CCW/world-x)                               [deg]
#  10 FWHM_WORLD             FWHM assuming a gaussian core                              [deg]
#  11 ELONGATION             A_IMAGE/B_IMAGE                                           
#  12 ELLIPTICITY            1 - B_IMAGE/A_IMAGE                                       
         1 -12.2027     89.7898     21.7358   1.4711421664e+01   5.9946263692e+01    0.2563209     0.229974  -0.58 0.0003077345    1.190    0.160
         2 -11.4356     92.2300      9.0057   7.9976993702e+00   6.0756753320e+01    0.2089244    0.1727319  35.40 0.0005449773    1.238    0.192
         3 -11.5069     49.4954      8.4404   2.1423136160e+01   7.0763232319e+01    0.2178269    0.1937046  26.45 0.0005675397    1.026    0.025
         4 -10.4751      5.8165      7.8676   5.1068370438e+01   7.7794699471e+01    0.1426057    0.1395834 -51.62            0    1.325    0.245
         5 -11.5940     68.0257      5.8424   1.2749057646e+01   6.6947063886e+01    0.2144524    0.1841151  21.32 0.0002981429    1.157    0.136
         6 -10.6344    123.1318      7.2030   1.6958868185e+00   5.3017571658e+01     0.189457    0.1458105 -67.19 0.0003643348    1.301    0.231
         7 -10.8636    145.3278      1.3056   3.5692150013e+02   4.7844381985e+01    0.1754306    0.1107747  89.22 0.0006119779    1.500    0.333
         8 -12.4544     99.2110    247.0294   6.5065136665e+01   1.1404430208e+01    0.3144502    0.1873606  10.16  0.001258047    2.120    0.528
         9 -12.1405    139.1894    248.8924   5.7273682716e+01   6.3223080542e+00    0.2913339    0.1513954 -42.68  0.001724195    2.287    0.563
        10 -11.4256    121.0849    248.5280   6.0795810346e+01   8.5519391855e+00    0.2066889    0.1363795  26.22 0.0004680654    1.221    0.181
        11 -12.3082     65.3839    249.7242   7.2202522300e+01   1.4837599864e+01    0.6945653    0.1346576  35.04  0.002741508    3.095    0.677
        12 -11.7353     69.6714    248.2926   7.1226010702e+01   1.4605203411e+01     0.237801     0.155741  56.12 0.0009491401    1.441    0.306
        13 -12.6693     64.4969    245.5765   7.2102059777e+01   1.5643119051e+01    0.3455296    0.1621727  31.88   0.00193023    1.680    0.405
        14 -15.7979     25.7513    190.8663   7.7296560774e+01   3.0705746495e+01     2.480872      1.05353  74.84   0.01083674    2.612    0.617
        15 -15.3672      7.2874    184.8231   8.1614605432e+01   3.3713432125e+01     2.526593    0.7836266  66.58  0.009728029    3.323    0.699
        16 -15.5467     31.3217    229.4002   7.8147203418e+01   2.2093919401e+01     2.230527    0.8937854  68.33   0.01063488    2.759    0.638
        17 -13.8221     14.4235    195.6709   8.0350387414e+01   3.0667601966e+01    0.5362043    0.4252717 -12.50  0.003387555    1.781    0.439
        18 -14.2822      9.8405    208.6909   8.1980844944e+01   2.8256528343e+01    0.6351487    0.5122479   0.47  0.004279701    1.684    0.406
        19 -14.4376     20.5281    247.7016   8.1163268563e+01   1.9748418665e+01    0.7154336    0.3699016  20.01  0.003475136    2.138    0.532
        20 -15.2972      3.8208    223.1355   8.3787448984e+01   2.5825581760e+01     1.342018    0.6893805 -65.52  0.007853469    2.286    0.562
        21 -14.5405      3.2314    201.5202   8.3238643832e+01   3.0329884718e+01    0.8284376    0.4635136 -78.79  0.004844917    1.770    0.435
        22 -16.2369      8.7664    237.7499   8.3193170648e+01   2.2608430756e+01     1.242714    0.6284644  48.16  0.007859665    1.428    0.300
        23 -15.7385     16.1873    228.7380   8.1351658151e+01   2.3654615022e+01     1.277507    0.5015405  66.70  0.006467901    2.423    0.587
        24 -14.0559      1.7704    249.7409   8.4884487668e+01   2.1044612462e+01    0.2958025    0.1640536  79.66  0.001621423    1.706    0.414
        25 -14.6423      6.3479    247.9179   8.3956754754e+01   2.0976409540e+01    0.5497506    0.2079042  50.39  0.003025676    1.828    0.453
        26 -10.4123    238.2662    247.6344   3.9823947943e+01  -4.4363026400e+00   0.08322386   0.07165582  -8.20 0.0006989828    1.652    0.395
        27 -11.1878    214.8772    247.2108   4.3453976480e+01  -2.0582551747e+00    0.1457277    0.1136617   8.06 0.0005486078    1.215    0.177
        28 -11.6720    106.1862    246.8524   6.3627414172e+01   1.0600695968e+01    0.1524059    0.1189383  10.17 0.0004089138    1.327    0.247
        29 -10.1413    226.2759    246.3182   4.1499534264e+01  -3.1237492751e+00    0.1050873    0.0595586  -2.67 0.0001888119    1.571    0.364
        30 -11.4284    124.8199    249.6740   6.0173983343e+01   7.9319492885e+00    0.1958831    0.1626563  -8.78 0.0007312458    1.328    0.247
        31 -11.0488    131.2529    243.9485   5.8278396259e+01   8.0074726158e+00    0.1563904    0.1311388  23.62 0.0006540553    1.070    0.065
        32 -11.1533    162.9501    242.5668   5.1970454361e+01   4.3548028254e+00    0.1559162    0.1299404   2.13  0.000312636    1.131    0.116
        33 -11.2824    126.1818    241.3294   5.9002476642e+01   9.0292780986e+00    0.1769824    0.1731111  78.96 0.0007344999    1.329    0.248
        34 -10.5442     82.2707    242.3165   6.8154993258e+01   1.4182252090e+01    0.1046014   0.08484758  -6.57 0.0001793015    1.558    0.358
        35  -9.9294     76.2879    242.6518   6.9432980991e+01   1.4817963983e+01     0.120271   0.07108839  55.04 0.0005482389    1.659    0.397
        36 -12.5391     71.0718    238.3159   7.0193895380e+01   1.6173765183e+01    0.3626966    0.2116993 -48.03  0.001167892    2.248    0.555
        37 -13.1902     72.7670    231.1188   6.9254711406e+01   1.7274588558e+01    0.4754806    0.2841216 -56.72    0.0016834    1.998    0.500
        38 -10.9507     62.0107    240.7417   7.2286809768e+01   1.6764061483e+01    0.2132267    0.1246671 -38.85  0.001169238    2.676    0.626
        39 -10.7386    149.3455    239.3088   5.4167356218e+01   6.4681824954e+00    0.1191043    0.0774565   1.60 0.0007044332    1.701    0.412
        40 -12.4474    102.6134    237.6923   6.3470066676e+01   1.2524044285e+01     0.297347     0.199511 -50.00  0.001354971    1.805    0.446
        41 -12.7582     47.5206    235.2427   7.4998982448e+01   1.9332199585e+01    0.4253681    0.2111379  77.58  0.002251193    2.442    0.590
        42 -11.7554    217.3434    237.7129   4.1722236125e+01  -1.2396779870e+00    0.1622049    0.1289224   2.57 0.0005166612    1.205    0.170
        43 -11.4111     79.7972    237.3546   6.8261819188e+01   1.5330527376e+01    0.2618768     0.188274  17.15  0.001672194    1.458    0.314
        44 -11.0240    210.9375    235.9498   4.2528114553e+01  -3.3969753662e-01    0.1415715    0.1301841  21.01  0.001078401    1.677    0.404
        45 -10.8424    138.0464    236.0648   5.6005043157e+01   8.3590728463e+00    0.1698791    0.1232595  48.20 0.0002875734    1.574    0.365
        46 -10.6377     88.2889    236.6557   6.6395369244e+01   1.4442717850e+01       0.1211   0.07586912  55.42 0.0004414287    1.652    0.395
        47 -10.8829    165.3042    234.6771   5.0501373482e+01   5.1628606189e+00     0.345322    0.1110077  43.70  0.001275541    4.614    0.783
        48 -11.6632    121.0816    235.2797   5.9368475485e+01   1.0620021681e+01    0.1771839    0.1299459  29.42  0.001000434    1.109    0.098
        49 -12.3467    222.6601    232.7398   4.0139636588e+01  -1.2326547556e+00    0.2362231    0.1384706 -16.64 0.0007407421    1.501    0.334
        50 -11.3150    112.5479    234.4960   6.1057137732e+01   1.1821875272e+01    0.1195585   0.09799884  28.86  5.67774e-05    1.010    0.010
        51 -11.9587     58.6979    234.2491   7.2539218651e+01   1.8304022401e+01    0.3085591    0.1167163  46.43   0.00150519    2.151    0.535
        52 -11.4976     56.3923    230.0004   7.2740774195e+01   1.9350101294e+01    0.3679803    0.1731533  15.17  0.001254276    3.085    0.676
        53 -10.7446    184.3340    233.2572   4.6776354938e+01   3.0483672339e+00    0.1821494    0.1124028  14.14 0.0003242037    1.427    0.299
        54 -11.7666    180.8336    231.3115   4.7141962581e+01   3.7296883144e+00    0.3213824    0.1768691  34.52  0.001926847    1.680    0.405
        55 -11.9962    143.0113    231.6524   5.4464087687e+01   8.4067855707e+00    0.1825378     0.165135 -16.11 0.0003411122    1.230    0.187
        56 -11.2957    122.9458    231.3129   5.8528750084e+01   1.1027932729e+01    0.1737816    0.1283559  29.26 0.0004415643    1.112    0.101
        57 -10.6535     61.6918    231.3663   7.1684429076e+01   1.8502297906e+01    0.1290752   0.07055365  56.29 0.0007037343    1.753    0.429
        58 -12.2060    194.7021    229.0183   4.4317678023e+01   2.3733490910e+00    0.2068248    0.1772699  19.81 0.0003068204    1.347    0.258
        59 -11.6931    230.7483    228.7469   3.8261631742e+01  -1.6317416539e+00    0.1332929    0.1296926  42.51  0.001061468    2.124    0.529
        60 -10.1598     65.6363    229.2629   7.0663375566e+01   1.8445322277e+01    0.1288141   0.06960608  50.51 0.0003916309    1.641    0.391
        61 -12.1725     80.7452    226.2894   6.7084942964e+01   1.7212473926e+01    0.2818307     0.232537 -20.89  0.001456081    1.556    0.357
        62 -10.9301    138.1755    227.1301   5.4871459970e+01   9.7380903850e+00    0.1542551    0.1309375  45.35 0.0004290636    1.325    0.245
        63 -11.6079     49.1073    226.8323   7.4122516699e+01   2.0750096232e+01    0.2506965    0.1270709  52.88   0.00106915    1.722    0.419
        64 -11.8675    116.9230    225.7020   5.9144740147e+01   1.2743514940e+01    0.1872394    0.1770063 -61.07 0.0004294653    1.291    0.225
        65 -11.4701    114.5096    221.5103   5.9170517955e+01   1.3785675770e+01    0.2022542    0.1197641 -51.23  0.001126029    1.951    0.488
        66 -12.1910    106.3349    226.0784   6.1462833723e+01   1.4046455487e+01    0.2221137    0.1477451  22.57  0.000997404    1.401    0.286
        67 -10.7999    182.4907    225.4843   4.6007534920e+01   4.3236180449e+00    0.1168733   0.09194477   7.77 0.0001351046    1.000    0.000
        68 -12.7899     93.4389    223.4970   6.4008096198e+01   1.6152957257e+01    0.3787077    0.2665843  -2.88  0.002044125    1.914    0.478
        69 -12.3828    159.7608    222.0505   4.9848010418e+01   7.7130649743e+00    0.4025079    0.2032306  33.26  0.002180376    1.715    0.417
        70 -12.8205     57.9257    220.9150   7.1733862293e+01   2.0924520622e+01    0.3141083    0.2891422  85.79  0.001052811    1.211    0.174
        71 -12.6177    188.8824    220.8108   4.4151452648e+01   4.1766752731e+00    0.2944259    0.1767885  13.91 0.0009531302    1.570    0.363
        72 -10.9244    117.3399    241.3059   6.0794583683e+01   1.0123397152e+01      0.11629   0.08163061   0.86 0.0007041505    1.680    0.405
        73 -12.1119     50.1744    221.5943   7.3530443280e+01   2.1654133754e+01    0.2171384    0.1668827  88.32  0.001433329    1.374    0.272
        74 -13.3642     44.6860    220.4626   7.4689061166e+01   2.2470880052e+01    0.5522522    0.3042165 -83.37  0.003095044    2.004    0.501
        75 -13.2093     40.2433    213.5717   7.5253384772e+01   2.4334832760e+01    0.3567872    0.3225917  40.61   0.00126169    1.176    0.150
        76 -12.1953     48.6644    215.1621   7.3420319030e+01   2.3106440526e+01    0.3166267    0.2794408 -14.14  0.002140407    1.489    0.328
        77 -12.4331     46.7224    211.4193   7.3602112572e+01   2.4085958807e+01    0.3370161    0.1978719  41.54  0.001914927    1.392    0.282
        78 -11.2125    212.9591    220.6371   3.9921458785e+01   1.3091990886e+00    0.2063413    0.1507093 -28.40  0.001253689    1.408    0.290
        79 -12.5806    173.7350    219.7581   4.6811552339e+01   6.2421438608e+00    0.2872461    0.2070943 -41.53  0.001241145    1.605    0.377
        80 -12.2128     77.8100    219.7763   6.7137707732e+01   1.8798255369e+01    0.2831329     0.181965  24.09  0.001331769    1.509    0.337
        81 -10.6494     67.2935    220.3488   6.9569213255e+01   1.9951875898e+01    0.1741763    0.1361461 -11.73  0.001061672    1.743    0.426
        82 -12.8594    145.5765    216.7230   5.1963672283e+01   1.0437990369e+01    0.3454708    0.3082432 -73.26  0.001274452    1.559    0.359
        83 -12.0403    124.8865    221.8748   5.6985159152e+01   1.2351050542e+01    0.2414003    0.1448678  34.04  0.001365887    1.405    0.288
        84 -12.2927    121.5151    216.8333   5.7077327518e+01   1.3674590794e+01    0.2529097    0.2177579  69.40 0.0004303705    1.440    0.306
        85 -11.8013     64.0067    217.1634   7.0049325470e+01   2.0963672666e+01    0.2000531    0.1740951  84.59 0.0006662285    1.226    0.184
        86 -12.3540    107.6823    214.7628   5.9869568729e+01   1.5906417371e+01    0.2814118     0.226882 -73.73  0.001771488    1.526    0.345
        87 -10.8739    225.1116    215.6541   3.7152050682e+01   5.3773167545e-01    0.1560747    0.1242936  22.80  0.001164476    1.424    0.298
        88 -11.4355    129.7813    216.4415   5.5245374077e+01   1.2625068313e+01    0.1729231    0.1062377  20.66 0.0003872086    1.586    0.369
        89 -11.5040     83.6889    214.3447   6.5265940018e+01   1.9116624745e+01    0.2510712    0.2234424 -78.14  0.001216157    1.275    0.216
        90 -10.1842    161.6860    215.7439   4.8564155494e+01   8.4281340138e+00    0.1204775   0.08196294   3.53 0.0002130038    1.529    0.346
        91 -11.5318    194.4340    212.3309   4.1849909364e+01   4.6571345422e+00    0.2518124    0.2047083 -69.19  0.001545782    2.479    0.597
        92 -10.7339     77.6201    213.9890   6.6628117641e+01   1.9947773392e+01    0.1697209    0.1494811  50.41  0.000542184    1.058    0.055
        93 -11.5701    155.6714    213.1132   4.9384833739e+01   9.6539622302e+00    0.2540064    0.1619248  23.58  0.001466982    1.402    0.287
        94 -11.6930     86.8546    214.6368   6.4570223551e+01   1.8657378070e+01    0.2923483     0.202034 -50.08  0.001716611    1.696    0.410
        95 -11.2993    127.6942    213.3084   5.5280134795e+01   1.3454323366e+01    0.1222129   0.09084612  55.66 0.0003634477    1.610    0.379
        96 -10.9160     72.4816    212.4867   6.7675141538e+01   2.0880353506e+01    0.1260143    0.1074668  44.03 0.0006938956    1.014    0.014
        97 -13.2488    227.4504    206.7259   3.5350459597e+01   1.3813208129e+00    0.4277408    0.3791796 -54.03  0.002354468    2.072    0.517
        98 -11.8191    180.0970    208.9644   4.3966710189e+01   7.0051277103e+00    0.3220499     0.137974 -29.64  0.001461807    2.777    0.640
        99 -11.2612     96.8026    208.7858   6.1634850109e+01   1.8493556607e+01    0.2967936    0.1702895 -70.00  0.001372004    2.200    0.545
       100 -12.3752     52.7494    209.7583   7.2063394220e+01   2.3761843512e+01    0.2921944     0.196402  36.75 0.0005886733    1.276    0.217
       101 -10.9585     59.3343    207.3274   7.0304034523e+01   2.3510824714e+01    0.2062469    0.1200325  26.38 0.0007998627    1.661    0.398
       102 -10.7964     55.6819    206.3242   7.1089818726e+01   2.4144633846e+01     0.186625    0.1033481  44.42 0.0002424985    1.515    0.340
       103 -11.2971     52.7908    204.0027   7.1591300749e+01   2.4966237582e+01    0.3041873     0.176759  46.44 0.0009695024    1.460    0.315
       104 -11.9719    169.1338    208.2626   4.5970369722e+01   8.5883747616e+00    0.3336373    0.2118837  59.23  0.001567709    3.238    0.691
       105 -10.7813     89.5968    208.7268   6.3299858309e+01   1.9458227928e+01    0.1532956     0.120932  89.22 0.0006497945    1.488    0.328
       106 -12.7031    160.4816    207.3153   4.7546463646e+01   9.9275709334e+00    0.3245648    0.1903273  29.10 0.0001801158    1.524    0.344
       107 -11.0539     94.8609    217.3335   6.3039645990e+01   1.7114152303e+01    0.1733106    0.1338957  31.35 0.0003238356    1.123    0.109
       108 -11.7093     90.9190    189.4497   6.0667079193e+01   2.3245737416e+01    0.3804304    0.2248062  82.87  0.001641629    2.719    0.632
       109 -11.7422     92.9676    193.9884   6.0744728703e+01   2.2001316385e+01    0.3455379    0.2716808  58.20  0.001419712    1.297    0.229
       110 -12.1508     89.2826    201.3274   6.2529335157e+01   2.0986639641e+01    0.3355655    0.2204982 -59.01   0.00128967    1.688    0.408
       111 -11.8916     91.5128    198.5172   6.1659272769e+01   2.1261832920e+01    0.2804664    0.2244335 -61.59  0.001079165    1.388    0.280
       112 -12.6295    145.9555    201.2307   4.9627782868e+01   1.3002376679e+01    0.3250951    0.2557547  44.13 0.0008065521    1.366    0.268
       113 -12.7131    143.6252    198.6991   4.9738691337e+01   1.3785101450e+01    0.3625652    0.2271582 -26.87  0.001883287    1.889    0.471
       114 -11.5920    134.5514    198.5109   5.1688688695e+01   1.5141065827e+01    0.2262033    0.1992243  84.66  0.000546379    1.501    0.334
       115 -12.7466    138.0188    196.9753   5.0692862556e+01   1.4914545724e+01     0.429271    0.2674874 -38.86   0.00146165    1.737    0.424
       116 -11.7504    212.5146    200.3412   3.6751154473e+01   4.0282786879e+00    0.2900949    0.1978593 -48.22  0.001756217    2.101    0.524
       117 -10.9412     49.0750    200.1302   7.2177490089e+01   2.6217606922e+01    0.1765731     0.155737  36.09 0.0004226551    1.156    0.135
       118 -11.4176    180.3210    199.2749   4.2368920393e+01   8.4497011990e+00    0.1921423    0.1504488   3.54 0.0002301738    1.128    0.113
       119 -13.6220    173.7711    195.6924   4.3044878661e+01   9.9359220952e+00    0.3807809    0.3125613  43.92 0.0006818934    1.473    0.321
       120 -12.3872    150.4775    198.2984   4.8215296772e+01   1.2858841695e+01    0.2992052    0.1840004  38.64  0.001046792    1.555    0.357
       121 -12.7366    122.6549    196.9325   5.4127517475e+01   1.7170836573e+01    0.5164536    0.3229378  51.94   0.00262287    1.836    0.455
       122 -11.1458    115.9970    195.9719   5.5523314775e+01   1.8324261739e+01     0.190067    0.1733191  37.01  0.000369194    1.059    0.055
       123 -11.2407     84.5106    198.2243   6.3317333672e+01   2.2264612942e+01    0.3172267    0.1810714  86.72  0.001411141    2.695    0.629
       124 -10.8178    209.4044    211.1949   3.9048296137e+01   2.9524509916e+00    0.1434745   0.09997175 -37.43 0.0006947672    1.614    0.380
       125 -12.5213     36.9182    196.1577   7.4866759022e+01   2.8403513497e+01    0.4426453    0.1971271  56.73  0.002059513    2.134    0.531
       126 -13.5520     36.9802    189.9471   7.4398152888e+01   2.9790259035e+01    0.6035544    0.3435174  77.56  0.002268621    1.812    0.448
       127 -12.4093    191.5996    195.8107   3.9677698756e+01   7.4260158257e+00    0.3908423    0.2481639 -18.08  0.002251883    1.581    0.368
       128 -12.3029    189.2290    192.9474   3.9629222498e+01   8.1877223982e+00    0.2985987    0.1740929 -34.50 0.0009614579    1.651    0.394
       129 -11.5720    101.2790    196.3566   5.9044667640e+01   2.0352075916e+01    0.2662243    0.2442708  -7.78  0.001679129    1.200    0.167
       130 -10.6764     44.0165    197.5610   7.3216770607e+01   2.7337580954e+01    0.1925525    0.1105043  32.39   0.00101604    1.566    0.361
       131 -11.9343    202.4226    195.1077   3.7611173408e+01   6.0697276824e+00     0.214119    0.1664723  11.24 0.0004095521    1.132    0.117
       132 -11.9189    211.9975    193.5793   3.5695334410e+01   5.0290684208e+00    0.2494707    0.1570754  34.58  0.001523041    1.668    0.401
       133 -12.0510    160.5801    193.1324   4.5274160674e+01   1.2271469780e+01    0.2641078    0.2173678 -31.29 0.0009628942    1.241    0.194
       134 -12.3092    133.8466    190.7348   5.0652942236e+01   1.6693185749e+01    0.3322432    0.2506968  13.87  0.001216284    1.356    0.262
       135 -10.3930    233.0201    197.2425   3.2904324992e+01   1.9310414977e+00    0.1283266   0.08384886  23.44 0.0002269407    1.481    0.325
       136 -11.9947     50.6417    189.9198   7.0914331507e+01   2.8299296320e+01    0.2348008    0.1722077  50.25 0.0003990354    1.191    0.160
       137 -12.3200    174.5389    188.7837   4.1724782119e+01   1.0949679634e+01    0.2297847    0.1636681  25.65 0.0006779014    1.308    0.236
       138 -12.3027    168.2620    189.0080   4.3014537263e+01   1.1837169392e+01    0.2244039    0.1671088  25.78 0.0006393729    1.243    0.196
       139 -11.8702    207.5913    187.1819   3.5337418595e+01   6.5254692804e+00    0.2984659     0.156335   3.83  0.001299366    3.108    0.678
       140 -11.9023    110.8183    187.8479   5.5576939708e+01   2.0711290597e+01    0.2835766    0.1835929  19.91  0.001412845    1.679    0.404
       141 -11.8525     76.3641    185.7016   6.3873452957e+01   2.6053720140e+01     0.365743     0.248677 -53.73  0.001527023    1.610    0.379
       142 -10.9368     70.5564    186.8136   6.5493268249e+01   2.6567783925e+01    0.2177442    0.1416847  40.44 0.0006180308    1.365    0.267
       143 -11.3845    248.6602    185.8538   2.8617960494e+01   1.5341292766e+00    0.1857053    0.1268726   6.56 0.0007352296    1.344    0.256
       144 -12.2312    157.0200    185.7034   4.4767715116e+01   1.4098772668e+01    0.2419252    0.1860251 -26.02 0.0009963939    1.308    0.235
       145 -12.5920    126.3873    185.9759   5.1608950908e+01   1.8743228726e+01    0.4213864    0.1856251  34.88  0.001808595    2.081    0.519
       146 -11.9394    163.1659    184.6862   4.3309853518e+01   1.3342069173e+01    0.2181859    0.1941252  37.53  0.001143249    1.253    0.202
       147 -10.6465    100.0657    184.5368   5.7727371439e+01   2.2987571592e+01    0.1968394    0.1240485  34.03 -2.426265e-05    1.454    0.312
       148 -11.0418     65.8505    184.3998   6.6438840889e+01   2.7714474585e+01    0.1877561    0.1583945  32.59 0.0008982214    1.167    0.143
       149 -11.6705     94.4311    181.9902   5.8781058751e+01   2.4357078859e+01    0.2836189    0.2469998 -72.95  0.001077397    1.241    0.194
       150 -12.0159    134.1720    181.9827   4.9164874202e+01   1.8324946442e+01    0.2219591    0.1799506  29.46 0.0002335394    1.146    0.127
       151 -11.7552    141.9922    181.2900   4.7277917807e+01   1.7235656019e+01     0.189441    0.1669576  22.64 0.0004664507    1.052    0.050
       152 -11.1930    185.6090    193.2912   4.0364645864e+01   8.6408077615e+00    0.1727785    0.1532208  63.48 0.0007918613    1.750    0.429
       153 -10.8544    222.5200    180.5176   3.1659199270e+01   5.4803425933e+00    0.1209641   0.09465858  -9.90 0.0008100391    1.016    0.015
       154 -12.2292    116.4446    177.7314   5.2659277238e+01   2.1952200707e+01    0.2656169    0.2534506  88.02   0.00161603    1.158    0.136
       155 -10.3390     58.9727    180.2809   6.7797455941e+01   2.9519482120e+01    0.1564285    0.1099026  36.08 0.0002078215    1.316    0.240
       156 -14.2240     37.2320    246.5641   7.7758554563e+01   1.8342493904e+01    0.9004272    0.4817744  24.42  0.004008795    1.802    0.445
       157 -12.0965    191.0390    177.9399   3.6636678445e+01   1.0276542354e+01     0.195348    0.1695782  -8.11 0.0006284544    1.057    0.054
       158 -11.7968    166.8812    177.9456   4.1350368644e+01   1.3949183952e+01    0.2023176    0.1590154  -4.99  0.001172489    1.271    0.213
       159 -12.0493    154.8861    177.1492   4.3725238110e+01   1.5977708023e+01    0.3091195    0.1913864 -55.82  0.001141694    2.018    0.504
       160 -12.8250    137.3141    176.6313   4.7536263345e+01   1.8876303373e+01    0.3729887      0.27569 -69.37  0.001344483    1.822    0.451
       161 -12.9915    127.3895    176.3505   4.9800616372e+01   2.0514247403e+01    0.3660605     0.351181 -75.13  0.001780018    1.178    0.151
       162 -11.6462     76.5597    176.2631   6.2644685916e+01   2.8166090578e+01    0.2779481    0.1689326 -85.69  0.001279898    2.058    0.514
       163 -11.2467     79.8436    173.4367   6.1393675046e+01   2.8363695205e+01     0.274819    0.2176954  17.20  0.001490881    1.398    0.285
       164 -12.3748     31.7876    176.2549   7.4709505066e+01   3.3511686158e+01    0.2529895    0.1976139  32.78 0.0006661549    1.284    0.221
       165 -11.6816    106.6232    175.4234   5.4724819741e+01   2.3964125632e+01    0.2448528    0.2223265  35.90 0.0006427563    1.032    0.031
       166 -10.5419     63.9964    176.7652   6.6064240938e+01   2.9710959155e+01    0.1750437     0.107045  31.95 0.0004279873    1.549    0.355
       167 -12.1728    144.9283    172.9751   4.5162331467e+01   1.8362791600e+01    0.2137222    0.1721256  71.75  0.001139255    1.741    0.426
       168 -11.5440    208.1884    171.8237   3.2444722931e+01   8.7229686976e+00    0.1799218    0.1270221  -9.86 0.0005811814    1.350    0.259
       169 -12.9435    197.9659    170.6527   3.4016350673e+01   1.0404793944e+01    0.3294635    0.2308385 -19.29   0.00129531    1.333    0.250
       170 -14.2809     14.7673    166.0981   7.8653614519e+01   3.7539930420e+01    0.9627212    0.5008689  46.71  0.003335094    1.682    0.406
       171 -12.7783     12.8984    160.9668   7.8857881408e+01   3.8957925341e+01    0.4696285    0.2209148  58.46  0.001755551    1.964    0.491
       172 -13.5433      4.7699    167.8241   8.1493557196e+01   3.7911877613e+01    0.6472204    0.3109409  52.39  0.001590535    1.783    0.439
       173 -13.5545      3.7270    161.7543   8.1485729654e+01   3.9465707226e+01    0.5843768    0.3495177 -75.67  0.002849996    1.554    0.356
       174 -11.1254    164.4582    171.5209   4.0670133235e+01   1.5475555069e+01    0.1345999    0.1199429  -1.82 6.291056e-05    1.015    0.015
       175 -12.8861    153.0332    170.2961   4.2877665898e+01   1.7554584557e+01    0.2644615    0.2578663  25.94  0.000333407    1.154    0.134
       176 -12.5551    153.1630    165.6597   4.1977232575e+01   1.8414765652e+01    0.2831574    0.2141603 -41.71  0.001542317    1.333    0.250
       177 -11.6371     36.4189    170.7220   7.2984923867e+01   3.4369323982e+01    0.2289108     0.157352 -68.15 0.0007200559    1.460    0.315
       178 -12.4055    119.8839    168.6753   5.0299526947e+01   2.3316749851e+01    0.6016582    0.3189269  17.08   0.00225858    2.953    0.661
       179 -12.1037    127.2000    166.0684   4.8048110372e+01   2.2666746452e+01    0.3118943    0.2020775  17.98   0.00142024    1.852    0.460
       180 -11.6462    102.0065    170.0004   5.5043116184e+01   2.5868455731e+01    0.2067144    0.1968158  28.79 0.0003436781    1.042    0.040
       181 -10.5359     62.0058    170.7334   6.5895120933e+01   3.1392303550e+01    0.1764772    0.1137683  32.68 0.0004667476    1.484    0.326
       182 -11.8761    159.9710    168.4683   4.1040415861e+01   1.6761089415e+01    0.2051215    0.1278568  37.17  0.001024505    1.581    0.367
       183 -11.4657     52.6230    167.8188   6.8169647903e+01   3.3257331446e+01    0.2301341    0.1463104  37.65 0.0008600811    1.459    0.315
       184 -11.5440     30.8469    167.8225   7.4288948778e+01   3.5645274061e+01    0.3511312    0.1652035  52.08  0.001593724    1.973    0.493
       185 -12.5664    204.0009    166.0744   3.2077137292e+01   1.0221955955e+01    0.4369825    0.2212663 -14.64  0.001218948    3.165    0.684
       186 -11.5630     91.2920    170.8598   5.7979585740e+01   2.7301549561e+01    0.3255877    0.2362558 -43.31  0.001291724    1.536    0.349
       187 -11.2473     85.1959    167.9530   5.9176272409e+01   2.8870641391e+01     0.313374    0.1448277  53.99   0.00117682    2.684    0.627
       188 -11.6784    141.7958    162.9307   4.4013037120e+01   2.0861706222e+01    0.2231419    0.1913459  26.61 0.0003460379    1.127    0.113
       189 -10.5823     44.6833    172.2960   7.0846613576e+01   3.3092576769e+01    0.1446695   0.08709815  58.86 0.0005603032    1.607    0.378
       190 -10.7237    229.6024    161.7980   2.7080343103e+01   7.1670947838e+00    0.1656021   0.09702419 -39.91 0.0005756384    1.648    0.393
       191 -12.4366     24.5963    161.0864   7.5516213154e+01   3.7912449558e+01    0.3362125    0.2646936 -41.30  0.001934293    1.558    0.358
       192 -13.1599    169.9281    159.7007   3.7260309399e+01   1.6718624255e+01    0.3836659    0.2941018 -74.23  0.001948776    2.100    0.524
       193 -10.6260     40.5073    161.5606   7.0958120773e+01   3.6189094806e+01    0.1362146    0.1224493  70.24 0.0001138982    1.022    0.021
       194 -10.9355    110.7795    165.3601   5.2013931324e+01   2.5510309731e+01    0.2013528      0.13091  24.73 0.0006177786    1.650    0.394
       195 -11.3037    105.5551    158.9614   5.2256875784e+01   2.7792719755e+01    0.3598222    0.2083679  54.81  0.001528993    2.060    0.515
       196 -12.4707    133.1851    157.2391   4.4945490993e+01   2.3504287993e+01     0.389507    0.2439439 -54.07  0.001822771    1.718    0.418
       197 -10.8071     69.7731    158.1858   6.2055816226e+01   3.3407860837e+01    0.1922832    0.1667486 -28.53 0.0007433071    1.368    0.269
       198 -11.6891    160.0834    156.9211   3.8763700680e+01   1.8907891449e+01    0.1945857    0.1895214 -84.01  0.001175424    1.238    0.192
       199 -11.8563    190.5708    155.2913   3.2358281432e+01   1.4071407253e+01    0.2392063    0.1183472 -41.83 0.0006551172    1.932    0.482
       200 -10.9715    141.5356    155.7189   4.2668666428e+01   2.2366834211e+01    0.1887073    0.1382613 -57.92 0.0005730756    1.553    0.356
       201 -11.6984     28.7932    156.2487   7.3880612845e+01   3.8730872510e+01    0.1811438    0.1530437 -49.11 0.0007015507    1.362    0.266
       202 -12.8727     84.0216    150.0129   5.6655991132e+01   3.3333981524e+01    0.4812474    0.3187113 -25.70  0.001669149    2.180    0.541
       203 -12.6530     14.2896    152.9149   7.7918431885e+01   4.0863957026e+01     0.615022    0.2476185  66.44  0.002233711    2.644    0.622
       204 -13.2224      3.3063    151.3410   8.1069143061e+01   4.2083171504e+01    0.5613678    0.4273522 -54.65  0.002941992    1.473    0.321
       205 -14.3372     14.9110    132.3277   7.6095134629e+01   4.6146810592e+01    0.6931356    0.4112925 -55.44  0.001897868    1.702    0.412
       206 -13.5475      9.6586    145.7521   7.8820815462e+01   4.3049266396e+01    0.4989797    0.3379036  39.28  0.001367392    1.435    0.303
       207 -13.6451     10.9762    142.0443   7.8151137501e+01   4.3906208828e+01    0.5255483    0.3082404  36.73 0.0009843861    1.652    0.395
       208 -13.1320    172.3295    152.0700   3.5223453813e+01   1.7699693141e+01    0.5243375    0.1692945 -44.32  0.001866191    3.053    0.672
       209 -10.7326     20.9010    154.3868   7.6064331983e+01   3.9932365103e+01    0.1773289    0.1595074  60.20 0.0004941051    1.091    0.084
       210 -12.5296     51.4657    152.6162   6.6698207663e+01   3.7182027787e+01    0.2979851     0.261075  10.67  0.001611298    1.333    0.250
       211 -11.2430     99.6197    151.1531   5.2454147716e+01   3.0572815003e+01      0.20597    0.1911254 -52.34 0.0003702702    1.105    0.095
       212 -11.7611     96.3351    149.0321   5.2977570224e+01   3.1613909454e+01    0.2614315    0.2056291  46.97 0.0004189996    1.252    0.202
       213 -11.9913    108.8202    148.9636   4.9538449725e+01   2.9537326650e+01     0.325406    0.2532685 -57.22 0.0007081123    1.319    0.242
       214 -11.4287     91.1222    149.8836   5.4600625290e+01   3.2252559422e+01    0.1931176    0.1710134 -26.17  0.001033569    1.275    0.216
       215 -13.3191     28.2542    149.0485   7.3375474018e+01   4.0621243353e+01    0.4308393    0.3707228 -10.01  0.002350077    1.459    0.314
       216 -12.1861     19.1549    148.9526   7.6153846805e+01   4.1470083099e+01    0.3445883    0.2537869  42.03  0.001222838    1.311    0.238
       217 -11.5027    147.0023    148.7263   3.9979599247e+01   2.2819749128e+01    0.1970782    0.1835029  18.42 0.0003384563    1.058    0.054
       218 -11.1101     74.3259    149.6558   5.9431622437e+01   3.4873704636e+01    0.1577181    0.1050918  66.67 0.0007050679    1.741    0.426
       219 -11.3559     37.2085    149.4035   7.0659288574e+01   3.9626739261e+01    0.1944734    0.1163703  41.11 0.0004602114    1.577    0.366
       220 -12.0530    165.9752    147.9658   3.5670533056e+01   1.9572230668e+01    0.2099526    0.1955247 -16.34 0.0003415777    1.033    0.032
       221 -12.5129    171.0266    145.5107   3.4109368329e+01   1.9133493405e+01    0.2646529    0.2437743  12.59 0.0003886943    1.084    0.078
       222 -12.8425    101.7680    142.4653   5.0203181302e+01   3.2265215390e+01    0.6376783    0.3800839  63.85  0.002328295    2.435    0.589
       223 -12.7034     24.5472    144.4495   7.4089991090e+01   4.2157121135e+01    0.3575737    0.2411738   9.67  0.001829899    1.838    0.456
       224 -11.1771    143.8071    143.2248   3.9552079067e+01   2.4526353964e+01     0.200313    0.1670732  -4.82 0.0004228224    1.326    0.246
       225 -12.8483     50.6710    142.4229   6.5589975513e+01   3.9898192115e+01    0.4562609    0.2512676  33.65  0.001376739    1.777    0.437
       226 -12.3048    208.6947    141.9014   2.6428295784e+01   1.3314400236e+01    0.3299221    0.2387416  37.90  0.001926146    1.532    0.347
       227 -11.5651    178.9812    142.5245   3.1887648971e+01   1.8266869166e+01    0.2038184    0.1354316  42.08  0.001033975    1.606    0.377
       228 -12.0950     77.5426    142.1494   5.7210085544e+01   3.6272679994e+01    0.3559479    0.1328389  45.19  0.001225155    2.762    0.638
       229 -11.9360     93.5729    140.9516   5.2241249897e+01   3.4013759124e+01    0.2861971    0.2092654  46.77 0.0005865595    1.364    0.267
       230 -11.7547     60.0985    139.3440   6.2146917908e+01   3.9487520170e+01    0.2330189    0.1872698 -58.37 0.0003355513    1.245    0.197
       231 -13.8713     39.4154    137.0225   6.8490724002e+01   4.2616479106e+01     0.698036    0.3882601  64.22  0.001555682    2.005    0.501
       232 -12.7356    129.6029    137.3755   4.1719600664e+01   2.8410709536e+01    0.4267782    0.3956766  50.67  0.001283993    1.119    0.107
       233 -12.8925    123.5614    134.4016   4.2605666628e+01   3.0201255497e+01     0.441106    0.3292143  -5.16  0.002019588    1.825    0.452
       234 -12.5049     67.3006    136.3227   5.9365814558e+01   3.9267752434e+01    0.3536571    0.2271551 -88.39  0.001547398    1.878    0.468
       235 -12.9401     53.1671    136.4458   6.3922283803e+01   4.1145876029e+01     0.404811    0.2379305  24.66  0.001813695    1.864    0.464
       236 -12.1272    174.6239    134.0903   3.0886546273e+01   2.0591289060e+01    0.2764547    0.2202296 -21.64 0.0005741961    1.235    0.191
       237 -12.9094    200.4935    132.8919   2.5876017214e+01   1.6157374464e+01    0.2770188    0.2612685 -16.25 0.0003835372    1.124    0.110
       238 -11.9362    103.1173    133.9540   4.8076255329e+01   3.4055038335e+01    0.2767443      0.22082  40.82  0.001381199    1.250    0.200
       239 -12.6265     59.4671    133.8510   6.1463607146e+01   4.0999737096e+01    0.4569439    0.1647043  36.69  0.001649755    2.584    0.613
       240 -12.9298     20.0698    131.1973   7.4259512726e+01   4.6029825354e+01    0.5371915    0.2153637 -55.14  0.002170578    2.437    0.590
       241 -10.8325     77.7642    132.9658   5.5460596839e+01   3.8556927979e+01    0.1982662    0.1225078 -60.10  0.000427715    1.587    0.370
       242 -11.9925    187.0259    143.9670   3.0665672055e+01   1.6605390952e+01    0.2063263    0.1835918 -20.80 0.0003706733    1.027    0.027
       243 -11.9080     31.3887    131.2801   7.0444158905e+01   4.4973352461e+01    0.2523029    0.2070533  75.03 0.0003090228    1.142    0.124
       244 -12.5068     50.3110    130.4717   6.3944332033e+01   4.3075527853e+01    0.2247098    0.2165527   6.67  0.001290577    1.178    0.151
       245 -10.2084    230.2895    130.6705   2.0772480517e+01   1.1598136170e+01    0.1206739   0.08841591 -51.73 0.0004573053    1.621    0.383
       246 -12.3724    130.1943    128.4609   3.9552708210e+01   3.0248781892e+01    0.2626199    0.2436862 -43.38  0.000354582    1.059    0.055
       247 -12.5195    122.4335    128.3194   4.1521529998e+01   3.1779772761e+01    0.2989635    0.2960916 -66.95  0.001571319    1.022    0.022
       248 -13.3493     56.8093    128.1797   6.1388390772e+01   4.2842805029e+01    0.4514517    0.2389017  37.02  0.001930822    1.857    0.462
       249 -11.3652     64.9851    126.5764   5.8372040933e+01   4.2126740320e+01    0.2463169    0.1884639 -66.29  0.000683143    1.262    0.207
       250 -10.2045    156.4837    139.4553   3.5862238435e+01   2.2938806357e+01    0.1436067    0.1340521 -13.08 -1.527182e-05    1.020    0.019
       251 -11.8439     42.1169    124.8642   6.5881697166e+01   4.5543553124e+01     0.311074    0.2013144 -69.85   0.00149042    1.439    0.305
       252 -12.0652     26.3886    125.4415   7.1457848357e+01   4.7008842816e+01    0.2638708    0.2312657 -35.57 0.0009982346    1.312    0.238
       253 -13.2009      9.5275    125.9753   7.7365570511e+01   4.8221342142e+01     0.265623    0.2414919   4.21  0.001396283    1.320    0.243
       254 -12.2746    169.9419    123.0195   2.9265446768e+01   2.3541130849e+01    0.3620744    0.1899264 -36.29  0.001334231    1.827    0.453
       255 -14.0663     78.0608    120.0665   5.2746336203e+01   4.1793366117e+01    0.5904943     0.499562 -25.97 0.0006019034    1.371    0.270
       256 -14.4730     13.7476    119.8967   7.5323916340e+01   4.9539551493e+01     0.959132    0.4713807 -87.04  0.003149381    1.934    0.483
       257 -12.9231      7.7283    118.0494   7.7312006912e+01   5.0448544248e+01    0.4098285     0.309217 -26.99  0.001175849    1.611    0.379
       258 -12.8608      5.5887    112.0497   7.7558158777e+01   5.2183211947e+01    0.5119883    0.2540084  39.93  0.002395686    2.025    0.506
       259 -12.8085    192.4882    121.9958   2.4811915900e+01   1.9431113477e+01    0.4242705    0.2037479  50.32  0.001744341    2.403    0.584
       260 -12.4947    105.0403    121.2151   4.4667732815e+01   3.6739111914e+01    0.4565693    0.2539438  48.52  0.001417252    1.910    0.476
       261 -12.4677     21.0445    122.1373   7.2956793856e+01   4.8364483838e+01    0.2705403     0.181848 -63.17 0.0007676504    1.381    0.276
       262 -11.0738    212.1313    121.5130   2.1488129246e+01   1.5987708872e+01    0.1737238    0.1309398  41.87  0.000570411    1.522    0.343
       263 -11.0645    179.0096    121.9261   2.7241457739e+01   2.1987030970e+01    0.2116078    0.1897712 -26.16 0.0004302599    1.020    0.020
       264 -11.6512     63.8523    121.8652   5.7858544275e+01   4.3521040102e+01    0.2103206    0.1698778  79.62 0.0004135325    1.313    0.238
       265 -11.0438     29.6781    116.8145   6.9159726220e+01   4.9017264686e+01    0.1966106    0.1585985 -82.69 0.0003941678    1.132    0.116
       266 -12.5841    114.6074    114.3279   4.0260324399e+01   3.6493605958e+01    0.4150856    0.2915247 -14.92 4.556624e-05    2.109    0.526
       267 -12.8564     82.9770    114.3764   4.9861774705e+01   4.2409018556e+01    0.4198568    0.2627097 -70.46   0.00175295    1.855    0.461
       268 -10.9217     24.3150    115.2941   7.0935223709e+01   4.9922967925e+01     0.143105   0.09855898 -42.21 0.0002378279    1.600    0.375
       269 -11.3328    121.6838    113.9596   3.8234675737e+01   3.5153628238e+01    0.2150712    0.1937937 -52.11 0.0004201509    1.090    0.082
       270 -11.7348     83.4723    127.2756   5.2540282862e+01   3.9077071971e+01    0.2872677    0.1404254 -53.62  0.000825661    1.980    0.495
       271 -13.3805     63.3138    112.0127   5.6043522070e+01   4.6178738358e+01    0.5802014    0.3102632 -61.07 0.0006925974    1.783    0.439
       272 -11.6097     58.6700    114.0686   5.8123268856e+01   4.6310020698e+01    0.2647298    0.2203651  25.69 0.0003689111    1.307    0.235
       273 -12.4789    166.2289    112.7605   2.7521080473e+01   2.6215305427e+01    0.2570242    0.1873978  51.02  0.001238173    1.495    0.331
       274 -10.7217    198.5308    111.4924   2.1353684385e+01   2.0076965095e+01    0.1382023    0.1204281 -33.41 0.0001684147    1.021    0.021
       275 -11.3403    125.9059    123.8743   3.9568332332e+01   3.2098513528e+01    0.2293368    0.2038302  -8.36 0.0004289771    1.246    0.197
       276 -11.1761    105.4730    102.4702   3.9778750297e+01   4.1064177784e+01    0.2738748    0.2050388  30.94 0.0007783726    1.483    0.326
       277 -11.9325    108.7895    107.8479   4.0244554190e+01   3.9150614827e+01    0.2453502    0.2228532  39.99 0.0003759177    1.133    0.118
       278 -12.2516    109.6469    103.7667   3.8906384602e+01   3.9916938648e+01    0.3098645    0.2865986 -61.67 0.0003073303    1.071    0.066
       279 -12.7172     10.4732    105.4072   7.5019204434e+01   5.3656583972e+01    0.5451017    0.3177802 -22.83  0.001349123    2.246    0.555
       280 -10.4482    139.6722    107.3133   3.1951433692e+01   3.2843680197e+01    0.1544446    0.1210374 -83.06 0.0007043108    1.669    0.401
       281 -10.7276    121.8562    106.8834   3.6344359746e+01   3.6692349675e+01    0.2038897    0.1790324 -80.03  0.000248926    1.264    0.209
       282 -11.8390      1.9523    107.0411   7.8488267566e+01   5.3726372563e+01    0.2080324    0.1790154 -78.07 0.0005663573    1.050    0.048
       283 -12.5033     78.9439    102.1527   4.8228226252e+01   4.6177989344e+01    0.3246801    0.2567798  48.57  0.001308348    1.308    0.236
       284 -11.6331    154.1877    101.3153   2.7072782406e+01   3.0936235870e+01    0.3039563    0.2344687 -56.66  0.001252069    1.363    0.266
       285 -12.3549     55.9764    101.3224   5.6391625257e+01   5.0045209261e+01    0.2793558    0.2174749 -57.21 0.0005172686    1.212    0.175
       286 -11.6414     57.4961     97.5139   5.4919966974e+01   5.0820825670e+01    0.3011532    0.2623903  60.04 0.0005804938    1.206    0.171
       287 -11.4643    185.2927    101.1964   2.1071121391e+01   2.4413960499e+01    0.2177965    0.1891271  32.84 0.0003697132    1.289    0.224
       288 -11.3373     85.4436    100.6667   4.5626718708e+01   4.5378158233e+01    0.2501536    0.1944974   8.66  0.000538467    1.668    0.400
       289 -12.6660      5.2138     99.4157   7.6467238193e+01   5.5585636241e+01    0.4607176    0.2356712  54.84  0.002098324    2.090    0.522
       290 -12.4003      8.9717     97.3051   7.4685852455e+01   5.5928971162e+01    0.2967757    0.2496987  42.37 0.0006953343    1.283    0.221
       291 -10.8670    208.5016     99.5021   1.6991981121e+01   2.0136580549e+01    0.1362162    0.1159616 -36.70 -0.0002535106    1.022    0.021
       292 -11.3058    162.4770     99.4666   2.4863269633e+01   2.9503070106e+01    0.1484014    0.1375271 -47.31 0.0002378863    1.038    0.037
       293 -13.0571     93.5189     98.6560   4.2428234587e+01   4.4334820902e+01    0.5651806    0.2986577  43.63  0.001800422    1.936    0.484
       294 -12.0870    178.4077     96.5325   2.1088148645e+01   2.6645796289e+01    0.3027843    0.2208977 -56.81  0.001015111    1.473    0.321
       295 -13.4273     78.3586     92.6586   4.5884172599e+01   4.8633202911e+01    0.3822389    0.3393694  88.26  0.001654536    1.216    0.178
       296 -13.5953     74.9856     89.9816   4.6342918652e+01   4.9893335481e+01    0.4341456    0.3447437  24.73  0.001999722    1.407    0.289
       297 -11.2946     41.1021     91.7341   6.0185421392e+01   5.4521586636e+01    0.2102976    0.1865339  67.76 0.0004698036    1.184    0.155
       298 -12.1529     88.4745     89.6831   4.1522734187e+01   4.7444899905e+01    0.2628366    0.1979752  13.48 0.0008751762    1.750    0.429
       299 -11.0299     28.1269     90.3167   6.5435665940e+01   5.6299729117e+01    0.2125294    0.1764337 -15.09 0.0008985152    1.386    0.278
       300 -12.7602      3.3057     87.6527   7.5955514402e+01   5.8828079703e+01    0.4986664    0.2771896 -86.24  0.002402476    1.659    0.397
       301 -12.6953     64.2593     88.5390   4.9982010169e+01   5.2075005115e+01    0.3308181    0.2375769 -14.94 0.0009023634    1.927    0.481
       302 -12.4979     54.8475     85.9237   5.3032842804e+01   5.4194064569e+01    0.5270892    0.4633614 -27.70    0.0028153    1.219    0.180
       303 -10.8143     11.9144     86.7202   7.1991371695e+01   5.8574634533e+01    0.1823468    0.1724822  82.88 0.0004520193    1.102    0.093
       304 -10.5590     36.5105     86.4421   6.0966529312e+01   5.6451287897e+01    0.1447706    0.1333258 -62.12 8.710004e-05    1.013    0.013
       305 -11.8939    134.5768     84.1661   2.6644667105e+01   3.8664462150e+01    0.2674555    0.2518672  -0.06 0.0007205986    1.167    0.143
       306 -12.1594    164.1414     82.8795   2.0017121131e+01   3.2152727268e+01    0.2358302    0.1924475 -62.52 0.0006534566    1.281    0.220
       307 -12.5088     88.7028     79.1759   3.8193684804e+01   4.9822178697e+01    0.4466077    0.2680267 -42.24  0.001466601    1.665    0.399
       308 -11.2693      8.9172     77.6359   7.1971946274e+01   6.1173034526e+01    0.3208854     0.167591 -73.95  0.001490721    1.683    0.406
       309 -11.6489    151.9637     81.2666   2.1940858377e+01   3.5215154183e+01    0.2018422    0.1940244  60.97 0.0002654431    1.098    0.090
       310 -11.0277     52.5069     80.0150   5.2379471846e+01   5.6032901857e+01    0.2203431    0.1410602 -59.81 0.0003917004    1.495    0.331
       311 -11.6530      4.6309     79.9689   7.4361956903e+01   6.0797313382e+01    0.2204846    0.1979148  37.81 0.0004933242    1.254    0.202
       312 -11.7364    112.2133     78.3632   3.0632591173e+01   4.4932306704e+01     0.429771    0.2815457 -77.50  0.001636839    2.498    0.600
       313 -10.8267     56.2763     77.9926   5.0189758707e+01   5.5969137066e+01    0.2063918    0.1855685 -49.38 0.0004505043    1.056    0.053
       314 -11.7800     75.0089     76.4998   4.2226187193e+01   5.3114897630e+01    0.2856996    0.2124674 -66.60 0.0006977833    1.503    0.334
       315 -11.8691     70.9230     76.5726   4.3811011335e+01   5.3849901182e+01    0.3029637    0.2034617 -37.19 0.0008757401    1.588    0.370
       316 -10.4539    183.9881     75.2534   1.4546546093e+01   2.9013882020e+01    0.1636169    0.1233233  62.87 0.0002585651    1.465    0.318
       317 -10.1208    150.6796     75.2904   2.0437300165e+01   3.6589838798e+01      0.15288    0.1135379 -71.70 0.0002962283    1.603    0.376
       318 -11.1412    115.7174     74.9983   2.8569232987e+01   4.4820642277e+01    0.2156819     0.205635 -50.91 0.0004942943    1.023    0.022
       319 -10.8098    129.6923     73.9553   2.4654458784e+01   4.1771865947e+01    0.2060965    0.1838863 -45.69 0.0002800653    1.083    0.077
       320 -11.2801    104.8958     73.1277   3.1026723503e+01   4.7656693051e+01    0.2360877    0.2088258 -81.64 0.0004793461    1.238    0.193
       321 -12.4006     61.8167     73.0770   4.6336233291e+01   5.6268560501e+01    0.2612833    0.2395168 -79.74 0.0002964019    1.161    0.138
       322 -12.4004     60.7386     68.3447   4.5216221158e+01   5.7567179946e+01    0.4354041    0.2172077 -61.08  0.001496184    2.359    0.576
       323 -12.2961     70.3113     70.6061   4.2070759966e+01   5.5348272530e+01    0.4159999    0.2906035  -6.48  0.001026538    2.197    0.545
       324 -11.7060      2.5570     70.6571   7.4018400349e+01   6.3343187191e+01    0.4319603    0.2108988  89.34  0.001809197    2.178    0.541
       325 -10.8312     10.4864     82.0164   7.1924009394e+01   5.9918070664e+01    0.2068756    0.1209449 -73.40  0.001001021    1.497    0.332
       326 -11.5467    162.9014     68.9160   1.6237123832e+01   3.4823374856e+01    0.2139778    0.1941297   8.18            0    1.293    0.227
       327 -11.5212    154.1848     68.5909   1.7734408046e+01   3.6928463410e+01    0.2535188    0.1927132 -40.74 0.0002617144    1.237    0.191
       328 -12.3580     54.8463     68.9741   4.7977984606e+01   5.8384636420e+01    0.2540454    0.2207704  -4.42 0.0006827134    1.276    0.216
       329 -11.7428     47.8213     67.7266   5.0744582313e+01   5.9750071812e+01    0.3627488    0.1494275  48.76  0.001219735    3.345    0.701
       330 -11.1000      9.0851     67.2311   7.0057665007e+01   6.3880235921e+01    0.2492922    0.1750395  43.06  0.001343081    1.602    0.376
       331 -10.7808    160.4256     65.4334   1.5642960317e+01   3.5976941318e+01      0.14515    0.1354837 -51.20 0.0001190356    1.021    0.021
       332 -11.5557    172.9054     62.2767   1.2652303769e+01   3.3555543189e+01    0.2323805    0.1878489 -43.26 0.0004174941    1.125    0.111
       333 -11.8083     12.1213     60.4923   6.6998206721e+01   6.5408904116e+01    0.3785081    0.2104811 -41.94  0.001423716    1.712    0.416
       334 -10.7782    123.5177     61.5541   2.2038826268e+01   4.5529738405e+01    0.1512666    0.1449915 -71.23 0.0001118146    1.020    0.019
       335 -12.1993    109.8594     60.3713   2.5150825932e+01   4.9011570556e+01    0.2653362    0.2040603 -51.22 0.0005595181    1.319    0.242
       336 -12.5783     36.5151     55.3409   5.2145847499e+01   6.4259209043e+01     0.492294    0.3115674 -38.87  0.001945878    1.568    0.362
       337 -11.2946    153.8863     57.1566   1.4270551694e+01   3.8870331305e+01    0.2334923    0.1873417 -65.58 0.0006981768    1.272    0.214
       338 -10.4900     92.0525     57.0608   2.9243612175e+01   5.3744926190e+01    0.1777242    0.1659395 -39.05 0.0003653676    1.063    0.059
       339 -12.4046     23.0919     55.7813   5.9604344421e+01   6.5674789986e+01    0.3736404    0.2593804 -25.29  0.001369635    1.560    0.359
       340 -11.1319    193.5339     56.4582   8.1648944761e+00   2.9746646073e+01    0.1357832    0.1217142 -44.91 9.001932e-06    1.057    0.054
       341 -12.0163     41.8404     57.9203   5.0319275742e+01   6.2938026227e+01    0.3868579    0.2861966 -40.56  0.001222996    1.293    0.227
       342 -13.0496    115.6588     53.7206   2.1203745500e+01   4.8806610371e+01    0.3909751    0.2956992 -79.75 0.0003640111    1.624    0.384
       343 -12.6323    109.0492     51.9259   2.2254110152e+01   5.0716419952e+01    0.3412509     0.218676  57.78 0.0003143809    1.580    0.367
       344 -10.8363    197.2087     54.3809   7.1653244818e+00   2.9232395819e+01     0.178349    0.1231226 -88.58 0.0004392731    1.675    0.403
       345 -11.6791    120.2904     51.9994   1.9440994701e+01   4.7964424142e+01     0.209395    0.1913662 -44.81  0.000190317    1.081    0.075
       346 -12.9802    100.3390     50.0306   2.3955309484e+01   5.3126039192e+01    0.4758135    0.3189848 -76.50   0.00196284    2.274    0.560
       347 -11.1485    172.6204     48.7203   8.7501674345e+00   3.5630073851e+01     0.211745    0.2056403  18.20 0.0009091343    1.204    0.169
       348 -12.9868     30.6549     50.1333   5.3467938613e+01   6.6205944511e+01    0.3567453    0.2671306  43.45  0.001501303    1.515    0.340
       349 -11.6650     19.4051     48.2211   5.9367434929e+01   6.7850023829e+01    0.2701846    0.1094481 -57.12  0.001086072    2.089    0.521
       350 -11.1740    174.6669     51.3097   9.2209803826e+00   3.4778697550e+01    0.1445977    0.1365888 -46.01 0.0003896623    1.090    0.082
       351 -11.1854    142.6680     42.3144   1.1420573559e+01   4.3873845513e+01    0.1562058    0.1045199 -65.81 0.0007045701    1.682    0.405
       352 -10.4340    211.0083     48.0147   4.0173585781e+00   2.7139818738e+01    0.1586596     0.129084 -45.83 0.0003486378    1.028    0.028
       353 -12.3006     34.9583     40.3121   4.7078039488e+01   6.7845951005e+01    0.3180808    0.2366047   3.76  0.001301794    1.522    0.343
       354 -11.8794     32.9916     36.9726   4.6726943675e+01   6.8824564797e+01    0.1932027    0.1861657 -69.62            0    1.212    0.175
       355 -11.2005    119.0125     39.1859   1.4962726650e+01   5.0287940922e+01    0.3699365    0.1684724 -46.98  0.001403276    2.355    0.575
       356 -11.2617    113.9611     38.9616   1.6024648691e+01   5.1588154309e+01    0.2252371    0.1683611 -67.90 0.0003412916    1.532    0.347
       357 -11.1216    103.0270     38.5365   1.8574225828e+01   5.4361293346e+01    0.2093908    0.1294673  88.98  0.000800471    2.534    0.605
       358 -11.0465     80.6987     36.5864   2.4462055598e+01   5.9954122244e+01    0.2546874    0.1715097 -54.43  0.001177594    1.755    0.430
       359 -10.8291     59.7762     37.2100   3.2953669602e+01   6.4279377585e+01    0.1936009    0.1618095   0.58 0.0004587771    1.297    0.229
       360 -12.0356      9.3707     36.7332   6.1982243410e+01   7.1382782798e+01    0.2224326    0.1734784  15.25  0.001051802    1.385    0.278
       361 -11.5872     52.9536     33.6511   3.4358730855e+01   6.6226416206e+01    0.2340226    0.1841812 -23.19 0.0004671311    1.293    0.227
       362 -12.1271     31.2273     32.0374   4.5450463850e+01   7.0085265098e+01    0.3319129    0.2193146  41.17  0.001725606    1.680    0.405
       363 -11.1113     14.8188     33.1232   5.6805583741e+01   7.1752363370e+01    0.1791401    0.1745467 -59.52 0.0003753332    1.181    0.153
       364 -10.6596    106.6689     32.3080   1.5074291569e+01   5.4368103029e+01    0.1516166    0.1092777 -69.40 0.0003950419    1.665    0.399
       365 -12.6077     45.9516     25.9697   3.3820925695e+01   6.8865291637e+01    0.4507376    0.2877398 -40.99  0.002286409    1.564    0.361
       366 -10.5242     19.4148     28.1813   5.1363273733e+01   7.2353768143e+01    0.1743154     0.122277 -63.79 0.0007140135    1.626    0.385
       367 -12.4320     76.1830     26.6407   2.1271098588e+01   6.2510708831e+01     0.285369    0.2505015 -73.88  0.000328606    1.336    0.252
       368 -11.9672     85.4699     24.1811   1.7104252550e+01   6.0675992501e+01    0.3005159    0.2399615  80.70 0.0003628029    1.413    0.292
       369 -11.6024    114.5889    248.0078   6.2042516426e+01   9.4121516784e+00    0.2771616    0.1045054 -52.76  0.001391342    3.182    0.686
       370 -10.7963     70.4007     21.4976   2.0665541459e+01   6.4546452351e+01    0.1368823    0.1294788  17.72 8.777568e-05    1.023    0.022
       371 -12.4836    116.5594     18.6276   7.3383189519e+00   5.3562649651e+01    0.2522896    0.2376137  89.43  0.000272135    1.012    0.011
       372 -10.4318      1.5554     25.5034   6.3754823768e+01   7.4454808409e+01    0.1270104    0.1064918 -41.90 0.0001244896    1.007    0.007
       373 -10.7270     63.4306     17.7182   2.1206412496e+01   6.6606463771e+01    0.1733654    0.1303318 -11.84 0.0003429202    1.434    0.303
       374 -10.9297     75.6247     14.8367   1.5373456769e+01   6.4187144674e+01    0.1969659    0.1193954 -39.30 0.0007304645    1.751    0.429
       375 -13.1187     50.2394    245.6093   7.5047357496e+01   1.7176128851e+01    0.5876778    0.3892263 -29.73  0.003244312    2.514    0.602
       376 -11.9259     53.4960    248.5120   7.4551545337e+01   1.6327205040e+01     0.189889    0.1603656  48.80   0.00126253    1.111    0.100
       377 -11.3545    248.3746    248.0352   3.8367107325e+01  -5.4237246872e+00     0.148615    0.1170638  11.93 0.0006668273    1.501    0.334
       378 -11.9442    178.4655    247.4623   4.9741246517e+01   1.8938574634e+00    0.2272853    0.1497108   7.30  0.001037376    1.328    0.247
       379 -11.8807    181.0181    245.0000   4.8963054310e+01   1.9134000041e+00    0.2507122     0.152337  23.26  0.001400073    1.317    0.241
