#   1 NUMBER                 Running object number                                     
#   2 MAG_AUTO               Kron-like elliptical aperture magnitude                    [mag]
#   3 X_IMAGE                Object position along x                                    [pixel]
#   4 Y_IMAGE                Object position along y                                    [pixel]
#   5 X_WORLD                Barycenter position along world x axis                     [deg]
#   6 Y_WORLD                Barycenter position along world y axis                     [deg]
#   7 A_WORLD                Profile RMS along major axis (world units)                 [deg]
#   8 B_WORLD                Profile RMS along minor axis (world units)                 [deg]
#   9 THETA_WORLD            Position angle (CCW/world-x)                               [deg]
#  10 FWHM_WORLD             FWHM assuming a gaussian core                              [deg]
#  11 ELONGATION             A_IMAGE/B_IMAGE                                           
#  12 ELLIPTICITY            1 - B_IMAGE/A_IMAGE                                       
         1 -12.4138     56.9186     35.1966   3.7853803324e+01   6.6487463994e+01    0.7931651    0.4890524   8.84  0.002748876    3.828    0.739
         2 -13.3527    239.8101     14.2520   3.5994521984e+02   2.5809039413e+01     0.956015    0.2766672 -57.83   0.00433527    2.856    0.650
         3 -11.8088    241.6305      9.6006   3.5889686577e+02   2.5969356606e+01    0.4230522    0.1928892 -57.26  0.001561411    1.648    0.393
         4 -12.4597    243.4395      3.0650   3.5748000811e+02   2.6312397408e+01    0.8548958    0.2840702  77.92  0.004363556    3.206    0.688
         5 -12.1949    249.3237     20.6884   8.5070121354e-01   2.3402749774e+01    0.5150236    0.1818345 -34.13 0.0001844853    2.131    0.531
         6 -12.8540    248.3275      9.0468   3.5852841719e+02   2.4823280663e+01    0.7840706     0.424268 -22.72  0.004608128    2.178    0.541
         7 -11.2282      7.7410     31.0320   6.9939995882e+01   7.4590419080e+01    0.4377082     0.236999 -64.76  0.002168234    1.769    0.435
         8 -14.4131    247.0001     39.7560   4.8824461270e+00   2.1619999754e+01     1.702739    0.3816179 -35.55  0.007188754    2.947    0.661
         9 -13.6429    233.9520     26.4663   2.8448107027e+00   2.5536236819e+01    0.7004985    0.3591284  71.93  0.002967078    2.208    0.547
        10 -12.5259     28.4894     19.9654   4.6658052191e+01   7.4554949250e+01    0.3258078    0.2480215  24.31  0.000353462    1.291    0.225
        11 -11.1158     68.5015     20.0867   2.4819779250e+01   6.6278513851e+01     0.458642    0.1872228 -44.58  0.001753064    2.766    0.639
        12 -12.7675      3.6712     13.2965   6.6476951147e+01   7.8811157231e+01    0.6627588    0.4979699 -65.77  0.003187472    1.423    0.297
        13 -11.7485     14.6808     17.7430   5.7283226087e+01   7.6869928490e+01    0.4087377    0.3149272  13.87  0.002106349    1.259    0.206
        14 -12.4607     10.6256     11.4477   5.7530789386e+01   7.8566015432e+01     0.508579    0.4776863  39.27  0.003189319    1.232    0.189
        15 -12.7180     75.8759     10.8459   1.7314293553e+01   6.5580784306e+01    0.6013162     0.414116  26.43  0.001611844    1.829    0.453
        16 -10.5857    151.2180     15.6473   6.2984791524e+00   4.5262096398e+01    0.3023235     0.165708 -19.36  0.001368124    2.309    0.567
        17 -10.9510    168.8000     14.0745   4.1832309923e+00   4.1048268940e+01    0.4207977     0.100593 -38.20  0.001561614    2.976    0.664
        18 -13.3203     65.6282     11.5799   2.1009029012e+01   6.8053396799e+01    0.5577258    0.3670365  48.34 0.0006002539    1.425    0.298
        19 -10.6010     30.1170     10.1126   3.8578730363e+01   7.5952271360e+01    0.4736393    0.1656473  45.63  0.001870663    2.707    0.631
        20 -10.7901    177.9691     12.0346   2.8906590045e+00   3.9067925520e+01    0.2002331    0.1603436 -66.16 0.0003263713    1.014    0.014
        21 -11.1170    145.5897     11.6954   5.5905704051e+00   4.7131355524e+01    0.2247803    0.1999443 -47.72 0.0008624761    1.206    0.171
        22 -11.2172    145.8760      7.2853   4.0986924040e+00   4.7507297768e+01    0.3149086    0.2491321  55.11  0.001242878    1.468    0.319
        23 -10.5397    173.4166     11.1964   2.9908279675e+00   4.0242244723e+01    0.1861211    0.0971949 -45.13 0.0003426593    1.598    0.374
        24 -10.6427    139.8129     10.9665   5.9571275065e+00   4.8704642923e+01      0.23499    0.1764525  85.90 0.0003024125    1.177    0.151
        25 -11.5057    154.7926      8.5642   3.7057024905e+00   4.5106056984e+01    0.3481103     0.223804  82.82   0.00123987    1.405    0.288
        26 -10.9878    160.4594      8.5188   3.2147314614e+00   4.3690166799e+01     0.220184    0.1914631 -46.04 0.0006937341    1.220    0.181
        27  -9.7714    126.2193      9.6428   7.0802982970e+00   5.2414915191e+01    0.1908397    0.1127258  67.39 0.0002832295    1.548    0.354
        28  -9.4636    116.7465      9.3635   8.2513816004e+00   5.4963251152e+01    0.1480957   0.09005571 -59.01 0.0002777934    1.623    0.384
        29  -9.2256    100.3067      9.7192   1.1090077047e+01   5.9314493718e+01    0.1447027   0.09624238 -69.27 0.0002244473    1.558    0.358
        30 -11.6509     82.1766      6.9171   1.3546640746e+01   6.4366820838e+01     0.227468    0.2030991  60.84 0.0002773711    1.090    0.082
        31 -10.6813     35.7099      6.1807   3.1627843838e+01   7.5450255142e+01    0.2833674    0.1798266  36.35  0.001027307    1.538    0.350
        32 -11.3068     97.9113      2.9900   8.4309762429e+00   6.0584189300e+01    0.3256555    0.2721057  28.22 0.0006894289    1.446    0.309
        33 -10.4838     68.2544      5.3713   1.6444653755e+01   6.8073526631e+01    0.2282109    0.2151395  80.57 0.0005652464    1.072    0.067
        34  -9.9519     59.0153      5.6402   1.9727707460e+01   7.0316187862e+01     0.195548    0.1604802  62.09 0.0004762813    1.097    0.088
        35 -10.2062    222.9075      5.2167   3.5870634677e+02   2.9993640295e+01    0.1844871    0.1150241 -55.63 0.0008592346    1.172    0.147
        36 -11.3631    179.8698      3.6358   4.4998724541e-01   3.9487117573e+01    0.3448071    0.2195944  67.73 0.0008655696    1.684    0.406
        37 -10.8344    164.3223      4.6556   1.7560183407e+00   4.3121644944e+01    0.2253196    0.1687837 -55.91 0.0002403724    1.136    0.120
        38 -10.9017    159.5832      3.7765   1.8362651482e+00   4.4379432304e+01    0.2814533    0.1635109 -74.57 0.0002638367    1.515    0.340
        39 -11.5847    230.1746      1.8575   3.5768553881e+02   2.8913637152e+01    0.2032771    0.1736941  75.10 0.0008194193    1.523    0.344
        40 -10.5911     90.9940      2.4249   9.3870739462e+00   6.2467130751e+01    0.2271512    0.1883812  24.74 0.0004850219    1.451    0.311
        41 -10.4019     27.8944      2.9593   3.4471037502e+01   7.7400722013e+01    0.2112634    0.1748993  55.65 0.0007824595    1.306    0.234
        42 -10.0323    126.0930      2.6692   4.4722155569e+00   5.3110447687e+01    0.1933754    0.1549808  86.74 0.0005445659    1.086    0.079
        43  -9.5229    120.6653      1.6859   4.7037423381e+00   5.4635265148e+01    0.1400246    0.0941465  48.52 0.0007046308    1.688    0.407
        44 -10.2560     73.5960      1.4609   1.2659485961e+01   6.7083906583e+01    0.2581045    0.1193102  68.70 0.0005975318    1.886    0.470
        45  -9.8401    231.5688    187.5489   3.5105173160e+01   3.7045909021e+00     0.108643   0.08649728 -16.87 5.206778e-05    1.080    0.074
        46  -9.3715     72.2771    250.3458   7.4837747310e+01   1.3430711167e+01    0.1087946   0.08570591  -8.69   0.00070056    1.631    0.387
        47 -11.8053     21.7761    248.6727   8.5966483200e+01   1.9000206801e+01    0.5625867    0.1313387  37.36   0.00255747    2.355    0.575
        48 -10.0165      6.9227    249.3043   8.9223663667e+01   2.0233431558e+01    0.1841725    0.1097286  49.23 0.0005535924    1.202    0.168
        49 -10.6623     10.5015    248.0793   8.8420568210e+01   2.0145365511e+01    0.1639089    0.1180597  52.10 0.0006252271    1.094    0.086
        50 -10.0065     61.8602    184.8436   7.1855924135e+01   2.8181474059e+01    0.1999343    0.1940413  13.01 0.0008803498    1.196    0.164
        51 -11.8770     15.6721    182.0972   8.4930238190e+01   3.3935315974e+01     0.466697    0.2021176  56.99  0.002069206    1.990    0.497
        52 -10.6421     18.1476    173.1860   8.3753606864e+01   3.5932451338e+01    0.2054332    0.1317466  56.38 0.0006590618    1.326    0.246
        53 -10.7489     23.4692    180.6455   8.2597384859e+01   3.3570042851e+01    0.3229118    0.1630001  48.88 0.0001704672    1.641    0.390
        54  -9.4804    185.6881    166.3220   3.8981217386e+01   1.2985151913e+01    0.1172119     0.102784 -81.72 0.0007038405    1.653    0.395
        55 -10.0596     67.5333    165.5344   6.7955071388e+01   3.2149839447e+01    0.1500012    0.1322335  54.47 9.350235e-05    1.015    0.015
        56 -10.4073    216.3153    154.9339   3.1712303622e+01   1.0297333252e+01    0.1697412    0.1311717 -28.81 0.0003351444    1.091    0.083
        57  -9.5460    158.4036    153.7975   4.1999334241e+01   1.9689325483e+01    0.1960564      0.12394 -34.04 0.0005453676    1.660    0.398
        58 -10.3233     35.1000    150.4547   7.6628100903e+01   4.0198365226e+01    0.2327397    0.1862816 -69.85  0.001228017    1.289    0.224
        59 -12.2388     13.7879    147.9465   8.3685642202e+01   4.2900752857e+01    0.2900171    0.2322235  70.89 0.0003442988    1.095    0.087
        60 -10.7006    233.7646    146.9806   2.7721930509e+01   9.0460371714e+00    0.1701091    0.1220423 -31.13 0.0006040469    1.122    0.109
        61 -11.0491      6.4608    145.3375   8.6046829530e+01   4.4157037994e+01    0.2676556    0.1611423  27.07 0.0009935043    1.617    0.382
        62  -9.7022    218.2482    144.5686   2.9466587642e+01   1.1594983116e+01    0.1534592    0.1118176  24.55 0.0009497466    1.579    0.367
        63 -11.4751     17.6260    143.3187   8.2045779084e+01   4.3832792251e+01    0.5092487    0.2251115  81.57  0.001992264    2.350    0.575
        64 -10.7912     13.9791    140.2936   8.3122775522e+01   4.4956616765e+01    0.3029017    0.1878265 -46.11  0.001420131    1.912    0.477
        65 -11.2566    239.7519    140.3057   2.5696490847e+01   9.1816604452e+00    0.2116635    0.1509782 -28.66 0.0005435881    1.124    0.111
        66 -10.3070    235.3220    138.0346   2.5846704202e+01   1.0113178983e+01    0.1695493    0.1222899 -33.37 0.0003967139    1.113    0.101
        67 -12.9709     37.5191    135.2403   7.4114001086e+01   4.4080603326e+01    0.3934093    0.2852453  85.58 0.0009511331    1.350    0.259
        68  -9.6306      9.4340    136.4715   8.4508991095e+01   4.6344029894e+01    0.1441124    0.1223136  68.09 6.836974e-05    1.025    0.024
        69 -11.8454    241.6050    134.2803   2.4339130664e+01   9.7759308757e+00    0.2497841    0.1617259 -28.35 0.0007860358    1.285    0.222
        70 -10.4434     47.0444    133.8628   7.0458264077e+01   4.3311136204e+01    0.2267479    0.2095967  71.18 0.0005561147    1.026    0.026
        71 -10.6297     53.1848    133.0581   6.8118507551e+01   4.2719796692e+01    0.2229736     0.201715 -45.39 0.0002932756    1.249    0.200
        72 -10.4854     58.9622    131.4294   6.5786621979e+01   4.2349104572e+01    0.2381529    0.1978681 -77.59  0.000464256    1.194    0.162
        73 -11.1572     17.0038    131.0777   8.1324906550e+01   4.7243665791e+01    0.3582051    0.2173534  22.31  0.001451135    1.696    0.410
        74 -11.7255      4.7747    129.9329   8.5843744567e+01   4.8448101355e+01    0.2743325    0.2209878 -79.54 0.0002741289    1.192    0.161
        75 -11.4233     73.3531    128.8707   6.0282164570e+01   4.0802237022e+01    0.3422186    0.2731788  85.58 0.0008448092    1.315    0.239
        76 -11.0431     25.2295    128.7915   7.7988862892e+01   4.7151367411e+01    0.4740351    0.2371823  68.70  0.001724092    2.150    0.535
        77 -10.0217    217.0032    129.0248   2.6600345271e+01   1.4178169324e+01    0.1530076    0.1226383 -33.72 0.0003744304    1.045    0.043
        78 -11.7813     47.0694    124.3148   6.9030358788e+01   4.5943445406e+01    0.2871602    0.2728926 -31.35 0.0003374701    1.208    0.172
        79 -10.5609     82.7662    124.5271   5.6221311141e+01   4.0327541811e+01    0.2871791    0.2168997 -63.35 0.0007643919    1.342    0.255
        80 -10.1306    229.4899    124.5021   2.3999657770e+01   1.2933254887e+01    0.1213265   0.09810585 -32.43 4.822142e-05    1.012    0.012
        81 -11.9101      9.4786    121.3750   8.3479609400e+01   5.0499296499e+01    0.5427006    0.2426307  61.54  0.001171853    2.224    0.550
        82 -10.4487     68.3812    121.7677   6.0651279772e+01   4.3510820730e+01    0.2153738    0.1424453 -55.10 0.0006420476    1.546    0.353
        83 -10.4259     61.0488    121.5272   6.3284626300e+01   4.4731672211e+01    0.2366352    0.2052713 -77.48 0.0005604229    1.136    0.120
        84  -9.9299     19.4557    121.8850   7.9547444308e+01   4.9596089083e+01    0.2165111    0.1347232 -84.00 0.0009777029    1.519    0.342
        85 -12.3146    249.2189    117.2104   2.0216009673e+01   1.1088133017e+01    0.3989749    0.2014117 -22.03    0.0020457    2.368    0.578
        86 -10.4776     24.6883    119.1304   7.7149781859e+01   4.9901583167e+01    0.3279426    0.2335494  -0.71  0.001570416    1.730    0.422
        87 -11.1001      2.7418    116.9852   8.5891691961e+01   5.2131247098e+01    0.4279297    0.2222365 -42.65  0.001855997    2.252    0.556
        88 -10.7446     16.0226    115.4887   8.0319398027e+01   5.1663469876e+01    0.3214145    0.2087695  81.26 0.0003977535    1.479    0.324
        89 -11.8420     12.5893    109.9823   8.1241746222e+01   5.3458075595e+01    0.4926864    0.2971858  40.30  0.001323814    1.592    0.372
        90 -10.3897     70.8306    114.6000   5.8280681564e+01   4.5018834040e+01    0.2365791    0.1348527  46.37  0.000946858    1.711    0.416
        91  -9.5367    182.2266    114.9368   2.9061952664e+01   2.2598144208e+01    0.1789121    0.1037446 -42.11  0.000488491    1.559    0.358
        92 -11.4021     55.1602    109.7611   6.3266529364e+01   4.8830402912e+01    0.3080997    0.2600706 -68.29 0.0005780996    1.170    0.146
        93 -12.1498     30.9499    107.6411   7.3008316549e+01   5.2504381426e+01    0.5720803    0.3261945  74.49  0.002361328    1.996    0.499
        94 -10.7638      3.9728    105.3676   8.4601534523e+01   5.5279086882e+01    0.3779145    0.2789486  28.78  0.002019416    1.396    0.284
        95 -11.7889     74.9035    104.1285   5.4366172728e+01   4.7058124928e+01    0.3249501    0.2712625 -62.70 0.0002731874    1.198    0.166
        96  -9.7830     76.9561     97.7365   5.1977065347e+01   4.8322667468e+01    0.2306814    0.2138636 -52.69 0.0003689868    1.140    0.123
        97 -11.5912    248.6104     99.6172   1.6878525974e+01   1.3588988236e+01    0.2162412    0.1538544 -62.11  0.001432095    1.595    0.373
        98 -10.7092     61.9738     98.9805   5.8132986456e+01   5.0669767191e+01    0.3687304    0.2167856 -51.52  0.001220712    1.736    0.424
        99 -10.1165     52.0230     97.2833   6.1897788839e+01   5.2694249512e+01    0.2752335    0.1966662 -41.64 0.0007935309    1.578    0.366
       100 -10.8213     20.4970    108.1391   7.7619627488e+01   5.3358825093e+01    0.2878535    0.1907122 -10.17  0.001316739    1.928    0.481
       101 -11.5908     15.0164     97.0167   7.8756224932e+01   5.6904184427e+01    0.3665243    0.2157955 -55.58  0.001149118    1.657    0.397
       102 -11.0370     14.2440     92.3661   7.8547042449e+01   5.8252909758e+01    0.3371155    0.2260968 -64.45 0.0009351849    1.396    0.284
       103  -9.6774    226.3770     93.2409   1.7976112280e+01   1.8056468067e+01    0.1827104   0.09002529 -44.25 0.0005727533    1.657    0.396
       104 -11.7344     57.3291     90.8568   5.8058895997e+01   5.3584901504e+01    0.3905373    0.3303862 -25.23 0.0006078667    1.412    0.292
       105 -10.3430     31.2511     92.0918   7.0262755334e+01   5.6801379785e+01    0.2697406    0.1876505  47.04 0.0009317278    1.437    0.304
       106 -10.8324     35.4467     90.3901   6.7925321311e+01   5.6794322248e+01    0.2478475    0.2368696  79.54 0.0002489365    1.014    0.014
       107 -10.4317    231.5083     91.4998   1.7035689352e+01   1.7440253954e+01    0.1231302   0.09804942 -41.44 -8.28316e-05    1.017    0.017
       108  -9.9363     22.7073     89.6535   7.3989815687e+01   5.8322592821e+01    0.1554326    0.1008629 -42.18  0.000273381    1.666    0.400
       109  -9.2516     94.4954     88.5345   4.3195673435e+01   4.6996847596e+01    0.1576548    0.1527133  76.09  0.000210075    1.062    0.058
       110 -10.8763    184.8768     85.2075   2.1578227189e+01   2.7213275817e+01    0.2162553    0.1713362 -47.92 0.0003235765    1.109    0.099
       111 -11.9194    239.7854     84.5500   1.4734133621e+01   1.7045913257e+01    0.2210019    0.1727589 -17.89  0.001072501    1.471    0.320
       112 -10.4776    107.5731     85.0047   3.8038065881e+01   4.4872767872e+01    0.3341317    0.2127811  65.61 0.0006607106    1.806    0.446
       113  -9.6428      8.5084     85.0272   8.0518137801e+01   6.0649956332e+01    0.2158044    0.1306119 -81.82  0.000914212    1.547    0.354
       114  -9.3662     34.4343     84.5024   6.7172670550e+01   5.8517796578e+01     0.147623    0.1406942 -78.44 0.0001160729    1.021    0.021
       115  -9.9780     42.7832     83.4039   6.2819256171e+01   5.7748656895e+01    0.2073524    0.1480757  11.54 0.0006632433    1.673    0.402
       116  -9.9564     77.0103     82.3297   4.7570235926e+01   5.2149045120e+01    0.3233755    0.1326084  47.68  0.001088112    2.470    0.595
       117 -10.5419     64.5155     80.4256   5.2061924260e+01   5.5024905420e+01    0.3315406    0.1505309 -54.81  0.001213444    2.191    0.544
       118  -9.5968      1.4829     81.0114   8.3761848668e+01   6.2097685201e+01    0.1992671    0.1240272 -76.37 5.575137e-06    1.454    0.312
       119 -10.4614    120.1048     79.9285   3.3005784905e+01   4.3018444522e+01    0.2390487    0.2261187 -89.85 0.0007050636    1.036    0.035
       120 -12.4777     88.4185     77.2289   4.1756329914e+01   5.0936457807e+01    0.3683454    0.3149833  40.62  0.000397545    1.228    0.185
       121  -9.8112     50.0262     77.9892   5.7894993855e+01   5.8106593755e+01    0.1836684    0.1709283 -73.25 0.0003467239    1.059    0.055
       122 -11.6962     22.9842     76.3349   7.1409160554e+01   6.1934362404e+01    0.3960485     0.306332  32.66  0.001480772    1.316    0.240
       123  -9.4915     37.4023     76.4990   6.3768017472e+01   6.0293689081e+01    0.1469868    0.1396577 -61.65 0.0008020598    1.046    0.044
       124  -9.7413    168.6449     74.8925   2.1464559705e+01   3.2494328799e+01    0.2205508    0.1113233 -49.05 0.0006357892    1.853    0.460
       125  -9.9786     56.2905     74.9867   5.4058001407e+01   5.7842812327e+01    0.2119687    0.2043886 -83.06  0.000511253    1.024    0.024
       126  -9.4283     75.7857     74.5738   4.5576138340e+01   5.4246212690e+01      0.22655    0.1427861  54.01 0.0009476622    1.635    0.388
       127  -9.7979     44.6605     74.5371   5.9536420867e+01   5.9808031746e+01      0.20159    0.1363484  44.62 0.0009212892    1.485    0.327
       128 -10.9436      6.6612     73.2743   8.0023815058e+01   6.3948185106e+01    0.3601898    0.1656632   6.09  0.001493147    2.463    0.594
       129 -11.3177    102.8875     69.6915   3.4533178699e+01   4.9242483500e+01    0.3682769    0.2407224 -49.61 0.0006434182    1.544    0.352
       130 -10.4252     45.0343     70.8665   5.8271022734e+01   6.0691005733e+01    0.2162969    0.2073389  75.56 0.0003502591    1.033    0.032
       131 -13.7343     16.4781     67.3583   7.3285240841e+01   6.4889129306e+01    0.4508868     0.373574 -71.27 0.0007623582    1.149    0.129
       132 -11.9180    244.1335     68.9149   1.1113953022e+01   1.8436926572e+01    0.1884823     0.124887 -51.73 0.0004680311    1.239    0.193
       133 -11.6108     50.5358     68.0713   5.4621699460e+01   6.0525548167e+01    0.3360042    0.2942462 -12.67 0.0005897105    1.322    0.244
       134 -10.9496     92.5523     67.8581   3.7177245775e+01   5.2058963932e+01    0.2816225    0.2427848  53.25  0.000319906    1.140    0.123
       135 -11.5583      6.3481     67.7967   7.9428291315e+01   6.5430559959e+01    0.2546331    0.2426465  -0.21 0.0002898962    1.122    0.109
       136 -10.5905    129.4862     66.2409   2.6435865179e+01   4.3400750869e+01    0.3828664    0.2586458  43.53  0.001388434    1.718    0.418
       137  -9.4984     74.6611     67.6896   4.3668564544e+01   5.6064213325e+01    0.1546614    0.1261795   0.23 0.0007044788    1.689    0.408
       138 -12.7234     30.1073     63.2599   6.4191524467e+01   6.4625275869e+01    0.4878783    0.4298431  55.80  0.001149586    1.183    0.154
       139 -10.1602     81.6322     64.8984   3.9973474639e+01   5.5173526225e+01    0.2781771    0.2050291  41.12 0.0007005805    1.398    0.285
       140 -11.7062    209.8882     62.9445   1.3026255424e+01   2.5519021617e+01    0.2513348    0.1696206 -44.29 0.0003514629    1.210    0.174
       141 -10.6083    161.3704     62.5208   1.9221041038e+01   3.6246341603e+01    0.3916459    0.2808501  18.39  0.001404986    2.439    0.590
       142 -10.4423    122.9029     62.8215   2.6848638169e+01   4.5668854533e+01    0.3271248    0.1959932 -45.16  0.001118426    1.644    0.392
       143 -11.7511     46.6012     60.3436   5.4014513016e+01   6.3042971622e+01    0.4218675    0.3037249 -22.53 0.0007848695    1.806    0.446
       144 -13.4571    232.1102     57.3061   9.6717942066e+00   2.2061361788e+01    0.7331895    0.2631482 -49.92  0.003361921    2.349    0.574
       145 -11.8536      3.3107     61.9791   8.0438707198e+01   6.7112839668e+01    0.4144205    0.3036148 -33.81  0.002268238    1.386    0.278
       146  -9.9299     90.1494     60.9260   3.5489425745e+01   5.4057718919e+01    0.2343299    0.1983367  88.11 0.0003002384    1.236    0.191
       147 -10.7622    189.2139     60.0527   1.4653777401e+01   3.0259302940e+01    0.2036421    0.1754925 -76.03 0.0003102281    1.108    0.098
       148  -9.4213    115.0401     60.1912   2.7894619943e+01   4.8121769910e+01    0.2080645    0.1153041  57.36  0.000323792    1.747    0.428
       149  -9.7347    135.0863     58.4549   2.2739376062e+01   4.3383255664e+01    0.2080636    0.1428982  66.61 9.817564e-05    1.428    0.300
       150  -9.2924     15.4560     58.4528   7.1965223409e+01   6.7294988462e+01    0.1385825    0.1277077 -46.83  0.000483547    1.045    0.043
       151  -9.7024    177.5836     56.7310   1.5254113121e+01   3.3360574546e+01    0.1899261    0.1117003 -48.27 0.0002931751    1.489    0.328
       152  -9.9499     68.4802     56.9442   4.2222595754e+01   5.9728685809e+01    0.2171025    0.1499527 -50.86  0.000519768    1.490    0.329
       153 -11.0282    115.7960     55.2302   2.5972327044e+01   4.8828840005e+01    0.2922986     0.234745  81.96 0.0007907613    1.227    0.185
       154 -10.7571     18.9467     37.5085   6.3075686555e+01   7.2122296986e+01    0.2600826    0.2211977  60.22   0.00151112    1.356    0.262
       155 -11.1828     16.8329     42.6511   6.6550448790e+01   7.1116997343e+01    0.5080732    0.2892839 -71.81  0.002390324    1.884    0.469
       156 -12.5315      4.8894     52.5232   7.7803223250e+01   6.9490771446e+01     1.013843    0.7890095 -46.26  0.005819298    1.208    0.172
       157 -11.7837     13.0249     52.9950   7.2269407403e+01   6.8874057091e+01    0.3365611    0.2216459 -35.21 0.0003783247    1.556    0.357
       158 -13.4470     12.4861     47.8819   7.1329268054e+01   7.0197599336e+01    0.7355508    0.4093923  61.60  0.000611528    2.386    0.581
       159 -10.9059     89.0625     53.9672   3.3206325168e+01   5.5692025296e+01    0.4486564    0.2353862 -37.91  0.001777274    2.104    0.525
       160 -12.7304    149.5347     51.2505   1.7809314724e+01   4.0934595140e+01    0.3667531     0.270402 -64.85  0.000295796    1.289    0.224
       161 -10.4146    154.1844     52.3832   1.7400122171e+01   3.9604458024e+01    0.2207525    0.1937487 -41.73 0.0002802672    1.207    0.172
       162 -11.4596    105.1764     52.5492   2.7762729360e+01   5.1990808375e+01    0.2785747    0.2448514 -75.24 0.0002690656    1.110    0.099
       163 -10.9531     38.9207     52.5730   5.5460453497e+01   6.6077580427e+01    0.3551685    0.2732766 -44.43  0.001064839    1.316    0.240
       164  -9.9892    127.6576     51.8642   2.2097797896e+01   4.6380553674e+01    0.3432138    0.1517001 -57.32  0.001150876    2.962    0.662
       165 -12.0756     54.7663     49.1835   4.5419035012e+01   6.4137376214e+01     0.879186    0.6246275  70.96  0.004034064    1.862    0.463
       166 -11.6030     54.8755     41.2634   4.1823206059e+01   6.5747635690e+01    0.5512577      0.33212 -35.27   0.00203598    1.918    0.479
       167 -11.0773    247.5097    249.3857   4.1875077381e+01  -5.0614799285e+00    0.1696594   0.09152552  16.45   0.00073616    1.558    0.358
       168 -11.3688    224.4612    248.3969   4.5164828601e+01  -2.9647221574e+00     0.207816    0.1276103 -38.13  0.001532694    1.946    0.486
       169 -10.6835     72.9143    244.8933   7.4302260717e+01   1.4317958797e+01    0.2310044    0.1882257  10.81 0.0008548678    1.338    0.253
       170 -11.8023     74.4067    239.6153   7.3564404620e+01   1.5098441408e+01    0.4376087    0.3234992  48.52  0.002835642    1.208    0.172
       171  -9.9473      4.4862    244.0089   8.9649250815e+01   2.1438512731e+01    0.1516644   0.09951233  76.95 0.0004780871    1.506    0.336
       172  -9.8679     45.4723    244.4759   8.0486903257e+01   1.7414011643e+01    0.1245367   0.09056675  42.27  5.96007e-05    1.031    0.030
       173 -12.0895     44.7656     43.7875   4.8441664994e+01   6.7110031357e+01    0.5700507    0.4031683 -68.84 0.0005260679    1.740    0.425
       174 -10.5934    180.2144     47.0675   1.2316532931e+01   3.4167650224e+01    0.2193072     0.169931 -69.60  0.000244483    1.152    0.132
       175 -10.3188    121.5462     46.5289   2.1546730922e+01   4.8825594640e+01    0.3134492    0.2101164  75.20  0.001447697    1.489    0.328
       176 -10.6431    121.5127     42.9699   2.0275317827e+01   4.9397248126e+01    0.4053938    0.2293246 -55.50  0.001637124    1.873    0.466
       177 -10.7449    118.4886     40.4483   1.9995584780e+01   5.0573481899e+01    0.3116265    0.2316211  82.67  0.001149138    1.310    0.237
       178 -10.1706     78.8511     46.9392   3.3946639272e+01   5.9440646955e+01    0.2380724    0.2049503  28.84   0.00100441    1.329    0.248
       179 -10.7236    222.1078     45.8390   7.9476590392e+00   2.5433878815e+01    0.1902628    0.1293076 -56.79 0.0002721151    1.203    0.169
       180 -11.0451    237.3378     44.3676   6.4839339285e+00   2.2768669219e+01     0.228333      0.15526 -52.30 0.0007112036    1.123    0.109
       181  -9.3900    112.2594     45.3678   2.3246667130e+01   5.1413990856e+01    0.1445015     0.120025  17.99 0.0004140227    1.643    0.391
       182 -11.2930     73.3555     43.2757   3.4459551042e+01   6.1392530656e+01    0.3652104    0.2051283  63.64  0.001472651    2.078    0.519
       183 -10.8071     89.2910     41.4418   2.8012604770e+01   5.7903621950e+01    0.2778518    0.2329015 -86.30 0.0001862089    1.239    0.193
       184 -11.4962    149.4131     40.5789   1.4495562049e+01   4.2560960326e+01    0.3064216     0.217889 -59.01  0.001564526    1.297    0.229
       185 -10.5017     97.5096     41.1548   2.5438409570e+01   5.5886045974e+01    0.3280351    0.2088806  71.43  0.001029194    1.624    0.384
       186 -12.1910     83.7832     37.1140   2.7903041654e+01   5.9985847395e+01    0.7341117    0.5083243  19.50  0.002876672    2.253    0.556
       187 -10.0550    143.7597     42.0612   1.5849260546e+01   4.3783747419e+01    0.1958132    0.1745501 -65.30 0.0001987015    1.070    0.065
       188 -10.0620     60.6825     41.2642   3.8996192614e+01   6.4559453201e+01    0.3723029      0.19662  26.71  0.001271243    3.341    0.701
       189 -11.9668    233.7880     39.5055   5.6812641586e+00   2.4016797161e+01    0.2595065    0.1470278 -79.90 0.0008366534    1.919    0.479
       190  -9.5253    110.6684     39.3065   2.1314198104e+01   5.2787966830e+01    0.1588171    0.1080072 -74.23 0.0003076401    1.662    0.398
       191 -11.8862     27.7269     37.6540   5.6610883371e+01   7.1056337702e+01     0.258487    0.2337891  36.60 0.0002416786    1.132    0.117
       192 -11.1740     24.3749     34.7923   5.7787538653e+01   7.2118624509e+01    0.3455042    0.2382658 -34.50  0.001042012    1.516    0.340
       193 -11.0431     64.9268     36.3715   3.4739588977e+01   6.4546334707e+01    0.2432953    0.1935491 -58.50 0.0007884398    1.386    0.279
       194 -10.0608    102.7413     40.6222   2.3798485340e+01   5.4634297386e+01    0.2041454     0.136039  72.92 0.0003058721    1.507    0.336
       195 -10.1827    110.5741     34.2360   1.9351419756e+01   5.3569989160e+01    0.2828314    0.1913984  66.38  0.001278609    1.370    0.270
       196 -10.0080     92.5091     33.9291   2.3796780503e+01   5.8301539539e+01    0.2141422    0.1455577 -39.29  0.001014833    1.546    0.353
       197 -10.2377     34.4595     33.2081   4.9819087820e+01   7.1031638340e+01    0.2228029    0.1863945 -35.78 0.0008313156    1.217    0.178
       198  -9.4060    140.7527     33.3391   1.3448370874e+01   4.5786600871e+01     0.151025   0.09448071 -60.96 0.0002745115    1.563    0.360
       199 -10.7870     75.9569     33.1368   2.8774874636e+01   6.2536989972e+01    0.3593306    0.1979471  65.98  0.001295861    1.990    0.498
       200 -10.4163    195.9940    238.1795   4.8458070181e+01   1.0288795268e+00    0.1814886     0.136481 -18.37  0.001227081    1.244    0.196
       201 -10.2377     19.0280     31.0290   6.0276612298e+01   7.3576834222e+01    0.2357646    0.1878591  19.00  0.000909281    1.239    0.193
       202 -10.0720     96.3139     31.3107   2.1608092351e+01   5.7713850048e+01    0.1477907    0.1110159  34.07 0.0007030392    1.632    0.387
       203 -10.3750      3.7875    238.5152   8.9698075625e+01   2.2554830922e+01    0.1983002    0.1404645  75.32 0.0007851025    1.382    0.276
       204 -10.1133     48.7919     28.9428   3.8766555295e+01   6.9276731929e+01    0.2750269    0.2027831   2.99  0.001083387    1.872    0.466
       205  -9.6334    163.0000     29.0423   9.1728154829e+00   4.0710186996e+01    0.2240328    0.0739239 -30.56 0.0008080355    2.981    0.665
       206  -9.8744     12.0039     29.0177   6.5381915865e+01   7.4719793402e+01    0.2018191    0.1784305 -26.16 0.0005410985    1.056    0.053
       207 -10.8536    198.5449     28.2405   5.6154355700e+00   3.2513038322e+01    0.2437092    0.1351793 -83.84  0.001255369    1.835    0.455
       208 -11.5882    112.1244     27.1103   1.6185225311e+01   5.4146444275e+01    0.3393446    0.2981158  -6.59  0.001861493    1.439    0.305
       209 -10.9887     34.7787    237.6014   8.2598516328e+01   1.9828606007e+01    0.1926395    0.1241222  39.57  0.001185159    1.152    0.132
       210 -11.3104    213.2833     26.4092   4.1019090928e+00   2.9604618535e+01    0.2441981    0.1462551 -19.29  0.001284002    2.174    0.540
       211 -10.7499    176.7246     26.6157   7.0583773142e+00   3.7687703129e+01    0.2725891    0.1730245 -51.87 0.0001878699    1.329    0.248
       212 -10.8628    119.3888     27.1877   1.4814647116e+01   5.2211323604e+01    0.2724001    0.1907932  78.90 0.0006252912    1.325    0.245
       213 -10.8099    218.9997     25.3075   3.4751484109e+00   2.8571948819e+01    0.1698279    0.1300892 -64.97  0.000425667    1.098    0.089
       214 -10.1210     91.1574     25.0097   2.0165103513e+01   5.9929035584e+01    0.3830803    0.1416515  53.83  0.001401982    2.447    0.591
       215 -10.4601     10.8648     24.8555   6.4615761106e+01   7.5746431491e+01    0.2118103    0.1554524 -30.30 0.0006434062    1.325    0.245
       216 -10.2722     15.7487     31.9959   6.3407494065e+01   7.3702180667e+01    0.1845329     0.163463 -40.69 0.0003823924    1.077    0.072
       217 -10.4414      1.7286     23.2392   7.2880373864e+01   7.6744772549e+01    0.3211001    0.1364041 -54.41  0.001499749    2.003    0.501
       218 -11.8250     34.1459     22.6657   4.4180878476e+01   7.3127701018e+01     0.241655    0.2107856  12.48 0.0001920185    1.145    0.127
       219  -9.4150     14.3509     23.2779   6.0618828542e+01   7.5756568767e+01    0.1361876   0.09098194 -20.22 0.0007008915    1.643    0.392
       220 -10.8300    160.5127     21.3082   7.1069072237e+00   4.2271496983e+01     0.374835    0.2002046  45.81  0.001628625    2.632    0.620
       221  -9.5987    156.4895     21.5537   7.6065665904e+00   4.3250754974e+01    0.1743434    0.1357436 -19.55 0.0007810569    1.587    0.370
       222 -11.0397     82.0346     20.8478   2.0737402255e+01   6.2818712989e+01    0.3554552    0.1554332 -42.61  0.001416843    2.414    0.586
       223 -10.9791     30.4501    233.8777   8.3439951365e+01   2.0995574775e+01     0.369823    0.1884983  70.26  0.001829495    1.994    0.498
       224 -10.5104    193.0813     20.9439   4.1698795222e+00   3.4588564905e+01    0.1921131    0.1541153 -62.34 0.0003353898    1.029    0.028
       225 -10.0671    100.1387     21.2304   1.6263542691e+01   5.8068354272e+01    0.2916496    0.1894315 -86.94  0.001353841    1.669    0.401
       226 -11.1243    182.9798    234.2521   5.0230883914e+01   2.9551068278e+00    0.1847757    0.1456494 -14.03 0.0007891876    1.190    0.159
       227  -9.9977     58.8395     21.3358   2.9454152828e+01   6.8365914141e+01    0.2043103    0.1156624  46.62 0.0005967756    1.659    0.397
       228  -9.5456     91.7000    235.6856   6.9279989854e+01   1.3749138506e+01    0.1178426   0.08903336  -4.89 0.0002248261    1.611    0.379
       229 -10.6397    161.2312    234.7589   5.4382864775e+01   5.3869078873e+00    0.1907839   0.08102275  20.14 0.0008912472    2.470    0.595
       230  -9.7236     54.6826    231.6660   7.7594956103e+01   1.8862471167e+01    0.1164105   0.09283391 -13.99  0.000635901    1.694    0.410
       231 -11.6054    230.1357     19.9160   1.6251480345e+00   2.7003141052e+01    0.1831003    0.1613774 -77.88  0.000477566    1.292    0.226
       232 -10.4003    122.1414     19.8045   1.1516661184e+01   5.2393157527e+01    0.3404142     0.130424  51.11  0.001232529    2.889    0.654
       233  -9.4522     44.7124     19.1609   3.5284474867e+01   7.1740760084e+01     0.217603    0.1494611 -86.81 0.0009443063    2.706    0.631
       234  -9.6326    248.5226    229.4813   3.9021005619e+01  -3.0624752931e+00   0.09842893   0.07010627  -8.04 0.0008094144    1.052    0.049
       235 -11.1555    217.0738     16.0901   1.4609352101e+00   3.0008148957e+01    0.3817615    0.1566588  68.14  0.001906744    2.649    0.622
       236  -9.3694     59.4308    229.4748   7.6314218982e+01   1.8755617910e+01    0.1279818    0.1006703  41.22 0.0001540745    1.008    0.008
       237 -10.9062    131.8477     16.2649   8.7858817341e+00   5.0225372857e+01    0.2321268    0.1676717 -53.25 0.0002596881    1.298    0.229
       238 -10.0057    109.3950     16.7257   1.2461307783e+01   5.6143631698e+01     0.273689     0.156133  66.44 0.0007842737    1.566    0.361
       239  -9.9266     35.1242     17.2627   4.0064236803e+01   7.3897074542e+01    0.2536414    0.1479087  58.91  0.001138497    2.291    0.564
       240 -10.1299    193.4442     16.3450   2.9582682855e+00   3.5030231795e+01    0.2335299    0.1380854 -87.55 0.0008768128    1.601    0.375
       241  -9.6580     39.6333    229.3137   8.1044657820e+01   2.0965778909e+01    0.1424856   0.06528088  50.12 0.0007038285    1.768    0.435
       242  -9.5443    118.7694     16.6186   1.0821772677e+01   5.3655926178e+01    0.2121576     0.121902  87.55  0.000948809    1.723    0.419
       243  -9.8088    192.4853    227.5050   4.7605465908e+01   2.7984325794e+00    0.1131342   0.08626465   1.73 1.329231e-05    1.035    0.034
       244 -10.3918     53.7666     14.1594   2.7415614421e+01   7.0524671533e+01    0.2503513    0.1763545  65.27  0.001302504    1.451    0.311
       245  -9.8425     26.6924     13.6622   4.3861251967e+01   7.5963229552e+01    0.2062785    0.1203184 -37.54 0.0003177384    1.803    0.445
       246 -10.0981      6.3279    225.6558   8.8838897760e+01   2.4913522495e+01     0.127281   0.09970866  47.43 0.0008509326    1.069    0.065
       247 -10.3938      3.6669    225.7014   8.9465925242e+01   2.5131450311e+01    0.1800393    0.1559763  41.13 0.0009512465    1.213    0.176
       248 -10.9578    137.5182     15.3307   7.7332215469e+00   4.8838673378e+01     0.300627    0.1832376 -58.57 0.0005649108    1.533    0.348
       249 -10.0599     79.1831    223.2610   7.1067827618e+01   1.7621875007e+01    0.2025441    0.1256398 -16.29  0.000942907    2.706    0.630
       250 -10.5753     16.0837    222.3081   8.6413089725e+01   2.4739534847e+01    0.1858543    0.1596096  83.66 0.0005252959    1.297    0.229
       251  -9.7488    126.2221    220.4237   5.9831719074e+01   1.2072299000e+01    0.1812695   0.09754018  38.82  0.000686758    1.646    0.392
       252  -9.8708    211.8355    218.8058   4.3062124558e+01   1.8096062936e+00    0.1352089    0.1189672   1.55 0.0008519408    1.334    0.250
       253  -9.5193    107.9748     10.2854   9.9906236703e+00   5.7212928318e+01    0.1760711    0.1133186  76.58 0.0004159962    1.381    0.276
       254 -11.4035     48.6812    218.6680   7.8196176876e+01   2.2173271414e+01    0.5224754    0.2082725  28.05   0.00233691    2.075    0.518
       255 -10.5585     38.5425    217.1902   8.0641034690e+01   2.3593359666e+01    0.2372573    0.1430312  34.40 0.0005590198    1.329    0.248
       256 -10.5411     13.0689    216.9468   8.6972876450e+01   2.6150922451e+01    0.1744308    0.1469061 -30.82 0.0007355829    1.671    0.402
       257 -10.2470     23.9486    216.0025   8.4237083722e+01   2.5335018901e+01    0.1949738    0.1454546  49.81            0    1.044    0.042
       258  -9.9229     20.0311    211.7988   8.5046630769e+01   2.6624770589e+01    0.2363836   0.08712321  47.40  0.001072453    2.005    0.501
       259 -11.6403      4.2189    205.3577   8.8856992223e+01   2.9457140453e+01    0.3546067    0.2332824 -54.32  0.002013021    2.005    0.501
       260 -11.9262      5.3664    210.8040   8.8706559509e+01   2.8154737286e+01    0.3130158    0.1899224  89.02    0.0017011    1.659    0.397
       261 -12.1648     11.1783    209.0879   8.7193353626e+01   2.8031898232e+01    0.3806255    0.2469605  30.45  0.001645818    1.355    0.262
       262 -10.7671    217.1960    210.0064   4.0875905533e+01   2.3648377814e+00    0.2283017    0.1299621 -40.54  0.001219098    1.850    0.460
       263  -9.4809    193.4860    210.4853   4.4947536758e+01   5.0363701897e+00     0.115212   0.09360508  -0.35 0.0001315583    1.022    0.021
       264  -9.6803     71.6465    208.7155   7.1586750555e+01   2.1540031229e+01    0.1289761    0.1001434  -7.47 0.0007019711    1.663    0.399
       265  -9.7832    174.7508    202.1829   4.7136338023e+01   8.6536420040e+00    0.1673229    0.1232399  -3.50 0.0004464279    1.324    0.245
       266  -9.4928    238.3027    200.6839   3.6217421680e+01   1.2774260304e+00   0.08978666   0.07950497 -35.11 0.0003181025    1.620    0.383
       267  -9.7513    120.4481    200.1131   5.8483308408e+01   1.6624832405e+01    0.1794122    0.1321483 -51.47  0.001005454    1.530    0.346
       268 -11.2359     21.6513    198.6843   8.4049350644e+01   2.9426303954e+01    0.3505918    0.2312146 -13.04  0.001428368    2.311    0.567
       269 -11.9891     15.4904    192.0535   8.5424098294e+01   3.1551101160e+01    0.3741475    0.3395692  10.91  0.001596383    1.338    0.253
       270  -9.4817    186.4742    193.4994   4.3545537967e+01   8.4588465781e+00    0.1210878    0.1022851  -3.08 0.0007535607    1.003    0.003
       271 -10.2292    134.8688    196.3853   5.4606967687e+01   1.5245863878e+01    0.1950479    0.1799508 -61.47 0.0004972589    1.293    0.226
       272 -10.2598    244.6442    188.2976   3.3354989754e+01   2.1530218233e+00   0.09062237   0.08122804 -44.35 0.0006426401    1.699    0.411
