#   1 NUMBER                 Running object number                                     
#   2 MAG_AUTO               Kron-like elliptical aperture magnitude                    [mag]
#   3 X_IMAGE                Object position along x                                    [pixel]
#   4 Y_IMAGE                Object position along y                                    [pixel]
#   5 X_WORLD                Barycenter position along world x axis                     [deg]
#   6 Y_WORLD                Barycenter position along world y axis                     [deg]
#   7 A_WORLD                Profile RMS along major axis (world units)                 [deg]
#   8 B_WORLD                Profile RMS along minor axis (world units)                 [deg]
#   9 THETA_WORLD            Position angle (CCW/world-x)                               [deg]
#  10 FWHM_WORLD             FWHM assuming a gaussian core                              [deg]
#  11 ELONGATION             A_IMAGE/B_IMAGE                                           
#  12 ELLIPTICITY            1 - B_IMAGE/A_IMAGE                                       
         1 -11.6003    191.0168     40.1712   4.6058449457e+01   3.2461695444e+01     1.157804    0.8638119  12.27  0.005882197    1.870    0.465
         2  -8.3060    235.0983     13.3130   3.4746308136e+01   2.5470861162e+01    0.1765855    0.1590548 -41.72 0.0003907235    1.260    0.206
         3  -9.5538    219.9204      8.1710   3.4852189684e+01   2.9368339832e+01    0.5975035    0.2149873 -39.32  0.002728213    2.423    0.587
         4 -10.6286    214.2901     10.4172   3.5862783645e+01   3.0413436843e+01    0.6897108    0.4215098 -58.84  0.003827284    1.549    0.355
         5  -9.0126    214.7706      4.4198   3.4426717818e+01   3.0913995949e+01     0.323741    0.1526802  66.03  0.001051561    1.940    0.485
         6  -8.7372    120.7272      9.0486   4.8182044643e+01   5.3155931245e+01    0.2940511    0.2591314 -86.68  0.001805933    1.314    0.239
         7  -7.4827    246.9999      7.7012   3.2677943492e+01   2.3565229864e+01    0.1548902    0.1261223 -82.58 0.0002874702    1.109    0.098
         8  -7.7281    197.1714      6.8383   3.6615678775e+01   3.4767213623e+01    0.1702106    0.1358784  58.72 0.0003394629    1.291    0.225
         9  -8.0377    213.5219    235.1596   8.6517029322e+01  -4.9514399887e+00    0.1827681    0.1408151  26.78 0.0003380331    1.194    0.163
        10 -17.4886     19.5502    239.4986   1.2494203696e+02   2.1798488512e+01     2.697988     2.353288  54.11    0.0206829    1.345    0.257
        11  -8.8289    212.3398    217.8199   8.3777179979e+01  -2.2922235330e+00     0.243647    0.2361979  77.69  0.001305429    1.598    0.374
        12  -9.7642    134.4777    219.1775   1.0002345948e+02   1.0227389757e+01     0.349734    0.1596841  41.56  0.001568271    1.912    0.477
        13  -7.9655     82.7551    216.8964   1.1084209007e+02   1.8630278416e+01    0.2378961      0.16032  80.63  0.001132183    1.626    0.385
        14  -8.8569    153.5683    215.8226   9.5425312769e+01   7.6759892072e+00    0.2491894    0.1288823 -42.83   0.00115677    2.179    0.541
        15  -8.5602     75.5591    214.7343   1.1213786077e+02   2.0072806446e+01    0.2572142     0.197305 -73.76 0.0009849259    1.328    0.247
        16  -7.9109     78.9942    213.2614   1.1124383145e+02   1.9904732447e+01    0.2338462      0.15949  88.77 0.0006597255    1.572    0.364
        17  -8.3033     91.4612    213.9457   1.0863322804e+02   1.7982434241e+01    0.2852926    0.1762708  34.36  0.001250935    1.587    0.370
        18 -10.3367    146.1643    222.8453   9.8075841536e+01   7.6432575069e+00    0.3373477    0.2979409 -12.52  0.001603703    1.270    0.212
        19  -9.0072    200.3781    212.2962   8.5133243665e+01   4.5977439272e-01    0.2439853    0.2008908  40.01 0.0001539358    1.348    0.258
        20 -10.3619    232.0174    211.1671   7.8876713777e+01  -4.3139986644e+00    0.2368855    0.1907436  14.18 0.0003172182    1.115    0.103
        21  -7.5775    123.6916    209.3208   1.0093520721e+02   1.3896444127e+01    0.2081894    0.1312445 -67.40 0.0006081697    1.967    0.492
        22  -8.2574    123.8011    205.8008   1.0038790073e+02   1.4583822538e+01     0.195658    0.1833047  18.30 0.0004658671    1.137    0.121
        23  -8.9815    201.5670    207.5561   8.4040584354e+01   1.0241953542e+00    0.2506507    0.2007762   6.74 0.0006249031    1.122    0.109
        24  -9.3668    144.8910    217.1724   9.7491662499e+01   8.8809703155e+00    0.3090901    0.2356511 -12.53  0.001695686    1.669    0.401
        25  -7.8663     72.0017    196.4979   1.1087340832e+02   2.4462360642e+01    0.1900294    0.1621495 -86.17 0.0003630267    1.111    0.100
        26  -9.4687     66.3044    206.3074   1.1323320036e+02   2.3085628930e+01    0.3448058    0.1839498 -86.20  0.001129693    2.204    0.546
        27  -9.0230     73.0455    202.4065   1.1132461290e+02   2.3026794987e+01     0.663918    0.2595926  51.00  0.002760496    2.582    0.613
        28  -8.0441     85.6285    203.4484   1.0864051819e+02   2.1034181459e+01    0.3100793    0.1979845  51.09  0.001653173    1.447    0.309
        29  -7.0199    211.7292    203.3344   8.1257120409e+01   3.4294722798e-02    0.1149306    0.1089917 -76.22  0.000208805    1.594    0.373
        30  -8.9741    201.9086    202.8349   8.3101912976e+01   1.7361301420e+00    0.2508174    0.1929529   3.75            0    1.242    0.195
        31  -7.4463    101.6682    202.6934   1.0492790993e+02   1.8785659921e+01    0.1294147    0.1064199 -10.44 0.0006013058    1.663    0.399
        32  -7.5058    228.8041    199.1597   7.7218322478e+01  -2.0468755227e+00    0.1773542    0.1296219  -2.18 0.0003127806    1.260    0.207
        33 -10.0058    169.6025    197.8691   8.8915472301e+01   8.1963366512e+00    0.2500134     0.244034 -15.38 0.0004383655    1.154    0.134
        34  -9.1971     83.6399    197.3999   1.0833132194e+02   2.2633289934e+01     0.412245    0.2858552  66.10  0.002227557    1.481    0.325
        35  -8.7264    121.6138    195.9336   9.9363716358e+01   1.6981240761e+01    0.2447689    0.1943258  55.93 0.0006265203    1.257    0.204
        36  -7.8640     67.4657    202.2984   1.1254861040e+02   2.3797724963e+01    0.3722857    0.1995947  80.18  0.001690519    2.435    0.589
        37 -10.2019    130.9204    224.6894   1.0156146945e+02   9.7825978268e+00    0.3329619    0.2293027  43.32  0.001872861    1.267    0.211
        38  -7.8606     78.3144    189.6967   1.0857424188e+02   2.5107374874e+01    0.1988295    0.1502578  82.32  0.001105015    1.348    0.258
        39  -7.7225     94.9644    188.4762   1.0447422730e+02   2.2919043900e+01    0.2037877    0.1306169  36.23  0.000385208    1.535    0.349
        40  -9.1160     12.9282    184.1669   1.2280711188e+02   3.3795129527e+01    0.2291292    0.2044783  39.68  0.000834401    1.376    0.273
        41  -7.9014      7.7134    182.9952   1.2383483560e+02   3.4493671243e+01    0.2809601    0.1204563  55.23  0.001456142    2.195    0.544
        42  -7.3697    185.4999    229.0142   9.0946286462e+01   2.2714797849e-01    0.1575041    0.1177859 -73.43 0.0008104345    2.571    0.611
        43  -8.8659    191.0514    182.6700   8.1424699031e+01   7.1290475991e+00    0.2426989    0.1970983 -33.14 0.0002949465    1.244    0.196
        44  -8.7980    121.9831    182.6736   9.7086904634e+01   1.9763900924e+01    0.3336472    0.2275267  13.22  0.001113078    2.031    0.508
        45  -8.5685     82.6451    182.1715   1.0652408776e+02   2.6199348354e+01    0.2510473    0.1810746  61.89 0.0006137184    1.405    0.288
        46  -7.4741    176.5953    179.8673   8.3953188748e+01   1.0326173131e+01    0.1911349    0.1385702 -53.26 0.0004964602    1.627    0.385
        47  -7.6293    189.0012    176.9712   8.0699369784e+01   8.5571850753e+00    0.2165109    0.1857317 -84.54  0.001129939    1.711    0.415
        48  -7.8001    137.9077    175.4708   9.1961968611e+01   1.8477150436e+01    0.2210954    0.1396323  40.09  0.001004524    1.517    0.341
        49  -8.0571    100.2876    174.9372   1.0108405100e+02   2.5155089234e+01    0.1959365    0.1796716 -66.95 0.0003645624    1.097    0.089
        50  -8.9474     55.5568    173.1929   1.1193557781e+02   3.1923975076e+01    0.2871383     0.210777 -80.87  0.001634067    1.259    0.206
        51  -7.4230    243.6994    174.3461   6.9617871883e+01  -5.7047549642e-01    0.1219595    0.1033282 -55.33  0.000306285    1.683    0.406
        52  -8.2052    118.9824    173.0060   9.6109425579e+01   2.2437680557e+01    0.2166287    0.2036638  73.75 0.0003569876    1.079    0.073
        53  -7.4841    219.4821    172.5576   7.3653413299e+01   3.8000711415e+00    0.1408492    0.1212722  -4.38 0.0001046034    1.018    0.017
        54  -7.2709     88.3525    175.3000   1.0411167560e+02   2.6941560457e+01    0.1383177    0.1100395 -19.77 0.0007037423    1.697    0.411
        55  -9.0534     80.3614    161.9308   1.0404205056e+02   3.1301269710e+01    0.4306449    0.2338139 -74.56  0.001812221    2.175    0.540
        56  -9.0964     79.8889    171.0781   1.0558925506e+02   2.9187304379e+01    0.3040379    0.2302006 -43.85  0.000979581    1.482    0.325
        57  -9.3349     83.2039    166.3446   1.0401332107e+02   2.9825675909e+01    0.3644123    0.2799615 -34.35  0.001309988    1.580    0.367
        58  -7.7103    123.8433    169.1896   9.4199578893e+01   2.2433065407e+01    0.1914219     0.169117 -18.80 0.0002871302    1.271    0.213
        59 -10.7366      5.6253    146.9598   1.2150551596e+02   4.2895621802e+01    0.7228705    0.4505049 -27.97  0.004092866    2.305    0.566
        60 -10.0617      6.4269    151.6786   1.2172315095e+02   4.1734460252e+01    0.7273608    0.2658038  15.18  0.003101811    4.170    0.760
        61  -8.9697     15.3355    151.1176   1.1946716847e+02   4.1204059358e+01    0.1930838     0.173199  39.97 0.0005123691    1.329    0.248
        62  -9.5640      5.8184    161.4046   1.2267300119e+02   3.9520688742e+01    0.3776485    0.2235491  20.12   0.00156678    2.195    0.544
        63  -8.6470      1.5061    161.0085   1.2363964113e+02   3.9920170106e+01    0.2536773    0.0900002 -74.08 0.0006988391    2.185    0.542
        64 -10.8704     13.2277    156.8834   1.2053046857e+02   4.0010027033e+01     0.770404    0.3789915  52.45  0.003082696    2.101    0.524
        65  -9.2346     68.8391    159.7301   1.0671378251e+02   3.3449859880e+01    0.5240975    0.2413189  56.44  0.002003555    2.870    0.652
        66  -8.2538     90.2641    158.0310   1.0077863781e+02   3.0740722454e+01    0.2243739    0.2038928  45.40 0.0005384829    1.122    0.109
        67 -10.6878     22.7840    153.9424   1.1788142981e+02   3.9920030200e+01    0.4749467    0.3348436 -51.95  0.002857246    1.474    0.322
        68  -9.0468     31.1582    156.9773   1.1609672542e+02   3.8435756041e+01    0.2325067    0.1490255 -56.00 0.0007161741    1.506    0.336
        69 -10.3938     79.2407    152.9053   1.0283545607e+02   3.3651215116e+01    0.4327994    0.2695092 -44.57 0.0008615932    1.719    0.418
        70  -7.8580    149.3843    153.8599   8.4760547328e+01   2.0975430048e+01    0.2122939    0.1407885 -33.81 0.0003801517    1.634    0.388
        71  -8.7846     96.4999    151.8874   9.7988664217e+01   3.1219363954e+01    0.5185808    0.3904713  -3.91  0.002445239    1.863    0.463
        72  -8.5875    134.1894    148.2715   8.7310156837e+01   2.5233049922e+01    0.6674505    0.1778542 -54.92  0.001517206    6.078    0.835
        73 -11.5810     68.2030    144.3011   1.0439197057e+02   3.7309321634e+01    0.8587557    0.6051281  81.71  0.003691015    1.687    0.407
        74 -10.6905     42.6720    145.8726   1.1169245934e+02   3.9975062687e+01    0.6115479    0.3143368  39.03  0.002963461    2.043    0.510
        75  -9.5252     54.5147    146.2244   1.0850342664e+02   3.8565170660e+01    0.4245805    0.1345761 -58.60  0.001585608    2.626    0.619
        76  -7.3283     94.6505    146.7381   9.7498654242e+01   3.2765924433e+01    0.1453833    0.1158106 -13.19 0.0002265362    1.609    0.378
        77  -7.3651     79.2725    143.6688   1.0118001841e+02   3.5906671815e+01    0.1456464    0.1086277  80.22 0.0003001905    1.591    0.371
        78 -10.8705     45.6503    137.9131   1.0971202037e+02   4.1613638040e+01    0.6103916     0.253245 -54.18  0.002612433    2.114    0.527
        79 -10.5490     48.8462    129.1769   1.0738486989e+02   4.3420965151e+01    0.4763639    0.2481384 -61.73  0.002223849    1.658    0.397
        80 -10.0929      4.3505    139.1178   1.2110906300e+02   4.4826261245e+01    0.8098037    0.2852331  89.05  0.003038132    3.613    0.723
        81  -9.1221      4.2331    130.5947   1.2030397644e+02   4.6850362830e+01    0.2253291    0.1733759 -77.55  0.001489136    1.026    0.026
        82  -9.7425      3.2417    125.9963   1.2009844064e+02   4.7999868839e+01    0.4366591    0.1787407 -55.05  0.001913521    2.044    0.511
        83  -9.3161     95.6226    137.5947   9.5375235366e+01   3.4821853476e+01    0.3215825    0.2659526  33.15  0.001660482    1.272    0.214
        84  -8.8165     23.7047    138.1008   1.1585187542e+02   4.3651582470e+01    0.2350373     0.184247  14.10 0.0006567446    1.619    0.383
        85  -7.4115    108.3184    137.3246   9.1767606558e+01   3.2680520296e+01    0.1566024    0.1194362 -16.64 0.0002405773    1.674    0.403
        86  -7.2885     16.6468    136.6928   1.1760430797e+02   4.4549108670e+01     0.129442   0.08031445 -45.16 0.0004951156    1.716    0.417
        87 -10.9699     59.6299    133.2883   1.0492281120e+02   4.1138607956e+01    0.5674356    0.2427585  42.34  0.002311867    2.521    0.603
        88  -8.2582     82.4258    130.8042   9.7752559159e+01   3.8591416580e+01    0.3884867    0.1911239  59.83  0.001261763    3.733    0.732
        89  -7.6982    239.4940    130.5103   6.0924426905e+01   7.3385627361e+00    0.1405022    0.1213704 -22.13 0.0008103675    1.032    0.031
        90  -9.6025    195.3130    129.0132   6.8607326761e+01   1.6484266645e+01     0.245358    0.2401825  -6.43 0.0002579286    1.069    0.064
        91  -8.6195    139.0612    129.3826   8.1652181407e+01   2.8513790194e+01    0.2669705     0.220322 -51.64   0.00042922    1.238    0.192
        92  -8.5838     13.8213    132.4878   1.1789614123e+02   4.5766120983e+01    0.2489785    0.1238994  83.64  0.001152171    2.320    0.569
        93  -8.8113      8.7521    129.9741   1.1900750153e+02   4.6713102443e+01     0.178565    0.1174304  61.01  0.001043941    1.655    0.396
        94  -9.4136     33.9054    128.7683   1.1171534060e+02   4.5035636757e+01    0.2619037    0.2235208  41.01  0.000699567    1.331    0.249
        95  -9.6349     25.7572    127.2068   1.1386189510e+02   4.6129139396e+01    0.4092799    0.1958297  33.79 0.0003675447    2.305    0.566
        96  -8.1482    200.4688    125.2280   6.6662659216e+01   1.6105528295e+01    0.2829109    0.2221932  14.55 0.0008187409    1.473    0.321
        97  -9.2003     31.5992    148.7756   1.1503037955e+02   4.0368408995e+01    0.2915981    0.1689781 -50.99  0.001059482    1.722    0.419
        98  -8.7825    102.0227    124.0297   9.0514810170e+01   3.6981966495e+01    0.3831561    0.2211063 -53.32 0.0009923149    1.694    0.410
        99  -9.4354     34.1540    114.2458   1.0933186128e+02   4.8565323074e+01    0.2517118    0.2339915  26.79 0.0006503666    1.262    0.208
       100  -8.5971      5.2059    112.5650   1.1800005864e+02   5.1075823133e+01    0.1544733    0.1108225 -21.56 0.0009515443    1.717    0.418
       101  -7.0616    185.0240    109.4998   6.5820400228e+01   2.2502001690e+01    0.2106545    0.1400794  79.26   0.00080943    2.484    0.597
       102  -8.9224     54.6980    108.0199   1.0152511103e+02   4.7939384296e+01    0.2062425    0.1670004 -56.68 0.0007057145    1.098    0.089
       103  -8.1338      3.1432    104.3702   1.1758689492e+02   5.3124222636e+01    0.2962097    0.1175521   0.50  0.001263311    4.012    0.751
       104  -8.4103     85.1956    101.9837   9.0143913946e+01   4.5068408976e+01    0.2683404    0.2296841  60.43  0.001234545    1.381    0.276
       105  -7.8933     50.7586    102.5924   1.0165455061e+02   4.9702830552e+01    0.1775898    0.1273605  41.89 0.0004465534    1.603    0.376
       106  -8.2370    119.3345     88.5484   7.5893692600e+01   4.1567361849e+01     0.343645    0.2197747  13.14  0.001308777    2.440    0.590
       107  -8.9253    198.2239     81.6766   5.6021413914e+01   2.4475600763e+01    0.3541195    0.2284448 -36.16 0.0009670761    1.491    0.329
       108 -10.1136    102.2005     82.6945   7.9205041009e+01   4.6266457312e+01    0.2585802    0.2411109 -24.60  0.000243082    1.037    0.036
       109  -7.0873    113.6095     81.4453   7.5373057266e+01   4.4215236635e+01    0.1517194    0.1418673 -12.16  8.44994e-05    1.024    0.024
       110  -7.5591    173.6579     71.0745   5.7624769452e+01   3.2136483141e+01    0.2024148    0.1890745 -24.03 0.0006261852    1.101    0.092
       111  -7.0539    144.3118     60.2894   6.0568529522e+01   4.1058084905e+01    0.1527316    0.1134365  22.25 0.0004253799    1.584    0.369
       112  -7.7504    148.8936     58.0250   5.8826532883e+01   4.0306633176e+01    0.2127256    0.1934083 -70.12 0.0003294518    1.212    0.175
       113 -10.0651    175.4432     54.2110   5.2451121671e+01   3.4342054155e+01    0.3659859    0.3359855  35.28  0.001232283    1.158    0.137
       114  -8.0059    141.3190    249.3244   1.0268641137e+02   3.9386971242e+00     0.120205   0.08897828   7.91 0.0002323309    1.675    0.403
       115 -10.1969    195.7747     34.6606   4.3938875827e+01   3.2011686593e+01    0.4971617    0.3917804 -22.85   0.00181241    1.437    0.304
       116  -6.8396     80.5566     43.4785   7.2731635665e+01   5.7595322641e+01    0.1410788    0.1198758   2.61 4.325198e-05    1.052    0.049
       117  -7.5163    221.6503     40.2693   4.2194211277e+01   2.5220915955e+01    0.1386483   0.09014549 -69.23 0.0004390469    1.624    0.384
       118  -7.3277    130.8746     36.5638   5.5775667045e+01   4.7748552859e+01    0.1842145    0.1344855  70.70 0.0009120973    1.522    0.343
       119  -7.3689    169.4943     29.5705   4.6268988174e+01   3.9091804890e+01    0.1389577    0.1257731  59.49 9.693281e-05    1.070    0.065
       120  -8.1568    161.6432     28.5599   4.7219806782e+01   4.1164087841e+01    0.2165944    0.2077214  -2.12 0.0002849611    1.151    0.131
       121  -8.6162    129.2325     23.9637   5.1753038014e+01   4.9652113178e+01    0.2152776    0.1806867  52.82 0.0002597515    1.081    0.075
       122  -7.5170    226.4416    247.5522   8.6145448719e+01  -8.3863076630e+00    0.1184667   0.09037282  11.82 0.0008051704    1.035    0.034
       123  -8.6370     80.0268    245.8153   1.1427913181e+02   1.3447000567e+01    0.2506519    0.1711506  81.09  0.001584262    1.542    0.352
       124  -8.7488    242.8206    245.8391   8.2952236792e+01  -1.0345577763e+01    0.1714851    0.1192917   6.61 0.0004098354    1.112    0.100
       125  -8.1707     90.2092    246.2684   1.1236257829e+02   1.1972074625e+01    0.2029999    0.1404128  45.28 0.0006733459    1.188    0.158
       126  -8.0899    102.3220    241.1069   1.0945961214e+02   1.1171649254e+01    0.1664631    0.1406954  59.14 0.0004721601    1.074    0.069
       127  -8.5903     94.3348    237.2159   1.1064088794e+02   1.3031679549e+01    0.2974158    0.1863496  87.46  0.001416866    2.034    0.508
