#   1 NUMBER                 Running object number                                     
#   2 MAG_AUTO               Kron-like elliptical aperture magnitude                    [mag]
#   3 X_IMAGE                Object position along x                                    [pixel]
#   4 Y_IMAGE                Object position along y                                    [pixel]
#   5 X_WORLD                Barycenter position along world x axis                     [deg]
#   6 Y_WORLD                Barycenter position along world y axis                     [deg]
#   7 A_WORLD                Profile RMS along major axis (world units)                 [deg]
#   8 B_WORLD                Profile RMS along minor axis (world units)                 [deg]
#   9 THETA_WORLD            Position angle (CCW/world-x)                               [deg]
#  10 FWHM_WORLD             FWHM assuming a gaussian core                              [deg]
#  11 ELONGATION             A_IMAGE/B_IMAGE                                           
#  12 ELLIPTICITY            1 - B_IMAGE/A_IMAGE                                       
         1 -15.1061      8.9126    152.2516   1.4734144753e+02   4.1025936582e+01     11.13754     3.327101  57.50   0.04631775    3.302    0.697
         2 -13.4380    193.6502     29.3015   6.9789322092e+01   3.3014135446e+01     1.460631     1.256325 -23.93  0.006828742    1.127    0.112
         3 -13.7142    208.6157      9.8730   6.2665446959e+01   3.1421332746e+01      1.42706     1.009978  31.87  0.007798832    1.710    0.415
         4 -12.1645      2.5734     11.2563   1.2955027227e+02   7.4723986065e+01    0.8623662    0.2750499 -64.90  0.003584019    2.869    0.651
         5  -9.3372     33.0000      5.0052   1.0434132983e+02   7.3030481622e+01    0.2131528   0.06576112 -40.74  0.000805628    2.965    0.663
         6 -10.2203      3.0012     39.4884   1.3754122908e+02   6.8297947209e+01    0.1705125    0.1220797  -0.04  0.001041634    1.619    0.382
         7 -11.8698    247.4284    248.2926   1.0890782384e+02  -3.8846500341e+00    0.4740677    0.1976176  27.66  0.003030184    1.802    0.445
         8 -11.7261    139.9109    249.0423   1.2727762222e+02   8.9744157992e+00    0.3363313     0.264236  37.80  0.002629065    1.190    0.159
         9 -11.1687    124.8223    250.0585   1.3013825926e+02   1.0703469050e+01    0.4066773    0.1159623  31.85  0.001848595    2.855    0.650
        10 -10.4219    111.3352    250.6080   1.3266306515e+02   1.2258934091e+01    0.2621891    0.0750576  36.21 0.0007804148    2.445    0.591
        11 -10.8713     97.6491    249.0319   1.3505110118e+02   1.4091357908e+01     0.253523    0.1896652  -3.77  0.001376703    1.898    0.473
        12 -10.7135     29.8099    250.2177   1.4733893817e+02   2.1006731904e+01     0.449308    0.1581476  31.57  0.002661057    2.264    0.558
        13  -9.6738     33.4933    247.5226   1.4659248326e+02   2.1078127654e+01    0.1446261    0.1288268  55.82  0.001176039    1.273    0.214
        14 -10.7277     35.0775    243.8532   1.4616171201e+02   2.1496356074e+01     0.354169    0.2495896  48.49  0.002884373    1.033    0.032
        15 -10.3503      2.5562    248.5002   1.5192041381e+02   2.3591803520e+01    0.2654607    0.1625557 -87.79  0.002183853    1.702    0.412
        16  -9.3998      5.8318    240.8862   1.5119376243e+02   2.4509676650e+01    0.1283579    0.1059203  52.75  0.000381718    1.213    0.175
        17  -9.9599    183.0223    238.5171   1.1825351454e+02   4.7819951458e+00    0.1716392   0.08346069  30.74 0.0005131889    1.562    0.360
        18 -11.0904    232.4930    235.1517   1.0938572196e+02  -9.9138237622e-01    0.2117682    0.1879624 -45.30  0.001602859    2.454    0.593
        19 -10.7292    229.6841    230.6709   1.0918615126e+02  -2.1529596116e-01    0.2400533    0.2109767 -69.93  0.001572607    3.413    0.707
        20 -13.2357      3.9632    174.4705   1.4952905109e+02   3.6656951096e+01     1.862581    0.3920987 -78.46  0.007502175    4.062    0.754
        21 -10.1817    162.0120    249.0034   1.2327893202e+02   6.2179779000e+00    0.1622795    0.1131103  47.71 0.0009703846    1.707    0.414
        22 -11.6117     63.0564    198.3405   1.3785641744e+02   2.6446623634e+01    0.2935032    0.2247159 -33.30  0.001189115    1.815    0.449
        23 -10.9356     19.5127    199.5030   1.4723239672e+02   3.0523332841e+01    0.1884393    0.1561477  60.45 5.499248e-05    1.077    0.071
        24 -11.3402     15.8534    197.1812   1.4788943282e+02   3.1268049377e+01    0.2271736    0.1614777  49.09 0.0003295956    1.152    0.132
        25  -9.3028     51.3452    197.3047   1.4033237435e+02   2.7917943243e+01     0.228867    0.1137699  57.80 0.0008150053    1.923    0.480
        26 -14.3932     42.6199    224.5547   1.4384272967e+02   2.3906005736e+01     1.740303     1.241725   4.15  0.007121982    2.099    0.524
        27  -9.8020    192.1909    193.3862   1.0989631730e+02   9.2013178220e+00    0.3562163    0.2082094 -57.69  0.001490936    4.490    0.777
        28 -11.8869     68.8037    190.4121   1.3587265347e+02   2.7299910670e+01    0.2447642    0.2282198 -28.89 0.0005515916    1.335    0.251
        29 -13.2018     65.5345    175.7090   1.3518774482e+02   3.0622326075e+01    0.4502406    0.2652543 -43.26   0.00154072    2.207    0.547
        30 -10.7539     78.6418    177.6351   1.3225389522e+02   2.8626659534e+01     0.212234    0.2006599  35.54 0.0003682896    1.119    0.106
        31  -9.0998    100.1684    176.8035   1.2702483695e+02   2.5904054475e+01    0.1898214    0.1509923  52.57  0.000488774    1.219    0.180
        32 -11.8644     86.2308    168.2313   1.2925640723e+02   2.9555254771e+01    0.6337016     0.540896  31.79  0.003978579    1.141    0.123
        33 -12.7468     36.8266    232.6772   1.4534921299e+02   2.3113922378e+01    0.2578134    0.2376985  39.09 0.0007561184    1.321    0.243
        34  -9.9201     98.4654    152.2652   1.2381609045e+02   3.1168876234e+01    0.2563646    0.2373005  41.20 0.0008113266    1.019    0.019
        35 -12.0463     87.0835    151.5232   1.2667914464e+02   3.2986552072e+01    0.2731304    0.2419496 -27.26 0.0004939717    1.289    0.224
        36 -12.6195     67.5194    143.4795   1.3080298317e+02   3.7392363486e+01    0.7164834      0.50149 -88.73  0.002366912    1.579    0.367
        37 -11.6217     64.6733    141.6850   1.3134689955e+02   3.8155378676e+01    0.3695788    0.3171617 -26.65 0.0008771502    1.389    0.280
        38  -8.8794    134.0000    148.0166   1.1410017215e+02   2.6251954547e+01    0.2232376   0.08014677 -47.80 0.0008038305    2.952    0.661
        39  -9.2511    101.2207    148.1056   1.2240526449e+02   3.1637914466e+01    0.2031492    0.1790358 -16.04 0.0004624582    1.276    0.216
        40 -13.1647      8.9501    207.5679   1.4967188590e+02   2.9899521835e+01    0.7465784     0.694248 -38.31  0.004248622    1.541    0.351
        41  -8.5890    181.1850    144.4339   1.0277865919e+02   1.8405307353e+01    0.1744702    0.1285242  48.61 0.0004666006    1.561    0.359
        42  -9.6464    110.0676    136.9925   1.1803331991e+02   3.2605823069e+01    0.3566657    0.2181867 -20.00  0.001431362    2.717    0.632
        43  -8.5242    192.0010    144.0057   1.0052255439e+02   1.6519661453e+01    0.1631804    0.1378338  -8.71 0.0004415578    1.074    0.068
        44 -11.4852     56.1608    128.9774   1.3201339917e+02   4.2139004495e+01    0.6553587    0.2346521 -77.68  0.002053036    4.436    0.775
        45 -10.3098     81.6141    133.1403   1.2520994287e+02   3.7878913424e+01    0.2553159    0.2068296  54.19 0.0004856509    1.251    0.201
        46 -11.8874     34.5678    132.9710   1.3888573312e+02   4.3407046536e+01    0.4985838    0.2566288  79.54  0.002147147    2.250    0.556
        47  -8.9853     91.9796    131.9902   1.2205094954e+02   3.6607756461e+01    0.1638177     0.151661  38.68 0.0003334314    1.064    0.060
        48 -10.5016     97.1563    134.4874   1.2106716008e+02   3.5244479509e+01    0.2547894    0.2149675 -30.69 0.0004176136    1.301    0.231
        49  -9.1679    106.8596    123.9228   1.1624014988e+02   3.5995479107e+01    0.2000558    0.1834224  -4.42 0.0002933246    1.146    0.127
        50 -10.1864    167.7164    112.8623   9.8298826663e+01   2.6450298175e+01    0.3189065    0.2692026 -67.15 0.0009559718    1.586    0.370
        51  -9.5967    203.1857    111.7576   9.1005920364e+01   1.9435954626e+01    0.2004415    0.1513371   7.59 0.0005708533    1.364    0.267
        52 -10.5351    173.4889    222.6456   1.1787879599e+02   7.9800374289e+00    0.3285984    0.1385132  38.67  0.001410353    2.014    0.503
        53  -8.1393    102.4785     85.3784   1.0787362565e+02   4.5328742870e+01    0.1461391    0.1445753  35.08 0.0001719398    1.076    0.071
        54  -8.8184     69.4254     84.2178   1.1878539375e+02   5.1221030956e+01    0.1869795    0.1354066 -69.78 0.0003212347    1.531    0.347
        55  -9.0390    152.4936    212.9194   1.2059415597e+02   1.2227748934e+01    0.1450809    0.1175865 -35.11 0.0003659553    1.462    0.316
        56  -8.8570    184.5460     77.4771   8.5360592674e+01   2.8710463002e+01    0.1492306    0.1346582  -1.61 6.235566e-05    1.068    0.064
        57  -9.1154    157.2908     76.3368   9.0477718010e+01   3.5183790524e+01    0.1576978     0.116261   8.95  0.000323047    1.639    0.390
        58  -9.3149     33.4431     62.3720   1.2773393374e+02   6.0813272009e+01    0.2299903    0.1511535  47.00  0.001179717    1.834    0.455
        59 -10.2783     26.3267     59.8226   1.3036631284e+02   6.2042091574e+01    0.4404607    0.1591906  33.50  0.001294144    2.976    0.664
        60 -10.5600     20.1598     57.4348   1.3270794259e+02   6.3077476772e+01     0.407014    0.1714174  37.07  0.001793002    2.736    0.635
        61  -9.9254     81.8312    249.0836   1.3796484304e+02   1.5887505665e+01    0.1685733    0.1092767  50.06   0.00123368    1.279    0.218
        62  -9.4962     46.8461    249.1328   1.4430030889e+02   1.9557590831e+01    0.1578809   0.09702385  53.32   0.00049325    1.258    0.205
        63 -10.9336    199.0820    246.8577   1.1653784199e+02   1.8567054789e+00    0.2282331    0.1893009 -69.60  0.001558429    3.053    0.672
        64  -9.8224    175.1846    250.4195   1.2111032908e+02   4.4141279730e+00    0.1527632   0.07667145  37.88 0.0007291927    1.649    0.394
