#   1 NUMBER                 Running object number                                     
#   2 MAG_AUTO               Kron-like elliptical aperture magnitude                    [mag]
#   3 X_IMAGE                Object position along x                                    [pixel]
#   4 Y_IMAGE                Object position along y                                    [pixel]
#   5 X_WORLD                Barycenter position along world x axis                     [deg]
#   6 Y_WORLD                Barycenter position along world y axis                     [deg]
#   7 A_WORLD                Profile RMS along major axis (world units)                 [deg]
#   8 B_WORLD                Profile RMS along minor axis (world units)                 [deg]
#   9 THETA_WORLD            Position angle (CCW/world-x)                               [deg]
#  10 FWHM_WORLD             FWHM assuming a gaussian core                              [deg]
#  11 ELONGATION             A_IMAGE/B_IMAGE                                           
#  12 ELLIPTICITY            1 - B_IMAGE/A_IMAGE                                       
         1 -15.1086      6.3699     68.4864   8.4702261130e+01   6.2252742896e+01     1.430152    0.7797142 -73.57  0.005372238    1.648    0.393
         2 -12.8046      8.0776      2.5597   6.3533925235e+01   7.6638875541e+01     0.526764    0.3988954  31.75  0.003430627    1.568    0.362
         3 -15.8414     11.1999     23.4768   7.0854693217e+01   7.2311023973e+01      2.02613    0.9956835 -37.26  0.009346608    1.825    0.452
         4 -14.3928     27.1404     11.6679   5.4068703855e+01   7.2975244744e+01    0.9621327    0.5983914 -15.85  0.005103695    1.766    0.434
         5 -13.8632    147.5808     29.4462   1.9444529455e+01   4.3917606392e+01      1.16878    0.8367701  81.97  0.004422906    1.446    0.309
         6 -13.2978    188.6756     25.0041   1.2420060741e+01   3.4074639753e+01    0.9776132    0.3505994 -50.47  0.003630497    3.052    0.672
         7 -15.0387     98.8193     11.5890   2.2738361067e+01   5.8515118740e+01     1.426482     0.893385  58.91  0.004214838    1.422    0.297
         8 -12.0739     60.3362     15.1860   3.7591612327e+01   6.6873220897e+01    0.4896636    0.2809356  29.78  0.002304898    1.842    0.457
         9 -11.7747     46.7978     12.9209   4.2919520902e+01   6.9750363171e+01    0.2939146    0.2715049  53.56  0.001425304    1.383    0.277
        10 -11.7197    188.1332      9.8629   8.3361313832e+00   3.5783922497e+01    0.2554206    0.2225041  71.49  0.001599659    1.164    0.141
        11 -12.5076    214.8393     10.0502   6.1994893822e+00   2.9570532163e+01    0.3183362    0.3055337 -30.54  0.001401658    1.227    0.185
        12 -13.7983     41.9389      4.2735   4.0424387483e+01   7.1830205736e+01    0.7000506    0.5299807  13.72  0.003455551    1.226    0.184
        13 -11.5638    123.3607     11.0862   1.7206894208e+01   5.2270538830e+01    0.2529064    0.1905911  77.00 0.0004221555    1.273    0.215
        14 -11.6022     75.1996      9.9386   2.8972405505e+01   6.4351637058e+01    0.2914321    0.1888933 -11.49  0.001173082    1.761    0.432
        15 -11.0601    152.7415      8.5455   1.1779275103e+01   4.4824506372e+01     0.277194    0.1129005  65.27  0.001136239    2.113    0.527
        16 -12.2774     85.5526     13.7725   2.7472022456e+01   6.1506048949e+01    0.4040375    0.3701163 -56.60  0.001390022    1.288    0.224
        17 -11.9342    118.1937      2.2278   1.4670168531e+01   5.4432715335e+01    0.4882748    0.2413777  89.21  0.001913221    2.645    0.622
        18 -11.1918     67.7178      2.7110   2.7773808556e+01   6.6824602358e+01     0.297624    0.1815516  29.91  0.001487527    1.660    0.398
        19 -10.5650    232.5154      1.4976   3.0926953912e+00   2.6603885627e+01    0.1190008   0.09534351 -59.48 0.0008104396    1.016    0.016
        20 -11.5319     80.4318      1.4707   2.2934788534e+01   6.4012179941e+01    0.6363965          nan  56.31  0.001447775    6.948    0.856
        21 -11.1902     61.2901      1.4456   2.9507723220e+01   6.8362778111e+01    0.3575298    0.1181062  54.92  0.001363388    2.761    0.638
        22 -13.6174     29.8951    169.2526   8.7148516599e+01   3.5991111916e+01    0.9631465    0.7541307  10.47  0.005705937    1.523    0.343
        23 -12.0581     51.0081    248.6592   8.7452475380e+01   1.8147949676e+01    0.2712756    0.2386559  60.10  0.002183296    1.223    0.183
        24 -12.2460      2.7564    249.5582   9.6805792113e+01   2.2641638591e+01    0.3565135    0.1928779  47.43  0.001898884    1.269    0.212
        25 -13.7281      9.6766    245.6742   9.5408122224e+01   2.2696674484e+01    0.7846377    0.3011581  46.87  0.003691557    1.737    0.424
        26 -15.6315      7.6956    181.7914   9.3571023306e+01   3.5128874065e+01     1.838799     1.353302  84.26   0.01233796    1.235    0.190
        27 -13.1071     40.1419    195.1375   8.6455042457e+01   2.9321371078e+01    0.3586805    0.3137986  67.32  0.002478113    1.094    0.086
        28 -11.7938    206.4829    190.5405   4.7965455186e+01   6.0871868736e+00    0.2279655    0.1830369   3.36 0.0008743871    1.028    0.027
        29 -11.4399    200.7197    191.4476   4.9192153521e+01   6.8117585592e+00    0.2313566    0.1080659  39.46  0.001129286    2.068    0.516
        30 -12.4149    249.4657    182.9376   3.9401286659e+01   1.1177100081e+00    0.3164657    0.1199748 -36.30  0.001571303    2.564    0.610
        31 -11.0744    122.4929    181.8260   6.4447927729e+01   2.0913597646e+01    0.3094681    0.1808413  72.03  0.001085404    4.201    0.762
        32 -12.2218    248.6690    196.8462   4.1920264893e+01  -4.2355024243e-01    0.4437653    0.1821584 -39.75  0.002234067    2.955    0.662
        33 -11.2826    198.6695    181.3396   4.7790131539e+01   8.5872745939e+00    0.1136855    0.1047989  73.83 0.0007051744    1.741    0.426
        34 -10.8626    218.6665    175.3175   4.3051624311e+01   6.3942696386e+00      0.10634    0.1025243 -81.20 0.0007048004    1.693    0.409
        35 -12.5642    124.2579    166.9256   6.1555354911e+01   2.3576297329e+01    0.5594097    0.3860743 -76.34  0.002624881    2.189    0.543
        36 -11.2024    178.0206    167.4838   4.9308430459e+01   1.4138774885e+01    0.2106856    0.1226432  37.00   0.00090258    1.594    0.372
        37 -10.7963    193.1596    164.8147   4.5755035442e+01   1.2000285499e+01    0.1914714    0.1425349   2.58  0.001075866    1.335    0.251
        38 -11.9727    206.5032    162.4867   4.2788664544e+01   1.0146653151e+01    0.2267324    0.1146568 -45.30  0.001039578    2.409    0.585
        39 -14.9689     14.4669    174.4663   9.1524067216e+01   3.6184401937e+01     1.586383    0.4916541  49.52  0.006871939    2.690    0.628
        40 -12.2741     76.8874    156.7599   7.2645605183e+01   3.3309014429e+01     0.566412    0.2800912  32.56  0.002089234    1.875    0.467
        41 -13.2548     73.9638    153.4867   7.3006649632e+01   3.4480307685e+01    0.8059697    0.3926417  33.06  0.003298446    1.898    0.473
        42 -12.2881    189.1792    156.0072   4.4795325787e+01   1.4094415283e+01    0.2466094    0.1890861  31.22  0.001300072    1.233    0.189
        43 -12.1451    111.0536    155.4619   6.2953626458e+01   2.8221421252e+01    0.5124971    0.3437358  83.10  0.002186126    2.479    0.597
        44 -12.2191    246.7531    149.7252   3.3680164107e+01   5.6687156410e+00    0.3097039    0.2937363 -15.35  0.002248516    1.364    0.267
        45 -12.3995    189.0190    150.0982   4.3622888174e+01   1.5090311516e+01    0.2973487    0.1870443 -23.46  0.001471815    1.685    0.406
        46 -12.6273      7.9677    150.1835   9.1888107409e+01   4.2203245334e+01    0.3479011    0.2512043   6.40  0.002105351    1.693    0.409
        47 -11.1790    103.5003    149.6571   6.3967413297e+01   3.0771910187e+01    0.3119183    0.2200969 -19.96  0.001330187    1.945    0.486
        48 -11.8752     60.3582    147.4971   7.6168630619e+01   3.7719524549e+01    0.3924834    0.2592453   9.34  0.001875341    1.942    0.485
        49 -11.8424    148.4802    140.9853   5.0520853285e+01   2.4346790308e+01    0.2228655    0.1451408 -43.20  0.001040983    1.617    0.382
        50 -12.2078     40.3480    136.9691   8.0978439147e+01   4.2595780102e+01    0.3174379    0.1717119  60.12  0.001433834    2.055    0.513
        51 -13.6087    105.9921    124.0258   5.8104968971e+01   3.6098018772e+01     1.249279    0.5609779  37.19  0.004719241    2.144    0.534
        52 -13.7821    111.7012    116.8469   5.4780336655e+01   3.6621590177e+01    0.6283164    0.3910984  29.14  0.002685234    1.741    0.426
        53 -11.9793    180.4746    122.0713   3.9185038762e+01   2.1469504376e+01    0.4194668    0.2606091 -13.97   0.00180901    2.176    0.540
        54 -12.9877     28.9381    121.8541   8.2902412111e+01   4.7436235935e+01     0.422663    0.3086801 -68.55  0.002367056    1.285    0.222
        55 -13.3578      5.3311    117.2128   9.0464033488e+01   5.0288590707e+01     1.285296    0.4367732 -60.87  0.005118298    2.537    0.606
        56 -12.0476     19.0182     86.1792   8.1795249782e+01   5.7154264222e+01    0.3086214    0.2896839 -20.92 0.0004434382    1.135    0.119
        57 -14.5933     24.3825     93.6323   8.0744806882e+01   5.4891550045e+01     1.613649     1.097545  -1.95  0.008500792    1.748    0.428
        58 -13.3841      2.2816     96.9094   8.9833576683e+01   5.5447103685e+01     0.788254    0.3457985 -84.04  0.003425373    2.121    0.529
        59 -14.2276     18.2570    111.7879   8.5462301837e+01   5.0805686202e+01    0.7276523    0.5277203  -3.72  0.003279713    1.660    0.398
        60 -14.2678     13.6689    103.8096   8.6246568141e+01   5.3108948016e+01     1.072788    0.4719046  24.75  0.004946286    2.328    0.570
        61 -12.1865     78.8712    110.1471   6.3582379002e+01   4.4092538803e+01    0.3765493    0.3254595  78.65   0.00157823    1.290    0.225
        62 -11.6046    121.8294    112.1384   5.0739848082e+01   3.5621073484e+01    0.2770439    0.2574874  89.89 0.0008084899    1.212    0.175
        63 -14.5447    106.1711    103.9783   5.3248017866e+01   4.0568013370e+01     1.119883    0.9999946  39.23  0.005244802    1.084    0.077
        64 -13.0258     84.8014    115.0383   6.2693636386e+01   4.1943807378e+01    0.8312664    0.3155261  34.92  0.002487273    2.568    0.611
        65 -10.7331     42.6527    106.6945   7.5824266430e+01   4.9889080347e+01     0.145975    0.1005321 -31.39 0.0006082323    1.697    0.411
        66 -12.4761    136.7235    103.1770   4.4436528448e+01   3.4314828653e+01     0.563234    0.2934498  52.77   0.00187584    2.066    0.516
        67 -11.4943     62.9655    110.9937   6.9265499781e+01   4.6292142211e+01     0.241578    0.1694724  64.37  0.001138616    1.693    0.409
        68 -10.7342     64.5125    101.5363   6.6719662386e+01   4.8393451466e+01    0.1959858    0.1946142  61.62 1.527766e-05    1.011    0.011
        69 -11.8829     61.4033     97.5885   6.6987506811e+01   4.9803966249e+01    0.4402903    0.2959751  68.79  0.001966094    2.005    0.501
        70 -11.9670     49.1153     93.4556   7.0810184506e+01   5.2443888740e+01      0.38639    0.2872192  71.40  0.001944636    1.622    0.384
        71 -12.0438     47.1381     99.6741   7.2848060881e+01   5.1137535552e+01    0.4920086    0.3575054  71.12  0.002472882    1.628    0.386
        72 -11.6176     52.8271     97.5120   7.0227143968e+01   5.0977795914e+01    0.3942366    0.2489996 -12.28  0.001688311    2.314    0.568
        73 -11.9248    163.9477     98.0477   3.6686937369e+01   2.9232334109e+01    0.2207676    0.2151624   1.36 0.0003940884    1.009    0.009
        74 -12.6786    137.0161     94.8961   4.2127155673e+01   3.5888302750e+01    0.5061526    0.3754067  64.15  0.002078085    1.564    0.361
        75 -10.6536    118.8608     96.1615   4.7390968740e+01   3.9630599513e+01    0.2103877    0.1801514   8.66 0.0003868908    1.305    0.234
        76 -12.3231     42.5597     90.5466   7.2821842875e+01   5.3930211214e+01    0.3556066    0.2644129  84.29   0.00182454    1.584    0.369
        77 -12.5196     36.7635     92.9220   7.5633111873e+01   5.3954330030e+01    0.4971316    0.2835387   9.49  0.001644545    2.151    0.535
        78 -12.8810    187.8961     84.3626   2.8508001279e+01   2.6167056542e+01    0.4751725    0.2396047  41.19  0.001955722    2.263    0.558
        79 -13.3179    164.1766     71.5250   2.9372802240e+01   3.3708905323e+01    0.5798114    0.4410021 -27.31  0.002904419    1.378    0.274
        80 -11.8454    158.4557     83.5008   3.3927994392e+01   3.3056086679e+01    0.3616622    0.2710829  62.27 0.0009439611    1.421    0.296
        81 -12.7293    161.2117     80.2306   3.2433521626e+01   3.2971024935e+01    0.5076129    0.3681971  16.54  0.001509633    1.822    0.451
        82 -10.5910    125.5115     83.9927   4.2046779385e+01   4.0628432940e+01    0.2131728    0.1376343 -13.34  0.000808964    2.425    0.588
        83 -13.2468     65.7488     49.1584   5.0691802802e+01   6.0058372456e+01    0.9254851    0.6379701 -37.16  0.004603301    1.460    0.315
        84 -13.3432     91.7900     57.8004   4.3847966469e+01   5.3233086206e+01    0.5441055    0.4622896 -30.42  0.002387276    1.215    0.177
        85 -13.7995     54.1374     67.2139   6.2010455351e+01   5.8058263097e+01     1.380658    0.9176132 -17.60  0.006353168    1.930    0.482
        86 -13.7657     73.7899     74.0154   5.5953469119e+01   5.3385623886e+01     1.399919    0.7247003  15.11  0.004353639    4.037    0.752
        87 -13.0425     87.4507     65.2349   4.7984661775e+01   5.2673438827e+01    0.5442402    0.4167061   2.61 0.0009547851    1.626    0.385
        88 -13.0023     54.6462     80.2501   6.5448774684e+01   5.4939364353e+01    0.7772093    0.4269824 -51.35  0.003470058    1.730    0.422
        89 -13.7711     61.2899     75.4803   6.1394654857e+01   5.5100164237e+01    0.7274719    0.4821434 -36.99  0.001508009    1.587    0.370
        90 -12.1313    216.4146     81.2110   2.3324982841e+01   2.0544339464e+01     0.278336    0.1947546 -44.54  0.001382451    1.361    0.265
        91 -11.9660    114.1460     79.8988   4.4039389194e+01   4.3998803410e+01    0.4334846    0.3509326 -48.90  0.001542193    1.304    0.233
        92 -12.3072    135.6138     79.5125   3.8068535130e+01   3.9145657195e+01    0.6945486    0.3012857  50.88  0.002526922    2.254    0.556
        93 -11.1763     42.5230     79.4867   7.0393975770e+01   5.6650327121e+01    0.2604598     0.176476 -61.01 0.0008513673    1.417    0.294
        94 -11.1385     41.7949     75.7774   6.9818030456e+01   5.7631412044e+01     0.289055    0.2353641  87.77  0.001226476    1.441    0.306
        95 -12.0154    109.2876    249.3771   7.5680532871e+01   1.1113740380e+01    0.2603864    0.1233998  39.27  0.001464105    1.587    0.370
        96 -11.4968     27.2168     75.0168   7.6187284696e+01   5.9276568016e+01    0.5363625    0.2613765 -84.91  0.002098021    2.926    0.658
        97 -12.6109    199.0046     70.0587   2.3059391790e+01   2.5849037757e+01    0.4972072    0.3519487  28.50  0.002331653    1.786    0.440
        98 -10.6462    117.7537     71.4340   4.0343110330e+01   4.4830478230e+01    0.2111318    0.1412428  38.30 0.0004931171    1.519    0.341
        99 -11.9954     39.3338     67.9890   6.8944754257e+01   5.9771730674e+01    0.4342558     0.192181  29.62    0.0018305    2.273    0.560
       100 -12.2188    135.1108     66.3515   3.4149555353e+01   4.1625118126e+01    0.5366008    0.2989542  45.01  0.001582115    1.775    0.437
       101 -11.0009     99.6920     65.2134   4.3787824949e+01   5.0095747077e+01    0.2153084     0.193151  53.48  0.000980381    1.136    0.120
       102 -13.9684    169.2631     77.2123   2.9986712649e+01   3.1578770289e+01      1.20047    0.4464903  50.24  0.004178951    2.622    0.619
       103 -12.9277     78.8161     59.8585   4.9324085003e+01   5.5477147302e+01    0.6754778    0.4405224 -52.05  0.003105085    1.689    0.408
       104 -12.0480     34.9788     59.9720   6.8835985387e+01   6.2129727733e+01    0.4961975    0.1854047 -48.61   0.00197152    2.381    0.580
       105 -12.3046     38.7181     59.7408   6.6932988516e+01   6.1767863586e+01    0.2961486    0.2315418  64.73  0.001584403    1.654    0.396
       106 -11.6197     24.7821     59.3185   7.3775404335e+01   6.3261270705e+01    0.4099144    0.2131862 -53.36  0.001974257    1.673    0.402
       107 -11.6399    111.0924     58.6888   3.8012035428e+01   4.8726916772e+01     0.287058    0.2439985  26.69 0.0004281526    1.220    0.180
       108 -14.2177    119.9743     54.8550   3.4197399008e+01   4.7268134484e+01    0.8377174     0.553404  39.73  0.003791307    1.545    0.353
       109 -11.4848     17.5661     55.5229   7.6584908002e+01   6.4716953110e+01     0.326803    0.1943907 -62.27  0.001705071    1.511    0.338
       110 -13.1200    177.8665     58.1201   2.3128209797e+01   3.2463757746e+01    0.6084428    0.5271769 -57.68  0.002107609    1.157    0.136
       111 -13.4862    103.3886     50.4342   3.7358844049e+01   5.1970857135e+01    0.9135265    0.5721873 -63.48  0.001326869    2.507    0.601
       112 -13.2808     97.8541     49.8853   3.8897689685e+01   5.3338573840e+01    0.5727917    0.4191584 -35.22  0.002065763    1.429    0.300
       113 -11.8743    136.1299     50.1169   2.8626601223e+01   4.4019436077e+01    0.3525768    0.3249741  10.59  0.001031341    1.178    0.151
       114 -10.5291     23.4444     49.8049   7.1932146065e+01   6.5586789702e+01    0.1816624    0.1064146 -48.08 0.0004580099    1.502    0.334
       115 -12.1625    152.6147     46.6001   2.4099103762e+01   4.0364114056e+01    0.5798681    0.2038351  48.60  0.001381209    2.869    0.651
       116 -12.0046    158.9996     42.8752   2.1786477596e+01   3.9261970549e+01    0.4153897    0.2742222  68.57  0.001488264    1.503    0.335
       117 -10.9968     38.6175     46.1936   6.2597756816e+01   6.4802787683e+01    0.1954197    0.1128259 -42.66   0.00078456    1.627    0.385
       118 -13.2852      6.0591     42.9903   8.0040022052e+01   6.8315975897e+01    0.8952947    0.4142574  13.31  0.004377137    2.320    0.569
       119 -12.3591     28.8005    245.1856   9.1691327693e+01   2.1010322883e+01    0.3515318    0.1651273  46.79   0.00218178    1.518    0.341
       120 -12.1761    170.4933    241.4977   6.2593073349e+01   4.2008071283e+00    0.1187683    0.0878358  20.48 -2.227045e-06    1.001    0.001
       121 -13.1568    101.2641    238.8166   7.6336468001e+01   1.3786688989e+01    0.4167641    0.2562912  26.29  0.002516156    1.414    0.293
       122 -12.7758    204.7982     39.9813   1.4588437750e+01   2.8544858158e+01    0.8004265    0.3565171 -87.15  0.002666945    4.446    0.775
       123 -12.4493    212.5317     43.0907   1.4518978890e+01   2.6436050737e+01    0.4880978    0.2425283  57.78  0.002285335    2.087    0.521
       124 -12.8244    219.5806     41.5762   1.3410646050e+01   2.5087020071e+01    0.5568082    0.3496995 -84.82  0.002388975    1.873    0.466
       125 -11.7331    135.0339     39.5249   2.5265303424e+01   4.5844055035e+01    0.4467661    0.2946417  78.71  0.001595106    1.762    0.433
       126 -12.0665    109.8716     41.9517   3.2275675968e+01   5.1808119371e+01    0.4641358    0.2019171  54.89 0.0006830504    2.173    0.540
       127 -12.5104    131.3694     33.5055   2.3927668208e+01   4.7600006849e+01    0.4452105    0.3632658  40.65  0.001357752    1.242    0.195
       128 -13.7712    122.2993     36.9522   2.7204708805e+01   4.9450716680e+01     1.022744    0.5464143  36.65  0.004072696    2.239    0.553
       129 -12.9658    113.7842     37.8432   2.9660047096e+01   5.1461485517e+01    0.4125566    0.3523085  52.05  0.001213728    1.091    0.084
       130 -12.1953     40.5514     40.3313   5.9383918964e+01   6.5791284288e+01    0.5593216    0.2869825  33.39   0.00259325    1.960    0.490
       131 -12.3424     32.7691     40.1758   6.3595892955e+01   6.6785571529e+01    0.3188018    0.2622215 -10.64 0.0006446858    1.166    0.142
       132 -12.4194     75.9537     37.0134   4.1505962094e+01   6.0319563524e+01      0.44203    0.2818663  36.63  0.001280666    1.523    0.343
       133 -11.6012     70.8464     36.1333   4.3176943547e+01   6.1507070999e+01     0.317807    0.2314229  46.88 0.0008667947    1.378    0.274
       134 -12.3427    242.2320     36.2662   1.0134606455e+01   2.1055380269e+01     0.429585    0.2210829  77.23  0.001992804    2.230    0.552
       135 -10.9816    104.5834     36.3280   3.1589345593e+01   5.3943781745e+01    0.2799169    0.1374111 -37.64  0.001135241    2.141    0.533
       136 -12.8677     43.9933     33.3514   5.4647516882e+01   6.6700361270e+01    0.9104747    0.4490711  33.85  0.004145541    2.006    0.501
       137 -13.8774    166.3937     29.9517   1.6655434580e+01   3.9027920743e+01    0.9416897    0.5298252  69.24  0.003755608    1.710    0.415
       138 -11.3213    147.3266    238.6995   6.6800530359e+01   7.6712571572e+00    0.1153086   0.07909922  47.78  0.000398257    1.638    0.389
       139 -13.6878     92.5771    230.2121   7.7371926407e+01   1.6336782294e+01    0.5372506    0.4021545  30.18  0.003542514    1.142    0.124
       140 -13.3953     57.3126     26.7895   4.4872315236e+01   6.5675757908e+01     1.054865    0.3481481  40.36  0.003417181    2.929    0.659
       141 -12.3584    120.2451     26.3557   2.3707418175e+01   5.1377351116e+01    0.5439309    0.3526497  51.76  0.002517006    1.411    0.291
       142 -12.2549     30.7527     25.5338   5.8758101346e+01   6.9993396835e+01    0.3445431    0.2243685   7.85  0.001748102    1.653    0.395
       143 -12.3453     35.3966     23.4731   5.4964902451e+01   6.9778619450e+01    0.3002232    0.2287725  -2.57 0.0009012811    1.289    0.224
       144 -12.1688    139.3333     21.5397   1.8176395517e+01   4.6988966161e+01    0.5093043    0.2389607  58.87  0.001317446    1.881    0.468
       145 -12.6361     23.4789    216.4649   9.1525135078e+01   2.6707449515e+01    0.6952859    0.2800034  44.70  0.003782743    1.828    0.453
       146 -11.5805     50.8922     20.3480   4.4804366060e+01   6.7881430646e+01    0.4573615     0.215169  53.31  0.001787402    3.081    0.675
       147 -11.2457     45.6857     20.6601   4.7691770815e+01   6.8718498896e+01    0.2561223    0.1681936  12.83 0.0007881862    1.728    0.421
       148 -11.4825     71.1077     16.4757   3.3806560064e+01   6.4452477053e+01    0.2437815    0.2003985 -32.74 0.0005988998    1.330    0.248
       149 -13.4673     26.2897    226.3516   9.1380748960e+01   2.4583940706e+01    0.6283399    0.3563425 -52.97  0.003768746    2.442    0.591
       150 -13.9071     20.6534    224.0076   9.2461158910e+01   2.5548761802e+01    0.5593302    0.4770815  46.08  0.003177647    1.174    0.148
       151 -11.8973    228.9937    227.5042   5.0027167527e+01  -1.5203224613e+00    0.1376448   0.08698244  45.32 0.0008105166    2.576    0.612
       152 -13.5629     65.3968    223.1953   8.2723968685e+01   2.0962167301e+01      0.78022    0.5689659  39.35  0.005146614    1.097    0.088
       153 -13.9169     63.7039    214.0728   8.2371426303e+01   2.2872118308e+01    0.5124202    0.3262428  58.05  0.003046205    1.479    0.324
       154 -12.4372    248.8337    215.8445   4.5003338375e+01  -2.5721268267e+00    0.2439291    0.1717989  22.51  0.001799887    1.347    0.258
       155 -11.1044    156.6592    214.6816   6.1698308697e+01   9.9169024274e+00    0.1304402   0.08599791   5.19 0.0007049338    1.713    0.416
       156 -12.5883      4.4486    212.4591   9.5458310562e+01   2.9144427034e+01    0.3527428    0.2059563 -75.79  0.002287339    1.819    0.450
       157 -12.6116     72.2195    206.9408   7.9765133259e+01   2.3206324319e+01    0.3364561    0.2632071  83.63  0.002135164    1.413    0.292
       158 -13.3041     16.0207    198.1001   9.2338506428e+01   3.1022345828e+01    0.8108168    0.1914172 -61.57  0.003155903    4.516    0.779
       159 -11.8323     57.4644    202.9199   8.2900761403e+01   2.5798406527e+01    0.4537866    0.1890776  83.07  0.001646502    4.560    0.781
       160 -10.2142    198.6619    204.3360   5.1748192660e+01   5.3143318331e+00    0.1088793   0.09626021  52.57 0.0007051502    1.752    0.429
       161 -11.3115    185.4929    203.5064   5.4138050480e+01   7.3391069236e+00    0.1268941    0.1014811  14.07 -1.196426e-05    1.008    0.008
