#   1 NUMBER                 Running object number                                     
#   2 MAG_AUTO               Kron-like elliptical aperture magnitude                    [mag]
#   3 X_IMAGE                Object position along x                                    [pixel]
#   4 Y_IMAGE                Object position along y                                    [pixel]
#   5 X_WORLD                Barycenter position along world x axis                     [deg]
#   6 Y_WORLD                Barycenter position along world y axis                     [deg]
#   7 A_WORLD                Profile RMS along major axis (world units)                 [deg]
#   8 B_WORLD                Profile RMS along minor axis (world units)                 [deg]
#   9 THETA_WORLD            Position angle (CCW/world-x)                               [deg]
#  10 FWHM_WORLD             FWHM assuming a gaussian core                              [deg]
#  11 ELONGATION             A_IMAGE/B_IMAGE                                           
#  12 ELLIPTICITY            1 - B_IMAGE/A_IMAGE                                       
         1 -14.1612    197.6837     39.4684   4.5998889218e+01   3.1181889276e+01     1.404707     1.216751 -31.28  0.003810971    1.237    0.191
         2 -14.7426    207.5727     29.2230   4.2113341848e+01   3.0109614778e+01     1.911722     1.409962  16.25   0.00181801    2.028    0.507
         3 -12.9205    234.7069      4.3532   3.3781070681e+01   2.6735041603e+01    0.5563876    0.4827999  48.47  0.003111102    1.504    0.335
         4 -12.7584    228.6602      4.1269   3.4178511973e+01   2.8083476030e+01    0.4802459    0.3887513 -68.59  0.002606974    1.033    0.032
         5 -10.6340     61.8266      8.0967   6.4989889125e+01   6.5951077717e+01    0.1748963    0.1586496   3.53 0.0004912916    1.237    0.192
         6 -11.0249     58.1404      3.8353   6.4257216820e+01   6.7034228029e+01     0.181484    0.1210835  17.97  0.001088176    1.337    0.252
         7 -12.0150    109.3384    201.8427   1.0388782711e+02   1.7826279311e+01    0.5163871    0.3173712  31.58  0.002552611    1.704    0.413
         8 -12.3286    139.3654    248.5881   1.0379998282e+02   4.4215472188e+00    0.5039266     0.414665 -38.99  0.003403665    1.499    0.333
         9 -13.0824     72.8281    171.8896   1.0824265253e+02   3.0095630826e+01     1.079292    0.5256132 -35.69  0.003696804    4.247    0.765
        10 -13.2608     17.8356    191.7020   1.2289551021e+02   3.1860311024e+01    0.5728425    0.2246157  38.24  0.001313552    2.382    0.580
        11 -16.2468     48.5383    201.6658   1.1725002778e+02   2.6421625191e+01      9.76309     3.146772  56.35    0.0363684    3.691    0.729
        12 -11.4364    113.2362    206.5515   1.0368525882e+02   1.6222560921e+01    0.3392375    0.2576372  68.57  0.001296909    1.398    0.285
        13 -10.1565     34.1475    205.5615   1.2057338914e+02   2.7213041392e+01    0.3016215    0.1369759  52.50  0.001439534    1.941    0.485
        14  -9.3645    134.0352    196.5012   9.7517812028e+01   1.4796363597e+01    0.2102101     0.128464  40.12 0.0004746469    1.510    0.338
        15 -10.5230    128.0605    194.1849   9.8492392250e+01   1.6309425722e+01    0.3523121    0.1966753 -70.08  0.001460092    2.582    0.613
        16  -9.5605     81.3099    194.0954   1.0918862043e+02   2.3790000341e+01    0.3862645    0.2205636  72.92  0.001756087    2.224    0.550
        17 -17.1425      6.1358    211.5761   1.2641688720e+02   2.8724513439e+01      12.9278      1.10559 -75.63   0.02274502    7.533    0.867
        18  -9.5592     92.3480    184.5756   1.0532777791e+02   2.4283197260e+01     0.240678    0.1239721  41.02 0.0007643868    1.840    0.456
        19 -11.2835    150.6626    179.2355   9.0682275074e+01   1.5360753308e+01     0.492442    0.3003888 -70.50  0.001960325    2.684    0.627
        20 -11.7650    144.1280    178.6261   9.2072714849e+01   1.6705711121e+01    0.4905331    0.3271049 -64.16  0.001519375    1.843    0.457
        21 -10.9791     99.0684    180.8620   1.0316541790e+02   2.4072200509e+01     0.355741    0.2397084  29.98   0.00141488    1.634    0.388
        22  -9.9638     40.9648    178.3429   1.1666829649e+02   3.2533181479e+01    0.2276583    0.1469581  85.03 0.0001329586    1.452    0.311
        23  -9.7362    188.8215    177.9832   8.2062839517e+01   8.4264329392e+00      0.29883     0.198918 -49.88  0.001394512    1.709    0.415
        24 -10.2615    187.9259    173.2080   8.1273409595e+01   9.4907688952e+00    0.3316152    0.2331781 -63.44  0.001525498    2.062    0.515
        25 -10.5207     48.2061    171.7518   1.1424283366e+02   3.3259867070e+01    0.4670636    0.2228191 -47.31   0.00206721    2.587    0.613
        26 -11.9690     42.5190    145.8554   1.1244710960e+02   4.0137502840e+01    0.5760264    0.4062558 -15.79  0.003019733    2.126    0.530
        27 -14.0101     43.6664    110.6369   1.0643615794e+02   4.8682784561e+01     2.160245     1.397696  64.18   0.01020646    2.028    0.507
        28 -15.1326     68.4753    144.1480   1.0509321851e+02   3.7427142767e+01      6.52512     2.403877  54.15  0.003982038    4.662    0.786
        29  -9.3642    111.2965    168.6103   9.8131328566e+01   2.4851421198e+01    0.1545794    0.1105422  79.60 0.0007012094    1.784    0.439
        30  -9.2804     42.5361    167.5410   1.1513392236e+02   3.4895100908e+01    0.1810386    0.1081364  47.03 0.0005369504    1.664    0.399
        31  -9.8526     45.7300    166.1645   1.1419369068e+02   3.4868261231e+01    0.2383924     0.196337  73.14  0.001471824    1.123    0.110
        32 -10.1538    230.0000    165.9984   7.1533563005e+01   3.0547050890e+00    0.2279977   0.07162577 -37.71 0.0005691923    2.942    0.660
        33 -10.7295     32.3694    164.9001   1.1731168490e+02   3.6583253980e+01    0.2985914    0.1738059 -64.62   0.00101265    1.520    0.342
        34 -10.7163    157.0417    159.4153   8.5204665116e+01   1.8307209084e+01    0.4462835    0.3048015 -73.82  0.001853635    2.264    0.558
        35 -13.0857     83.2821    160.7885   1.0390920451e+02   3.1241588272e+01     1.224953    0.6090693  63.24 0.0005843213    3.146    0.682
        36  -9.6509     37.7611    161.6171   1.1563487467e+02   3.6816669548e+01    0.2135641    0.1290977  23.24 0.0006459533    2.085    0.520
        37 -12.3415     90.1732    153.7174   1.0088952658e+02   3.1889786801e+01    0.6630114    0.4699171 -26.40  0.003027864    1.956    0.489
        38 -13.8710     71.8075    155.6065   1.0607348039e+02   3.4156210735e+01     0.630892      0.53516 -49.54  0.001379036    1.247    0.198
        39 -10.3077    187.5018    151.9401   7.6771901130e+01   1.3686247637e+01    0.2302424    0.1436862 -39.56  0.001024682    1.566    0.361
        40 -11.5489    133.7562    144.9419   8.7706192672e+01   2.6154025265e+01     1.212604    0.3234263 -54.28  0.002974786    5.175    0.807
        41  -9.4449    112.7119    150.7686   9.4377343393e+01   2.8780666315e+01    0.2035851    0.1714962  81.04 0.0005009244    1.321    0.243
        42 -11.0506    174.2366    148.8365   7.8944354680e+01   1.7028360455e+01    0.4126061    0.2918466 -49.83  0.001267189    1.485    0.327
        43 -10.7298    143.4959    145.9855   8.5504774339e+01   2.3967556948e+01    0.3656555    0.1509213 -53.51  0.001217026    2.758    0.637
        44 -11.1924    103.4366    139.3333   9.4494117086e+01   3.3164357418e+01    0.5550277    0.3522857 -26.78  0.002252128    2.296    0.564
        45 -12.3406     90.9689    139.1068   9.7895931110e+01   3.5322587952e+01    0.2939077    0.2637043 -42.21 0.0003882521    1.154    0.133
        46 -10.9948     44.0729    138.6354   1.1100074414e+02   4.1746855940e+01    0.2552316    0.1718525 -69.95 0.0007073993    1.289    0.224
        47 -12.8466     43.9233    129.0670   1.0957504051e+02   4.4124459245e+01    0.6611041    0.4384559  73.27  0.003375106    1.784    0.439
        48 -10.8002    105.8680    130.7696   9.1945883054e+01   3.4791644229e+01    0.3761643    0.3231142 -70.77  0.001110482    1.205    0.170
        49 -11.4083     33.6937    131.2455   1.1285575341e+02   4.4605349850e+01    0.2525078    0.2157773 -11.51  0.001201373    1.486    0.327
        50 -11.6478    135.7735    127.6201   8.3133284154e+01   2.9693038144e+01    0.7334619    0.1914671 -49.94  0.001926413    4.183    0.761
        51 -10.6976    112.3468    129.7574   8.9914779705e+01   3.3840625559e+01    0.3342956    0.2834551  -1.08 0.0007431537    1.414    0.293
        52 -10.5081    160.4038    127.8693   7.7116050336e+01   2.4374700104e+01    0.3992105    0.2709966 -53.92  0.001738707    1.595    0.373
        53 -11.7877    118.9503    123.7872   8.6671248622e+01   3.3977503830e+01    0.6892149    0.4482137 -16.04  0.002617097    2.534    0.605
        54 -11.1002     99.5660    125.8785   9.2613906411e+01   3.7088099266e+01    0.3145715     0.255778 -12.29 0.0008244671    1.517    0.341
        55  -9.9969    108.2342    118.9450   8.8478526427e+01   3.7168447187e+01    0.2345572    0.2128674  41.35 0.0003105024    1.145    0.127
        56  -9.6767    168.3311    113.3279   7.1573769271e+01   2.5647555372e+01    0.3167822    0.2287927 -80.28  0.001308346    2.093    0.522
        57 -10.6260    134.8745    104.6271   7.7359969326e+01   3.4984706745e+01    0.6246738    0.2079012 -40.02  0.001884043    3.128    0.680
        58 -11.3677    117.1291    109.6145   8.3554494702e+01   3.7602569122e+01    0.6469876     0.441883  55.94  0.002844952    1.698    0.411
        59 -11.4704    118.9048    104.5641   8.1687348734e+01   3.8378778487e+01    0.4798694    0.3376275 -22.52  0.002085011    1.748    0.428
        60 -10.2860    205.3799    110.1221   6.3209173285e+01   1.7923061326e+01    0.3121991     0.226491  43.64 0.0009943371    1.477    0.323
        61  -8.7575    142.5715    109.4897   7.6703925416e+01   3.2247387158e+01    0.1568273    0.1521765 -43.61 0.0001362941    1.026    0.026
        62 -13.3504     54.9544    146.4840   1.0917543203e+02   3.8577520862e+01     2.016783    0.9853888 -43.97  0.008581872    2.422    0.587
        63 -11.3141     33.8725    100.4150   1.0767970404e+02   5.2104068010e+01    0.2810682    0.2561667  82.78 0.0007896797    1.223    0.182
        64 -11.5899     52.8586     93.3606   9.9664501753e+01   5.1813921477e+01    0.4619532    0.3360563 -72.25  0.002406924    1.503    0.335
        65 -10.6775     42.9092     89.2931   1.0218946666e+02   5.3867267322e+01      0.34152    0.1214808  41.52  0.001278186    3.563    0.719
        66 -10.2465    157.8519     81.8233   6.5183918622e+01   3.4276680104e+01    0.2353521    0.2111996  17.16 0.0005664627    1.210    0.173
        67  -9.8176     58.5911     67.5166   9.0415312764e+01   5.6854968944e+01    0.3530459    0.1725702  42.66  0.001534109    2.493    0.599
        68 -13.9084    187.3232     47.3469   4.9633144651e+01   3.2641848042e+01     1.200975    0.9724279  22.22 0.0009262002    1.551    0.355
        69 -14.0398     57.1352    188.8258   1.1407225687e+02   2.8229125985e+01     1.413915    0.9534286  70.10  0.007980897    1.425    0.298
        70  -8.6905    169.3137    236.7327   9.6323347381e+01   1.6344062977e+00    0.1191755   0.09007838  54.85 0.0001973962    1.547    0.354
        71  -9.1458     73.5286     54.5212   8.0396649294e+01   5.7168324094e+01    0.1375859    0.1248688 -14.70 -1.908082e-05    1.065    0.061
        72 -11.9518    146.5583     50.8905   5.8139148750e+01   4.2232742192e+01    0.5393365    0.3539656 -80.76  0.001869007    2.415    0.586
        73 -10.8282    148.0748     44.3263   5.5700936923e+01   4.2813493174e+01    0.2645827    0.2452513  80.08 0.0003981562    1.108    0.098
        74 -10.1776     31.9142     36.1959   9.0665110056e+01   6.6098542636e+01    0.1730206    0.1607161 -19.64  0.001209398    1.291    0.226
        75 -11.4126     25.6269     34.7807   9.3092666600e+01   6.6969924083e+01    0.2709775    0.1940751  37.46  0.001093093    1.853    0.460
        76 -10.8058    198.1288     23.8701   4.1829891412e+01   3.3008318250e+01    0.2841169    0.2212062  -7.98  0.001051649    1.661    0.398
        77  -9.8882    189.5040     14.9623   4.0477563603e+01   3.6087528275e+01    0.2008181    0.1666864  81.69 0.0006406727    1.086    0.079
        78 -16.6002     31.8913    249.6395   1.2389827770e+02   1.8775292938e+01     9.474227     2.856853  26.96   0.02170423   15.892    0.937
        79 -17.1970      6.8622    245.8868   1.2790986966e+02   2.2041685764e+01     2.175105     1.717841  18.69   0.01666225    2.067    0.516
        80 -11.4063    111.9809    196.9224   1.0257821734e+02   1.8437503081e+01    0.4584911    0.3097692  -2.46   0.00197469    2.826    0.646
        81 -12.8161    193.5565    195.9459   8.4596372797e+01   4.3430820645e+00     1.420472    0.9976361  51.65  0.006696856    1.707    0.414
