#   1 NUMBER                 Running object number                                     
#   2 MAG_AUTO               Kron-like elliptical aperture magnitude                    [mag]
#   3 X_IMAGE                Object position along x                                    [pixel]
#   4 Y_IMAGE                Object position along y                                    [pixel]
#   5 X_WORLD                Barycenter position along world x axis                     [deg]
#   6 Y_WORLD                Barycenter position along world y axis                     [deg]
#   7 A_WORLD                Profile RMS along major axis (world units)                 [deg]
#   8 B_WORLD                Profile RMS along minor axis (world units)                 [deg]
#   9 THETA_WORLD            Position angle (CCW/world-x)                               [deg]
#  10 FWHM_WORLD             FWHM assuming a gaussian core                              [deg]
#  11 ELONGATION             A_IMAGE/B_IMAGE                                           
#  12 ELLIPTICITY            1 - B_IMAGE/A_IMAGE                                       
         1 -15.4006      9.3950    151.7113   1.4332047695e+02   4.2202656250e+01       9.4776     3.955607  69.82   0.04384916    2.805    0.644
         2 -13.4734    194.2928     30.0406   6.7862511301e+01   3.2839766568e+01     1.294758     1.265426  62.66  0.006452833    1.115    0.103
         3 -13.7220    209.7669     10.8654   6.0987042109e+01   3.1185931309e+01     1.338012    0.9802815  37.78  0.007436205    1.718    0.418
         4 -11.8561      2.0000      5.9707   1.1570441466e+02   7.3437773204e+01    0.6073302    0.2520244 -39.89  0.003523745    1.799    0.444
         5 -10.4127    162.8886    249.1341   1.2272140700e+02   2.1365086055e+00    0.1826299    0.1422226  51.31  0.001243561    1.250    0.200
         6 -12.3733    244.3273    247.2364   1.0831650940e+02  -9.7345678694e+00    0.6187507    0.3660952  12.29  0.003936592    1.583    0.368
         7  -9.4519     66.8453    250.1710   1.3991502419e+02   1.6037231253e+01     0.166096     0.111137  63.00 0.0003305931    1.159    0.137
         8 -11.8024     31.6900    249.7665   1.4572902895e+02   2.0329988862e+01    0.5750389    0.2716719  36.76  0.003559339    2.183    0.542
         9 -11.8938     35.3142    243.9599   1.4481103379e+02   2.0926807711e+01    0.4840112    0.2529339  39.15  0.003126903    1.862    0.463
        10 -11.2988     21.1592    244.0401   1.4712670509e+02   2.2457339022e+01    0.4188246    0.1743222  71.71  0.002450892    2.150    0.535
        11 -10.5109     22.2326    237.2788   1.4660392490e+02   2.3537759593e+01    0.2933576    0.1703877 -54.95  0.001549301    2.567    0.610
        12 -11.3793     15.0974    249.3663   1.4833974772e+02   2.2169193384e+01    0.5322914     0.267354  36.87  0.003553026    2.102    0.524
        13 -12.3729     12.2099    240.2996   1.4838297587e+02   2.4031660575e+01     0.571686    0.2784165  72.22  0.002602203    1.621    0.383
        14 -11.3918      3.4715    248.6318   1.5010056930e+02   2.3449281590e+01    0.4592691    0.3059227  68.52  0.003788177    1.016    0.015
        15 -11.2056      2.0584    240.3814   1.4999144178e+02   2.5005841926e+01    0.4933062    0.1378323 -81.09  0.002564643    3.159    0.683
        16 -10.8363     81.9849    248.9790   1.3720496082e+02   1.4228714241e+01    0.1981434    0.1775203  41.03  0.001523775    1.407    0.289
        17 -10.6508     46.3308    248.5168   1.4325924008e+02   1.8861204817e+01    0.3057879    0.1273902  70.56  0.001421138    2.561    0.610
        18 -10.8530    106.1302    246.8473   1.3272413032e+02   1.1162677322e+01    0.1831356    0.1289271  60.36 0.0006815245    1.227    0.185
        19 -10.1980    198.5014    246.4971   1.1600985582e+02  -3.0224156494e+00    0.1180942   0.09269393  27.47 -0.0002024754    1.010    0.010
        20 -11.4482    125.8052    244.7439   1.2893139004e+02   8.5490017656e+00     0.429384    0.2105726  64.52  0.001908689    3.211    0.689
        21 -10.6226    185.7895    238.6888   1.1715087746e+02  -2.5614512081e-02    0.1857232    0.1738431   7.55 0.0006611212    1.206    0.171
        22 -10.9564    140.0817    250.1696   1.2695885429e+02   5.5246983470e+00    0.2930333    0.1251279  46.20  0.001498918    1.897    0.473
        23 -10.8603    233.9021    237.5689   1.0852735322e+02  -7.2110603400e+00    0.1970922    0.1492605 -43.66  0.001172837    1.937    0.484
        24 -10.3722    153.4564    229.0000   1.2178929161e+02   6.6467747156e+00     0.288143   0.06041804  41.02 0.0009406286    3.982    0.749
        25 -11.1116    124.1781    250.0447   1.2980853648e+02   7.9688920534e+00     0.392257    0.1322679  38.18   0.00174991    2.606    0.616
        26  -8.9540    152.5373    212.9388   1.1964645769e+02   9.4501050553e+00     0.165683    0.1300576 -51.29 0.0003260207    1.471    0.320
        27  -9.2752     26.0028    203.7359   1.4389877060e+02   2.9522858055e+01     0.212243    0.1135674  56.13 0.0009672898    1.574    0.365
        28 -11.5818     62.1932    197.5310   1.3619465590e+02   2.6560853962e+01    0.2968215    0.2363049 -49.70 0.0009992189    1.631    0.387
        29 -12.4027      5.7872    227.1847   1.4882197741e+02   2.7016820844e+01    0.5366963    0.3304975  44.50  0.003965511    1.563    0.360
        30  -9.2329     50.1552    196.3334   1.3854571077e+02   2.8324445347e+01    0.1624095    0.1266104  64.54 0.0003879393    1.105    0.095
        31  -9.8324    192.6354    194.1105   1.0856220807e+02   5.5007441487e+00    0.5328073    0.2757286 -63.51  0.001421353    8.023    0.875
        32 -11.8537     68.1290    189.5143   1.3408128060e+02   2.7461179798e+01    0.2637675    0.2261174 -68.47 0.0005065724    1.266    0.210
        33 -12.7458     35.7082    231.3127   1.4397442832e+02   2.3148715720e+01     0.281152    0.2435268 -83.44  0.000748093    1.396    0.284
        34 -10.9196     78.0387    176.9278   1.3033937053e+02   2.8807428638e+01     0.238027    0.2141241 -71.18 0.0003617036    1.181    0.154
        35 -13.1872     64.9561    174.9061   1.3304528456e+02   3.1068949275e+01    0.4805712    0.2764109 -46.69  0.001603172    2.197    0.545
        36 -10.0892     98.0259    174.5285   1.2542690167e+02   2.6280978104e+01    0.2933908    0.1908562 -68.18 0.0008699465    1.577    0.366
        37 -11.9319     85.5945    167.5827   1.2726266728e+02   2.9768821302e+01    0.6384275    0.5569789  66.52  0.003873425    1.074    0.069
        38 -10.1306     98.3372    151.8395   1.2156470228e+02   3.1314697059e+01    0.2771231    0.2543181 -63.98 0.0007843435    1.099    0.090
        39  -9.1998    101.2194    147.6310   1.2006443106e+02   3.1792606587e+01    0.2449544    0.1938614 -32.13 0.0006994967    1.550    0.355
        40 -12.1074     86.7541    151.0296   1.2431408730e+02   3.3368503901e+01    0.2818417     0.252111 -46.49 0.0004955471    1.245    0.197
        41 -12.5487     67.4382    143.8228   1.2802927837e+02   3.7869643382e+01    0.7336009    0.4763929  68.44   0.00340684    1.766    0.434
        42 -14.4670     41.6301    223.1748   1.4237722690e+02   2.3989030409e+01      1.65337      1.35772  12.82   0.00712077    2.058    0.514
        43  -8.5219    192.4164    144.4166   9.8407950739e+01   1.4278347762e+01     0.142544    0.1397422 -12.91 9.933732e-05    1.061    0.057
        44  -9.7987    109.6987    137.0254   1.1578518860e+02   3.2729049513e+01    0.3676969    0.2369539 -27.48   0.00152643    2.302    0.566
        45 -13.4434      8.7969    207.6379   1.4731569542e+02   3.0444837649e+01      0.88949    0.7336317 -74.03  0.004752382    1.440    0.306
        46 -11.2073     56.5067    128.9991   1.2847867202e+02   4.2791202278e+01     0.395148     0.170767 -63.25  0.001710018    2.042    0.510
        47  -9.1015    106.9198    123.7276   1.1358376216e+02   3.6280446231e+01    0.1921846    0.1811706  58.11 0.0003321072    1.089    0.081
        48 -10.6162     97.0122    134.2882   1.1851648078e+02   3.5590921278e+01    0.2608283    0.2275989 -36.76 0.0005200665    1.265    0.210
        49 -10.2366    167.9472    112.9602   9.5885807684e+01   2.5740851172e+01    0.3328001    0.2826412 -83.07 0.0008803732    1.406    0.289
        50  -9.2744    203.4773    111.5120   8.8371148605e+01   1.7889684947e+01    0.1498306     0.141158 -12.65 0.0001563337    1.056    0.053
        51 -10.6259    243.5968     91.2148   7.6943071102e+01   1.2486683081e+01     0.201589    0.1248214 -24.24 0.0009544232    1.678    0.404
        52  -9.4235    157.5219     76.5052   8.7982229211e+01   3.5131951446e+01    0.1516357    0.1498495 -57.44 -2.28334e-05    1.015    0.015
        53  -9.7626     34.9707     63.5550   1.2116439811e+02   6.0090050420e+01    0.2521012    0.1803999  52.43  0.001365424    1.927    0.481
        54 -10.1406      2.0000     61.9771   1.3347768534e+02   6.2849142382e+01    0.1991473   0.05214694 -65.66 0.0008052005    2.962    0.662
        55 -10.2388     17.1200     56.0933   1.2613131241e+02   6.3163750183e+01    0.1807498    0.1780494  26.27 0.0008249463    1.300    0.230
        56 -10.2133    228.7693    228.2183   1.0788559423e+02  -5.3421987975e+00    0.2267135      0.18692 -53.82  0.001207253    1.975    0.494
        57 -11.5270     98.7314    248.9370   1.3424902973e+02   1.1894232884e+01    0.3701645    0.2233368  42.21  0.002331118    1.400    0.286
        58 -10.1642    225.4079    249.2395   1.1177177144e+02  -7.3201175615e+00    0.1347499    0.1046434 -34.40 0.0009556711    1.662    0.398
