#   1 NUMBER                 Running object number                                     
#   2 MAG_AUTO               Kron-like elliptical aperture magnitude                    [mag]
#   3 X_IMAGE                Object position along x                                    [pixel]
#   4 Y_IMAGE                Object position along y                                    [pixel]
#   5 X_WORLD                Barycenter position along world x axis                     [deg]
#   6 Y_WORLD                Barycenter position along world y axis                     [deg]
#   7 A_WORLD                Profile RMS along major axis (world units)                 [deg]
#   8 B_WORLD                Profile RMS along minor axis (world units)                 [deg]
#   9 THETA_WORLD            Position angle (CCW/world-x)                               [deg]
#  10 FWHM_WORLD             FWHM assuming a gaussian core                              [deg]
#  11 ELONGATION             A_IMAGE/B_IMAGE                                           
#  12 ELLIPTICITY            1 - B_IMAGE/A_IMAGE                                       
         1 -13.6351     66.7093    143.5877   1.3014298706e+02   3.7965903264e+01     2.587854     1.128426  87.25  0.003214122    5.880    0.830
         2 -14.4075    195.8464     15.1896   6.6762312974e+01   3.3857704143e+01     2.852041      1.67966  12.41  0.009556838    2.086    0.521
         3 -14.0983    202.0929      8.7065   6.3922265049e+01   3.2820609002e+01     2.776694     1.241405  35.39  0.002188121    2.762    0.638
         4 -10.3028     33.0000      8.0105   1.0760767068e+02   7.0338946558e+01    0.2094405   0.05714762 -45.49 0.0008067663    2.973    0.664
         5 -11.9217    169.8675    223.2544   1.2037497535e+02   1.0000694222e+01    0.4353767    0.2332612  18.49  0.002132564    3.390    0.705
         6 -11.2185    162.5878    248.9113   1.2440811817e+02   8.2098172738e+00    0.2352376    0.1698334  30.02  0.001893016    1.283    0.221
         7 -12.1992    140.3781    249.8881   1.2790594022e+02   1.1144674767e+01    0.4515682    0.1532392  41.86    0.0025611    2.114    0.527
         8 -11.9696    125.0551    243.6597   1.2971281177e+02   1.3928313338e+01    0.3400211     0.198772  73.30  0.002213237    2.467    0.595
         9 -12.2752    108.1585    248.6342   1.3272580704e+02   1.5511538277e+01     0.522435    0.1354143  47.95  0.002680436    2.799    0.643
        10 -11.7852     98.4396    249.5419   1.3426728966e+02   1.6610858435e+01    0.3435374    0.1686075  44.87  0.002460879    1.461    0.315
        11 -10.7767    101.6006    246.7704   1.3358500137e+02   1.6568254776e+01    0.2052145    0.1243992 -86.88  0.001189538    2.165    0.538
        12 -12.8572     81.1447    247.6065   1.3674034805e+02   1.8935300561e+01    0.7398883    0.1850768  45.62  0.004057525    2.608    0.617
        13 -11.9842     81.7594    242.6450   1.3632567024e+02   1.9516887738e+01    0.3406822    0.1807088  67.81  0.002386759    1.858    0.462
        14 -11.6301     65.6926    249.9448   1.3917116657e+02   2.0387874949e+01    0.3418265    0.1417856  43.06  0.002221223    1.777    0.437
        15 -14.9891      4.9396     16.7052   1.2568637990e+02   7.0970533508e+01     22.33811     1.095091 -62.73   0.03447727   21.980    0.955
        16 -14.0136     32.4808    245.9880   1.4378882827e+02   2.4372023454e+01     1.587001    0.4850629  42.41   0.01043817    2.278    0.561
        17  -9.1741    152.7191    213.0260   1.2199167290e+02   1.3854309890e+01    0.1449541    0.1212392  42.31 0.0003445091    1.071    0.066
        18 -11.5135     34.9123    230.1790   1.4276142893e+02   2.6370213829e+01     0.236638    0.1353429  59.39 0.0007922862    1.227    0.185
        19 -10.8575     36.9992    226.3091   1.4226300304e+02   2.6733224119e+01      0.21685    0.1396223 -84.78  0.001204373    1.520    0.342
        20  -9.9628    229.6642    230.0104   1.1181547289e+02   4.2116049531e-01    0.1425019    0.1091131  18.76 0.0006085265    1.137    0.121
        21 -10.6466    193.3581    195.6511   1.1259829883e+02   9.5715509710e+00    0.5838943    0.3175099 -60.37  0.002203985    6.164    0.838
        22  -9.4460     66.2780    195.9947   1.3548649731e+02   2.8341972110e+01    0.1998433     0.107301  54.68 0.0004094281    1.524    0.344
        23 -11.6960     71.4744    195.9424   1.3454977589e+02   2.7731272648e+01    0.2936112    0.2341988 -55.60  0.001687548    1.649    0.394
        24 -11.7867     76.1633    188.7671   1.3305958106e+02   2.8364181317e+01    0.2298862    0.1995645 -61.55 0.0005985184    1.446    0.309
        25  -9.6040    120.1049    188.3658   1.2478846346e+02   2.2377244764e+01    0.2373617    0.1239096  33.16  0.001254925    2.089    0.521
        26  -9.2479    125.8720    186.3029   1.2344303871e+02   2.1830449359e+01    0.3006583   0.09560257  34.72  0.001076609    4.221    0.763
        27 -11.1940     84.6036    176.5552   1.3022464955e+02   2.9407873362e+01    0.2015718    0.1750989  69.54 0.0003339123    1.071    0.066
        28 -13.2315     72.3712    174.0478   1.3236464571e+02   3.1425900447e+01    0.3896269    0.2441905 -44.20  0.002079438    2.359    0.576
        29 -12.7865     50.3662    129.9779   1.3223624303e+02   4.2654894344e+01    0.5430342    0.2699339  30.74  0.002672857    2.369    0.578
        30 -12.7820     90.6494    167.5600   1.2798335794e+02   3.0211731279e+01     2.489735    0.4094349  46.36  0.002604098    5.370    0.814
        31 -15.7485      7.9253    239.9693   1.4704944285e+02   2.7464313562e+01     6.463376    0.7831494 -71.99   0.03082731    6.410    0.844
        32 -12.0898     91.4718    150.6246   1.2559459111e+02   3.3282454369e+01    0.2300992    0.2242979  20.88 0.0004399176    1.275    0.216
        33 -12.2966     46.4238    148.1808   1.3513293785e+02   3.9351763107e+01     0.417021    0.2635303 -86.04  0.002688213    1.418    0.295
        34  -9.8486    134.2337    147.5281   1.1584953710e+02   2.7039284601e+01    0.4181335    0.1107262 -51.15  0.001386206    4.367    0.771
        35  -8.7596    192.2066    144.0881   1.0350058371e+02   1.6692911656e+01    0.1621131    0.1062911 -29.09 0.0003803363    1.618    0.382
        36  -9.9956    112.4044    136.5484   1.1868981418e+02   3.2811338139e+01    0.2621236    0.2250573  -8.55  0.001119382    1.530    0.347
        37 -10.2962    102.4599    151.1530   1.2328223455e+02   3.1565258304e+01    0.2767186    0.2301712 -48.54 0.0009804871    1.367    0.268
        38 -14.1825     11.5374    207.1906   1.4541374727e+02   3.2064062215e+01      1.02039    0.7220881  58.93  0.003637676    1.159    0.137
        39 -10.7429    100.0842    133.7137   1.2102708269e+02   3.5338385036e+01    0.2394205    0.2100325 -17.08 0.0006166558    1.483    0.326
        40 -13.0963     47.7721    229.6801   1.4077328980e+02   2.5133751498e+01    0.3654963    0.2725397  55.61  0.000856354    1.171    0.146
        41 -15.4947     56.3552    217.1607   1.3869068138e+02   2.6084274733e+01     5.890873    0.7267798  43.03    0.0256541    4.067    0.754
        42  -9.2853    108.8329    123.7481   1.1714503642e+02   3.5941077593e+01    0.1773057    0.1735928  15.76 0.0004155718    1.140    0.123
        43 -11.1021     18.9135    124.1494   1.3908488683e+02   4.6811557656e+01    0.1739823    0.1215488  75.54   0.00055554    1.236    0.191
        44 -11.1238    168.3009    113.4621   1.0136090261e+02   2.6460410010e+01    0.3706855    0.3136514 -82.07   0.00103774    1.576    0.365
        45  -9.5554    105.0246    146.9866   1.2208384734e+02   3.1968739673e+01    0.2326222    0.1594405 -31.09  0.001228777    2.155    0.536
        46 -10.9721    119.8363    238.7558   1.3010065060e+02   1.5230270698e+01    0.1747977    0.1297249  85.23 0.0008546431    1.630    0.386
        47 -11.2938     70.5782    244.2536   1.3812039149e+02   2.0596669295e+01    0.2161279    0.1356186 -75.69  0.001407244    1.830    0.453
