#   1 NUMBER                 Running object number                                     
#   2 MAG_AUTO               Kron-like elliptical aperture magnitude                    [mag]
#   3 X_IMAGE                Object position along x                                    [pixel]
#   4 Y_IMAGE                Object position along y                                    [pixel]
#   5 X_WORLD                Barycenter position along world x axis                     [deg]
#   6 Y_WORLD                Barycenter position along world y axis                     [deg]
#   7 A_WORLD                Profile RMS along major axis (world units)                 [deg]
#   8 B_WORLD                Profile RMS along minor axis (world units)                 [deg]
#   9 THETA_WORLD            Position angle (CCW/world-x)                               [deg]
#  10 FWHM_WORLD             FWHM assuming a gaussian core                              [deg]
#  11 ELONGATION             A_IMAGE/B_IMAGE                                           
#  12 ELLIPTICITY            1 - B_IMAGE/A_IMAGE                                       
         1 -14.9199    159.4847     51.4991   7.7207773094e+01   3.8762412177e+01     1.115838     1.101984  11.65   0.00339971    1.119    0.106
         2 -15.1439    171.1319     21.5040   6.6966847350e+01   3.9766631267e+01     1.405666    0.9180132 -86.28  0.005562855    1.695    0.410
         3 -14.5916    187.9471     12.8768   6.2532075435e+01   3.6671566617e+01     1.069389     0.555568 -65.02  0.004740561    2.302    0.566
         4 -13.7359    192.7879      3.5392   5.9760154639e+01   3.6478045921e+01    0.8157527    0.2802605  74.08  0.003369447    2.639    0.621
         5 -10.4474    109.3102    244.2148   1.3040996328e+02   8.8309482520e+00    0.1785592    0.1412705  76.65  0.001101209    1.222    0.182
         6 -20.4160     76.0168    179.0828   1.2894784530e+02   2.8264002352e+01     16.34672      7.14454 -64.56   0.06795112    2.184    0.542
         7 -12.5558    164.4865    186.0197   1.0947255357e+02   1.0625062347e+01    0.3388366    0.2631828 -79.82  0.001187401    1.654    0.395
         8 -12.5935    162.7199    181.3276   1.0894077274e+02   1.1977140853e+01    0.4050863    0.2863439 -65.52  0.001307031    1.703    0.413
         9  -9.9892     21.3724    181.8688   1.4167574871e+02   3.4336332501e+01    0.2637856    0.1383387  81.19  0.001355578    1.933    0.483
        10  -9.9646    143.4708    236.1690   1.2250010847e+02   4.5625661064e+00    0.3658987    0.2205177  18.56  0.001575577    2.758    0.637
        11 -14.2993    236.7553    173.7587   9.2268096702e+01  -9.8735731011e-01     1.085117    0.4506712  39.84  0.004404312    2.604    0.616
        12 -12.6079    193.8701    171.0872   1.0005651739e+02   7.7687878133e+00    0.5922918    0.3726207 -61.62 0.0006712517    2.133    0.531
        13 -11.7778    203.4844    173.9844   9.8690659596e+01   5.2623965081e+00    0.4994234    0.2301733 -58.22  0.001565874    3.960    0.747
        14 -13.5273    160.8860    164.6995   1.0592688572e+02   1.5978164399e+01    0.7330123    0.4591038 -73.06   0.00277908    2.525    0.604
        15 -15.7934     44.5295    150.6532   1.3248613455e+02   3.9250151671e+01     1.504902    0.7015525 -77.54  0.006370049    2.371    0.578
        16 -10.6802     27.4334    226.8044   1.4429999833e+02   2.3868750319e+01     0.145431   0.09293177 -82.72 0.0003000365    1.314    0.239
        17 -12.2371    187.2405    154.6295   9.7869798611e+01   1.2544144705e+01    0.7149928    0.4140263  44.35  0.002887211    1.753    0.430
        18 -11.0044    191.5266    152.0044   9.6375453260e+01   1.2173607893e+01    0.2937454    0.2162085 -65.20 0.0009875942    1.640    0.390
        19 -10.1449    177.9877    156.2580   1.0023534106e+02   1.4182812108e+01    0.2079957    0.1959012  52.35 0.0003001983    1.072    0.067
        20 -10.7183      6.3497    224.7857   1.4789222283e+02   2.6527007971e+01    0.1117306   0.05958254  63.64 0.0006818081    1.540    0.351
        21 -13.0099    164.4364    152.9666   1.0254162404e+02   1.7818011028e+01    0.4535602    0.4102412  45.46  0.001374473    1.109    0.098
        22 -11.8228    174.4620    148.9113   9.9358382983e+01   1.6527330352e+01    0.3768908    0.2937504 -64.92  0.001199512    1.442    0.307
        23 -10.7294      8.6961    149.2816   1.4118898682e+02   4.2945169353e+01    0.1842024    0.1232935 -70.86 0.0003824013    1.167    0.143
        24 -12.6176     11.0337    144.1891   1.4004824236e+02   4.3940554705e+01    0.3690651    0.2321958 -38.37  0.001664076    1.950    0.487
        25 -12.9822    207.4092    220.8658   1.0704276676e+02  -3.9906710680e+00    0.2868246    0.2405143 -38.75 0.0009088863    1.312    0.238
        26 -10.6294    167.1080    133.8622   9.7488245245e+01   2.1427288918e+01    0.2447333    0.2127783  82.85 0.0006378184    1.273    0.214
        27 -12.7257    160.4783    128.1346   9.7623453189e+01   2.4168963276e+01    0.5071992    0.3864635 -65.05  0.001508972    1.471    0.320
        28 -11.3354     15.0387    217.9723   1.4590413408e+02   2.7054816448e+01    0.2027115    0.1004017 -76.63 0.0008605914    1.669    0.401
        29 -11.2278    153.7421    125.5787   9.8581046865e+01   2.6244590081e+01    0.2184847    0.1511817  58.38 0.0008601415    1.565    0.361
        30 -10.6963     12.9783    121.7523   1.3663294282e+02   4.8962989602e+01    0.1878554    0.1347288 -46.85  0.001191838    1.338    0.252
        31 -11.2299    231.2713    113.7138   8.0179560383e+01   1.1162832656e+01    0.2509006    0.2407436 -36.08 0.0007641143    1.113    0.102
        32 -11.1250    167.5771    112.8452   9.2171664171e+01   2.5797124996e+01    0.3742327    0.2621618 -78.92   0.00153984    2.018    0.504
        33 -12.7298    211.3246    238.6557   1.0938107796e+02  -7.4558751204e+00    0.2412966    0.2107811  71.01  0.000921251    1.689    0.408
        34 -10.8324    205.5293    110.2009   8.3808167564e+01   1.7498903348e+01    0.2657269    0.2131646  57.72 0.0006202906    1.291    0.225
        35  -9.9600     16.4586    212.4179   1.4524124780e+02   2.8081402872e+01     0.273996    0.1230478  87.45  0.001136644    2.110    0.526
        36 -12.0159     32.3952    104.2720   1.2797149027e+02   5.1368286093e+01    0.2974867     0.204709  -2.28   0.00100492    1.875    0.467
        37 -10.5927     16.7557    209.3033   1.4495161341e+02   2.8716700471e+01    0.1232051    0.1018763  53.87 0.0001537892    1.360    0.265
        38 -11.3567    160.6248    236.8828   1.1912042705e+02   1.4329284985e+00     0.343399    0.2920117 -12.02  0.002071474    1.425    0.298
        39 -10.5110     25.0156    213.4229   1.4371255008e+02   2.6957190718e+01     0.144184      0.11173  71.45 0.0009899617    1.113    0.101
        40 -10.7261      9.6172    211.8522   1.4646255950e+02   2.8889140043e+01    0.1578521     0.104155 -80.36 0.0006410664    1.244    0.196
        41 -12.6538     51.1859     91.8996   1.1921862081e+02   5.2156720415e+01     0.325938    0.2662852 -11.57 0.0006984087    1.311    0.237
        42 -13.2440     11.5734    206.0202   1.4568128217e+02   2.9940886405e+01    0.4189404    0.3537244  12.72   0.00298787    1.914    0.477
        43 -12.4471    133.8885    196.7485   1.1833452421e+02   1.4265601112e+01    0.4148078    0.3198095 -60.50 0.0007442308    1.358    0.264
        44 -12.2540     14.7884    196.8515   1.4435184017e+02   3.1621623786e+01    0.2347803    0.1652257 -66.38  0.001169144    1.402    0.287
        45 -11.8477    128.6592    196.1397   1.1941427714e+02   1.5375071212e+01    0.3417655    0.2351804 -81.19  0.001074631    1.832    0.454
        46 -14.4424    148.8343     65.5939   8.3460735870e+01   3.9136993127e+01     1.014755     0.952754  37.89   0.00115927    1.081    0.075
        47 -10.2315     36.0427    245.4192   1.4414217021e+02   1.9108170507e+01    0.1854339    0.1016819  71.17 0.0005540182    1.546    0.353
        48 -13.5748    163.9402     42.5584   7.3867104505e+01   3.8933340932e+01    0.5079474    0.4566436  69.53 0.0007599474    1.009    0.009
        49 -10.1366    152.2681    239.5888   1.2121391642e+02   2.4111355052e+00    0.1862384    0.1135194  32.93 0.0009376571    1.609    0.379
        50 -11.3580     13.5801     59.9289   1.2437913503e+02   6.2092287023e+01    0.1795184    0.1599965   2.33 0.0003974415    1.305    0.234
        51 -10.1185    222.9811    198.7202   9.9858388156e+01  -2.9329943241e+00    0.1644246    0.1150773  35.62 0.0004471204    1.408    0.290
        52 -10.8700    157.9851    244.0105   1.2071379244e+02   6.5089982475e-01    0.2119258    0.1755358 -45.57 0.0003785191    1.413    0.292
        53 -11.9927    117.6823    244.1604   1.2875565494e+02   7.4685093884e+00    0.1905891    0.1803408 -64.03 0.0008803987    1.284    0.221
