#   1 NUMBER                 Running object number                                     
#   2 MAG_AUTO               Kron-like elliptical aperture magnitude                    [mag]
#   3 X_IMAGE                Object position along x                                    [pixel]
#   4 Y_IMAGE                Object position along y                                    [pixel]
#   5 X_WORLD                Barycenter position along world x axis                     [deg]
#   6 Y_WORLD                Barycenter position along world y axis                     [deg]
#   7 A_WORLD                Profile RMS along major axis (world units)                 [deg]
#   8 B_WORLD                Profile RMS along minor axis (world units)                 [deg]
#   9 THETA_WORLD            Position angle (CCW/world-x)                               [deg]
#  10 FWHM_WORLD             FWHM assuming a gaussian core                              [deg]
#  11 ELONGATION             A_IMAGE/B_IMAGE                                           
#  12 ELLIPTICITY            1 - B_IMAGE/A_IMAGE                                       
         1 -13.6083      5.5515     13.5720   1.3527467267e+02   7.5580719629e+01     3.079105    0.6544285 -62.12    0.0120301    3.146    0.682
         2 -13.3509    189.3196     27.9682   7.3679523174e+01   3.3639653125e+01     1.304487     1.196153  80.93  0.006753284    1.073    0.068
         3 -13.8777    202.7739      9.7059   6.6806234892e+01   3.2036024515e+01      1.81625     1.182226  45.75  0.009008394    1.765    0.433
         4 -10.4373      1.4802     51.5514   1.4625117953e+02   6.6956232868e+01    0.2406038    0.1314878 -68.08 9.682402e-05    1.476    0.323
         5  -8.9566    156.3204    250.3116   1.2724578150e+02   7.2667605442e+00    0.1073586    0.0679955  18.12 0.0007036961    1.648    0.393
         6 -11.3857    140.0231    249.7957   1.3010828979e+02   9.5439836866e+00    0.4220293    0.1338287  35.37  0.002072185    2.312    0.567
         7 -10.8981    125.7048    249.9152   1.3271850588e+02   1.1461308069e+01    0.2909458    0.1137711  36.91  0.001614531    1.786    0.440
         8 -10.6293     98.6979    249.1931   1.3762151681e+02   1.5106157919e+01    0.2536671    0.1581074  43.09  0.001808997    1.104    0.094
         9 -10.6842    102.4476    247.6429   1.3680851556e+02   1.4836662654e+01    0.2203835    0.1423806  47.57 0.0005427084    1.166    0.143
        10  -9.2158     73.8161    250.3832   1.4228240321e+02   1.8021482261e+01    0.1483059   0.07900707  31.25  0.000386669    1.681    0.405
        11  -9.4484     67.1167    250.3683   1.4350651465e+02   1.8814254848e+01    0.1561968   0.09094767  45.21  0.001114664    1.152    0.132
        12 -11.8335     32.1176    247.4025   1.4970637989e+02   2.3081208225e+01    0.6509457    0.5148643  -7.96  0.002080978    2.430    0.588
        13 -14.7121      6.8996    213.6273   1.5342252463e+02   3.1009631794e+01     4.884102    0.5621129 -73.04   0.01783043    7.182    0.861
        14  -8.9087     18.9273    241.4725   1.5188542984e+02   2.5292919308e+01    0.1598773   0.02808417  47.44  0.000808275    2.599    0.615
        15 -11.1562    233.3060    236.3740   1.1257426519e+02  -1.5907293692e+00    0.2994558    0.2269149 -57.10  0.001823438    4.096    0.756
        16  -9.8282    183.0227    238.4774   1.2118535440e+02   4.9168557264e+00    0.1732405   0.08062507  36.05 0.0005476742    1.553    0.356
        17  -8.8227     16.3228    250.3175   1.5256879064e+02   2.4179782858e+01   0.07779285   0.07237337  24.89 0.0007043475    1.668    0.400
        18 -14.3610     53.8429    209.9549   1.4371979581e+02   2.6898970085e+01     8.234632          nan  41.98   0.02293162    6.878    0.855
        19  -9.9867    161.4345    248.2356   1.2611857630e+02   6.8069672172e+00    0.1153316    0.1073116 -89.86 0.0009555648    1.680    0.405
        20  -9.9799    152.2504    248.3810   1.2776773563e+02   8.0468178004e+00    0.1586218   0.07343878  41.28 0.0004335057    1.581    0.368
        21  -8.9914     33.6131    228.9132   1.4874629650e+02   2.5860431107e+01    0.1448383    0.1003545  59.44 0.0005027326    1.100    0.091
        22 -13.9458     18.8499    170.7736   1.4937528383e+02   3.8134372563e+01     4.238762    0.9868652  70.80   0.01165452    7.835    0.872
        23 -10.3390     82.5416    243.5406   1.4022723755e+02   1.7953996524e+01    0.2838921    0.1272133  55.52  0.001655889    2.006    0.501
        24 -11.0666    173.5160    222.2909   1.2082468743e+02   8.1649702764e+00    0.3923948    0.2653381  46.95  0.002558465    1.513    0.339
        25 -10.7841    197.8607    244.3898   1.1938067493e+02   2.2756346840e+00    0.2580796    0.1780192 -63.94  0.001445043    4.444    0.775
        26 -13.8713     48.8682    224.4292   1.4556855453e+02   2.4967393113e+01    0.9797389    0.5963759  67.32  0.006784834    1.451    0.311
        27  -8.8193    152.4975    212.8893   1.2358601140e+02   1.2585117747e+01    0.1354138     0.122086 -37.07 0.0003143928    1.434    0.303
        28 -12.5168     26.2028    203.0809   1.4917000023e+02   3.1120571842e+01    0.5979277     0.147096  47.13  0.001943809    2.502    0.600
        29 -11.3264     67.4594    198.6724   1.3997478500e+02   2.7291644113e+01    0.3003121    0.2259528 -45.85  0.001505128    1.905    0.475
        30 -10.0218    194.0338    197.0488   1.1338704430e+02   8.1692950064e+00    0.3569731    0.2035339 -59.66  0.001388848    5.619    0.822
        31 -12.6241     42.8548    233.3715   1.4717229183e+02   2.4158031895e+01    0.2737572    0.2574121  46.04 0.0008114331    1.460    0.315
        32 -11.5726     72.7708    190.9170   1.3811564532e+02   2.8057943829e+01    0.2291831     0.225931 -76.78 0.0007425766    1.343    0.255
        33  -8.9815    104.5002    180.4937   1.2963746420e+02   2.5456991753e+01    0.1329942     0.107626  49.97 0.0001659265    1.037    0.036
        34 -13.1994     69.2305    176.0286   1.3753315124e+02   3.1449713235e+01    0.4497264    0.2824222 -43.60  0.001885197    2.321    0.569
        35 -10.7796     81.7616    178.1803   1.3473601292e+02   2.9298736168e+01    0.2257012    0.1942822  66.40 0.0003531359    1.100    0.091
        36  -8.6025    171.5306    173.4485   1.1379902369e+02   1.5241208721e+01    0.1325686    0.1115135  31.92 0.0008073013    1.040    0.038
        37  -8.9316    131.3473    173.3169   1.2243252233e+02   2.2354623987e+01    0.1338299    0.1003259   9.41 0.0007048195    1.726    0.420
        38 -11.8603     89.1072    168.5068   1.3180430227e+02   3.0164910433e+01    0.6601763    0.4895838  38.87  0.003856705    1.220    0.180
        39 -10.5417    191.8945    155.5031   1.0643636795e+02   1.4238944769e+01    0.4107964    0.3117463 -85.57  0.001957577    2.659    0.624
        40 -11.2496     32.4693    157.3436   1.4518531019e+02   3.9703378360e+01    0.2753477    0.1879928 -88.07  0.001270733    1.360    0.265
        41 -12.5336     67.0306    143.9398   1.3446084475e+02   3.8631493142e+01    0.9676439    0.5434562  72.52  0.004462401    2.130    0.531
        42 -11.8974     89.3584    151.8755   1.2947724245e+02   3.3598901844e+01    0.2605414    0.2485351   8.23 0.0005547569    1.275    0.216
        43 -14.7905      4.6874    180.8523   1.5302673477e+02   3.7294488510e+01     8.168505    0.6677608 -82.65   0.02145166   10.307    0.903
        44  -8.6973    184.6260    147.8920   1.0632781374e+02   1.6770270437e+01     0.173194    0.1272131 -47.35 0.0004456148    1.651    0.394
        45  -8.9944    103.1769    148.1410   1.2525961716e+02   3.2133892778e+01    0.1988233    0.1846324  -0.39 0.0006489981    1.307    0.235
        46  -9.3557    181.5374    144.2700   1.0619881620e+02   1.7942796936e+01     0.236867     0.204628  69.96 0.0007382554    1.490    0.329
        47 -12.4735     28.2778    141.1862   1.4512217066e+02   4.3710678761e+01    0.6214432    0.2346671 -68.19  0.002859378    2.446    0.591
        48  -8.6558    191.9882    143.9989   1.0408810414e+02   1.5943668993e+01    0.1613145    0.1442241   3.63 0.0003830948    1.069    0.065
        49  -9.4969    111.1829    137.1879   1.2121422994e+02   3.3040226589e+01    0.2862104    0.2167359  -9.09   0.00135225    1.997    0.499
        50 -10.4858     98.5737    134.8116   1.2420046822e+02   3.5795682503e+01      0.27491    0.2463346 -29.65 0.0009167443    1.355    0.262
        51  -9.5876    166.6921    130.7073   1.0638016994e+02   2.3222130404e+01    0.2754608    0.2259958  84.85 0.0008356277    1.669    0.401
        52 -11.7321     57.5326    131.8009   1.3561600825e+02   4.2677485093e+01    0.6448107    0.2994673 -83.33  0.002647054    2.648    0.622
        53  -8.8695     74.3237    242.7054   1.4171782164e+02   1.9087188608e+01     0.114283   0.05621621  53.62 0.0006852438    1.619    0.382
        54  -9.8899     70.7877    124.6385   1.3054540640e+02   4.2555971279e+01     0.241526    0.2044698  65.39 0.0003687766    1.091    0.084
        55  -9.1533    107.9337    124.0879   1.1951380804e+02   3.6466996341e+01    0.2079431     0.191282  52.61 0.0002952183    1.020    0.020
        56  -9.1705    154.2484    119.9082   1.0668915209e+02   2.7824240161e+01    0.2648323    0.1994879  71.29 0.0009554583    1.687    0.407
        57  -9.9138    100.5243    152.3230   1.2662257375e+02   3.1701203547e+01    0.2708123    0.2296846  49.17 0.0008154396    1.038    0.037
        58 -10.5756    168.0889    113.3418   1.0201219779e+02   2.5970654141e+01    0.3360111    0.2948987 -81.74 0.0008123807    1.405    0.288
        59  -8.2706    146.4568    113.5416   1.0700070110e+02   3.0734060732e+01    0.1510312    0.1414244  63.84 0.0008056711    1.100    0.091
        60  -8.9119    203.2266    111.5378   9.4724326858e+01   1.8574556902e+01    0.1956773     0.123981  36.84  0.000660366    1.599    0.375
        61  -9.8817     53.0196    110.0335   1.3388324744e+02   4.8445388776e+01    0.2338664    0.1479785  67.65  0.001139065    1.716    0.417
        62 -10.4843     44.2684    109.7901   1.3680431711e+02   4.9528129966e+01     0.295293    0.1863998  28.14  0.001527922    1.702    0.412
        63  -9.4158    155.4822     76.0000   9.4574302854e+01   3.5581782682e+01    0.2362189    0.1543037 -35.14 0.0007054535    1.569    0.363
        64  -9.1329     18.6951     67.0519   1.4023994542e+02   6.2338105086e+01    0.1985445    0.1613183  47.72 0.0003946346    1.329    0.248
        65 -11.4252      3.3863     61.9250   1.4659204080e+02   6.4394740807e+01    0.3305837    0.2730521  65.82 0.0009035617    1.247    0.198
        66 -10.5366    248.9939    248.5427   1.1184120568e+02  -4.5005592728e+00    0.2857793    0.1408784  12.11  0.001907143    1.855    0.461
        67  -8.6581     24.9674     59.0477   1.3576991773e+02   6.3831874854e+01    0.1485396    0.1380568 -65.90  0.000304021    1.054    0.051
        68 -10.2757     18.6142     56.9394   1.3846432275e+02   6.4805290172e+01    0.5305597    0.1512171  34.27  0.002081116    3.455    0.711
        69 -10.3637     81.2750    248.5064   1.4079330714e+02   1.7389250013e+01    0.2280686    0.1407358  55.22  0.001116315    1.329    0.248
        70 -10.0306     46.4123    248.5296   1.4717991327e+02   2.1414147472e+01    0.2734075    0.1002462  60.53  0.001009661    2.404    0.584
        71 -11.4161      5.4698     52.7865   1.4438236780e+02   6.6512390134e+01     0.383997    0.2085776  31.76 0.0008593865    2.056    0.514
