#   1 NUMBER                 Running object number                                     
#   2 MAG_AUTO               Kron-like elliptical aperture magnitude                    [mag]
#   3 X_IMAGE                Object position along x                                    [pixel]
#   4 Y_IMAGE                Object position along y                                    [pixel]
#   5 X_WORLD                Barycenter position along world x axis                     [deg]
#   6 Y_WORLD                Barycenter position along world y axis                     [deg]
#   7 A_WORLD                Profile RMS along major axis (world units)                 [deg]
#   8 B_WORLD                Profile RMS along minor axis (world units)                 [deg]
#   9 THETA_WORLD            Position angle (CCW/world-x)                               [deg]
#  10 FWHM_WORLD             FWHM assuming a gaussian core                              [deg]
#  11 ELONGATION             A_IMAGE/B_IMAGE                                           
#  12 ELLIPTICITY            1 - B_IMAGE/A_IMAGE                                       
         1 -12.0725    119.4438     37.7134   2.2289113518e+01   5.0449952799e+01    0.9468814    0.3912937 -46.18  0.003331074    2.600    0.615
         2 -10.7226      9.6705     31.1924   7.1046502681e+01   7.3027399843e+01    0.5823638     0.528506 -72.35   0.00371768    1.168    0.144
         3 -11.5122     79.1029     35.9306   3.3214731197e+01   6.0819823771e+01    0.8786501    0.5851527 -37.43  0.004127598    1.536    0.349
         4 -11.6295    175.2518     33.5404   1.1677250279e+01   3.6639624540e+01    0.5930466    0.3441228 -44.83 0.0001783964    1.553    0.356
         5 -11.8488     49.2962     30.3218   4.3789216755e+01   6.8085688551e+01    0.7232546    0.3648511  40.38  0.003127331    1.977    0.494
         6 -12.0029    104.5712     13.6313   1.5349256067e+01   5.7476774363e+01    0.5234456    0.4106655 -12.50  0.002457429    1.445    0.308
         7 -12.4182    105.9327     20.6773   1.8235170585e+01   5.6306882152e+01    0.4728939    0.3578059 -74.41  0.001187668    1.467    0.318
         8 -11.7927    164.2342     27.7152   1.1207615898e+01   4.0102203867e+01    0.4325628    0.3697301 -73.52 0.0003696849    1.082    0.076
         9 -11.8854     48.2117     12.9416   3.4042194495e+01   7.1229960794e+01    0.9582103     0.302132  48.67  0.003452334    2.998    0.666
        10 -10.2460      1.2644      7.8848   6.8856907909e+01   7.8808403328e+01    0.3992038   0.07306994 -60.20  0.001381493    3.905    0.744
        11 -10.6634      2.1813      2.0470   6.4264342089e+01   7.9955766917e+01    0.3653829    0.2041912  -3.13  0.001916679    1.970    0.492
        12 -11.8618     25.9889     28.9536   5.7759323808e+01   7.1975079729e+01    0.7148172    0.4931964 -17.63   0.00305786    1.634    0.388
        13 -11.7240     20.4484     21.8428   5.8331221778e+01   7.4147185230e+01    0.7662491     0.446355 -36.83  0.002893861    1.672    0.402
        14 -11.7991      6.7050     11.0389   6.4787923914e+01   7.7757222336e+01     1.088174    0.5822541 -62.62  0.005530484    1.922    0.480
        15 -11.5237     12.8282      8.2721   5.6905447243e+01   7.7740528600e+01    0.8228015    0.2382157 -50.95  0.003181424    3.104    0.678
        16 -12.3483     16.2758     13.8715   5.7297874946e+01   7.6255631544e+01    0.9191373    0.4129758 -29.93   0.00370638    2.927    0.658
        17 -11.7647     35.6896     19.1883   4.5580944482e+01   7.2526295837e+01    0.5896437    0.3129167 -39.36  0.002256397    1.861    0.463
        18 -11.6425    188.8706     27.6022   8.4959945685e+00   3.4079259584e+01    0.5627602    0.4114397  39.31  0.003038918    1.772    0.436
        19 -11.6796    135.3313     22.0676   1.3272701613e+01   4.8308646610e+01     1.262648    0.5215656 -52.82  0.004518181    2.829    0.647
        20 -11.0253    127.2223     16.6318   1.2478231311e+01   5.1090100329e+01    0.4594029     0.369263   7.91  0.001238106    1.532    0.347
        21 -11.2345    135.1841     14.7853   1.0568535614e+01   4.9157317591e+01    0.7492185    0.2541202  63.04  0.002749955    2.569    0.611
        22 -11.0432     67.8451     19.1446   2.8863396210e+01   6.6053345055e+01    0.5058376    0.3983172  87.02  0.002160066    1.624    0.384
        23 -12.0542    164.8746     18.0784   8.0721931406e+00   4.1042605048e+01     0.551762    0.3102163  44.65  0.002481417    2.219    0.549
        24 -12.2302     22.5305     10.6295   4.9732305114e+01   7.6088117639e+01      0.53755    0.3814407  23.87  0.002002945    1.395    0.283
        25 -10.8738     86.1813     13.5857   1.9745890630e+01   6.2282695401e+01    0.8138399    0.5052192   4.67  0.003554303    2.247    0.555
        26 -10.4946     89.5121      8.5926   1.6295650112e+01   6.1964789384e+01    0.3422576     0.236141 -20.64 0.0009214105    1.578    0.366
        27 -11.5896    239.1494     16.3041   2.0180076302e+00   2.4522777922e+01     0.421144    0.2201596  70.74  0.001736144    2.174    0.540
        28 -11.1644    228.6939     15.9286   2.5044118640e+00   2.6626111850e+01    0.2750252    0.2122294 -78.85 0.0003776416    1.283    0.220
        29 -10.6572    225.6824     13.6938   2.1446082544e+00   2.7469216778e+01    0.2751238     0.190468 -29.39 0.0008215786    1.354    0.262
        30 -10.3625    218.8435     13.0227   2.3748538819e+00   2.8960603465e+01    0.2799317    0.2256508 -57.04  0.001854965    1.037    0.036
        31 -10.7381    191.1953     12.1909   3.9794361798e+00   3.5215760584e+01    0.3803853    0.1817764 -24.78  0.001454231    2.082    0.520
        32 -11.2856    192.6878      7.8476   2.6726469090e+00   3.5299917181e+01    0.4223987    0.2427943 -12.06  0.001855247    2.200    0.546
        33 -11.4579    206.5153      2.4414   4.0881275468e-01   3.2669228056e+01    0.6510097    0.2609518 -80.28  0.002839998    2.728    0.633
        34 -10.8396    223.8723      2.9490   3.5967701595e+02   2.8901906760e+01    0.2570885    0.1873619 -73.25 0.0004810098    1.253    0.202
        35 -11.8944    212.3456      9.1739   1.7969903361e+00   3.0739347320e+01    0.5685639    0.3496745  -7.26   0.00247058    2.231    0.552
        36 -10.7848    218.5792      3.6732   1.0282974889e-01   2.9939715464e+01    0.2868277    0.2115661  79.75  0.001005884    1.455    0.313
        37  -9.7847    120.1815     11.7234   1.1636122151e+01   5.3497632277e+01    0.2500476    0.1609676  74.43 0.0005956238    1.458    0.314
        38 -11.5648    168.2141      9.3937   5.0128820251e+00   4.1095308176e+01    0.7347538    0.2889622  77.94  0.002976527    2.488    0.598
        39  -9.7379    165.4050      3.7941   3.4951317940e+00   4.2335154138e+01    0.2994078    0.1984853  28.94  0.001484786    2.108    0.526
        40 -10.7459    152.3208      8.2747   6.1636085419e+00   4.5280501645e+01    0.3549737    0.3046335 -57.27 0.0008625146    1.085    0.079
        41 -11.1386    246.7568      7.4409   3.5968942280e+02   2.3966192408e+01    0.3912651    0.2483519   4.67   0.00215981    2.730    0.634
        42 -11.3022    242.5653      4.0737   3.5912512403e+02   2.5081786317e+01    0.3356336    0.1884068 -58.12  0.001693047    1.457    0.314
        43  -9.6233    245.7949      1.3266   3.5839776543e+02   2.4731312302e+01    0.1505251   0.09982364 -85.04 0.0003312792    1.544    0.352
        44 -10.9911    185.1635      7.3160   3.0451899783e+00   3.7131583128e+01    0.2146654    0.2035463  59.47  0.001038301    1.269    0.212
        45  -9.4900     77.9898      7.6834   1.8875770364e+01   6.5005802302e+01    0.2223931    0.1896026 -64.08 0.0006695439    1.315    0.239
        46 -10.4725     73.4153      3.7092   1.7920750103e+01   6.6551862791e+01    0.6419562    0.2150093  53.39  0.002390808    2.489    0.598
        47 -10.7250    231.9441      6.4745   1.2936055776e-01   2.6922292404e+01    0.2710255    0.1530167 -56.98 0.0009493576    1.456    0.313
        48 -11.3212    233.5048      2.7063   3.5919448275e+02   2.6973732389e+01    0.4384939    0.1910131 -57.66  0.002316769    1.923    0.480
        49 -11.3676    177.0871      5.9355   3.2359137712e+00   3.9222610609e+01    0.2996969    0.2071469 -72.51 0.0004188817    1.320    0.242
        50  -9.3696    121.9604      5.5057   8.8000195215e+00   5.3614592005e+01    0.2079667    0.1845313 -31.94 0.0005143555    1.208    0.172
        51 -10.3342    137.6953      4.3191   6.3374106794e+00   4.9503844659e+01    0.3386693    0.2113455  82.92 0.0008194775    1.501    0.334
        52 -11.8764    133.3951      2.2949   6.0664307467e+00   5.0827586866e+01    0.9924068    0.3488291  81.44  0.003519801    2.926    0.658
        53 -10.4804    113.5363      2.8220   8.9020577126e+00   5.6117309918e+01    0.5017931    0.2932691 -76.13  0.001601557    1.912    0.477
        54 -10.9078     41.4710      3.8574   3.1291410868e+01   7.3852718390e+01    0.3858003    0.2378809  31.69  0.001203865    1.666    0.400
        55  -9.5621     29.6888      3.1108   3.8327231551e+01   7.6192076269e+01     0.362043    0.1495432 -48.68  0.001347925    3.730    0.732
        56 -10.0841     62.8941      6.7054   2.3312068032e+01   6.8792797862e+01    0.3313431    0.2168131  47.60  0.001686738    1.401    0.286
        57 -10.1977    105.2593      2.0802   9.8934732899e+00   5.8402070489e+01    0.3301786    0.2134771 -72.64  0.001096506    1.703    0.413
        58  -9.1624     64.2483      2.2056   1.9928862413e+01   6.8946134022e+01    0.1691787    0.1539099 -61.46 0.0006439537    1.253    0.202
        59  -9.5304    152.2971      1.3830   3.8241910966e+00   4.5914973112e+01    0.2392274     0.118193  74.56  0.000566162    1.864    0.463
        60  -9.4386     81.7355      1.1361   1.4190644618e+01   6.4678284866e+01    0.2539437   0.09060549  69.88 0.0006709407    2.704    0.630
        61  -9.4821     37.3163    116.1309   7.4820272408e+01   4.8478157877e+01    0.2453067    0.1701092 -52.41  0.001205284    1.485    0.326
        62 -10.9766      7.9508    114.9415   8.5770888116e+01   5.1282455851e+01     0.471135    0.2616304  11.29 0.0003509581    2.099    0.524
        63 -12.0870      2.5724    111.7258   8.7571101782e+01   5.2445968676e+01    0.4738294    0.3188423 -87.40 0.0009228024    1.306    0.234
        64 -11.2293      4.3830    105.5546   8.6437880945e+01   5.3989908103e+01     0.428031    0.3647565  40.04  0.001674718    1.230    0.187
        65  -9.5232     79.1490    115.1951   5.9542352739e+01   4.2879841883e+01    0.2282871    0.2121564 -27.12 0.0007195926    1.195    0.164
        66  -9.2192     67.7813    114.8559   6.3411073810e+01   4.4809276841e+01    0.2214919    0.1712921  66.91 0.0009203039    1.383    0.277
        67  -9.7582     31.6871     97.1239   7.4127791141e+01   5.4193542908e+01    0.4632487    0.2307749  55.52  0.001854651    2.326    0.570
        68 -10.1914     35.7758    102.8863   7.3383788995e+01   5.2213551217e+01    0.6843949    0.3436494   3.28  0.002491966    3.189    0.686
        69  -9.7476     28.8096    100.8000   7.5923342762e+01   5.3478282310e+01    0.2352191    0.1877905  89.95 0.0003780987    1.193    0.162
        70 -11.5201     25.6287    107.1633   7.8117133547e+01   5.2046921730e+01    0.7258735    0.4424942 -42.59  0.003394265    1.843    0.457
        71 -11.7144     22.4952    114.7244   8.0252682934e+01   5.0278466348e+01     0.544899    0.3202304   9.26  0.001151545    2.072    0.517
        72 -11.4924     28.3837    113.2721   7.7827395840e+01   5.0146412392e+01    0.4368447    0.3354475  10.65  0.001179105    1.510    0.338
        73  -8.9037     57.6244    114.3097   6.6962664246e+01   4.6448437303e+01    0.1653816    0.1055864  62.31 0.0007030089    1.782    0.439
        74  -9.1861    104.6740    112.9353   5.0829596619e+01   3.8736191317e+01     0.213139    0.2015167 -80.29 0.0004300352    1.077    0.071
        75 -12.5597     80.2310    108.1442   5.7571762894e+01   4.4475438498e+01      0.53246    0.3855536  48.53 0.0005413783    1.386    0.278
        76 -10.3348     86.3727    103.7874   5.4403040577e+01   4.4454052747e+01    0.4385337    0.3080238  48.91    0.0019919    1.440    0.306
        77 -10.1022     49.0731    112.1057   6.9741809199e+01   4.8176650684e+01    0.3390779    0.1930263  37.90 0.0009729075    1.710    0.415
        78  -9.2575    120.3860    109.7278   4.5491137277e+01   3.6276770286e+01    0.2211891    0.1445346 -37.53 0.0007592741    1.647    0.393
        79 -10.8394     15.6449    109.2253   8.2315199340e+01   5.2294713126e+01    0.4492413    0.3485503   3.30   0.00175727    1.527    0.345
        80  -9.3534    101.7754    109.4123   5.0837327826e+01   4.0138001405e+01    0.2193048    0.1496554  28.50 0.0005556752    1.663    0.399
        81  -9.1305     45.5070    105.5498   6.9942549838e+01   5.0377751319e+01     0.194319    0.1390776 -83.37 4.176711e-05    1.424    0.298
        82 -11.0933     50.9913    100.1738   6.6711556279e+01   5.1108204138e+01    0.8017239    0.4369162 -34.01  0.003050693    2.586    0.613
        83  -9.1034    182.7600    104.5472   3.0157346067e+01   2.4070866077e+01    0.1745512    0.1400912  67.87 0.0004291166    1.498    0.333
        84  -9.1350     57.4131    103.2335   6.4826263033e+01   4.9403425375e+01     0.217527    0.1429525 -78.37 0.0009537147    1.665    0.400
        85 -11.3133     17.5710    100.8204   8.0610236354e+01   5.4420819438e+01    0.3195724    0.2423501  75.64 0.0005741928    1.269    0.212
        86  -9.9419     66.5068     88.5863   5.7727440567e+01   5.1787745488e+01    0.3710821     0.257198  -9.51  0.001222524    2.227    0.551
        87 -10.3302     67.1258     81.9520   5.5619103498e+01   5.3348288109e+01    0.4782925    0.3605344 -32.00  0.001723359    1.527    0.345
        88 -11.6251     68.2362     96.1279   5.9011773628e+01   4.9577818155e+01    0.7199503    0.5596465 -10.56  0.002501534    1.699    0.412
        89 -11.6838     79.7411     93.7338   5.4099072050e+01   4.8166739857e+01    0.9106463    0.8170567 -80.34  0.004699385    1.146    0.128
        90 -11.7800     76.3007     79.8288   5.1354156606e+01   5.2202657236e+01     1.037706    0.7269476  78.18  0.002506297    2.039    0.510
        91 -11.4951      9.1362     96.9848   8.3739407859e+01   5.6019249226e+01    0.4945384    0.4018065  68.10 0.0007878075    1.181    0.153
        92  -8.8642    133.6705    100.2816   3.9478527186e+01   3.5446792313e+01    0.1539579    0.1222629  89.79  0.000224128    1.605    0.377
        93  -9.4675    210.1034     98.5156   2.4311773769e+01   1.9643302620e+01    0.1976458    0.1580677 -31.14 0.0004567876    1.089    0.081
        94 -12.3036    124.8456     93.9818   4.0003589272e+01   3.8726746106e+01    0.8548784    0.5418425 -69.76  0.003289125    2.364    0.577
        95 -11.7169     21.1803     92.5956   7.7974501172e+01   5.6367040327e+01     1.026088    0.5057925  71.41   0.00146547    2.523    0.604
        96 -11.1087     42.4207     91.8521   6.8535225817e+01   5.4424121349e+01    0.6804138    0.4428536  86.27  0.001250056    1.818    0.450
        97 -10.2938     35.5450     92.4772   7.1639321354e+01   5.5045935303e+01    0.3990569    0.2663108 -88.42  0.001271847    1.597    0.374
        98 -10.9351     26.9607     86.3802   7.4358633855e+01   5.7546792212e+01    0.6645741    0.5279549  26.33  0.002648581    1.346    0.257
        99 -11.3803     44.9281     84.7883   6.5860814430e+01   5.5983628879e+01    0.5214461    0.4771271  45.41  0.001642552    1.126    0.112
       100 -10.2385     37.2758     85.8027   6.9529469391e+01   5.6642424779e+01    0.4022154    0.2722841   8.10  0.001887039    1.796    0.443
       101  -9.2216    140.6081     96.1242   3.6637043732e+01   3.4747233169e+01     0.224995     0.143194 -28.92 0.0009418604    1.812    0.448
       102 -11.7398     98.9350     91.1964   4.6805997833e+01   4.4985197388e+01    0.4757296    0.2737661  51.56  0.001907734    1.835    0.455
       103 -10.3011     49.7871     91.2532   6.5261167399e+01   5.3635117181e+01    0.4041578    0.3197005  78.13  0.002019753    1.382    0.276
       104  -9.7572     89.8452     91.0757   4.9791500778e+01   4.6871786574e+01    0.3439985    0.2518694 -72.67  0.001528588    1.619    0.382
       105 -10.0123     91.0825     85.8505   4.7829972628e+01   4.7853406723e+01     0.474508    0.3370857  48.46  0.002152019    1.419    0.295
       106 -11.3821      7.3831     88.3819   8.3618154341e+01   5.8431474386e+01    0.5599437    0.4266433   9.78  0.002133178    1.499    0.333
       107  -9.6323    104.1587     87.4288   4.4036893292e+01   4.4728782695e+01     0.274206    0.1858956 -51.34  0.001198492    1.490    0.329
       108  -9.7408     51.9853     86.9945   6.3312122658e+01   5.4447913905e+01    0.2217978    0.2075087 -68.93            0    1.026    0.025
       109 -10.6550    143.2377     84.5194   3.2714087270e+01   3.6408128416e+01    0.2730979    0.2478542 -44.58 0.0002994494    1.074    0.069
       110 -11.0194    112.4153     83.1669   4.0247212234e+01   4.3828715038e+01    0.5912315    0.2942754  57.28  0.002120433    2.375    0.579
       111  -9.7439     60.0871     83.2797   5.8901380179e+01   5.4184437784e+01    0.2227203    0.2084314 -19.24 0.0005435188    1.156    0.135
       112  -9.5785    103.1458     79.5376   4.1902846296e+01   4.6695117991e+01    0.2938694    0.1893036 -35.62 0.0007096619    1.709    0.415
       113  -9.9736    103.2006     74.7643   4.0329642713e+01   4.7710796863e+01    0.3258073    0.2983121 -63.35  0.001672468    1.105    0.095
       114 -11.4594     53.0006     74.6730   5.9549028116e+01   5.7465728087e+01      0.68746    0.6171632 -67.40  0.001432498    1.096    0.087
       115 -10.2947     58.0176     77.8632   5.8252045853e+01   5.5883931571e+01     0.311972    0.2632731 -78.97  0.000565177    1.254    0.203
       116 -10.5486     88.6039     72.8684   4.4546516689e+01   5.1336309262e+01    0.8170276    0.3941532 -62.75  0.002208625    3.428    0.708
       117  -9.3918     92.5023     72.0213   4.2903342893e+01   5.0683562502e+01    0.3123488    0.2634506  88.95  0.001130665    1.372    0.271
       118 -11.1960     88.7840     77.6058   4.6050761380e+01   5.0230991303e+01    0.6804758    0.4405937  51.94   0.00293747    1.611    0.379
       119 -10.4914     94.6743     76.5757   4.3690139472e+01   4.9208392180e+01    0.5111967    0.2807605  48.78  0.001750763    1.843    0.458
       120 -10.8207      1.9784     71.5790   8.4354074155e+01   6.3167713284e+01    0.7621222    0.2947666 -88.28  0.002980305    2.594    0.615
       121 -12.4397      6.8647     61.5009   8.0290562798e+01   6.5599006106e+01    0.8723782    0.5336648 -32.40  0.004411612    1.725    0.420
       122 -11.8941     10.8884     51.1901   7.5849668628e+01   6.8034907900e+01    0.5945307    0.2024681 -53.18  0.001038188    2.384    0.581
       123  -9.0054    181.8091     76.3830   2.3025084953e+01   2.8935660632e+01    0.1875614    0.1304571  46.02 0.0003629105    1.603    0.376
       124  -8.8858    126.5474     76.5941   3.4317844857e+01   4.1884869377e+01    0.1534355     0.148587 -89.07 8.966204e-05    1.019    0.019
       125 -11.0007     14.2161     74.6866   7.8511224914e+01   6.1692221768e+01    0.3859706    0.2770809  87.24  0.001944095    1.391    0.281
       126  -9.1894    112.2319     75.3876   3.7821674918e+01   4.5504339706e+01    0.2200819    0.1482716  61.00 0.0008876435    1.620    0.383
       127  -8.5606    120.3413    101.2976   4.3270774813e+01   3.8143333555e+01     0.157535    0.1251733   3.80 0.0006969778    1.665    0.399
       128  -9.5190     24.5371     74.0034   7.3143650433e+01   6.1072660450e+01    0.2232813    0.1301706 -69.52  0.001027569    1.582    0.368
       129  -9.9889    154.1095     72.5737   2.6858993784e+01   3.6001680351e+01    0.3620723    0.1985716  44.45  0.001043682    2.038    0.509
       130 -10.3272     80.9760     72.2345   4.7115767464e+01   5.3064865556e+01    0.5932577    0.3029142 -46.88  0.002314312    1.948    0.487
       131  -9.9272     77.9841     67.4896   4.6623151369e+01   5.4747298379e+01    0.4089021    0.2683559 -70.05    0.0016755    2.061    0.515
       132  -9.6285     44.7272     69.3096   6.1865765352e+01   6.0012673071e+01    0.2916678    0.2070893  54.96  0.001176465    1.607    0.378
       133 -10.4185     34.6081     71.6322   6.7514012918e+01   6.0679543642e+01    0.4725115    0.2236056  34.45  0.001962397    2.130    0.531
       134 -10.8098     40.3855     69.0979   6.3945048684e+01   6.0639748844e+01      0.33272     0.276323  30.99 0.0005974405    1.259    0.206
       135  -9.7366     41.1730     72.8475   6.4590662998e+01   5.9577812981e+01    0.3074131    0.2461418  -5.58 0.0009400086    1.463    0.316
       136 -10.9629    122.8886     68.8475   3.2740972403e+01   4.4264513496e+01    0.5065228    0.3132387  48.77  0.001597518    1.628    0.386
       137 -10.0684     13.4706     67.4574   7.7659685500e+01   6.3656833403e+01     0.428851    0.2214404   6.15  0.001824512    2.295    0.564
       138  -9.3462    220.9648     67.0000   1.5414427968e+01   2.2059002829e+01     0.186483   0.07494129  63.39 0.0007569007    2.925    0.658
       139 -10.0378     96.5076     65.4930   3.9275169755e+01   5.1180022442e+01    0.2905117    0.2679671  15.19 0.0007369934    1.197    0.165
       140 -11.0854     92.5926     62.8984   3.9641339633e+01   5.2604742979e+01    0.5334656    0.3117465  52.08 0.0008894987    1.742    0.426
       141 -10.4337    201.6497     64.8830   1.7158050544e+01   2.6317846818e+01    0.2323673    0.2073273 -81.16 0.0001581752    1.190    0.160
       142  -8.9617    192.4281     65.5252   1.8534718253e+01   2.8232155735e+01    0.1402567    0.1222446 -47.54 0.0001578208    1.027    0.026
       143 -10.0945    104.2027     63.3125   3.6057904899e+01   4.9833162111e+01    0.4297263    0.2447755  57.61  0.001717525    1.867    0.464
       144 -10.2036    158.5157     63.0056   2.3134585114e+01   3.6537524050e+01    0.4004379    0.2009157  51.99 0.0009995826    2.063    0.515
       145  -9.5497     84.3201     61.6216   4.2092913002e+01   5.4702723811e+01    0.3264896    0.2358257 -40.88  0.001512864    1.406    0.289
       146  -9.5952     91.8417     57.3706   3.7817367932e+01   5.3897518509e+01    0.2999705     0.206304 -67.12  0.001113511    1.901    0.474
       147 -10.3991     88.0875     56.3482   3.8720205728e+01   5.4956835221e+01    0.5830784    0.2441749 -37.80  0.001863858    2.587    0.613
       148 -10.1984     64.8875     61.4048   4.9837112130e+01   5.8668685602e+01    0.4605976    0.3532248  34.39  0.001229797    1.342    0.255
       149  -9.4504     57.9339     61.9559   5.3170792341e+01   5.9778518785e+01    0.3416097    0.2462665 -88.02  0.001515216    1.966    0.491
       150  -9.8427     51.3499     55.8241   5.4100247333e+01   6.2308591137e+01    0.5601516    0.2525334 -42.37  0.002120475    2.346    0.574
       151 -10.6767     51.5082     61.5031   5.6062507679e+01   6.0941147749e+01    0.4679528      0.25408  42.46  0.001777333    1.920    0.479
       152 -10.8319     40.4358     56.9829   6.0167541727e+01   6.3656492405e+01    0.4066877    0.2027977  31.99  0.001094195    2.053    0.513
       153 -11.2284     43.1283     60.7045   5.9994511918e+01   6.2378029589e+01    0.4256626    0.2595346 -61.97 0.0007568992    1.641    0.391
       154 -10.7855     46.4552     59.5104   5.7888626482e+01   6.2191895047e+01    0.3072487    0.2671752 -64.20 0.0008439643    1.160    0.138
       155 -11.1409    119.2603     56.7951   2.9500204546e+01   4.7382781337e+01     1.218223    0.6606649 -70.00  0.003711775    3.915    0.745
       156 -10.4846    124.8459     56.6160   2.8051713267e+01   4.6012252575e+01    0.4210009     0.248705 -32.88  0.001754342    1.770    0.435
       157 -10.4222     49.5245    248.7880   8.2767238330e+01   1.7427184221e+01     0.300473   0.07724869  49.46  0.001314863    3.106    0.678
       158 -11.1166    111.2936     40.8051   2.5463493751e+01   5.2090050499e+01    0.7487422    0.4594569 -49.02  0.003256668    1.728    0.421
       159 -10.3953    112.4172     50.7919   2.9067656795e+01   5.0152303392e+01    0.3652408    0.2884031 -11.03  0.001095655    1.566    0.362
       160 -11.3192    117.2407     45.2477   2.5720937080e+01   4.9855311649e+01    0.6509222    0.4656087 -32.56  0.002372809    1.450    0.311
       161  -9.8075    113.5629     61.0329   3.2530411072e+01   4.8018351709e+01    0.2806849     0.276777  30.82  0.001511719    1.071    0.066
       162  -9.5020     33.4947     57.0982   6.4001252726e+01   6.4507696335e+01    0.2988129    0.1454293  27.26 0.0008806974    2.143    0.533
       163 -10.7576     31.2615     53.0077   6.3956369875e+01   6.5777539928e+01    0.8421201    0.2987901  16.44  0.002496073    4.496    0.778
       164  -9.7568     29.6817     59.5776   6.6872023524e+01   6.4314884171e+01    0.3850363    0.3090619 -89.25  0.002063249    1.382    0.276
       165 -10.0540     24.7485     59.6083   6.9653306579e+01   6.4803787612e+01    0.5261348    0.1969659  36.97  0.002014872    2.746    0.636
       166 -10.6947     25.1857     55.7563   6.8340634100e+01   6.5739183943e+01    0.4672012    0.3136482  -6.07  0.001646061    1.788    0.441
       167 -12.3119     74.6275     53.0778   4.2496035123e+01   5.8560310087e+01    0.4957421    0.4736823 -66.29  0.001079993    1.084    0.078
       168  -8.8288    135.5673     59.2355   2.6490172888e+01   4.2861986451e+01    0.2130103    0.1497331 -21.12 0.0009449508    1.691    0.409
       169  -9.8052     79.8764     58.6601   4.2638148178e+01   5.6283386223e+01    0.2657148     0.203015 -34.78 0.0005586335    1.380    0.275
       170  -9.2638    106.4587     58.2769   3.3545129352e+01   5.0267082518e+01     0.210884    0.1447813 -51.96 0.0005776037    1.535    0.348
       171 -10.8202    157.3445     55.6246   2.1064570762e+01   3.7993813728e+01    0.5140725    0.3744819 -48.73 0.0009838057    1.315    0.240
       172  -9.8110    154.5084     50.9850   2.0087624977e+01   3.9411435579e+01    0.4352677    0.2333377 -14.41  0.001575037    2.958    0.662
       173  -9.5583    100.8314     55.6009   3.4228268205e+01   5.2129561815e+01     0.221431    0.1461637  66.23 0.0005462758    1.733    0.423
       174 -11.7867     72.9368     47.3627   4.0792483818e+01   6.0076761313e+01    0.9734554    0.3759492 -52.63  0.002118643    3.450    0.710
       175 -11.2488     60.6955     48.5067   4.6649706176e+01   6.2300047724e+01    0.8444115     0.372214 -43.14  0.003146741    2.284    0.562
       176 -12.2500     43.6066     45.1468   5.3959818540e+01   6.5969568284e+01    0.8291526     0.657773  63.52  0.001927953    1.574    0.365
       177  -9.6251     55.4951     50.4864   4.9962926557e+01   6.2819527568e+01    0.1877345    0.1434516  23.77 4.913526e-05    1.420    0.296
       178 -10.1540     52.0810     48.2209   5.0733142602e+01   6.3911216696e+01    0.3016692    0.2707581  42.90 0.0007149245    1.157    0.136
       179  -9.2771    201.2897     53.1678   1.4147539757e+01   2.8017087550e+01    0.2046276    0.1584272 -16.50 0.0006507373    1.440    0.306
       180  -9.9533    215.0917     51.9537   1.2351266755e+01   2.5234397028e+01    0.1947618    0.1648194 -46.20 0.0003334173    1.009    0.009
       181 -10.1526    243.9495     51.4844   9.6342256023e+00   1.9681823813e+01    0.1958866    0.1187218  81.90 0.0007809179    2.079    0.519
       182  -9.3908    239.8922     50.9230   9.8387202105e+00   2.0493779114e+01     0.189999    0.1540982 -41.34 0.0005235676    1.030    0.029
       183 -10.0538    145.2772     50.0067   2.1424695403e+01   4.1898539046e+01    0.4016621    0.2547684  -4.03  0.001357239    2.577    0.612
       184  -8.9392    189.0163     49.7140   1.4673756079e+01   3.1243206949e+01    0.1882117     0.168658 -62.63  0.000363115    1.048    0.046
       185  -9.4448     82.6513     46.8562   3.6804564561e+01   5.8039136649e+01     0.273856    0.2325245  -6.07 0.0007257367    1.372    0.271
       186 -10.4145     29.3012     45.7225   6.2611082378e+01   6.7765068916e+01    0.5846762    0.3056275 -21.28  0.002210773    3.040    0.671
       187  -9.3600     34.5007     45.5266   5.9373259823e+01   6.7173934384e+01    0.2241845    0.2082729 -37.91 0.0007932648    1.012    0.012
       188 -10.5800     22.9751     37.2420   6.3520917812e+01   7.0456492128e+01    0.5428219    0.2162917  37.22  0.002192877    2.676    0.626
       189 -10.8456     20.7288     46.3558   6.8244483303e+01   6.8496509697e+01    0.5334717     0.298683 -48.82  0.001740091    1.609    0.379
       190 -10.0196     26.1260     42.9147   6.3586174081e+01   6.8788354878e+01    0.3035237    0.2769755  69.55  0.001019502    1.265    0.210
       191  -9.7260      2.1642     48.8765   8.0947996604e+01   6.9061543566e+01    0.2266737    0.2040302  54.36 0.0008245932    1.240    0.194
       192 -10.0058    138.8070     44.4897   2.0768788858e+01   4.4398032426e+01    0.4696269    0.2457193  37.74  0.001739348    2.690    0.628
       193  -9.9760    233.9972     44.8340   8.9216979322e+00   2.2339654772e+01    0.2046636    0.1135295 -62.59 0.0009629403    1.931    0.482
       194 -10.2352    200.0650     45.0866   1.2146061031e+01   2.9353793553e+01    0.3082964    0.1928713  87.04  0.001371337    1.844    0.458
       195  -8.8621    179.7314     45.3030   1.4592114592e+01   3.4021579191e+01    0.1451546    0.0946966 -58.24 0.0002279852    1.529    0.346
       196 -10.5746    156.0521     42.1311   1.6981610775e+01   4.0308422185e+01    0.3252572    0.2987342 -19.90  0.000991028    1.205    0.170
       197  -9.6801     99.6590     41.9864   2.9130244738e+01   5.4843168427e+01    0.3526313    0.2113137 -68.04  0.001310735    2.649    0.623
       198  -9.9827     57.1462     41.9955   4.5481324283e+01   6.4326186174e+01    0.3116994     0.210763  50.38  0.001474669    1.596    0.373
       199  -9.2196     17.7398     41.3907   6.8617788133e+01   6.9969619696e+01    0.2600567    0.1295233 -45.59  0.001178661    1.836    0.455
       200 -11.0048      4.1475     36.6374   7.6913708849e+01   7.2034087039e+01    0.6064779     0.360128 -67.48  0.003182086    1.496    0.332
       201 -10.7464    126.9899    242.2125   6.6216055076e+01   9.5078437700e+00    0.1796166      0.16558  -1.09   0.00100988    1.262    0.208
       202  -9.2726     91.0498     41.2692   3.1488341896e+01   5.7076529292e+01    0.2101069    0.1896137  59.06 0.0004136045    1.087    0.080
       203 -10.5489    131.6559    240.8939   6.5133210414e+01   9.1253738346e+00    0.2094158    0.1306869  22.15  0.001087363    1.334    0.250
       204  -9.8857    231.8791     37.8147   7.4480815474e+00   2.3579590406e+01    0.2559305    0.1402452 -29.28 0.0009450447    1.596    0.373
       205  -8.8028    145.2725     39.6426   1.7919384101e+01   4.3425460739e+01    0.1582639    0.1029743 -59.93 0.0006654201    1.647    0.393
       206  -9.5962    195.0086     37.6747   1.0679257897e+01   3.1436392272e+01    0.1778527    0.1572736 -72.99 0.0002873824    1.095    0.087
       207 -10.2143     76.4280    240.1813   7.6575039835e+01   1.5918434764e+01    0.2193692    0.1702483   8.64  0.001491079    1.493    0.330
       208 -10.9041     61.3308     35.9274   4.0601608441e+01   6.4698120622e+01    0.5372483    0.3701197  -9.86  0.001666838    2.037    0.509
       209 -10.3129     67.8575     32.0928   3.5788562450e+01   6.4012513157e+01    0.4121855    0.3127422  59.72  0.001486589    1.419    0.295
       210 -12.0187     58.0085     29.9798   3.9146683406e+01   6.6460764041e+01    0.4214895    0.3506097   6.17  0.001594496    1.319    0.242
       211 -11.0420     68.1934    240.4764   7.8351139821e+01   1.6807497207e+01    0.2549343    0.1990576  -5.64  0.001559176    1.723    0.420
       212  -8.9573    131.9209     36.4308   1.9202668429e+01   4.7363348221e+01    0.2102897    0.1228297 -82.29 0.0008042376    2.380    0.580
       213  -9.0317    167.2314    237.9908   5.7854702955e+01   5.1575893372e+00    0.1243326   0.09001344 -32.76 0.0006459376    1.589    0.371
       214 -10.7603    147.1440    238.6522   6.1797135565e+01   7.5289779649e+00    0.3134072    0.1949356  48.58  0.001880774    2.004    0.501
       215 -12.0941    104.3982     32.7489   2.3894921017e+01   5.5088348756e+01    0.6881298    0.3429787  48.41   0.00275611    1.999    0.500
       216 -12.2848    113.9108     25.2513   1.8461839043e+01   5.3625883762e+01    0.8682305    0.3409036  51.82  0.002241141    2.439    0.590
       217 -10.0287    240.3269     32.2371   5.5601282563e+00   2.2586888475e+01     0.255731    0.1755083  39.53  0.001524097    2.129    0.530
       218 -10.6791    159.6991     29.6608   1.2408738375e+01   4.1019483652e+01    0.4245923    0.2863499  50.96  0.001064922    1.626    0.385
       219  -9.1407     15.5133    234.0040   8.9259069383e+01   2.3330097049e+01    0.1491736   0.09959824  87.46  0.001026755    1.580    0.367
       220 -10.1748    134.9594     31.4910   1.6823300672e+01   4.7235273359e+01    0.5239266    0.1963924  77.14  0.001566732    3.875    0.742
       221  -8.9463    189.6996    229.6784   5.2623111209e+01   3.5160436945e+00    0.1150962   0.07021288   1.03  0.000383195    1.627    0.385
       222  -8.8756     44.6941    215.3260   8.1936702600e+01   2.4023930056e+01    0.1318782   0.06908748  54.08 0.0007035327    1.648    0.393
       223  -9.4235    164.6384    211.9399   5.4812275875e+01   9.1235848629e+00    0.1606403    0.1378465  -0.63 0.0004685682    1.127    0.113
       224 -11.1283      8.8645    210.4733   9.0015671577e+01   2.8438442513e+01    0.4120118    0.1323179 -82.50  0.001882079    3.182    0.686
       225  -8.9170     61.4887    206.5878   7.7320320076e+01   2.3878827790e+01    0.1282442    0.1024131  44.52 0.0001607358    1.019    0.018
       226 -10.1921     13.9616     23.0403   6.4248399328e+01   7.4554166680e+01    0.2635068    0.2014454  12.15  0.000406568    1.342    0.255
       227 -11.3923      5.5000    200.5077   9.0508685932e+01   3.0771793404e+01    0.4460427    0.1391347 -71.30  0.001975557    3.316    0.698
       228  -9.5234     78.3626    203.8359   7.2984553379e+01   2.2351120947e+01    0.2215147    0.1430724  40.87 0.0005175706    1.279    0.218
       229  -9.3261      1.3346    200.3024   9.1488676704e+01   3.1146310727e+01    0.1040009   0.08792659 -38.81 0.0005130661    1.660    0.398
       230  -9.2919     15.7722    189.5863   8.7600261883e+01   3.2260072186e+01    0.1866057   0.08527406  39.13 0.0009501181    1.710    0.415
       231 -12.4814      4.5754    183.8600   9.0230420409e+01   3.4455846305e+01    0.6530095    0.4127316  78.59  0.003439498    1.407    0.289
       232 -10.9720    183.2128     25.7228   8.5109627506e+00   3.5645004309e+01    0.4093147    0.3628913  12.65  0.002442535    1.425    0.298
       233  -9.6099    187.5034     22.9463   7.3070914337e+00   3.4936076804e+01    0.1930183    0.1579102 -40.59 0.0006318459    1.141    0.124
       234  -9.1748     86.0718     30.6736   2.8298784977e+01   6.0011550432e+01    0.2109783    0.1876534  46.11  0.001134638    1.091    0.084
       235  -9.6758     32.8558     31.1391   5.4106315312e+01   7.0602857655e+01      0.18917     0.185179 -76.43 0.0003092843    1.180    0.153
       236 -11.9983    125.9908     28.1057   1.7185381349e+01   5.0052643744e+01    0.5134717    0.3875689  88.97  0.001420658    1.368    0.269
       237 -11.2813    200.2571     27.9972   7.5615032009e+00   3.1402718779e+01    0.4929523    0.2757317  54.66  0.002457887    2.080    0.519
       238 -10.4920    230.3760     27.3254   5.0882404093e+00   2.5067600304e+01    0.3234023    0.2126297 -87.31  0.001775844    1.643    0.391
       239  -9.9956    148.3844     21.9962   1.1348680697e+01   4.4866000293e+01    0.4731482     0.202785  47.10   0.00176765    2.801    0.643
       240 -11.1006    144.4651     25.6749   1.3188402086e+01   4.5461849644e+01    0.5122006    0.2446484  85.39  0.001621188    2.584    0.613
       241  -9.5276     97.9202     26.4529   2.2815652720e+01   5.7649061058e+01    0.2403619    0.2060011  26.44  0.001008564    1.283    0.220
       242 -10.3181    154.9676     23.4251   1.0971020487e+01   4.2984893260e+01    0.4741219    0.3470625 -41.89  0.002098172    1.296    0.228
       243 -10.4293    152.8850     36.1965   1.5523862050e+01   4.1929710003e+01    0.2633291    0.2321346  62.22 0.0004685862    1.177    0.150
       244  -9.6443     27.9320    176.3657   8.3699404071e+01   3.4140963264e+01    0.2543137    0.1497222 -58.81  0.001317835    1.921    0.480
       245 -10.1909     16.2551    174.4679   8.6770499164e+01   3.5649036648e+01    0.3749639    0.1708195  70.48  0.001752236    2.106    0.525
       246  -9.4199     39.2107    173.4227   8.0377758006e+01   3.3681543172e+01    0.1932066     0.102255  40.31 0.0007346438    1.596    0.373
       247  -9.5445    169.1913     23.4604   9.2953951443e+00   3.9352008706e+01    0.2568432    0.1235246  66.62  0.001020949    2.026    0.506
       248  -8.9290    223.7680     22.3704   4.3447726801e+00   2.6949183677e+01     0.150334    0.1103492  68.97 0.0005337322    1.562    0.360
       249 -10.7465    178.7003     20.8321   7.5191547166e+00   3.7293284580e+01     0.432092    0.2745688  39.27  0.002092253    2.115    0.527
       250  -9.1031     90.9337     22.5417   2.2904176781e+01   5.9963070195e+01    0.2244436    0.1005486  41.56 0.0008086274    2.577    0.612
       251 -11.1162      4.4843    153.7271   8.9138623935e+01   4.1544236368e+01     0.937404   0.08393946  33.86  0.003127374    4.079    0.755
       252 -10.5605    246.8220     19.8956   2.4142962351e+00   2.2699099679e+01    0.2148783    0.1756967 -28.63  0.001527694    1.265    0.210
       253  -9.4870    216.5096     20.1032   4.2721955465e+00   2.8713365683e+01    0.1887125    0.1064289 -32.23 0.0005002411    1.532    0.347
       254 -12.7044     22.8944    148.8741   8.3251020626e+01   4.1297499655e+01    0.6486279    0.3452705 -42.67   0.00147391    2.489    0.598
       255  -9.6973     74.5252     19.5532   2.6588903401e+01   6.4423973464e+01    0.2700715     0.212101  20.80 0.0007621333    1.418    0.295
       256  -9.4216     46.6688     20.1607   3.9473512934e+01   7.0397003155e+01    0.2337648     0.186999  52.12  0.000862127    1.360    0.265
       257 -11.1119     16.4931    147.7910   8.5169323423e+01   4.2117332012e+01      0.33198    0.2801512  66.53  0.001245332    1.017    0.017
       258 -12.3197      9.1967    166.9885   8.8360886667e+01   3.7988692942e+01    0.8188118    0.4463928  30.67  0.004353912    1.681    0.405
       259 -12.5098     14.2314    159.4718   8.6553889677e+01   3.9399233468e+01    0.5470099    0.5078698 -88.32  0.002250895    1.179    0.152
       260 -10.5969    199.2597     17.3637   4.7911935513e+00   3.2809497807e+01    0.2297346    0.2014365 -58.52 0.0003086943    1.061    0.058
       261 -10.5769     18.6150    164.7126   8.5584708373e+01   3.7758931780e+01    0.2841266    0.2370173 -33.87  0.001559458    1.549    0.355
       262 -10.4945    205.2626    163.2769   3.8925217172e+01   1.0580752315e+01    0.2222338    0.1911658 -12.35 0.0006715833    1.088    0.081
       263 -10.3793     28.0359    161.3590   8.2633275340e+01   3.7713779529e+01    0.3523558     0.254506 -83.38  0.001990964    1.342    0.255
       264  -9.6244    211.1672     16.3435   3.6839624243e+00   3.0262798381e+01    0.2017444     0.153665 -27.05 0.0004978567    1.330    0.248
       265 -10.3663    186.7928     15.2506   5.1815424609e+00   3.5941339338e+01    0.2441903    0.2043933 -79.52  0.000383861    1.117    0.105
       266  -9.6220    147.8562     16.1273   9.3765201040e+00   4.5655282645e+01    0.3963858    0.1262953  59.36   0.00141692    2.841    0.648
       267  -9.1676     75.8463     14.8138   2.3535744202e+01   6.4722307757e+01    0.1865127    0.1626125 -77.12 0.0003219489    1.306    0.234
       268 -10.3870     31.4836    155.0371   8.1103051968e+01   3.8938958148e+01    0.3322789    0.1679304 -78.84  0.001526558    1.940    0.485
       269  -9.0130    104.3900    155.2146   5.9696662194e+01   2.8962040250e+01    0.1991035    0.1412611 -71.37 0.0009544344    1.676    0.403
       270 -11.0234     46.7905    147.8996   7.5654252263e+01   3.9080709147e+01     0.671426    0.3876428 -50.05  0.003092516    1.959    0.490
       271  -9.8102     61.4679    152.0471   7.1627791744e+01   3.6204818678e+01    0.2486581    0.2008615  11.08 0.0006020559    1.451    0.311
       272 -10.8592     10.0686    126.8241   8.5865891587e+01   4.8005694632e+01     0.442385    0.2930948 -77.02  0.001615228    1.381    0.276
       273 -11.4278     12.6170    135.8160   8.5616195633e+01   4.5481600984e+01     0.763837    0.4759649  83.08   0.00396343    1.467    0.318
       274 -11.9835      4.4293    143.1432   8.8677012303e+01   4.4184162739e+01    0.8670542    0.3885963  55.03  0.003640168    1.971    0.493
       275 -10.3482      3.1768    147.8299   8.9277447798e+01   4.3092619186e+01    0.2768396    0.1904462  66.21  0.001196909    1.240    0.193
       276  -9.4235    104.1429    147.0426   5.8292788110e+01   3.0858224356e+01    0.2055448    0.1884103  -4.99   0.00112276    1.205    0.170
       277 -10.6350     33.0466    144.3480   7.9646311669e+01   4.1487286590e+01    0.2835876     0.242298  72.08 0.0007575866    1.047    0.045
       278 -10.2214     40.5293    138.6501   7.6598566709e+01   4.2167860684e+01    0.3832984    0.2591722 -81.11  0.001409413    1.443    0.307
       279 -10.4092     59.7720     22.8650   3.4416763046e+01   6.7293922795e+01    0.2982908     0.232526 -31.92 0.0007459803    1.310    0.237
       280  -9.2900     65.9901     10.5007   2.4507632061e+01   6.7620381915e+01    0.2164028    0.1311232  58.57 0.0006065542    1.575    0.365
       281 -10.9484     80.2986    138.6261   6.3768136239e+01   3.6807355971e+01    0.2818942     0.250801  39.45 0.0003535025    1.096    0.088
       282 -11.4036     23.3999    136.7154   8.2098568516e+01   4.4373235397e+01    0.6679873    0.3585405  42.78  0.001162258    1.702    0.412
       283 -10.7843     30.0328    132.9201   7.9495293306e+01   4.4753111529e+01    0.3996611    0.3319831  -3.22  0.001410004    1.477    0.323
       284  -9.6748     32.3705    137.5204   7.9183691602e+01   4.3320084324e+01    0.2641323    0.1344741  24.51  0.000673745    2.012    0.503
       285  -9.0194     47.3760    132.1698   7.3477475124e+01   4.3068689570e+01    0.2043677    0.1294401 -89.49 0.0005992554    1.682    0.405
       286  -8.9703    103.9774    131.2077   5.5200771325e+01   3.4565379941e+01    0.1995241    0.1180245  38.47 0.0003815267    1.636    0.389
       287  -8.6906     62.7614    130.9839   6.8102166749e+01   4.1366361112e+01    0.1954625    0.1218809 -66.50 0.0008777733    1.601    0.375
       288  -8.6634    182.4810    129.4677   3.6073165822e+01   1.9842474063e+01    0.1373311    0.1260969 -17.00 -9.955301e-07    1.021    0.021
       289  -8.9563     26.5386    127.5022   8.0144555273e+01   4.6511152996e+01    0.1406937    0.1252937  77.88 0.0001240695    1.003    0.003
       290  -9.4105     22.9052    126.9071   8.1366419659e+01   4.6991581439e+01    0.1962816    0.1732264 -62.73 0.0003943363    1.193    0.162
       291  -8.7701     16.6344    127.7368   8.3643829200e+01   4.7286102472e+01    0.1346868   0.09822243 -38.01 0.0002555809    1.646    0.392
       292  -9.5911     33.2009    126.0190   7.7620583170e+01   4.6263981286e+01    0.2417502     0.138221  71.02 0.0009267826    1.889    0.471
       293  -9.6570      2.1863    125.7175   8.8534763338e+01   4.8792235994e+01    0.3027108    0.1568923  65.82  0.001443672    1.779    0.438
       294 -10.8401    104.5217    122.4253   5.3117113207e+01   3.6530904872e+01    0.3637866    0.3577806  68.39 0.0009965856    1.012    0.012
       295 -10.1829     56.2314    121.9507   6.8831516382e+01   4.4624934057e+01    0.2781215    0.2046759  46.15 0.0005777357    1.319    0.242
       296  -9.6936     49.5557    123.0808   7.1385521604e+01   4.5195797607e+01    0.2885886    0.2023386  -2.32  0.001322887    1.952    0.488
       297  -9.6271     44.5231    119.9984   7.2723886847e+01   4.6628020949e+01    0.2862739    0.1949932  85.41 0.0008484975    1.549    0.355
       298 -10.7360     38.8324     22.1859   4.5359742663e+01   7.1453144968e+01    0.2601936    0.1913572 -25.04 0.0003736418    1.404    0.288
       299  -9.7953     43.5052    116.4700   7.2555659802e+01   4.7690575431e+01     0.283568    0.2235614  68.56 0.0009861394    1.261    0.207
       300  -9.0795     58.0446    118.5160   6.7584440631e+01   4.5280733747e+01    0.2219992    0.1451009  31.98  0.001015382    1.540    0.350
