#   1 NUMBER                 Running object number                                     
#   2 MAG_AUTO               Kron-like elliptical aperture magnitude                    [mag]
#   3 X_IMAGE                Object position along x                                    [pixel]
#   4 Y_IMAGE                Object position along y                                    [pixel]
#   5 X_WORLD                Barycenter position along world x axis                     [deg]
#   6 Y_WORLD                Barycenter position along world y axis                     [deg]
#   7 A_WORLD                Profile RMS along major axis (world units)                 [deg]
#   8 B_WORLD                Profile RMS along minor axis (world units)                 [deg]
#   9 THETA_WORLD            Position angle (CCW/world-x)                               [deg]
#  10 FWHM_WORLD             FWHM assuming a gaussian core                              [deg]
#  11 ELONGATION             A_IMAGE/B_IMAGE                                           
#  12 ELLIPTICITY            1 - B_IMAGE/A_IMAGE                                       
         1 -15.4321     47.5865    206.7388   1.3252722380e+02   2.7192410732e+01      12.0359     4.621927  71.17   0.05215049    3.741    0.733
         2 -11.5270     57.5860    132.0842   1.2272264286e+02   4.1612328835e+01     2.227874    0.7023482 -77.76  0.004584761   11.081    0.910
         3 -13.0172    197.9538     33.5238   6.0637798010e+01   3.1238081508e+01     1.335468     1.011772  55.03   0.00628073    1.302    0.232
         4 -13.7877    212.3078     16.6130   5.4094843556e+01   2.9475059321e+01     1.631609     1.032084  32.92  0.007910579    1.953    0.488
         5 -11.5120      2.4603     15.2448   1.1969390764e+02   7.2462412668e+01     0.503198    0.2159674 -68.57  0.002445885    2.524    0.604
         6 -10.8457      2.0000      6.5027   1.1668452818e+02   7.4208019876e+01    0.5567297    0.1210704 -56.23  0.002310265    3.100    0.677
         7 -10.7628     55.1693    239.3732   1.3318686211e+02   2.0800838658e+01    0.3183711    0.1685602  84.94 0.0007945059    2.106    0.525
         8 -11.7147    182.9406    249.5878   1.1107698568e+02   2.4028217300e+00    0.6375372   0.09776347  37.43  0.002092403    5.003    0.800
         9 -12.2133    136.9208    248.6081   1.1921142359e+02   9.0293089808e+00    0.6202346    0.1996693  43.96  0.002982881    2.424    0.588
        10 -12.1502    127.0556    245.5206   1.2068993600e+02   1.0815806105e+01    0.4079767    0.2174923  44.08  0.002534905    1.437    0.304
        11 -11.1989     95.3225    242.3104   1.2619003510e+02   1.5527215459e+01    0.3049531    0.1684173  88.41  0.001744117    2.826    0.646
        12 -11.6407    100.1717    249.6416   1.2592154014e+02   1.3829056614e+01    0.3534452     0.283182  35.14  0.002777886    1.230    0.187
        13 -11.4191     93.2269    249.7139   1.2716191362e+02   1.4703445562e+01    0.3146887    0.1974476  51.35  0.002240523    1.252    0.201
        14  -8.5691     62.9824    250.5110   1.3249109504e+02   1.8209410131e+01    0.1556657   0.07635283  39.81 0.0004560632    1.552    0.356
        15 -10.9832     39.7722    247.5094   1.3625504779e+02   2.1170633520e+01    0.3523062    0.2335188  48.25  0.001967598    1.146    0.127
        16 -11.3970     31.6485    247.7996   1.3761242855e+02   2.1942871476e+01    0.4403485    0.3439246  24.27  0.003666312    1.739    0.425
        17 -10.9684     13.0138    245.3024   1.4053831365e+02   2.4081281594e+01    0.1947273    0.1416975  65.04  0.001470195    1.092    0.085
        18 -12.2645     12.3043    238.9542   1.4044642293e+02   2.5140066881e+01    0.4550672    0.1997985  61.15  0.002336272    1.697    0.411
        19 -10.1548      8.1296    250.1201   1.4145301121e+02   2.3775544353e+01    0.1980574   0.08875416  44.64  0.001458285    1.565    0.361
        20 -11.1456      2.0608    247.9198   1.4233362991e+02   2.4632138512e+01    0.5103236    0.1527611 -84.95  0.003023642    3.246    0.692
        21  -9.6045    136.3199    239.3244   1.1833368196e+02   1.0372211603e+01    0.1103676   0.07899438  13.94 0.0007045881    1.677    0.404
        22 -10.3106     19.4448    235.4116   1.3914069368e+02   2.5061524231e+01    0.1927522     0.137368 -37.34  0.001386767    2.728    0.633
        23 -11.8336    107.3048    245.1067   1.2425044779e+02   1.3550380056e+01     0.324036    0.2682448 -23.26  0.002404713    1.797    0.444
        24 -10.8665    227.5903    203.7676   9.6264318590e+01   1.0980644170e+00    0.2943403    0.2313046 -46.29  0.001128553    2.110    0.526
        25 -11.3770    150.0640    229.0046   1.1453853833e+02   9.8053903035e+00    0.3727664    0.1434351  37.96   0.00181611    2.008    0.502
        26 -11.4758     59.3312    193.1084   1.2908083577e+02   2.8434063734e+01    0.3114353    0.2263633 -47.52  0.000696389    1.805    0.446
        27  -9.5283    192.0098    193.0467   1.0100892622e+02   8.2155229021e+00    0.2883269    0.1696625 -60.22  0.001143482    4.406    0.773
        28  -8.2848    181.4875    192.4981   1.0299256298e+02   1.0074018086e+01    0.1324094     0.108346  24.06 0.0003601701    1.008    0.008
        29 -11.6876     65.5045    185.6661   1.2706963365e+02   2.9152276497e+01    0.2482925     0.222073 -46.96  0.000768995    1.412    0.292
        30 -10.8650     75.8210    173.7983   1.2347083762e+02   3.0243107119e+01    0.2221331    0.2118247  60.12 0.0004034853    1.134    0.118
        31 -13.1427     62.5782    171.1771   1.2626399723e+02   3.2439875874e+01    0.4574392    0.2632027 -46.13  0.001727271    2.229    0.551
        32 -11.7610     83.6095    165.2625   1.2055801863e+02   3.0963964225e+01    0.6228461    0.4878356  51.95  0.003778866    1.172    0.147
        33 -13.7436     38.0354    217.2885   1.3501051090e+02   2.6308155083e+01    0.7318217     0.534386  53.80  0.003181721    1.089    0.081
        34 -12.4617     67.4800    143.8815   1.2171164380e+02   3.7741243042e+01    0.8405735    0.5279328  76.54  0.003352647    1.929    0.482
        35 -10.7330    162.9312    249.8827   1.1466822305e+02   5.2046366453e+00     0.319168    0.1026761  44.97  0.001448155    2.806    0.644
        36 -11.9247     85.2225    148.6798   1.1777623190e+02   3.4288269259e+01    0.2753216    0.2379444 -44.39 0.0004673834    1.281    0.219
        37  -9.0246     99.9557    145.9813   1.1351484938e+02   3.2652335435e+01    0.2064626     0.164304 -17.26 0.0004364999    1.629    0.386
        38 -11.8720      5.9925    224.9886   1.4103783840e+02   2.7962626590e+01    0.4546722    0.2414886  46.08  0.003217116    1.440    0.305
        39 -12.4961     31.6519    225.4012   1.3659795705e+02   2.5553175653e+01      0.24525    0.2185513  76.21 0.0007736899    1.296    0.229
        40  -9.3931    108.8427    135.6693   1.0927516847e+02   3.3423491355e+01    0.3064126    0.2150965 -20.36  0.001424064    1.999    0.500
        41 -10.4194     96.0362    132.5792   1.1213221676e+02   3.6214728941e+01    0.2570141    0.2231671 -26.34  0.000549442    1.306    0.234
        42  -8.9733    106.2792    122.8816   1.0733951206e+02   3.6663530208e+01    0.1877339    0.1747461 -39.17 0.0002695436    1.095    0.087
        43 -13.0939     10.0002    206.9884   1.3968887128e+02   3.0742005635e+01    0.6620463    0.4742772  32.57  0.002857234    1.555    0.357
        44  -9.9677    167.7725    112.8261   8.9161939056e+01   2.6313170845e+01    0.3514531     0.296687 -80.87   0.00172546    1.638    0.390
        45  -8.9116    203.4636    111.5048   8.1380334130e+01   1.8674254644e+01    0.1497623     0.133283   4.55 6.516518e-05    1.029    0.028
        46  -9.6780     96.8002    149.8269   1.1497765533e+02   3.2316478574e+01    0.2777395    0.2068501  42.36 0.0007432695    1.273    0.214
        47  -9.0523    158.7828     78.0309   8.1490800992e+01   3.4671671964e+01    0.2084915    0.1257706 -33.90 0.0004698904    1.662    0.398
        48 -10.2109    115.4051    246.2265   1.2288034325e+02   1.2307951263e+01    0.1305113    0.1003347  85.95 0.0008618713    1.674    0.403
        49 -10.9223     21.0923    244.4374   1.3920620604e+02   2.3476727414e+01    0.3981523    0.1228592  56.39  0.002325352    2.373    0.579
        50 -10.3158     16.8490     25.4386   1.1491581880e+02   6.9589265311e+01    0.2151058    0.2014216 -28.75 0.0004766132    1.236    0.191
        51  -9.3842    172.3065    245.6859   1.1248527614e+02   4.3727579931e+00    0.1061362   0.07604031  51.19 0.0003402963    1.624    0.384
