#   1 NUMBER                 Running object number                                     
#   2 MAG_AUTO               Kron-like elliptical aperture magnitude                    [mag]
#   3 X_IMAGE                Object position along x                                    [pixel]
#   4 Y_IMAGE                Object position along y                                    [pixel]
#   5 X_WORLD                Barycenter position along world x axis                     [deg]
#   6 Y_WORLD                Barycenter position along world y axis                     [deg]
#   7 A_WORLD                Profile RMS along major axis (world units)                 [deg]
#   8 B_WORLD                Profile RMS along minor axis (world units)                 [deg]
#   9 THETA_WORLD            Position angle (CCW/world-x)                               [deg]
#  10 FWHM_WORLD             FWHM assuming a gaussian core                              [deg]
#  11 ELONGATION             A_IMAGE/B_IMAGE                                           
#  12 ELLIPTICITY            1 - B_IMAGE/A_IMAGE                                       
         1 -13.6367    157.0069     53.1609   8.4281220569e+01   3.9154954929e+01      1.52597     1.136596  16.85  0.004796266    1.450    0.311
         2 -13.7602    168.4846     37.4064   7.6433876635e+01   3.8480464200e+01     1.245201       0.9833   9.97   0.00410739    1.296    0.229
         3 -13.4270    184.0275      6.0101   6.3000840606e+01   3.7765811911e+01     1.042998    0.9474579  75.49  0.004801404    1.135    0.119
         4 -11.9367    158.7707    235.4872   1.2205961710e+02   9.7219700199e+00    0.3015085    0.2228511  30.70   0.00132423    1.175    0.149
         5 -19.8517     62.6240    166.7690   1.3274403542e+02   3.3485554412e+01     15.73597     3.797891 -69.25   0.06018008    4.492    0.777
         6  -9.9491    176.4702    233.9660   1.1892684049e+02   7.3292269657e+00    0.1295648    0.1075292 -25.82  0.000768332    1.574    0.365
         7 -11.4892    126.3060    209.8338   1.2486205062e+02   1.7771277528e+01    0.2731944    0.1596042  45.63  0.001045042    1.361    0.265
         8 -11.7925    128.8402    206.3944   1.2400708756e+02   1.7905925317e+01    0.3287777     0.176303  36.78  0.001926383    1.601    0.375
         9  -9.8390    179.1525    206.1343   1.1479987750e+02   1.0186219002e+01    0.1483697    0.1231474  48.19 0.0003989449    1.315    0.239
        10 -11.1728    163.6864    204.6369   1.1738478802e+02   1.2833122128e+01    0.2701834    0.2298625 -43.87 0.0005631138    1.504    0.335
        11 -10.7931    158.8556    205.6419   1.1840219977e+02   1.3457101207e+01     0.269327    0.1579556  48.51  0.001289952    1.535    0.349
        12 -12.9927    193.5316    192.9687   1.1020308732e+02   9.4865482179e+00    0.6924418    0.4723809 -44.99   0.00289235    2.005    0.501
        13 -11.8938    138.3068    198.5369   1.2128437204e+02   1.7649151446e+01    0.5384399    0.2431486  54.86  0.002517895    2.672    0.626
        14 -11.0831    208.1873    196.7242   1.0820072987e+02   6.6156009917e+00    0.1801518    0.1634539  -6.94  0.000721961    1.353    0.261
        15 -10.4068    175.0866    194.0329   1.1375238312e+02   1.2410306706e+01     0.175729    0.1403364  64.90 0.0006022771    1.684    0.406
        16  -9.0347    153.3154    194.2959   1.1787539500e+02   1.5918825627e+01    0.1174222   0.08477133  16.64 0.0002225827    1.604    0.377
        17 -11.3533    167.2114    191.6076   1.1485697669e+02   1.4041037013e+01    0.3086738    0.1910859  26.47  0.001745987    1.608    0.378
        18 -10.7698    180.1029    192.4209   1.1257458520e+02   1.1793902548e+01    0.2082709     0.191163  24.95 0.0005324563    1.192    0.161
        19 -10.0802    176.5148    188.0463   1.1255512187e+02   1.2982651149e+01    0.1627388      0.12264 -33.17 0.0006145969    1.570    0.363
        20 -10.5442    184.1575    186.8222   1.1092788819e+02   1.1856107438e+01    0.1886638      0.15398  42.49 0.0005638543    1.222    0.182
        21 -10.6757     21.6505    234.4632   1.4418716116e+02   2.6332505297e+01   0.09252027   0.07203358  59.44 0.0003094574    1.222    0.181
        22 -10.2276     25.8903    232.0083   1.4345792009e+02   2.6303416601e+01    0.1170479   0.09018353  66.18 0.0004578781    1.164    0.141
        23 -12.2234    206.5570    179.9852   1.0564031115e+02   8.8931821267e+00    0.7891629    0.3251368  33.00  0.003076686    2.260    0.558
        24 -12.0145    196.9549    172.9962   1.0615063105e+02   1.1477575566e+01    0.6603692    0.3989064 -46.90  0.002609582    2.326    0.570
        25 -12.0113    125.7290    172.0311   1.2015698880e+02   2.3852251496e+01    0.3301284    0.2923263 -21.06  0.001264868    1.384    0.277
        26 -12.8161    137.4629    171.4788   1.1764859671e+02   2.2051937456e+01    0.6719552    0.3598803  50.29  0.003403243    1.811    0.448
        27 -11.6019    144.2445    168.1468   1.1572252129e+02   2.1473578289e+01     0.349882    0.2689309  74.16  0.002021682    1.709    0.415
        28 -10.1574    223.9846    164.4261   9.9602507362e+01   7.7445169031e+00    0.2122467    0.1750293 -33.62 0.0006041641    1.556    0.357
        29  -9.9911    192.5017    222.5189   1.1476214046e+02   6.1948320232e+00    0.1142439   0.08480817  33.47 1.842939e-05    1.064    0.060
        30 -11.1766    163.7671    156.2916   1.0960340308e+02   1.9970943240e+01    0.2697878    0.2452293 -45.26 0.0009483588    1.290    0.225
        31 -12.5350    133.6477    145.1331   1.1404078262e+02   2.7333234696e+01    0.9284236      0.30734 -54.25  0.003194738    4.000    0.750
        32 -10.7395    129.0822    143.8464   1.1483820395e+02   2.8365637079e+01    0.3062371    0.2138289  69.65 0.0007763407    1.905    0.475
        33 -10.6552     14.2693    151.2515   1.4160666190e+02   4.1101589733e+01    0.2333368    0.1887601 -11.59  0.001777199    1.970    0.492
        34 -10.1911    174.9877    149.0002   1.0587255415e+02   1.9038432871e+01    0.2022455    0.1707456  77.08 0.0006464432    1.674    0.403
        35 -12.4531      5.2630    139.6043   1.4281696916e+02   4.4042408738e+01    0.6986631    0.4283628  78.59  0.002001133    1.321    0.243
        36 -13.0271      2.9050    126.3329   1.4254018747e+02   4.6876454614e+01    0.9892827    0.4370259 -86.99  0.004886047    1.856    0.461
        37 -12.2336    115.6639    138.6501   1.1700475660e+02   3.1624288697e+01    0.4894164    0.2938602 -44.46  0.002442328    1.814    0.449
        38 -11.5207     20.6771    141.1116   1.3955293815e+02   4.2617191052e+01    0.1771263    0.1538742  44.46 0.0006380215    1.334    0.251
        39 -11.8711     10.9391    110.8886   1.3945729010e+02   4.9613642413e+01    0.4257316    0.2069442   2.54  0.002166977    3.769    0.735
        40 -11.8897    106.0297    130.8750   1.1791556352e+02   3.4734030553e+01    0.3735397    0.3150701 -75.83   0.00122706    1.252    0.202
        41 -11.0626    108.9315    125.0524   1.1610699749e+02   3.5452467779e+01     0.272463    0.2415078  -9.59 0.0008296078    1.324    0.245
        42 -11.8600    119.6839    129.2829   1.1429102289e+02   3.2794542998e+01    0.3615352    0.2993472  57.52  0.001147724    1.242    0.195
        43 -11.6685    135.4836    121.9820   1.0896204908e+02   3.1374775785e+01    0.6728213    0.1931398 -48.23  0.002146115    3.803    0.737
        44 -10.5542    160.8843    127.9001   1.0441442460e+02   2.5329289078e+01    0.2636524     0.203943 -43.44  0.001268003    1.410    0.291
        45 -10.8910    100.7658    126.9829   1.1850790925e+02   3.6357781125e+01    0.2296466    0.1907111  40.06 0.0007650229    1.207    0.172
        46 -11.7341      3.0870    113.1203   1.4160468987e+02   4.9613952370e+01     0.458905    0.1891159 -65.51  0.002612725    1.967    0.492
        47 -11.0705    113.7564    118.5816   1.1359295460e+02   3.5968010183e+01    0.2456569    0.2288172  72.42  0.000453023    1.115    0.103
        48 -11.4150    144.8540    145.6767   1.1164530119e+02   2.5236131412e+01    0.3504617    0.2328504  61.36  0.001723588    1.889    0.471
        49 -10.1937    167.9006    113.2129   9.9405782311e+01   2.6449513619e+01    0.3548806    0.2346851 -60.22   0.00151471    2.311    0.567
        50 -11.9640    125.5816    127.2896   1.1246807093e+02   3.2156391775e+01    0.5152487    0.3508548 -89.67  0.002292281    2.507    0.601
        51  -9.7254     20.8155    219.3112   1.4374636450e+02   2.8667765877e+01   0.08768004   0.04696982  69.87 0.0004445128    1.458    0.314
        52 -11.7245    168.1316    233.4407   1.2025846804e+02   8.6048411203e+00     0.300727    0.1826088  49.90  0.001082679    1.551    0.355
        53 -10.0655    205.6124    110.1101   9.0876435704e+01   1.8773347894e+01    0.2826538    0.1987531  34.98 0.0006922864    1.336    0.252
        54  -9.4898    114.2755    110.3455   1.1167800217e+02   3.7569777740e+01     0.140014    0.1083073 -15.97 0.0003182831    1.627    0.385
        55  -9.6402    117.8532     67.0863   9.8984631472e+01   4.5660779387e+01    0.2143707    0.2023513 -62.99 0.0003758631    1.220    0.180
        56  -9.7125     13.5059     59.9297   1.3249799937e+02   6.0720876769e+01     0.166261    0.1359745 -64.78 0.0004273203    1.057    0.054
        57  -9.9521    197.3171    246.8665   1.1708792577e+02   3.0132348340e+00     0.212391   0.08828446 -24.58  0.001099297    4.137    0.758
        58 -11.0614     13.6045    244.5492   1.4568703522e+02   2.5615632448e+01    0.2567359   0.07207671 -72.88  0.001628559    3.603    0.722
        59 -12.0147    172.3593     30.0901   7.3155941289e+01   3.8382843070e+01    0.4542776    0.3572392  20.03 0.0009533159    1.285    0.222
        60  -9.4075    138.2375     31.4363   8.0714486076e+01   4.7006678195e+01    0.2146923    0.1522954  70.27 0.0009577223    1.764    0.433
        61 -10.8611    163.0740    210.3710   1.1826730435e+02   1.2174642445e+01    0.1818758    0.1760617 -71.64 0.0008181388    1.380    0.275
