#   1 NUMBER                 Running object number                                     
#   2 MAG_AUTO               Kron-like elliptical aperture magnitude                    [mag]
#   3 X_IMAGE                Object position along x                                    [pixel]
#   4 Y_IMAGE                Object position along y                                    [pixel]
#   5 X_WORLD                Barycenter position along world x axis                     [deg]
#   6 Y_WORLD                Barycenter position along world y axis                     [deg]
#   7 A_WORLD                Profile RMS along major axis (world units)                 [deg]
#   8 B_WORLD                Profile RMS along minor axis (world units)                 [deg]
#   9 THETA_WORLD            Position angle (CCW/world-x)                               [deg]
#  10 FWHM_WORLD             FWHM assuming a gaussian core                              [deg]
#  11 ELONGATION             A_IMAGE/B_IMAGE                                           
#  12 ELLIPTICITY            1 - B_IMAGE/A_IMAGE                                       
         1 -12.2123    218.4344     36.1992   3.5757358521e+01   2.7289784908e+01    0.9397521     0.889883  54.27  0.006513981    1.372    0.271
         2 -12.2339    226.1048     30.9578   3.3901694257e+01   2.6334264913e+01     1.509518    0.8042711  38.81  0.002068397    4.083    0.755
         3 -10.7310      2.0000     25.5128   9.3564122774e+01   7.0971455369e+01    0.8458785    0.1195249 -54.58  0.002511449    6.882    0.855
         4 -10.0915      2.0000     11.0278   8.7399100605e+01   7.3330919856e+01    0.4668446    0.1310786 -48.34  0.002058047    3.483    0.713
         5  -9.4522      2.3838      2.7717   8.3035320180e+01   7.4493227836e+01    0.4400857    0.1659811 -36.75  0.002384739    2.253    0.556
         6 -11.6930    243.1093     16.4464   2.9634751781e+01   2.4634938224e+01    0.6577963    0.4481292 -63.85  0.002772044    1.156    0.135
         7  -7.7352     26.6936    234.2885   1.1822374439e+02   2.0811112257e+01    0.1258916   0.06968401  61.89 0.0001767738    1.571    0.364
         8 -12.4397     73.3530    243.2255   1.0927414181e+02   1.3347617415e+01     2.128412    0.5705904  30.69  0.007322518    4.030    0.752
         9 -11.9158     39.8598    249.2419   1.1660734363e+02   1.6296306569e+01     2.112064    0.3936267  31.82  0.007146452    4.969    0.799
        10 -12.1328      7.5201    246.4967   1.2260052704e+02   2.0262822954e+01      1.93652    0.9394179  78.53   0.01124452    1.841    0.457
        11 -10.5661     57.9484    242.0142   1.1239723649e+02   1.5580810416e+01    0.5925333    0.2944247 -87.34  0.001302617    2.450    0.592
        12 -11.7075     10.9405    231.7756   1.2120082488e+02   2.2933747999e+01     1.312213    0.5160844  81.04  0.001777185    2.683    0.627
        13 -13.4640     31.8342    194.8825   1.1404129984e+02   2.9141440867e+01     4.106231     1.901155  77.65   0.01718912    2.670    0.626
        14 -12.3678     10.6184    206.8201   1.1977812133e+02   2.8416908141e+01    0.9854121    0.8901114 -28.65  0.004917846    1.547    0.354
        15  -8.3565    163.6886    227.3314   8.7403927702e+01   2.9903602996e+00    0.1283913     0.105079  63.51 0.0005154771    1.673    0.402
        16 -10.5608     97.1935    227.9465   1.0237434079e+02   1.3153562609e+01    0.4010233    0.2908467  43.44  0.002250664    1.226    0.184
        17 -10.1481     84.4284    219.7119   1.0429519686e+02   1.6774059869e+01      0.47989    0.2910138 -67.62  0.001422188    1.759    0.431
        18  -8.3816     75.9792    223.3742   1.0665624356e+02   1.7155212426e+01    0.1852691    0.1529618  46.58 0.0004453799    1.104    0.094
        19  -9.3750     73.5668    219.8427   1.0681512748e+02   1.8261977955e+01    0.4309283    0.0946219  41.35  0.001432805    3.582    0.721
        20  -9.3626     66.3625    216.5271   1.0810949661e+02   1.9970379627e+01    0.2512905    0.2088831  88.85  0.001519884    1.159    0.137
        21 -11.0802     20.5063    204.4991   1.1744937291e+02   2.8021121411e+01    0.3395845    0.3134512 -39.15 0.0008275685    1.429    0.300
        22  -9.6561      2.2957    170.8524   1.1915975352e+02   3.7583115141e+01    0.4247563    0.1183649 -75.46  0.001652163    2.890    0.654
        23  -9.6662      5.5443    187.9722   1.1963767264e+02   3.3225461543e+01    0.2269522    0.1706667 -64.79  0.001443404    1.334    0.251
        24 -10.2402      1.9970    185.5165   1.2028400268e+02   3.4086951514e+01    0.8705859    0.1675299 -80.87  0.002525454    5.597    0.821
        25 -10.1036     58.2987    172.1017   1.0468146139e+02   3.1735971609e+01    0.3302482    0.2637953 -32.72 0.0005301635    1.503    0.335
        26  -9.4213     47.2117    180.1899   1.0867234350e+02   3.1044536365e+01    0.3521141    0.2280895  59.15  0.001335444    1.579    0.367
        27 -10.3164     51.7102    178.0505   1.0723345869e+02   3.1047681759e+01     0.493591    0.3392751 -37.92  0.001544961    1.800    0.444
        28  -8.6549    103.2591    172.5145   9.2535343093e+01   2.4960189528e+01    0.2528713    0.1357973  44.14  0.001024718    1.877    0.467
        29  -7.4633    110.4969    167.4707   8.9652209287e+01   2.4960599245e+01    0.1509131    0.1487055  77.92  6.60553e-05    1.015    0.014
        30 -10.9363    107.4753    229.5480   1.0025078787e+02   1.1292382564e+01    0.5764571    0.1692007  42.10  0.002071871    2.973    0.664
        31  -9.6504     69.6754    162.4294   1.0006324719e+02   3.2696184773e+01    0.2919098    0.2698073 -18.93 0.0003846461    1.231    0.188
        32  -9.1399      2.1772    161.5162   1.1844891064e+02   3.9874633977e+01    0.3372138    0.1368973 -76.70    0.0015467    2.018    0.504
        33 -11.5788     55.6925    158.7581   1.0346715085e+02   3.5483301304e+01    0.5526758    0.3255381 -38.58   0.00151385    2.053    0.513
        34 -11.0595     77.2766    155.8315   9.6758345661e+01   3.3299807726e+01    0.7271636    0.5983655  23.95  0.001831038    1.333    0.250
        35  -8.9158      1.7055    154.9544   1.1801726255e+02   4.1525110362e+01     0.420659    0.0677168 -70.84  0.001357688    3.984    0.749
        36 -10.8319     69.5147    145.5245   9.7172502989e+01   3.7081221484e+01    0.5213208     0.453081 -40.64  0.001442896    1.178    0.151
        37 -10.7180     67.5322    142.5126   9.7212971209e+01   3.8137073968e+01    0.4782798    0.3947716  38.37  0.001336476    1.280    0.219
        38 -11.6726      2.2936    130.8411   1.1550784934e+02   4.7490979324e+01     2.030086    0.4781159 -81.71  0.005127167    6.794    0.853
        39 -10.3938      1.9979    114.8934   1.1372217400e+02   5.1465060763e+01    0.7054884    0.1323858 -70.91  0.002259716    3.984    0.749
        40  -9.4263     11.3745    143.0834   1.1418644987e+02   4.3834516499e+01    0.2685499    0.1469152  88.11  0.001293463    1.869    0.465
        41  -9.4867     94.5976    141.4171   8.8834206951e+01   3.4221513025e+01    0.6212593    0.3641872 -23.16  0.002189672    2.893    0.654
        42 -10.5459     81.2485    140.6825   9.2677607564e+01   3.6587267736e+01    0.3518278    0.2956166 -36.77 0.0003713032    1.228    0.186
        43  -9.7050     59.5189    137.5262   9.8758384975e+01   4.0500207219e+01    0.3545891     0.203794 -65.09  0.001417862    1.660    0.398
        44  -8.9764    106.3242    131.1124   8.3044490696e+01   3.4694147735e+01    0.3647462    0.2734211 -36.43  0.001001418    1.382    0.277
        45  -9.6053     93.1684    127.4375   8.6122269378e+01   3.7967846584e+01    0.3270919    0.2669441 -35.77 0.0005294663    1.242    0.195
        46  -8.9813     67.5017    128.0186   9.4346759709e+01   4.1867254234e+01    0.2381946    0.1392579 -58.33 0.0008128808    1.594    0.373
        47  -9.3109     57.1323    128.0842   9.7714657644e+01   4.3237045751e+01    0.2419132    0.1886138 -40.58  0.001249024    1.268    0.212
        48  -8.2942    113.5242    125.5050   7.9589384927e+01   3.4677685785e+01    0.1575774    0.1525209 -30.22 0.0008101479    1.011    0.011
        49  -7.8982    104.8128    119.5161   8.0647280689e+01   3.7782767668e+01    0.2185638    0.1558442  36.26  0.000516569    1.444    0.308
        50  -9.3875     54.8657    118.0776   9.6424005867e+01   4.6066811776e+01    0.2267115    0.1933194  87.18 0.0008166176    1.333    0.250
        51 -10.8457      1.7153     88.5904   1.0996716175e+02   5.7832748733e+01     1.060413    0.1582762 -70.21  0.002738569    6.605    0.849
        52  -7.9931     41.4742     92.4287   9.5421475482e+01   5.3895483960e+01    0.1382202    0.1228402 -39.84  6.03377e-05    1.025    0.024
        53  -8.3043     79.2293     85.6180   7.9564674752e+01   5.0167363631e+01    0.2328454     0.196617 -53.71 0.0005730064    1.271    0.213
        54 -10.1551      2.1717     72.6145   1.0681036532e+02   6.1485414795e+01     0.493934    0.1136253 -66.28  0.001741249    3.692    0.729
        55  -9.2793      2.0000     61.4817   1.0443839137e+02   6.3938137247e+01    0.2415568    0.1339825 -69.50  0.001294691    1.846    0.458
        56  -8.9673     13.1117     60.3218   9.9046816297e+01   6.3547517175e+01    0.2219111    0.1350646 -43.89    0.0005605    1.308    0.236
        57  -8.1861     22.1680     49.2020   9.1393573478e+01   6.5095566849e+01    0.1513077    0.1455496 -11.25 0.0004765182    1.323    0.244
        58  -9.1029     13.1719     47.8409   9.5356459163e+01   6.6085309016e+01    0.1841272     0.114106 -31.01 0.0008541475    1.345    0.256
        59 -10.5731    124.5203    230.4890   9.6539731177e+01   8.5030945283e+00    0.4033988    0.2085672  22.52  0.001719619    2.333    0.571
        60  -9.1611     21.6184    242.7267   1.1974581261e+02   1.9604373910e+01    0.2446589    0.1575252 -68.10  0.001248133    1.649    0.394
        61  -8.5531    125.3714     33.2495   4.8708094208e+01   4.9292265904e+01    0.2461712    0.1861195 -72.25 0.0008321517    1.658    0.397
        62  -8.4165    112.2827    236.3368   1.0004786827e+02   9.2069207479e+00     0.126662    0.1006251 -11.89 0.0007010593    1.623    0.384
        63  -8.1806     65.1967    234.8160   1.1021655335e+02   1.6146015896e+01    0.1592186     0.153134 -17.90  0.001072741    1.344    0.256
        64  -7.8873     32.9544    234.3317   1.1695697994e+02   2.0123647107e+01    0.1674976    0.1305972  61.97 0.0006721698    1.053    0.051
        65  -7.8742    126.4938     26.4798   4.6253539177e+01   4.9809644331e+01    0.1335801    0.1199497  66.55 2.926846e-05    1.057    0.054
