#   1 NUMBER                 Running object number                                     
#   2 MAG_AUTO               Kron-like elliptical aperture magnitude                    [mag]
#   3 X_IMAGE                Object position along x                                    [pixel]
#   4 Y_IMAGE                Object position along y                                    [pixel]
#   5 X_WORLD                Barycenter position along world x axis                     [deg]
#   6 Y_WORLD                Barycenter position along world y axis                     [deg]
#   7 A_WORLD                Profile RMS along major axis (world units)                 [deg]
#   8 B_WORLD                Profile RMS along minor axis (world units)                 [deg]
#   9 THETA_WORLD            Position angle (CCW/world-x)                               [deg]
#  10 FWHM_WORLD             FWHM assuming a gaussian core                              [deg]
#  11 ELONGATION             A_IMAGE/B_IMAGE                                           
#  12 ELLIPTICITY            1 - B_IMAGE/A_IMAGE                                       
         1 -13.1582    202.5829     35.0587   5.4797625978e+01   3.0188738444e+01     1.247383     1.138045  38.48  0.006040736    1.144    0.126
         2 -13.8414    219.3058     18.0230   4.7700626388e+01   2.7910524016e+01     1.487456     1.034791  24.16  0.007179216    1.875    0.467
         3 -12.0578      2.2296      7.1706   1.0319509419e+02   7.1643320199e+01    0.8452405     0.125292 -53.80  0.003087127    4.786    0.791
         4 -11.2791     16.3203      3.7033   9.4970369041e+01   7.1236582861e+01    0.2318869    0.1925326  49.06  0.001713832    2.091    0.522
         5 -11.7876    139.5120    248.5719   1.1218923684e+02   7.8186967261e+00    0.3122811    0.2138235  73.77  0.002153011    1.605    0.377
         6 -10.1741    184.2305    250.3805   1.0522154612e+02   5.0350863476e-01    0.1671709   0.08086976  50.06 0.0009542916    1.704    0.413
         7 -12.2211    161.5298    249.6242   1.0877493316e+02   4.2193785788e+00    0.6422113     0.159468  41.94  0.002612316    3.365    0.703
         8 -11.8212    127.0243    248.8360   1.1420298451e+02   9.6971399274e+00    0.3240961    0.2212092  50.97  0.002105224    1.116    0.104
         9 -14.7882      9.9571    207.2610   1.2964386521e+02   3.1303469416e+01     8.914247     4.728263  83.13  0.003329193    1.403    0.287
        10 -14.6468      4.6511    246.7617   1.3209849978e+02   2.5303576368e+01     6.701688    0.4682905 -78.31  0.003400885   13.925    0.928
        11 -15.1151     14.2668    239.1106   1.3049000731e+02   2.5559854650e+01     10.62489     1.863886 -80.56    0.0421041    6.510    0.846
        12 -14.9172     27.2448    183.0915   1.2530988532e+02   3.4078323543e+01     6.438704     2.057952  82.54 0.0008611311    7.571    0.868
        13 -10.1558    101.3783    249.2418   1.1825703104e+02   1.3405153353e+01    0.1353967   0.08676881 -89.08 0.0007633586    1.689    0.408
        14 -10.3445     52.9236    241.7589   1.2506940065e+02   2.0906268223e+01    0.2255304    0.1013566  82.12  0.001333126    2.300    0.565
        15 -10.9399    104.7105    239.1860   1.1685759525e+02   1.4422297937e+01    0.1762083    0.1242213 -83.45  0.001274536    1.512    0.339
        16 -11.7208     38.4760    232.9442   1.2669492225e+02   2.3995184989e+01    0.4185803    0.1431119  63.72  0.001916426    2.623    0.619
        17 -10.0731    110.8216    225.8215   1.1456490415e+02   1.5596901806e+01    0.1650793    0.1089955  67.26   0.00102413    1.341    0.254
        18  -8.5543     95.5135    219.4421   1.1652617081e+02   1.8919983162e+01    0.1138848   0.08805712  65.25 9.101795e-05    1.030    0.029
        19 -10.7194    224.7813    198.9338   9.0736625385e+01  -1.1764926380e-01    0.2961661    0.2320186 -56.87 0.0009823004    1.927    0.481
        20 -14.3100     59.5050    213.6854   1.2208824227e+02   2.4779283404e+01     4.444912    0.5423985  52.93   0.01161578    9.721    0.897
        21 -12.7410      5.2664    185.2441   1.2923226369e+02   3.5718381555e+01    0.7498676    0.3489302  84.59  0.002281574    1.703    0.413
        22  -9.8827    192.4730    193.9469   9.5606433969e+01   6.5073263559e+00    0.4356211    0.2150119 -61.83  0.001388019    6.122    0.837
        23 -11.6099     54.0656    191.3816   1.2118433380e+02   2.9529032737e+01    0.2492734    0.2058636 -59.59 0.0005589672    1.614    0.381
        24  -8.2720    181.4820    192.4701   9.7379493372e+01   8.7940836144e+00    0.1312975    0.1125783  41.14 7.656837e-05    1.016    0.016
        25  -8.3816     72.6815    187.3909   1.1738228583e+02   2.7925397563e+01    0.1298014   0.07206953  74.06 0.0007008013    1.853    0.460
        26 -11.7880     60.8377    183.8617   1.1924581199e+02   3.0146043874e+01    0.2284895    0.1914674 -74.52 0.0004678366    1.322    0.244
        27 -10.8861     72.0812    172.1384   1.1582089507e+02   3.1019363620e+01    0.2199379    0.1852973 -87.80 0.0003449261    1.118    0.105
        28 -13.2802     58.2886    169.4229   1.1826071750e+02   3.3339408177e+01    0.4209998    0.2453228 -51.06  0.002106948    2.161    0.537
        29 -10.6824     32.7768    168.2762   1.2311947360e+02   3.6430050513e+01     0.272719    0.1950597 -80.91  0.001852019    1.170    0.145
        30 -11.2190     28.9696    165.2347   1.2358832868e+02   3.7423173969e+01    0.4280981    0.1919552  31.33  0.002356041    2.908    0.656
        31 -11.9268     80.4230    163.6228   1.1306851999e+02   3.1612801420e+01    0.5677241     0.471156  81.33  0.003762748    1.015    0.015
        32 -13.0021     24.5124    222.7985   1.2822718827e+02   2.7187584217e+01    0.3419999    0.2432429 -83.20 0.0007652286    1.375    0.273
        33 -10.1431     94.1636    148.8770   1.0796850097e+02   3.2673703780e+01    0.2850426    0.2371772  62.82 0.0009958535    1.150    0.130
        34 -11.9333     82.5146    147.6852   1.1037535922e+02   3.4672355159e+01    0.2645813    0.2075101 -61.56 0.0004833207    1.262    0.208
        35 -12.4248     67.5791    143.7277   1.1313489475e+02   3.7568151031e+01    0.6492837    0.3873591  69.38  0.002715733    1.855    0.461
        36  -9.5147    107.4948    134.8613   1.0247987897e+02   3.3507631520e+01    0.2928257    0.2119733 -24.89  0.001425596    2.135    0.532
        37  -9.9193     68.6871    134.9324   1.1158839461e+02   3.9337454752e+01    0.1798168    0.1442259 -78.85  0.000436963    1.066    0.062
        38  -9.1149     97.7859    145.1652   1.0654998826e+02   3.2895867390e+01     0.168191    0.1523039 -46.81 0.0003735175    1.310    0.237
        39 -10.1996     94.1978    131.8980   1.0506056236e+02   3.6334080966e+01    0.2109255    0.2056247 -29.42 0.0004123228    1.263    0.208
        40  -8.9925    105.1136    122.2720   1.0055452302e+02   3.6645703254e+01    0.1797342    0.1647817  73.64 0.0003443971    1.085    0.078
        41  -9.5394    167.7334    112.7438   8.3666234957e+01   2.5942271088e+01    0.3041875    0.2184054 -81.04  0.001294644    2.059    0.514
        42  -8.8651    203.3314    111.3424   7.6027536172e+01   1.7905960649e+01    0.1610767    0.1169363  13.74 0.0007051086    1.751    0.429
        43 -10.6876    242.9766     93.5043   6.4631392975e+01   1.1578906018e+01    0.2211277    0.1445136  55.01  0.001044129    1.623    0.384
        44  -8.8680    184.3518     77.3269   7.0516130598e+01   2.8477427640e+01    0.1662631    0.1200341  19.73 -2.123737e-05    1.764    0.433
        45 -10.5683     12.7071     61.0107   1.1405737032e+02   6.0804914015e+01    0.1734431    0.1147912 -60.44  0.001171923    1.121    0.108
        46 -11.7634      3.4261     45.8913   1.1405911121e+02   6.4391118952e+01    0.3516355    0.1998263 -80.75  0.002109825    2.021    0.505
        47 -13.5150     41.0746    205.2363   1.2452344823e+02   2.8469947777e+01     1.164025    0.5810859 -81.18  0.002768184    1.757    0.431
        48 -14.0160     30.7677    215.4893   1.2685422191e+02   2.7781232230e+01    0.7393154    0.5071858  74.25  0.002392583    1.009    0.009
        49 -10.9036     23.4275     28.4624   1.0149818680e+02   6.6469004056e+01    0.2819143    0.1781384  45.51  0.001656762    2.436    0.589
        50  -9.4557     44.4737    246.4998   1.2658003767e+02   2.1157505771e+01    0.1000317    0.0665502  68.94 1.953903e-05    1.002    0.002
