#   1 NUMBER                 Running object number                                     
#   2 MAG_AUTO               Kron-like elliptical aperture magnitude                    [mag]
#   3 X_IMAGE                Object position along x                                    [pixel]
#   4 Y_IMAGE                Object position along y                                    [pixel]
#   5 X_WORLD                Barycenter position along world x axis                     [deg]
#   6 Y_WORLD                Barycenter position along world y axis                     [deg]
#   7 A_WORLD                Profile RMS along major axis (world units)                 [deg]
#   8 B_WORLD                Profile RMS along minor axis (world units)                 [deg]
#   9 THETA_WORLD            Position angle (CCW/world-x)                               [deg]
#  10 FWHM_WORLD             FWHM assuming a gaussian core                              [deg]
#  11 ELONGATION             A_IMAGE/B_IMAGE                                           
#  12 ELLIPTICITY            1 - B_IMAGE/A_IMAGE                                       
         1 -14.5160    155.3215     58.3633   7.9993906105e+01   3.8738272713e+01     1.289661     1.191792  45.03 0.0009630136    1.091    0.083
         2 -14.9985    167.5354     43.7586   7.3562659737e+01   3.7897117332e+01     1.263715     1.114057  -5.24  0.004096748    1.385    0.278
         3 -15.1422    187.8043     10.0589   6.1867177110e+01   3.6998221980e+01     2.608685     1.015199  65.49  0.008367551    2.114    0.527
         4  -9.8715    160.4076    243.4792   1.2015292383e+02   3.2545315028e-01    0.1294131    0.1124312  41.76 4.601031e-05    1.019    0.019
         5 -15.0036    100.7391    243.4971   1.3200218525e+02   1.0345475798e+01    0.7926184    0.5671493 -55.60  0.004736741    1.654    0.395
         6 -19.9110     63.1204    168.4526   1.3047583873e+02   3.2648196721e+01     18.73734     6.910238 -65.97   0.07226872    2.563    0.610
         7 -11.5249    106.3926    206.2352   1.2600396894e+02   1.7113541284e+01    0.3008983    0.2490123 -58.85  0.001222957    1.295    0.228
         8 -12.2979    104.2636    202.3351   1.2590156505e+02   1.8340620884e+01    0.3506748    0.2567952  35.70 0.0007268923    1.470    0.320
         9 -13.1266     11.7896    205.9839   1.4563790604e+02   2.9927530848e+01    0.3934337    0.2723226  27.52  0.002157572    2.011    0.503
        10 -11.6650    141.1187    163.8996   1.1040093541e+02   2.0251848650e+01    0.3532726    0.2521214 -72.32  0.000557913    1.688    0.407
        11 -10.9246    151.8965    196.9416   1.1433139828e+02   1.0792252811e+01     0.292883    0.2824839  87.78  0.000840131    1.068    0.063
        12 -12.1019    151.9652    191.2733   1.1327468658e+02   1.1982871475e+01    0.5932233    0.4128311 -81.35  0.002630464    2.051    0.512
        13 -13.6944    145.1967    173.9559   1.1148569154e+02   1.7136642620e+01     1.203536    0.6138761 -52.73  0.004052686    2.029    0.507
        14 -13.9463    138.2034    171.8174   1.1270885901e+02   1.9022037175e+01    0.9230875    0.5910718  55.15  0.003180949    1.654    0.395
        15  -9.6101    135.2347    198.3180   1.1830109231e+02   1.3671607562e+01    0.1337483    0.1133675 -20.35 0.0002519348    1.506    0.336
        16 -10.0194    121.2164    197.7775   1.2137526883e+02   1.6377892254e+01    0.1710559    0.1568929 -42.17  0.000304038    1.261    0.207
        17 -10.5996    112.7518    196.3139   1.2306067923e+02   1.8220670968e+01    0.4022635    0.2720844  -4.97  0.001542484    3.418    0.707
        18  -9.9321    151.1682    241.7564   1.2175016050e+02   2.2178165943e+00    0.1644038    0.1392527  20.85  0.000590595    1.293    0.226
        19 -13.4376    175.3937    186.0142   1.0707506575e+02   8.4499337293e+00    0.5848755    0.4061094 -49.65  0.002805342    1.511    0.338
        20 -13.2626    170.7909    179.7375   1.0682436430e+02   1.0681879758e+01     0.589936     0.409767  67.17  0.002614956    1.887    0.470
        21 -13.1262    164.3525    186.5370   1.0960336151e+02   1.0542701052e+01    0.6069732    0.3414316 -48.13  0.002046817    1.847    0.459
        22  -9.7643    242.2763    184.6608   9.3493603296e+01  -3.8441026371e+00    0.1257537    0.1048984 -63.46 0.0002557317    1.615    0.381
        23 -10.9679     12.7982    241.1987   1.4779852680e+02   2.2588597612e+01    0.1949629    0.1349885 -60.93  0.001352995    1.857    0.462
        24 -11.1177    109.0938    239.9529   1.2994017549e+02   9.6810807511e+00    0.1860252    0.1499601  66.36 0.0003302379    1.094    0.086
        25 -11.5198      3.8183    180.3687   1.4520953089e+02   3.6271796843e+01    0.2309564    0.2002205  36.67  0.001717346    1.519    0.342
        26 -12.2774    155.0685    187.5024   1.1186549983e+02   1.2181308108e+01    0.3691452    0.3027042  77.65 0.0009696531    1.415    0.293
        27 -12.6562    204.3435    175.5333   9.8841521720e+01   4.7906739250e+00    0.4791779    0.4581402  53.15  0.001206882    1.137    0.120
        28 -12.5775    196.4566    175.8280   1.0051683003e+02   6.2974293402e+00    0.7694861    0.4349105 -61.13  0.001658049    2.676    0.626
        29 -12.4888    189.4481    155.3478   9.7561800772e+01   1.1922712987e+01    0.5239268    0.5054437  10.44  0.001548226    1.061    0.058
        30 -12.3852    192.9740    165.0584   9.8952520025e+01   9.1777045383e+00    0.4033118    0.3487472 -41.38 0.0009625852    1.144    0.126
        31 -11.9519    189.9813    161.0029   9.8699120547e+01   1.0635687960e+01    0.4269863    0.3418224  82.81  0.001523298    1.629    0.386
        32 -12.0832    188.4577    176.1081   1.0225099606e+02   7.8495940307e+00    0.6104183    0.2888048 -58.50   0.00203767    3.341    0.701
        33 -10.3238    129.0717    175.4621   1.1559413857e+02   1.9973643013e+01    0.2849498    0.1884733  30.78  0.000913553    1.744    0.427
        34 -11.9956    124.9943    172.0610   1.1592246753e+02   2.1546626672e+01    0.4268749    0.3169765  59.01 0.0008187754    1.391    0.281
        35 -11.3203     10.5645    174.8526   1.4332297259e+02   3.6935866373e+01    0.1687812    0.1459609 -77.24 0.0003452041    1.215    0.177
        36 -11.5436    230.4541    168.0860   9.2234780258e+01   1.1853039576e+00    0.4100914    0.1857329 -54.90  0.001407487    3.502    0.714
        37 -11.5858    177.0365    169.0455   1.0322732842e+02   1.1659086710e+01    0.2409513    0.1904885 -88.16 0.0006458684    1.672    0.402
        38 -10.8564     37.6532    186.0117   1.3859044595e+02   3.1658277140e+01    0.2290153    0.1616258  50.68 0.0008190033    1.427    0.299
        39 -11.3212     14.9954    164.0792   1.4130023885e+02   3.9015414166e+01    0.3308307    0.2315245 -10.08  0.001634839    2.407    0.585
        40 -10.0159      2.5368    164.4490   1.4410811684e+02   3.9952221856e+01    0.1193651   0.08995861 -84.77 0.0001290176    1.013    0.013
        41 -11.0138     28.6281    238.7780   1.4495578993e+02   2.1301145424e+01    0.1823348    0.1111099  89.73 0.0007860229    1.355    0.262
        42 -11.7268    151.2084    183.1884   1.1191120909e+02   1.3882404024e+01    0.3991472    0.2847511 -84.34 0.0003851919    1.960    0.490
        43 -12.2896    166.3748    154.7563   1.0249910395e+02   1.7005832850e+01    0.5039182    0.3394149  76.63  0.001994849    2.280    0.561
        44 -11.3228    174.3133    148.7051   9.9344378067e+01   1.6604410774e+01    0.3663898    0.2830752 -74.88  0.001193312    1.603    0.376
        45 -12.6751      6.0831    137.9926   1.4055046315e+02   4.5730819038e+01    0.4463084    0.2659342 -74.55  0.002508369    1.321    0.243
        46 -10.4394     21.5596    237.5530   1.4609299904e+02   2.2350753358e+01    0.1118577   0.08486672  80.51 0.0003244735    1.089    0.082
        47 -12.5667    150.3433    138.5204   1.0253011230e+02   2.4111765557e+01    0.4473625    0.3334255 -18.06  0.001789145    1.807    0.447
        48 -11.1893    131.0396    234.9012   1.2485666480e+02   6.9582319463e+00    0.2028611    0.1693059 -67.94 0.0007593146    1.332    0.249
        49 -10.0224    167.0577    133.5757   9.7430832062e+01   2.1500872606e+01    0.2364498    0.1539939  49.51 0.0005948362    1.556    0.357
        50 -12.4266      2.4539    125.9478   1.4002537314e+02   4.8716474441e+01    0.3786865    0.2076344 -72.37  0.001665373    1.427    0.299
        51 -12.4166    160.4265    127.7956   9.7552283905e+01   2.4254611440e+01    0.5120033    0.3563369 -55.34  0.001400888    1.503    0.335
        52 -12.4916      5.6205    119.8822   1.3838802366e+02   4.9887728794e+01     0.422243    0.2216373  15.63  0.002356303    2.558    0.609
        53 -10.9062    167.8524    112.9529   9.2137807003e+01   2.5710665551e+01    0.4020344    0.2721056 -82.63  0.001479317    2.294    0.564
        54 -11.9229      2.9724    112.5147   1.3810012160e+02   5.1705209401e+01    0.3013956    0.1737959 -46.88  0.001491029    1.562    0.360
        55 -11.7967      6.5286    111.5048   1.3694563024e+02   5.1714054761e+01    0.2627461    0.1679767 -35.73   0.00120712    1.677    0.404
        56 -10.9443    204.9114    110.3174   8.3949777624e+01   1.7617511937e+01    0.4050954    0.2476917  42.72  0.001229176    1.841    0.457
        57 -10.5001    141.4552    230.0871   1.2202472330e+02   6.0557477385e+00    0.2407265    0.1668293  58.16 0.0006616595    1.445    0.308
        58 -12.4458     18.2388    108.8474   1.3311112983e+02   5.1508375972e+01    0.4033471    0.2189431   1.48  0.002052924    2.754    0.637
        59 -10.9681      6.3935    102.0108   1.3551723893e+02   5.3827952929e+01     0.212395    0.1445013 -26.86   0.00119592    1.658    0.397
        60 -10.3952     25.7136    223.7680   1.4438480506e+02   2.4693208434e+01    0.2766839    0.1020614 -64.22  0.001364292    2.503    0.600
        61 -10.6536     22.2748    221.5700   1.4484811047e+02   2.5532482118e+01    0.1356731   0.08222677 -73.61 0.0004453825    1.466    0.318
        62 -10.6950    146.2250     81.2498   8.8552606785e+01   3.7027364307e+01    0.2039386    0.1765364 -84.31 0.0004861991    1.304    0.233
        63 -10.6918    122.3398     79.9048   9.4138849576e+01   4.2639181556e+01    0.2514691      0.20714  59.56 0.0008535927    1.307    0.235
        64 -10.7921    138.5530    250.5615   1.2546651865e+02   2.8243160498e+00     0.194897     0.127553  35.15  0.001075013    1.449    0.310
        65 -12.5748    125.0758    241.6289   1.2696513241e+02   6.7068215976e+00    0.5093314    0.1709834 -54.95  0.002033475    3.366    0.703
        66 -13.0519    171.7571     36.0895   7.0764695689e+01   3.7880614835e+01    0.3864272    0.3604756  49.30 0.0009130263    1.164    0.141
        67 -10.8345     13.5644     59.9057   1.2437905394e+02   6.2097756054e+01    0.1800124    0.1595571   2.93 0.0003974553    1.309    0.236
        68 -10.4514    138.9798    243.1632   1.2439007298e+02   4.0628935339e+00    0.1432611    0.1293398 -71.47 0.0009126777    1.260    0.207
