#   1 NUMBER                 Running object number                                     
#   2 MAG_AUTO               Kron-like elliptical aperture magnitude                    [mag]
#   3 X_IMAGE                Object position along x                                    [pixel]
#   4 Y_IMAGE                Object position along y                                    [pixel]
#   5 X_WORLD                Barycenter position along world x axis                     [deg]
#   6 Y_WORLD                Barycenter position along world y axis                     [deg]
#   7 A_WORLD                Profile RMS along major axis (world units)                 [deg]
#   8 B_WORLD                Profile RMS along minor axis (world units)                 [deg]
#   9 THETA_WORLD            Position angle (CCW/world-x)                               [deg]
#  10 FWHM_WORLD             FWHM assuming a gaussian core                              [deg]
#  11 ELONGATION             A_IMAGE/B_IMAGE                                           
#  12 ELLIPTICITY            1 - B_IMAGE/A_IMAGE                                       
         1 -13.2001      8.9099    152.8267   1.3203623653e+02   4.2218575760e+01     3.744873     1.081923  83.93   0.01458372    4.874    0.795
         2 -12.5657    215.4994     18.4747   5.5294536897e+01   2.8420848082e+01     1.278195    0.8821554  30.32  0.006167195    1.641    0.391
         3  -8.5880      9.6883     10.3106   1.0975767030e+02   7.1570238010e+01   0.09942289   0.08213454 -84.38  0.000284052    1.627    0.385
         4 -12.3788    243.9358    240.8423   1.0020619482e+02  -3.3342980524e+00    0.4393385    0.3795294  -1.01  0.003851349    1.462    0.316
         5 -10.3812      7.3429    250.2779   1.3630371818e+02   2.6406906901e+01    0.5952913    0.1178624  48.67  0.003802546    2.543    0.607
         6  -8.1792     56.0798    240.8141   1.2901883110e+02   2.2814737837e+01    0.1653066   0.08967733  75.23 0.0008949128    1.649    0.393
         7  -9.8957    108.0120    231.0000   1.2027154279e+02   1.7728552230e+01    0.4181387    0.0531656  41.95  0.001373316    5.995    0.833
         8  -9.9662     90.7367    227.2263   1.2274085113e+02   2.0562722457e+01     0.393195    0.0877748  41.79  0.001753956    3.448    0.710
         9  -9.9446     81.7695    224.2566   1.2396039520e+02   2.2144933790e+01    0.4318492   0.04888963  47.31  0.001599963    4.955    0.798
        10  -9.6509     26.3723    248.9688   1.3366438489e+02   2.4796971572e+01    0.2053282    0.1541119  89.97  0.001689652    1.461    0.316
        11  -9.3596    227.8834    249.1657   1.0363370486e+02  -1.7176587297e+00    0.1537245    0.1124336  39.86  0.001240512    1.269    0.212
        12 -12.6175     34.9165    215.5830   1.3092988939e+02   2.8849715733e+01     0.670657    0.4597063  60.72  0.003508698    1.093    0.085
        13  -7.7327      1.3062    222.3242   1.3632306290e+02   3.0965780893e+01   0.07295269   0.06143774 -81.04 0.0007034416    1.645    0.392
        14  -9.0742      6.9920    221.9540   1.3547624359e+02   3.0526895704e+01    0.1129206   0.09974307 -81.73  0.000623768    1.675    0.403
        15  -9.8927    156.1196    218.1668   1.1103176970e+02   1.2370601505e+01    0.1741515    0.1371715  51.47 0.0002384666    1.102    0.093
        16 -11.4149     10.0044    237.2241   1.3554502004e+02   2.7997528255e+01    0.5409355    0.2955059  77.45  0.003594564    1.379    0.275
        17 -11.4152     10.2036    207.3780   1.3445443303e+02   3.2520304162e+01    0.4871809    0.2947331  36.81  0.003176518    1.863    0.463
        18 -11.5030     28.2904    223.5248   1.3234241117e+02   2.8290520832e+01    0.2176637    0.1837436  76.84 0.0006943393    1.386    0.279
        19 -10.3615     56.9475    191.9037   1.2571240264e+02   3.0339331872e+01    0.2241888    0.2039714 -59.60    0.0005788    1.594    0.373
        20 -10.5219     63.2268    184.5533   1.2396984055e+02   3.0874892792e+01    0.2121458    0.1852222 -81.96 0.0004388131    1.316    0.240
        21  -9.2430      3.8748    184.1799   1.3453916872e+02   3.6930408757e+01    0.2621387   0.07681058  55.64  0.001511493    2.522    0.604
        22  -7.6072     40.4756    179.4416   1.2777435335e+02   3.4351538097e+01    0.1068053   0.07768096  71.69 0.0003121572    1.042    0.040
        23  -7.4659    101.2811    175.7290   1.1579057330e+02   2.7332437452e+01    0.1161726   0.07719209  68.70 0.0006898242    1.494    0.331
        24  -9.7954     73.9486    172.9536   1.2082977699e+02   3.1619399547e+01    0.2109483    0.1768785  80.50 0.0003373312    1.087    0.080
        25 -11.9331     60.4161    170.1311   1.2320502748e+02   3.3819546721e+01    0.3882642     0.244205 -49.38  0.001623217    2.194    0.544
        26  -7.9119     32.8391    173.1568   1.2875029396e+02   3.6270988420e+01    0.1265027    0.1096508 -88.83 0.0003884421    1.302    0.232
        27 -10.8547     81.9430    164.6457   1.1831941350e+02   3.2095913155e+01    0.4784873    0.3752695  49.82  0.003288308    1.226    0.184
        28  -9.6209    248.6134    162.4319   8.6651487247e+01   3.2535897623e+00    0.2710759    0.1920543  34.09  0.001005393    1.225    0.184
        29  -9.2896    104.8553    160.1009   1.1302718913e+02   2.9612404006e+01    0.1865454     0.152261  56.42 0.0002701618    1.092    0.084
        30  -9.3725    249.2791    157.4433   8.5569200304e+01   3.6818988592e+00    0.2371799    0.1830216  11.83 0.0002348588    1.101    0.092
        31  -7.9704    170.7399    155.9488   9.9039705714e+01   1.8766849247e+01    0.1675283    0.1557216  35.93 0.0002130988    1.053    0.051
        32  -9.0173    249.4405    152.4798   8.4550875112e+01   4.2045852973e+00    0.2194093    0.1788561  17.04 0.0005286272    1.019    0.019
        33 -10.3973    217.3463    150.8515   8.9493773879e+01   1.0438519980e+01    0.2284356    0.1956728  28.61 0.0003095964    1.050    0.048
        34  -9.3920     95.7241    149.7332   1.1348168426e+02   3.2964910397e+01      0.25876    0.2384795  74.68  0.001779384    1.104    0.095
        35 -11.1292     67.6765    143.3335   1.1876323763e+02   3.8112317731e+01    0.6665259    0.3458002  85.64  0.002863206    2.581    0.613
        36 -10.4578     64.4047    142.8043   1.1942361261e+02   3.8627434933e+01    0.5016335    0.2659002 -81.41 0.0007990316    2.003    0.501
        37  -8.9124    103.2107    145.0480   1.1114673903e+02   3.2721277877e+01    0.1946023    0.1620277  54.83 0.0003264457    1.124    0.110
        38 -10.7814     83.8706    148.1004   1.1582534956e+02   3.5004127069e+01    0.2394368    0.2050689 -69.25  0.000543842    1.214    0.176
        39  -8.1781    107.8112    135.9769   1.0863136004e+02   3.3754943649e+01    0.2071124    0.1506253 -25.65   0.00107662    2.122    0.529
        40  -8.9487    236.2884    132.9060   8.2524355579e+01   9.0242210116e+00    0.2270729     0.168894  35.47 0.0002225283    1.232    0.188
        41  -7.1393    164.6846    133.2615   9.5768071817e+01   2.3684716376e+01    0.1328609    0.1069816  77.56 0.0002177745    1.541    0.351
        42  -9.1691     94.9402    132.4736   1.1098230608e+02   3.6499454189e+01    0.2156447    0.1878854 -57.51  0.000534816    1.223    0.183
        43  -7.4869     56.3006    130.7205   1.1975311125e+02   4.2069057571e+01    0.3067114    0.1361371 -80.88  0.001389923    2.682    0.627
        44  -8.1173    105.5243    122.8994   1.0679429433e+02   3.6748023093e+01    0.1825215    0.1256135 -56.90  0.000359822    1.441    0.306
        45  -7.8964     29.3909    122.8209   1.2518439068e+02   4.6485119695e+01    0.1519257   0.08502188 -66.17 0.0004305157    1.542    0.352
        46 -10.5297      2.5928    118.8275   1.3112162181e+02   4.9395956027e+01    0.3224702    0.2019267  59.61  0.002308782    1.496    0.331
        47 -10.6292      7.7465    116.6684   1.2974510417e+02   4.9487615571e+01    0.2774545    0.1683039 -85.06  0.001346393    1.275    0.215
        48  -8.4552    167.9450    113.3732   9.0629939537e+01   2.6425802971e+01    0.3173414    0.2175178 -66.68  0.001417769    2.135    0.532
        49 -10.6225      4.9013    109.9251   1.2986398070e+02   5.1073880782e+01    0.2786181    0.1204443 -79.65  0.001601581    1.804    0.446
        50  -7.4510    191.3619    109.2661   8.4946132776e+01   2.1935692874e+01    0.1520425    0.1057487  23.28 0.0006156632    1.643    0.392
        51 -12.6871     44.7021    205.7074   1.2878128587e+02   2.9399869683e+01     1.986146    0.6955246  61.76   0.01071679    2.692    0.629
        52  -8.5952    176.7685     86.8263   8.1970234775e+01   2.8940419513e+01    0.2148519       0.1935  13.57 0.0004475449    1.124    0.111
        53  -7.1709    139.3161     87.2324   9.0323529511e+01   3.7382830400e+01    0.1412437    0.1119545  19.37  0.000183932    1.500    0.333
        54 -10.1918      2.5912     75.9943   1.2703905837e+02   5.8371591724e+01    0.2246337    0.1881166  65.90 0.0009944312    1.322    0.243
        55  -9.4992    237.0168     73.6227   6.8027352301e+01   1.6532835307e+01    0.3072083    0.2090916  23.47 0.0007887364    1.646    0.392
        56  -9.7563    232.4920     77.4356   6.9688738299e+01   1.7083549046e+01     0.266136    0.2383057  11.02 0.0008385326    1.067    0.063
        57  -7.9278    118.9018     70.0995   9.0504437987e+01   4.4918949161e+01    0.1936628    0.1810367 -61.79   0.00108837    1.116    0.104
        58  -9.5334      7.5077     57.5000   1.2278197652e+02   6.2052238626e+01    0.2202838   0.06183899 -59.94  0.001037162    2.357    0.576
        59  -7.6317    148.6492     50.7166   7.6919376294e+01   4.1639363643e+01    0.1590568    0.1130214  23.42 0.0007017712    1.655    0.396
        60 -10.3518    131.1003     47.6355   7.9974832021e+01   4.6286169605e+01    0.2544244    0.2226171 -22.99 0.0002064813    1.110    0.099
        61  -7.5087    142.2829     43.7134   7.5934800367e+01   4.4273921731e+01    0.1453648    0.1169595 -64.70 0.0006940575    1.524    0.344
        62 -11.0157    196.6085     39.0545   6.4124943135e+01   3.1004491816e+01    0.6846586    0.4362573 -35.03  0.003107423    1.538    0.350
        63 -11.1546    200.6522     31.5978   6.1203223031e+01   3.0853198211e+01    0.4372499      0.36191  40.66  0.002270758    1.220    0.180
        64 -10.7906    203.1183     35.3102   6.1998253974e+01   2.9764613322e+01    0.4044347    0.3071536  15.19  0.001970632    1.474    0.321
        65  -8.6028      3.3202     38.6534   1.2077414935e+02   6.6253097673e+01    0.1084427   0.07481184  80.04 5.472102e-05    1.732    0.423
        66  -9.2928    226.4831     29.0337   5.7102597043e+01   2.4478258350e+01     0.377339    0.2558582 -11.34  0.001823512    1.551    0.355
        67 -10.4509     13.7698    249.2242   1.3540486750e+02   2.5964349599e+01    0.4652361    0.1123561  53.73    0.0030026    2.380    0.580
        68  -8.8343    199.0610     22.4706   5.8564344706e+01   3.2312741478e+01     0.222105    0.1429435  65.08 0.0005776118    1.542    0.352
        69  -7.8069    171.5984     13.5449   5.9537256746e+01   4.0610564900e+01    0.1460321    0.1395456  26.64 0.0001470237    1.021    0.021
