#   1 NUMBER                 Running object number                                     
#   2 MAG_AUTO               Kron-like elliptical aperture magnitude                    [mag]
#   3 X_IMAGE                Object position along x                                    [pixel]
#   4 Y_IMAGE                Object position along y                                    [pixel]
#   5 X_WORLD                Barycenter position along world x axis                     [deg]
#   6 Y_WORLD                Barycenter position along world y axis                     [deg]
#   7 A_WORLD                Profile RMS along major axis (world units)                 [deg]
#   8 B_WORLD                Profile RMS along minor axis (world units)                 [deg]
#   9 THETA_WORLD            Position angle (CCW/world-x)                               [deg]
#  10 FWHM_WORLD             FWHM assuming a gaussian core                              [deg]
#  11 ELONGATION             A_IMAGE/B_IMAGE                                           
#  12 ELLIPTICITY            1 - B_IMAGE/A_IMAGE                                       
         1  -9.7631     17.4000     38.7447   1.1845402583e+02   6.5659740409e+01     1.134347    0.2815222 -35.27  0.004003778    4.807    0.792
         2  -9.6049     64.0601     14.3116   9.0858267079e+01   6.3470532002e+01    0.3697826    0.2227824  16.50 0.0007340251    1.681    0.405
         3 -10.0839     24.4604     16.6032   1.0719415016e+02   6.8388418500e+01    0.2880603    0.2194411  18.56 0.0006943601    1.383    0.277
         4  -8.8003    231.3459     16.2570   6.0396696645e+01   2.6117931093e+01    0.2794158    0.2021828 -45.63  0.001141727    1.381    0.276
         5  -8.8275     74.6215     13.5773   8.7147153701e+01   6.1778625021e+01     0.324749    0.2138412   3.42  0.001503507    1.548    0.354
         6  -8.6747     80.2744     12.6797   8.5084529225e+01   6.0862125156e+01    0.2278107    0.2060654  28.50 0.0008214627    1.193    0.161
         7  -9.2840    133.2422     13.7961   7.2888847092e+01   4.9716868799e+01    0.4591026    0.1793102  56.63  0.002005945    2.084    0.520
         8  -8.8312     97.3503     12.0182   8.0163499237e+01   5.7655393144e+01    0.2475124    0.1602367  37.00 0.0005504453    1.348    0.258
         9  -8.4545    106.0867     10.4908   7.7482103857e+01   5.6003446108e+01    0.1819464     0.160405  16.84  0.000708557    1.121    0.108
        10  -8.6623     31.5417     11.1937   1.0184816587e+02   6.8316648715e+01    0.1811707    0.1267846  14.88 0.0003312041    1.257    0.205
        11  -7.2758     32.6707      7.7396   9.9846054407e+01   6.8592693237e+01    0.1600081   0.09110068 -23.18 0.0002318174    1.531    0.347
        12 -10.6701     20.0568      8.8712   1.0583614482e+02   6.9829923283e+01    0.2814938    0.1629756  13.00 0.0004599841    1.628    0.386
        13  -8.5276    128.3076      8.0545   7.1977736859e+01   5.1365241211e+01      0.19685    0.1457556  20.77 0.0007822433    1.489    0.329
        14  -7.9017     39.9191      8.0576   9.7028044411e+01   6.7656242296e+01    0.1880825    0.1083812   5.48 0.0007092129    1.789    0.441
        15  -7.9815      2.1229      7.6958   1.1375883869e+02   7.1509304160e+01    0.1617731    0.1433185   8.98  0.001381756    1.599    0.375
        16  -8.1322     76.2843      6.9931   8.3982212710e+01   6.2122576337e+01    0.2182187    0.1472031  42.54  0.001150737    1.309    0.236
        17  -9.8666     49.0228      4.7326   9.2052881337e+01   6.6758023459e+01    0.2424471    0.1600711   6.03 0.0004490821    1.340    0.254
        18  -7.7174    119.0203      7.0000   7.3449684024e+01   5.3529392011e+01    0.2109815   0.06273872  60.84 0.0006333245    2.910    0.656
        19  -7.7803     84.3395      6.3292   8.1421003193e+01   6.0703192623e+01    0.1316247   0.07479359  26.05 0.0007051737    1.738    0.424
        20  -8.6552     68.7164      4.1835   8.5120504629e+01   6.3699420542e+01    0.3567402    0.1443468 -12.02  0.001564125    3.332    0.700
        21  -8.8016     56.4496      4.6749   8.9368387066e+01   6.5651718434e+01    0.3036309    0.1605704  17.48  0.001663939    2.033    0.508
        22  -7.6667     12.9778      5.5087   1.0760290329e+02   7.0918706949e+01    0.2173663   0.09297174 -14.62  0.001029213    3.318    0.699
        23  -8.9598    111.0013      4.1491   7.4139105591e+01   5.5506387288e+01    0.2953756    0.1906405 -24.95  0.001365416    1.745    0.427
        24  -8.0344    133.1911      4.1922   6.9851510050e+01   5.0581467669e+01    0.2356597    0.0995511  35.35 0.0009646157    2.947    0.661
        25  -7.9581    125.3506      3.8955   7.1180809403e+01   5.2381430794e+01    0.1667237    0.1469209  28.38 0.0006644323    1.155    0.135
        26  -7.8427    103.6433      4.6667   7.5948576106e+01   5.7015540522e+01    0.1371552   0.07522763  32.30  0.000704297    1.796    0.443
        27  -8.0602     91.6960      4.6854   7.8838542544e+01   5.9429136028e+01    0.1281384   0.07591088  28.24 0.0003524273    1.619    0.382
        28  -7.5190    175.7063      3.6415   6.3405518920e+01   4.0587090693e+01    0.1293284   0.08701788  41.37 0.0007030853    1.696    0.411
        29  -8.0396    153.5718      3.2909   6.6299261876e+01   4.5904682746e+01     0.218197    0.1204712  49.99 0.0005667888    1.640    0.390
        30  -8.0663    139.5173      2.9866   6.8399500871e+01   4.9224451765e+01    0.1696834    0.1267114 -22.48 0.0005210264    1.568    0.362
        31  -8.0208    182.1129      2.1870   6.2264699358e+01   3.9185969983e+01    0.1898299    0.1476474  61.30 0.0004711398    1.206    0.171
        32  -7.9575    143.1776      2.1357   6.7549458435e+01   4.8443830938e+01    0.1864795    0.1454867  50.41 0.0003010941    1.150    0.131
        33  -7.7352      3.0709      1.1837   1.1044950137e+02   7.2290852077e+01    0.1178219   0.06534685  15.83 0.0003469191    1.722    0.419
        34  -9.0251    247.1740    225.9475   1.0310841344e+02  -1.0914818965e+01    0.3716098    0.2894865  14.50  0.002421226    1.109    0.098
        35  -9.6874    213.5763    250.1772   1.1334604467e+02  -9.0366567182e+00    0.4010302    0.1458962  42.12  0.001787606    2.428    0.588
        36  -9.8017    200.5907    249.2113   1.1560153770e+02  -6.8130024943e+00    0.3601643    0.2264827  25.19  0.001343796    1.542    0.351
        37  -9.2118    151.1522    249.6579   1.2504584101e+02   1.4603888401e+00    0.3229655    0.1883267  28.77  0.001209773    2.004    0.501
        38  -7.8805    123.9314    250.4715   1.3031673826e+02   5.9121467171e+00    0.1939487     0.105076  43.40 0.0006307778    1.558    0.358
        39  -8.2653    186.6714    226.6863   1.1462390028e+02  -9.4148215002e-01    0.2564071    0.1494972  31.18  0.001057548    1.704    0.413
        40  -7.6392     70.0231    226.2661   1.3788070025e+02   1.9008284801e+01    0.1525844   0.09609383  46.90 0.0005774147    1.471    0.320
        41  -7.9165    223.6481    224.8627   1.0719312820e+02  -7.0358163950e+00    0.1995377    0.1438881 -12.01  0.001146926    1.465    0.317
        42  -7.8703    206.0449    222.9982   1.1020414691e+02  -3.7589118447e+00    0.2138522    0.1502193   4.44  0.001127812    1.715    0.417
        43  -8.1064    130.2886    220.7027   1.2511202560e+02   1.0364200909e+01    0.1990942    0.1576485  -1.85  0.001039312    1.994    0.499
        44  -7.9562     51.2700    221.6304   1.4099509052e+02   2.2533233017e+01    0.1508571    0.1095723  39.43 0.0009425547    1.606    0.377
        45  -8.6216    239.8960    219.5689   1.0325007476e+02  -8.8817026500e+00    0.2419997    0.1781275 -37.49  0.001457038    1.476    0.322
        46  -8.1740    182.3096    219.7295   1.1431103059e+02   1.0354601829e+00    0.2671335    0.1655708  32.00 0.0009175751    1.592    0.372
        47  -7.8892     40.2380    220.5796   1.4296086749e+02   2.4142410319e+01    0.1450282    0.1122155  34.45 0.0009502351    1.719    0.418
        48  -8.4690    226.5734    218.5612   1.0550949041e+02  -6.5661109821e+00    0.3113042    0.1899955  -8.95  0.001211031    2.181    0.541
        49  -7.4104    217.3099    219.6922   1.0745708416e+02  -5.1786279717e+00    0.1191117    0.1051252  74.85 0.0003003649    1.617    0.382
        50  -7.6997    173.1030    219.0002   1.1604602455e+02   2.8572597898e+00    0.2133349    0.1593296  11.64  0.001008234    1.685    0.406
        51  -7.4870    140.5023    219.4827   1.2282024517e+02   8.7663814917e+00     0.137104    0.1221795  52.20 7.451572e-05    1.036    0.034
        52  -7.5571     95.3031    218.3303   1.3197573135e+02   1.6804185390e+01    0.1182515    0.1061718 -23.69 0.0005589945    1.652    0.395
        53  -7.6368    203.7445    216.3989   1.0947443060e+02  -2.2774474100e+00    0.1864098    0.1156194  30.76 0.0004018111    1.567    0.362
        54  -8.5530    193.3474    215.7799   1.1141325364e+02  -2.9685177536e-01    0.3240572    0.1891701  23.46  0.001187317    2.116    0.527
        55  -7.7526    210.3667    215.2719   1.0798348800e+02  -3.2663055781e+00     0.138236   0.09564766  12.24 0.0007000377    1.666    0.400
        56  -7.6268     83.8759    215.3401   1.3393490881e+02   1.9231671177e+01    0.1749172    0.1171817  33.49 0.0006179827    1.791    0.442
        57  -8.9090    249.1580    212.5158   1.0028711965e+02  -9.3061287717e+00    0.3062337    0.2193601  36.03 0.0008023854    1.412    0.292
        58  -8.1287    121.5516    213.4569   1.2586972825e+02   1.3376097712e+01    0.2302837    0.1273753  32.60 0.0007548871    2.137    0.532
        59  -8.2412    232.5899    211.8621   1.0315384653e+02  -6.5376594798e+00    0.2157996    0.1607339  22.44 0.0006286152    1.259    0.205
        60  -8.4136    169.2352    209.5134   1.1520972334e+02   5.3305372938e+00    0.3627635    0.1993475 -56.90  0.001190522    2.260    0.557
        61  -7.6930     42.8209    210.7677   1.4160406981e+02   2.5895790909e+01    0.1713074    0.1130316  77.62 0.0006700868    1.285    0.222
        62  -7.4093    186.4318    210.4627   1.1184880814e+02   1.9139206467e+00    0.1377731    0.1251031  24.27 0.0001870437    1.039    0.038
        63  -7.9198     54.6032    210.2735   1.3925323517e+02   2.4503382480e+01    0.1716978    0.1011417 -63.45 0.0009509617    1.668    0.401
        64  -7.9294    162.5721    208.2991   1.1638874807e+02   6.8277271971e+00     0.239229    0.1633207  24.50 0.0007898274    1.753    0.430
        65  -9.1297    124.0292    205.9993   1.2421808432e+02   1.4487311808e+01    0.1978116    0.1776548  65.85  0.001158616    1.016    0.016
        66  -7.9548    216.0428    205.3575   1.0504129527e+02  -2.6344535279e+00    0.2185468    0.1520568  22.02  0.001142822    1.494    0.330
        67  -7.8972    117.7336    205.2485   1.2545755976e+02   1.5772103669e+01    0.2440407    0.1571982  47.17 0.0007564304    1.427    0.299
        68  -8.3882    236.9063    203.9592   1.0086158046e+02  -6.0257698997e+00    0.1946493    0.1710821  -1.22  0.000444129    1.020    0.019
        69  -7.2724    205.6334    204.7048   1.0694370700e+02  -6.3563607253e-01    0.1438326    0.1016462   9.42 0.0005794119    1.720    0.419
        70  -7.7283    148.6999    204.6614   1.1870237203e+02   1.0185197275e+01    0.1382649    0.1131189  -2.20 0.0003843143    1.664    0.399
        71  -8.2317    196.1132    200.6743   1.0807635915e+02   1.8557240554e+00    0.2615153    0.1813979  25.91  0.001032986    1.529    0.346
        72  -7.9558    250.4590    199.1613   9.7508885658e+01  -7.5081868086e+00    0.2374419    0.1148478 -31.77  0.001117088    1.992    0.498
        73  -8.1710    229.3138    199.6161   1.0142186054e+02  -4.0289485852e+00    0.2824721    0.1801153   1.93 0.0009226732    2.141    0.533
        74  -7.9603    184.7288    200.2251   1.1031293668e+02   4.1151753217e+00    0.1939455    0.1600468  11.50 0.0006540866    1.338    0.253
        75  -8.0426    139.6981    199.5202   1.1977112178e+02   1.2951455489e+01    0.3010783    0.1767923 -39.10  0.001002244    2.148    0.534
        76  -8.1253    243.7271    197.7809   9.8431698082e+01  -6.1910362112e+00    0.2919603    0.1461549 -26.25  0.001098876    2.198    0.545
        77  -8.0429    100.1713    198.6130   1.2828224393e+02   2.0247978667e+01    0.1871984    0.1294876  31.79  0.000939285    1.728    0.421
        78  -8.5784    193.1010    194.3519   1.0747155306e+02   3.5954432870e+00     0.412187     0.228117 -26.46  0.001677328    2.484    0.597
        79  -7.5999     90.0527    192.2211   1.2958554788e+02   2.3341520079e+01    0.1784022    0.1078972  41.78 0.0005804778    1.657    0.397
        80  -8.4744    166.1688    197.3801   1.1367636183e+02   8.2754382483e+00    0.3108089    0.2259917  18.76 0.0009541836    1.732    0.422
        81  -7.7874    161.8538    190.1378   1.1325383106e+02   1.0592320557e+01    0.1975661    0.1749648   0.18 0.0006466943    1.322    0.244
        82  -8.0717    224.8017    188.8645   1.0014179926e+02  -1.4132432072e+00    0.2987489    0.1015163 -34.18  0.001014753    3.362    0.703
        83  -8.1566     64.5035    189.4916   1.3484363567e+02   2.7786564503e+01    0.2092249    0.1328691  23.82   0.00103108    2.338    0.572
        84  -7.6435    130.0485    183.4333   1.1910722942e+02   1.8270053279e+01     0.201012    0.1317484  17.86 0.0008062735    2.522    0.603
        85  -7.8103    165.2093    182.3913   1.1102597588e+02   1.1521741758e+01    0.2153295    0.1344084  53.19 0.0005783775    1.656    0.396
        86  -7.9429    156.2604    180.9397   1.1271677081e+02   1.3642813128e+01    0.2366056    0.1746746 -15.31 0.0009559332    1.966    0.491
        87  -7.5647      1.3419    194.3105   1.4813101220e+02   3.3781209468e+01    0.1049823   0.07375514 -57.43 0.0004755997    1.696    0.410
        88  -7.1675    197.6528    180.6714   1.0380577798e+02   5.2903218575e+00    0.1526519    0.1128014   4.21  0.000704974    1.756    0.431
        89  -7.5828    183.5346    180.4618   1.0669474743e+02   8.1828313372e+00    0.1462425    0.1404214  22.90 0.0001498994    1.022    0.021
        90  -7.8559     96.3461    178.5312   1.2605968530e+02   2.5458982604e+01    0.1829085    0.1396588  29.94 0.0007707198    1.583    0.368
        91  -8.1047    148.6107    174.7258   1.1321674134e+02   1.6539392877e+01    0.2664123    0.1838957  31.60  0.000839331    1.634    0.388
        92  -7.4076     47.3309    175.3307   1.3688220040e+02   3.3280338680e+01    0.1256424   0.09232774 -44.44 0.0007051925    1.719    0.418
        93  -7.7849    183.2964    172.3342   1.0506363206e+02   9.8711208119e+00    0.1514326    0.1184047  -1.51 0.0003378825    1.646    0.392
        94  -7.4237     14.5562    170.4850   1.4353571362e+02   3.7830544741e+01    0.1207753   0.09188895 -83.39 0.0001378214    1.029    0.028
        95  -8.2953    176.8044    167.7876   1.0549639663e+02   1.2168582862e+01    0.2573222    0.1706551   0.92 0.0009539066    2.823    0.646
        96  -8.4845    191.5459    164.2478   1.0159579577e+02   9.7833779262e+00    0.3702675    0.1461457 -40.39  0.001290751    2.605    0.616
        97  -8.1432    168.4644    163.8011   1.0647508358e+02   1.4779070432e+01    0.2733084    0.1993321   5.03  0.001059823    2.072    0.517
        98  -7.5654    122.5513    162.5129   1.1691503492e+02   2.4486915451e+01    0.1496978    0.1426756 -87.54 0.0001504585    1.030    0.029
        99  -7.0000    250.6741    158.3385   8.9177708097e+01  -8.5306796125e-01    0.1352071    0.1056384 -67.45  0.000705149    1.726    0.421
       100  -7.7912     21.5811    157.1972   1.4058921855e+02   4.0218833021e+01    0.1766451   0.08866189 -62.00 0.0008953133    1.646    0.393
       101  -8.6861    115.9295    152.9275   1.1660741105e+02   2.7999775760e+01    0.2200957    0.2084498 -87.10 0.0003128898    1.012    0.012
       102  -7.6328    106.7541    152.2025   1.1876329848e+02   2.9870405279e+01    0.2237502    0.1204175  30.16 0.0006189836    2.417    0.586
       103  -7.9325    133.3146    147.9194   1.1122967044e+02   2.5738797752e+01    0.2235757     0.199602 -55.18  0.001146856    1.108    0.098
       104  -7.3074     21.3395    147.3387   1.3948072213e+02   4.2513539116e+01    0.1263625   0.07826158 -46.78 -0.0003979183    1.763    0.433
       105  -7.4509    233.5107    146.4977   8.9570124883e+01   4.5244040995e+00    0.1433308    0.1323987 -32.35 0.0008105912    1.005    0.005
       106  -9.3248     67.0157    144.5759   1.2754719925e+02   3.8048534039e+01    0.4529542    0.2989379  70.92  0.002215027    1.844    0.458
       107  -8.0435     13.7771    140.2117   1.4044526028e+02   4.4785033325e+01     0.195429    0.1040053 -44.92  0.001044496    2.092    0.522
       108  -7.9075     41.5773    139.8198   1.3337797945e+02   4.2293226984e+01     0.214675    0.1050218  25.82  0.000998091    2.642    0.622
       109  -7.8321    139.7729    137.8238   1.0734727923e+02   2.6705898087e+01    0.2628117    0.1791218  -3.80 0.0009534883    2.831    0.647
       110  -7.4753     55.3206    135.2998   1.2900567096e+02   4.1784028045e+01    0.1339214   0.09608614 -36.73   0.00070239    1.623    0.384
       111  -8.3291      5.0392    134.1328   1.4186456677e+02   4.6812433358e+01    0.2053357    0.1461437   0.48   0.00122667    2.078    0.519
       112  -8.3880    228.5979    139.3932   8.8856699317e+01   6.8383600629e+00    0.2688928    0.2363601 -16.49 0.0007834082    1.188    0.158
       113  -8.2690     23.5579    130.1334   1.3662840340e+02   4.6295202692e+01    0.3110423    0.1752387 -23.71  0.001492739    2.977    0.664
       114  -7.8330     41.4914    129.4659   1.3173352274e+02   4.4738158640e+01    0.1965086    0.1305048   6.43 0.0008755783    2.250    0.556
       115  -7.3879    133.0045    124.7539   1.0589035486e+02   3.1107203909e+01    0.2058318    0.1329838  45.49 0.0008400133    1.574    0.365
       116  -9.3579     12.7665    121.1506   1.3820447286e+02   4.9199387982e+01    0.4716695    0.1326348 -44.01  0.001687781    4.472    0.776
       117  -7.7786      2.3556    122.6714   1.4115145033e+02   4.9560911879e+01    0.1191278   0.07556865  74.17 0.0007045265    1.779    0.438
       118  -8.4312    245.8731    120.8588   8.1823031967e+01   6.6816979207e+00    0.2025141    0.1893685  -7.04 0.0004971971    1.191    0.161
       119  -7.7613     84.2683    121.7781   1.1829152978e+02   4.0921453959e+01    0.2122357    0.1212167  24.19 0.0008795494    2.386    0.581
       120  -7.3149    231.4712    120.4472   8.4056438529e+01   9.7541549156e+00     0.146224     0.132961 -54.75 0.0001036785    1.046    0.044
       121  -7.8886    100.7932    118.4312   1.1289016676e+02   3.8897460519e+01    0.2025713    0.1459039  25.60 0.0006624571    1.665    0.399
       122  -7.8671    142.0667    111.7791   1.0030606041e+02   3.1991615115e+01    0.2589293    0.1853552  16.73  0.001075639    2.011    0.503
       123  -9.1567      2.5691    109.6489   1.3935287087e+02   5.2435219681e+01    0.3229169     0.158545 -38.62  0.001760519    2.228    0.551
       124  -8.1437    133.6106    107.9386   1.0141428824e+02   3.4679289861e+01    0.4878341    0.1450415 -46.99  0.001428949    3.398    0.706
       125  -9.6193     15.4727    104.7727   1.3491195748e+02   5.2671946101e+01    0.5172917    0.2219015 -33.97  0.002321156    3.106    0.678
       126  -7.7216    109.7074    105.9822   1.0725956547e+02   4.0028314857e+01    0.2154054    0.1927513 -45.41 0.0007950878    1.076    0.071
       127  -7.5504     66.5137    104.5259   1.1948095136e+02   4.7496579619e+01    0.1384246    0.1219072 -44.98 5.444577e-05    1.032    0.031
       128  -7.7945     93.9441    103.5021   1.1107658072e+02   4.3468962027e+01    0.2133662    0.1453738  36.69  0.000637229    1.570    0.363
       129  -9.9538      8.7437     96.6657   1.3553763098e+02   5.4896355944e+01    0.4064265    0.2168526 -10.19  0.002159945    2.799    0.643
       130  -7.7175    242.0124     97.3449   7.7138212727e+01   1.1632864479e+01    0.2258048    0.1164331  83.39 0.0003837113    4.472    0.776
       131  -8.0425    129.7759     97.5282   9.9565104139e+01   3.7701996502e+01    0.2908471     0.147477  41.37  0.001121683    2.066    0.516
       132  -8.9087     17.7966     94.8058   1.3243048328e+02   5.4689070841e+01    0.3394285    0.2376722  56.01  0.002090237    1.896    0.472
       133  -8.7574     44.4549     92.0808   1.2341206548e+02   5.2911080944e+01    0.2741516    0.1770819 -22.57  0.001135559    1.864    0.464
       134  -7.5632     57.0250     91.9624   1.1936419308e+02   5.1490971060e+01    0.1575854    0.1394061 -40.83 0.0003328551    1.020    0.020
       135  -8.1233    109.9800     90.8385   1.0301501020e+02   4.3181445567e+01     0.246759    0.1698799  14.04 0.0009789469    2.045    0.511
       136  -8.0816     96.8396     90.2736   1.0662831960e+02   4.5779943745e+01     0.386903    0.2228207  12.22  0.001325997    3.675    0.728
       137  -9.6824     35.3921     82.4702   1.2409192031e+02   5.5861120821e+01    0.6478158    0.2747409 -36.69    0.0028769    2.525    0.604
       138  -8.4734     66.9470     86.0104   1.1463558654e+02   5.1447781611e+01    0.4058565    0.1926581  24.37  0.001682332    2.794    0.642
       139  -8.1288    125.9166     84.4112   9.6824176516e+01   4.1157463658e+01    0.3908824    0.2385843  12.97  0.001352947    3.313    0.698
       140  -8.6774     87.4430     79.4883   1.0631796719e+02   4.9600417129e+01    0.4484012    0.2608293   4.18  0.001572255    3.794    0.736
       141  -8.3448    184.6172     78.5727   8.2024296614e+01   2.8348953141e+01    0.3662889    0.2003955 -56.18  0.001381825    2.167    0.539
       142  -9.8224      7.6849     77.5253   1.3229033470e+02   5.9001391001e+01    0.4274981    0.1979841 -32.67   0.00207132    2.270    0.559
       143  -7.2381    147.2165     78.3052   8.9773830458e+01   3.7473502097e+01    0.1404469    0.1165064  -1.22            0    1.464    0.317
       144  -8.9390     48.3340     77.0895   1.1834514055e+02   5.5625450846e+01    0.3354136    0.2424487 -15.32  0.001491056    1.509    0.337
       145  -9.8759     24.3395     73.0044   1.2556387514e+02   5.8766359613e+01    0.7935717    0.3036541 -30.41  0.002751266    3.827    0.739
       146  -8.3386     23.2984     69.6243   1.2509091806e+02   5.9525315415e+01    0.2179666    0.1431533 -55.46 0.0005320297    1.321    0.243
       147  -7.8495     75.0600     74.5263   1.0872902564e+02   5.2570695041e+01    0.1883206    0.1318266  31.63 0.0004561094    1.510    0.338
       148  -7.7655     61.0383     71.7549   1.1252480919e+02   5.5116962556e+01    0.1756136    0.1566554 -15.02 0.0004209066    1.064    0.060
       149  -7.6871    128.3583     70.3267   9.1973457628e+01   4.3212333333e+01    0.1557386     0.113154  14.94 0.0007043831    1.782    0.439
       150  -8.7053     43.5269     67.9782   1.1746836811e+02   5.7960089886e+01    0.3057194    0.1801995  -9.52  0.001522354    2.312    0.567
       151  -8.2144     80.4871     68.0234   1.0498068982e+02   5.2938005573e+01    0.2431024    0.1902454 -11.70 0.0003517534    1.323    0.244
       152  -8.6965     84.2222     63.7732   1.0243565752e+02   5.3082014277e+01    0.3865787    0.2460652   8.38  0.001777569    2.207    0.547
       153  -8.9135     62.1340     66.1931   1.1046731202e+02   5.6026727873e+01    0.4940081    0.1709758 -38.17  0.001886043    2.928    0.658
       154  -9.3335     65.7223     61.0526   1.0761838990e+02   5.6464059884e+01    0.3383128     0.237459 -34.15 0.0002016374    1.288    0.223
       155  -7.9051    106.7563     67.1997   9.6793148357e+01   4.8316298231e+01    0.2238968    0.1012549  37.33 0.0007850752    2.420    0.587
       156  -9.5394     17.6062     62.2348   1.2525787166e+02   6.1401483190e+01    0.4310845    0.1840835 -44.52  0.001667409    1.799    0.444
       157  -9.6849    239.9405     64.7884   7.0090489755e+01   1.7476978901e+01    0.2450579    0.2190743  76.63 0.0003384613    1.182    0.154
       158  -8.6564     51.8614     61.4547   1.1256465592e+02   5.8231975064e+01    0.3146987    0.1911056 -19.89  0.001488589    1.870    0.465
       159  -7.3312    122.4973     61.4834   9.0719478781e+01   4.5997877194e+01    0.1463595    0.1315792  18.20 0.0008079832    1.114    0.102
       160 -10.8639     38.3762     57.6912   1.1628342551e+02   6.0440773854e+01    0.5050184    0.2969359 -15.37 0.0005214678    2.021    0.505
       161  -7.4107    111.4369     58.4969   9.2691411457e+01   4.8833225977e+01    0.1415112     0.128558  11.28 0.0001705788    1.063    0.059
       162  -9.4712      2.3498     54.7667   1.2905762988e+02   6.3781479853e+01    0.5536888    0.1455602 -41.08  0.002501104    2.925    0.658
       163  -9.1741    168.0965    248.5950   1.2166002874e+02  -1.2646179517e+00    0.3050035    0.1398565  31.83   0.00133486    2.408    0.585
       164  -9.5046      2.1565     45.6223   1.2674361431e+02   6.5473732447e+01    0.2838362    0.2282671 -19.74  0.001600546    1.209    0.173
       165  -9.4760      8.5090     48.9789   1.2515181138e+02   6.4494379814e+01    0.3526806    0.1493683 -43.56 0.0007637461    1.743    0.426
       166  -9.0335     11.6995     46.6885   1.2323437685e+02   6.4699098646e+01    0.1897458    0.1173305 -30.91 0.0004675344    1.336    0.252
       167  -8.1007    248.3333     55.6686   6.7093736517e+01   1.7017769297e+01    0.1450924    0.0866091 -67.45 0.0007052174    1.727    0.421
       168  -7.9969     99.3563     54.4978   9.4770980696e+01   5.1889768828e+01    0.2280743    0.1255257 -35.45 0.0008287379    1.820    0.451
       169  -8.2211    118.2933     51.4740   8.8579629063e+01   4.8479621231e+01    0.2731004    0.2284976  46.92  0.001267936    1.153    0.133
       170  -7.9739     81.5410     51.5790   9.9208254557e+01   5.5590796153e+01    0.2155473    0.1227518  51.66  0.001014114    2.198    0.545
       171  -9.1251     75.0737     50.3056   1.0086689681e+02   5.6864585884e+01     0.300094    0.2047108  22.40 0.0003829255    1.508    0.337
       172 -10.3499     45.1533     49.1324   1.1101494158e+02   6.1210727623e+01    0.3031915    0.2088673   5.05  0.001038495    1.523    0.343
       173  -7.6160    182.1785     49.6023   7.4689886880e+01   3.3584653184e+01    0.1979133    0.1218782  52.04 0.0002969845    1.590    0.371
       174  -8.9777     42.5936     43.0759   1.0990274202e+02   6.2514261880e+01    0.3567127    0.2104967 -18.16  0.001982601    1.787    0.441
       175  -9.8036     24.2750     47.3389   1.1844861887e+02   6.3623270172e+01    0.4967989    0.2367794   5.17  0.002411761    2.984    0.665
       176  -8.7005     31.5251     44.1101   1.1454895623e+02   6.3516610286e+01    0.5269889    0.1997031 -32.33  0.002342324    2.798    0.643
       177  -8.3927    106.9380     48.0634   9.0458901551e+01   5.1369087307e+01    0.1979343    0.1841543  20.75 0.0002958803    1.036    0.035
       178  -8.6061     94.3051     42.1791   9.2003139426e+01   5.4707662529e+01    0.4175763    0.1736305  35.66   0.00167069    2.672    0.626
       179  -7.8077    123.1932     40.8754   8.3878879564e+01   4.8910325194e+01    0.2260476     0.151295   8.89 0.0008387188    1.992    0.498
       180 -10.1513     83.2280     40.0251   9.4585768462e+01   5.7041678588e+01    0.2575707    0.1991909  19.48  0.001536976    1.217    0.178
       181 -10.2219    136.7913     39.0618   8.0202072902e+01   4.6055089546e+01    0.2496416    0.2236268  42.67 0.0002948452    1.045    0.043
       182  -8.5270    106.1262     37.1489   8.6930035673e+01   5.3052504522e+01    0.3466859    0.1746355  36.44  0.001261848    2.044    0.511
       183  -8.6650     70.0804     36.6133   9.7601867830e+01   5.9728372546e+01    0.4312574    0.2116848  16.58  0.001656246    3.680    0.728
       184  -9.5261     54.9139     36.6817   1.0296443853e+02   6.1960935160e+01    0.3064498    0.2254425  28.46  0.001212753    1.371    0.271
       185  -8.7634     37.8208     41.8198   1.1130308468e+02   6.3250427288e+01      0.40399    0.1055101  34.17  0.001619866    4.075    0.755
       186  -8.4988     92.0327     37.0276   9.0831558178e+01   5.5847747965e+01     0.309368    0.1859434  27.52 0.0009251521    1.763    0.433
       187  -9.5858     96.0642     33.2801   8.8318575624e+01   5.5564130030e+01    0.2582092    0.2063393  14.77 0.0002857491    1.196    0.164
       188  -9.1672     38.0773     35.3512   1.0888363716e+02   6.4248426206e+01    0.2850782    0.1809947   4.06  0.001033197    1.649    0.394
       189  -9.2479      7.7058     34.2241   1.2103687431e+02   6.7113602834e+01    0.3195271    0.2003761  -6.04  0.001410254    1.594    0.373
       190  -7.4501    143.9729     33.9702   7.7126849755e+01   4.5010911213e+01    0.1596694    0.1476628  53.27            0    1.021    0.021
       191  -8.5017     76.9102     34.0729   9.4399154939e+01   5.8955836430e+01      0.25061    0.1913705  63.06  0.001431349    1.950    0.487
       192  -8.4248     82.0822     32.1191   9.2032311038e+01   5.8316088120e+01    0.1986771     0.146125  14.13 0.0004109034    1.320    0.242
       193  -8.7699    127.9067     30.2721   7.9312841640e+01   4.9185284689e+01    0.2136243    0.1869619   5.76 0.0002164421    1.216    0.178
       194  -7.8791     88.3952     31.2913   8.9810330439e+01   5.7275148692e+01    0.1392117   0.08663064  20.12 0.0006616114    1.784    0.440
       195  -8.9113      1.5760     30.0270   1.2231461086e+02   6.8188453174e+01    0.2418106    0.1002649 -47.77  0.001152217    1.821    0.451
       196  -8.3450    112.5338     29.8410   8.2749238328e+01   5.2620966802e+01    0.2864586    0.1412897  39.64  0.001301117    1.972    0.493
       197  -7.7255    123.7501     26.9735   7.9145220488e+01   5.0501725222e+01    0.1793201     0.163411   2.73 0.0005168522    1.154    0.133
       198  -9.6187     71.5799     26.0497   9.3068869265e+01   6.0885257937e+01    0.3520128    0.1928013  39.75  0.001270927    1.711    0.416
       199  -8.8068     61.8532     26.9211   9.6718086192e+01   6.2316775249e+01    0.1999217     0.157345  22.00 0.0005599217    1.165    0.141
       200  -8.9236     48.2895     25.9175   1.0128546306e+02   6.4370599731e+01    0.3373657    0.1456751  28.48  0.001270137    2.442    0.591
       201  -7.4777    102.4481     25.4401   8.3757264362e+01   5.5234133321e+01     0.128984    0.1124408  28.71 8.737017e-05    1.007    0.007
       202  -9.2937     83.3878     22.1651   8.7860888199e+01   5.9288932266e+01     0.523226    0.2083734  39.05  0.001970308    2.351    0.575
       203  -8.7767     57.5059     25.1515   9.7563167440e+01   6.3191475547e+01    0.2427625    0.1813901  25.47 0.0009129568    1.246    0.198
       204  -8.0300     27.3914     22.4129   1.0830109454e+02   6.7292996292e+01    0.3280817    0.1300288 -20.60  0.001253386    4.478    0.777
       205  -7.6311    130.5845     21.9126   7.6022265923e+01   4.9510657712e+01    0.1718358    0.1048698  16.38 0.0004316696    2.245    0.555
       206  -8.2293     92.3341     20.9611   8.4832726093e+01   5.7740121403e+01    0.2308059    0.1857658  20.62  0.001460637    1.110    0.099
       207 -10.0604      9.2834     19.8319   1.1525666917e+02   6.9264917682e+01    0.3205756    0.1825832   3.87 0.0005439733    1.775    0.437
       208  -8.3449    116.8717     20.1598   7.8391439576e+01   5.2759645654e+01    0.1781947    0.1327672  31.34 0.0003942865    1.288    0.223
       209  -7.6717     45.6350     20.1835   9.9978786628e+01   6.5469636861e+01    0.1591578   0.09080136 -21.17 0.0003924873    1.629    0.386
       210  -7.7336    165.3053     18.6598   6.8888710925e+01   4.1617708187e+01    0.1374141   0.09449469 -70.27 0.0005287971    1.680    0.405
       211 -10.4328    210.3964    246.6848   1.1337326643e+02  -8.0460072609e+00    0.4898488    0.2590938  37.36  0.001882088    1.614    0.380
       212  -8.7244    233.8428    244.8175   1.0877845079e+02  -1.1450819415e+01    0.3366956    0.1669092 -30.04  0.001774978    2.172    0.540
       213  -7.8784     74.2895    247.3413   1.3913676482e+02   1.4242999712e+01    0.1005591   0.09488991 -46.29 0.0003383744    1.647    0.393
       214  -8.1064    127.6685     16.9372   7.4997179339e+01   5.0684009543e+01     0.169851    0.1592494  33.70 0.0003815003    1.091    0.083
       215  -9.3977    224.8588    244.6905   1.1038417219e+02  -1.0059259650e+01    0.2016221    0.1710859 -25.07  0.000633239    1.316    0.240
       216  -8.5732    243.3149    244.0803   1.0696541139e+02  -1.2759331724e+01    0.1909142    0.1270467  -5.59  0.001162054    1.523    0.344
       217  -8.6271     50.5353     15.0567   9.5971959841e+01   6.5426691587e+01    0.2119691    0.1399985  22.06 0.0006123525    1.344    0.256
       218  -8.1729    146.7697     14.0313   7.0531916549e+01   4.6536899086e+01    0.1947149    0.1518437  42.20 0.0004615121    1.256    0.204
       219  -9.4614    176.1305    244.1120   1.1945783926e+02  -1.9317239479e+00     0.289678     0.196844 -12.98  0.001509066    2.227    0.551
       220  -9.7929    192.9752    243.8650   1.1619724412e+02  -4.7639717236e+00    0.2899005    0.1805119  31.50 0.0008655057    1.449    0.310
       221  -8.5833     88.8378     13.0938   8.2814622726e+01   5.9223046591e+01    0.3327526    0.1115606  39.91  0.001368475    2.796    0.642
       222  -8.1952     95.9081    243.8065   1.3482131676e+02   1.1653296020e+01    0.1806966    0.1557184  48.78 0.0006751876    1.274    0.215
       223  -7.8258     42.8078    244.1403   1.4437862611e+02   1.9113603147e+01    0.1406792    0.1225418  80.80  0.000607478    1.337    0.252
       224  -7.9357     25.8218    241.3487   1.4703686139e+02   2.1693636527e+01    0.1360339    0.0961409  41.21  0.000718258    1.693    0.409
       225  -7.2632    150.7839     12.9449   6.9539501915e+01   4.5689431217e+01    0.1474694    0.1092422 -21.89 0.0003550434    1.581    0.368
       226  -9.1679    242.0530    237.2486   1.0601738358e+02  -1.1680976340e+01    0.3549778    0.2106473 -12.05  0.001652873    1.935    0.483
       227  -8.1341    121.4995    239.4558   1.2942433260e+02   8.3002469046e+00    0.1303618    0.1079924  58.25 9.849588e-05    1.006    0.006
       228  -9.1890    170.7358    239.6043   1.1981951591e+02  -2.6784309676e-01    0.2610855    0.1954705  11.22  0.001040887    1.672    0.402
       229  -8.6129    249.0820    238.0234   1.0490942590e+02  -1.2816794925e+01    0.1862597    0.1487547   9.87 0.0008349226    1.017    0.017
       230  -9.4021    157.0240    244.6562   1.2322451101e+02   1.2814013165e+00    0.2183226    0.1796119  -2.87 0.0008788495    1.611    0.379
       231  -8.3237     79.9710    238.4774   1.3724179383e+02   1.5109872441e+01    0.2574559    0.1147806  36.26  0.001191137    2.529    0.605
       232  -8.2789    195.3839    236.1484   1.1449659295e+02  -3.9918676452e+00    0.2667404    0.1735628  20.00 0.0008133143    1.713    0.416
       233  -7.4084    112.3148    237.3562   1.3094825512e+02   1.0228209954e+01    0.1174209    0.1029512  -3.33 0.0005588362    1.743    0.426
       234  -9.5631    188.6341    234.4229   1.1551877720e+02  -2.5532381808e+00    0.3271814    0.2652219  61.31   0.00157457    1.466    0.318
       235  -8.2843    183.7917    235.9575   1.1670767482e+02  -1.9555500276e+00    0.1909523    0.1312663  21.93 0.0005332524    1.578    0.366
       236  -8.0424    231.5307    236.9827   1.0786517382e+02  -1.0042207137e+01    0.1680373    0.1152643 -31.99 0.0003869505    1.537    0.349
       237  -8.2185    161.9538    234.3447   1.2074521576e+02   2.1687337303e+00    0.2170228    0.1775742   7.22 0.0005640523    1.511    0.338
       238  -7.6126    138.1997    234.6272   1.2550007956e+02   6.3183984433e+00    0.1876842    0.1120966  34.99 0.0007418059    1.701    0.412
       239  -7.9479    248.1885    233.1765   1.0421811332e+02  -1.2048721141e+01    0.1856604    0.1353232   9.67 0.0006595193    1.218    0.179
       240  -7.7631    204.6780    230.7146   1.1180441761e+02  -4.7388960563e+00    0.1308404   0.09197144  11.58 0.0003053645    1.597    0.374
       241  -7.7658    123.9842    230.2148   1.2772805615e+02   9.6174569357e+00    0.1829135   0.09456976  43.82 0.0008695707    1.694    0.410
       242  -8.8180    237.4471    225.0643   1.0469172037e+02  -9.2903470044e+00    0.2728643    0.1704564 -10.43   0.00116267    1.849    0.459
       243  -8.0917    228.6507    228.3020   1.0687708034e+02  -8.3584129318e+00    0.4285899    0.2263546   6.17  0.001620935    3.890    0.743
       244  -7.8784    195.2285    229.0156   1.1333983860e+02  -2.8362330189e+00    0.2060915    0.1413756  -5.31 0.0008069237    1.971    0.493
       245  -7.6552    158.3378    229.2688   1.2068920205e+02   3.7084187025e+00     0.130302   0.09996959  16.95 0.0003652018    1.597    0.374
       246  -7.5498    100.5089    229.5376   1.3230995158e+02   1.3681167126e+01    0.1309317    0.1084205  66.44 0.0002469884    1.008    0.008
