#   1 NUMBER                 Running object number                                     
#   2 MAG_AUTO               Kron-like elliptical aperture magnitude                    [mag]
#   3 X_IMAGE                Object position along x                                    [pixel]
#   4 Y_IMAGE                Object position along y                                    [pixel]
#   5 X_WORLD                Barycenter position along world x axis                     [deg]
#   6 Y_WORLD                Barycenter position along world y axis                     [deg]
#   7 A_WORLD                Profile RMS along major axis (world units)                 [deg]
#   8 B_WORLD                Profile RMS along minor axis (world units)                 [deg]
#   9 THETA_WORLD            Position angle (CCW/world-x)                               [deg]
#  10 FWHM_WORLD             FWHM assuming a gaussian core                              [deg]
#  11 ELONGATION             A_IMAGE/B_IMAGE                                           
#  12 ELLIPTICITY            1 - B_IMAGE/A_IMAGE                                       
         1 -13.6066      6.7892    145.1554   1.4244334498e+02   4.4209460936e+01     3.344188    0.7128585 -71.31   0.01214398    3.656    0.727
         2 -12.1245    197.7667     32.4070   6.7574970300e+01   3.1965993058e+01    0.9050206    0.8356655  -4.38  0.005578822    1.379    0.275
         3 -12.2372    205.9975     19.4761   6.3425542327e+01   3.1540104323e+01     1.148368    0.6591064 -36.66  0.006005429    1.820    0.451
         4 -11.7775    212.7709     14.5787   6.1560368214e+01   3.0494566020e+01     0.738149    0.4911283 -25.29  0.002618692    1.881    0.468
         5  -9.9014     10.0975      8.8196   1.0949363803e+02   7.0717721152e+01    0.2001882    0.1169994  -3.63  0.001359406    1.567    0.362
         6  -9.1328    175.1092      4.1987   6.3272673623e+01   4.0521927825e+01     0.191145    0.1548193  54.03 0.0006821159    1.236    0.191
         7  -9.0626      2.4813      3.4879   1.1079444671e+02   7.2023468690e+01    0.1040226   0.07256919 -15.63  0.000810238    1.013    0.013
         8  -9.2458     54.7585    240.5688   1.4193469390e+02   1.8224504410e+01    0.2203429    0.1584357  75.36 0.0006321935    1.087    0.080
         9 -10.6199      4.4866    249.7197   1.5082467819e+02   2.2403287417e+01    0.5990427     0.193751  44.08  0.002597954    2.563    0.610
        10  -9.7490      7.1707    244.2960   1.5012300318e+02   2.3135111712e+01    0.2959363    0.1032876  76.32   0.00139821    3.085    0.676
        11 -10.9995    247.5595    236.9128   1.0493042958e+02  -1.2448016573e+01    0.3684863    0.2497768  30.65  0.002314418    1.340    0.254
        12  -7.9556     46.7641    231.8227   1.4261891267e+02   2.0998679266e+01    0.1637545    0.1037344  69.99 0.0003136515    1.302    0.232
        13  -9.5359     20.7886    233.5851   1.4726815673e+02   2.3737997142e+01    0.3143278     0.141362 -80.40  0.001803138    1.891    0.471
        14 -13.0204     13.9672    161.6554   1.4258049101e+02   3.9878900730e+01     3.950676     1.468646  82.69   0.01215051    5.991    0.833
        15 -10.4730    247.3972    248.8566   1.0701505903e+02  -1.3943906618e+01    0.3861786    0.1940027  44.23  0.002062214    2.238    0.553
        16  -8.2256    236.6641    225.3231   1.0480981532e+02  -9.2032390936e+00    0.1119435    0.1027091  77.87 0.0007050766    1.712    0.416
        17 -11.7413     10.3068    207.2512   1.4726846078e+02   3.0196729064e+01    0.5371168    0.4239862  37.93  0.002965763    1.663    0.399
        18  -9.8704    166.8410    209.7691   1.1564527995e+02   5.7217780680e+00    0.2213535    0.2166765  55.15 0.0003182035    1.073    0.068
        19 -10.6040     61.5548    192.6460   1.3571605204e+02   2.7452745970e+01    0.3489468    0.2501315 -47.77  0.001445867    1.737    0.424
        20 -10.0768      3.8916    192.7822   1.4739226340e+02   3.3867030911e+01     0.240381    0.1978814 -43.76  0.001235687    1.796    0.443
        21 -11.5971     34.7820    224.7195   1.4418653483e+02   2.3915734099e+01    0.2946468    0.2563874 -84.18  0.000732012    1.343    0.255
        22  -8.2325    240.1595    191.5880   9.7734608980e+01  -4.5915020732e+00    0.1764178    0.1180754  25.79 0.0004871617    1.557    0.358
        23  -7.2615    223.2528    187.7356   1.0007996491e+02  -9.3461046671e-01     0.120552    0.1097355 -75.84            0    1.439    0.305
        24 -10.6957     67.3941    185.4353   1.3352055796e+02   2.8295005791e+01    0.2800433    0.2393866 -63.73 0.0004990768    1.245    0.197
        25  -8.5691    248.8215    185.3860   9.4950400534e+01  -5.0568166855e+00     0.185065    0.1168832  28.12 0.0007152082    1.703    0.413
        26 -10.0226     77.2635    173.8235   1.2960081440e+02   2.9574125599e+01    0.2633778    0.2240266 -81.92 0.0004068734    1.041    0.039
        27 -12.1309     64.3617    170.9273   1.3219429131e+02   3.2108238937e+01    0.5356138    0.2800178 -47.23  0.001855368    2.215    0.549
        28 -11.3744     84.5370    165.2564   1.2648021368e+02   3.0491227790e+01     1.099747    0.6128576  61.34  0.004736362    2.186    0.543
        29 -11.8194     67.6622    145.2403   1.2724190682e+02   3.7792257085e+01     1.009909    0.6044238 -86.92  0.003946629    2.196    0.545
        30  -8.5597    114.0248    153.8181   1.1703908398e+02   2.8128221400e+01    0.2139431    0.2014532 -75.44 0.0004368694    1.021    0.020
        31  -9.4148     97.8056    149.8769   1.2033548873e+02   3.1987125964e+01    0.3204418    0.2529302 -50.90  0.000977714    1.245    0.197
        32  -8.6375    100.5947    146.1528   1.1886534191e+02   3.2391727453e+01    0.2527235     0.210154 -11.48 0.0006381611    1.602    0.376
        33 -11.0598     86.2977    148.7372   1.2306481936e+02   3.4171491015e+01    0.2953092    0.2478956 -48.44 0.0004930855    1.221    0.181
        34 -10.3474    225.9356    140.8319   8.9460323538e+01   7.1140445658e+00    0.2677728    0.2432109  45.99 0.0004147936    1.181    0.153
        35  -8.5893    111.9766    138.4935   1.1427297892e+02   3.2132782141e+01    0.2213517    0.1890716 -56.28  5.06783e-05    1.120    0.107
        36  -8.3656    109.0538    136.0137   1.1447810179e+02   3.3265171719e+01    0.2631158    0.2317754  31.25  0.001379212    1.254    0.202
        37  -9.3661    230.4859    168.5011   9.4721709839e+01   1.1141750410e+00    0.2560259    0.2015628 -69.13  0.001310855    1.756    0.430
        38  -9.3885     96.5443    132.7710   1.1707286925e+02   3.6280883143e+01    0.2679887    0.2274524 -20.56 0.0007351121    1.414    0.293
        39 -10.1078     55.4298    129.2623   1.2759004364e+02   4.3200930240e+01    0.3379515    0.2086023  88.18  0.001542141    2.255    0.556
        40  -9.6999     55.1139    123.8628   1.2664437515e+02   4.4511107817e+01    0.2678365    0.1740977 -65.37  0.001395913    1.394    0.282
        41 -13.2108     42.3111    215.6505   1.4202620996e+02   2.4892825481e+01     5.005608          nan  43.30    0.0143279    6.965    0.856
        42  -7.7247    173.2146    124.6056   9.6060656861e+01   2.2096710109e+01    0.1605871    0.1166194 -65.34 0.0006288997    1.623    0.384
        43  -9.5768    244.2697    122.2262   8.2170534283e+01   6.7585009653e+00    0.2456961    0.2140805 -35.18 0.0002779892    1.081    0.075
        44  -8.1687    106.6403    123.0542   1.1209651895e+02   3.6738192728e+01    0.2020797    0.1768381 -51.47 0.0005192118    1.086    0.079
        45  -7.7946    229.7048    122.3197   8.4565621490e+01   9.7747669106e+00    0.1482972    0.1096305 -68.10 0.0007016612    1.612    0.380
        46  -9.1173    167.6043    113.3055   9.4420795451e+01   2.5758761245e+01    0.3586169    0.2597562 -68.16  0.001202764    1.686    0.407
        47  -8.1460     52.6101    228.8171   1.4129494436e+02   2.0849378204e+01    0.1754541   0.09453023 -87.85 0.0009484993    1.802    0.445
        48 -13.1491     49.7643    207.3195   1.3978427916e+02   2.5745234951e+01     3.356144     1.016094  56.78   0.01176163    4.253    0.765
        49  -9.4245    247.7297    225.5734   1.0287419184e+02  -1.0944107047e+01    0.2300561    0.1056779  33.80  0.001128522    2.070    0.517
        50  -7.4675    145.7330     79.2753   9.0036288399e+01   3.7574999469e+01     0.144244    0.1176802 -77.80 0.0006872209    1.478    0.324
        51  -9.1484    183.1825     77.4939   8.1691417729e+01   2.8824048716e+01    0.2625676    0.2488768 -62.90 0.0002882442    1.045    0.043
        52  -7.7874    158.3388     78.6927   8.7031900116e+01   3.4681702976e+01    0.1570217    0.1186038 -79.76 0.0005740972    1.681    0.405
        53  -9.7578    238.6628     66.5504   7.0388136269e+01   1.7445249076e+01    0.2389418    0.2251727 -76.65 0.0005438287    1.141    0.123
        54  -7.9226    124.7298     62.9909   9.0195165603e+01   4.5175467330e+01    0.1853165    0.1737252 -21.66 0.0001987245    1.082    0.076
        55  -8.2336    242.8774     62.3747   6.8936014663e+01   1.7157564100e+01    0.1773763    0.1187851  55.58 0.0003966679    1.660    0.398
        56  -8.3025    181.2426     50.6439   7.4787454354e+01   3.3568620644e+01    0.2181311    0.1777452   6.82 0.0001206289    1.632    0.387
        57  -8.2153    153.5859     42.8300   7.7521346201e+01   4.1446714834e+01    0.1833014    0.1305613 -44.72 0.0006424712    1.510    0.338
        58  -8.8546     91.4463    247.5432   1.3597257918e+02   1.1617319422e+01    0.2240895    0.1142402 -65.73  0.000804148    2.114    0.527
        59  -8.6204     37.8927    244.1252   1.4512646044e+02   1.9691937848e+01    0.1838922    0.1137597  71.55 0.0007139381    1.268    0.211
        60  -8.5817    106.9151    243.4691   1.3263870118e+02   9.9386372591e+00    0.1916178    0.1060445  45.68 0.0005435371    1.542    0.352
        61 -10.2440    135.9229     40.0593   8.0272009253e+01   4.6004887473e+01    0.2354069    0.2213326  23.32  0.001418124    1.077    0.071
        62  -8.9418    230.6839     17.7883   6.0509798854e+01   2.5993989843e+01     0.274805    0.1729207 -43.67   0.00109308    1.538    0.350
        63  -8.3658     14.7807     18.0045   1.1121242722e+02   6.9072803600e+01    0.1471656    0.1056996 -20.32 -0.000430966    1.041    0.039
        64 -10.5652     15.6049    240.9251   1.4858986658e+02   2.2879942220e+01     0.313185    0.2698622  54.22  0.001704264    1.530    0.346
        65  -7.9624    116.0000    241.9729   1.3072780397e+02   8.7299961124e+00    0.1923052   0.07192645 -58.01 0.0008135695    3.020    0.669
