#   1 NUMBER                 Running object number                                     
#   2 MAG_AUTO               Kron-like elliptical aperture magnitude                    [mag]
#   3 X_IMAGE                Object position along x                                    [pixel]
#   4 Y_IMAGE                Object position along y                                    [pixel]
#   5 X_WORLD                Barycenter position along world x axis                     [deg]
#   6 Y_WORLD                Barycenter position along world y axis                     [deg]
#   7 A_WORLD                Profile RMS along major axis (world units)                 [deg]
#   8 B_WORLD                Profile RMS along minor axis (world units)                 [deg]
#   9 THETA_WORLD            Position angle (CCW/world-x)                               [deg]
#  10 FWHM_WORLD             FWHM assuming a gaussian core                              [deg]
#  11 ELONGATION             A_IMAGE/B_IMAGE                                           
#  12 ELLIPTICITY            1 - B_IMAGE/A_IMAGE                                       
         1 -12.1628     89.6853     28.0074   4.4645069792e+01   5.8649246107e+01    0.3946272    0.2494922 -26.95 0.0008113799    1.545    0.353
         2 -10.7878    133.5567     21.8079   3.0344351677e+01   4.9723591520e+01    0.4714335    0.2548248  57.79  0.001698752    1.699    0.411
         3 -11.2974    250.2321     13.2266   1.1731610592e+01   2.1121440292e+01    0.4097354    0.2041765 -42.09  0.002045482    1.758    0.431
         4 -12.2789    238.4179     16.7959   1.3596041443e+01   2.3470907788e+01    0.4484168    0.2986824  42.33 0.0009896124    1.968    0.492
         5 -12.1231    245.4234     10.5401   1.1521144707e+01   2.2539430899e+01    0.4381928    0.3676322   6.88  0.002656569    1.687    0.407
         6 -11.6734     62.0975     16.7425   4.9596941831e+01   6.4997800657e+01    0.4131744    0.2074512  26.64 0.0002755023    2.181    0.541
         7  -9.7874     15.5083     17.3363   7.0985121366e+01   7.0230864742e+01    0.2548356    0.1075141 -37.09  0.001059986    1.863    0.463
         8 -11.8027      7.2733     15.9427   7.4610681497e+01   7.1013844684e+01    0.5887746    0.3093888 -10.66  0.003577126    2.077    0.518
         9 -12.4399    227.9234     13.9872   1.3916053551e+01   2.6335083800e+01    0.4482447    0.3804682 -73.57  0.001853284    1.036    0.035
        10 -10.3471    174.8559     13.4146   2.0082530417e+01   4.0037304273e+01    0.3370907    0.2593023 -20.55  0.001444716    1.473    0.321
        11  -9.6578    112.7761     14.0926   3.2272003122e+01   5.5496980742e+01    0.2363339    0.1765014  -4.56  0.001293126    1.401    0.286
        12 -10.9140    125.2701     12.4350   2.8673570168e+01   5.2751799915e+01    0.3144391    0.2502387 -59.74 5.059136e-05    1.589    0.371
        13  -9.3170     89.8350     13.5313   3.8432174020e+01   6.0462403497e+01    0.2715153    0.1744156  -9.34  0.001433445    1.617    0.382
        14  -9.5568     90.7776      8.8177   3.6069899611e+01   6.0788704895e+01    0.2301482    0.1343203  22.60  0.001136622    1.820    0.451
        15  -9.4827     88.4799      6.3443   3.5654125749e+01   6.1506922439e+01    0.2086053    0.1095043  50.06 0.0007877469    1.763    0.433
        16 -10.8254     70.1334     11.9059   4.4313619691e+01   6.4309350813e+01    0.2961802    0.1982614 -36.53  0.001551294    1.672    0.402
        17 -10.3225    144.9068     12.6972   2.4778147018e+01   4.7874930697e+01    0.3563763    0.1906337  66.58  0.001268004    1.779    0.438
        18 -11.2109    133.0322     12.6689   2.7099281505e+01   5.0844108907e+01    0.2287392    0.2212532  -6.83 0.0002802335    1.133    0.117
        19 -10.4141     98.0436      6.8731   3.3136817517e+01   5.9477437020e+01    0.4493516     0.267524 -15.42  0.002326329    1.753    0.429
        20 -10.2627     31.5143     12.6031   6.1054573359e+01   6.9572945816e+01    0.2579719    0.1575274 -17.67 0.0005569342    1.487    0.327
        21  -9.3056    200.3573     11.7975   1.6288309178e+01   3.3542487362e+01    0.1791471    0.1350302  -9.47 0.0005470303    1.668    0.401
        22 -11.1388    195.5542      3.6344   1.4592878238e+01   3.5617985385e+01    0.3350417    0.2197017  73.14  0.001148669    1.353    0.261
        23 -10.5044    191.5283     11.0905   1.7154920587e+01   3.5910936911e+01    0.3346956    0.1852189 -19.69  0.001376822    2.158    0.537
        24  -9.5813    184.4658     12.0865   1.8349646231e+01   3.7653888300e+01    0.1992843    0.1404974 -26.80  0.001022192    1.565    0.361
        25  -9.6686      3.1372      9.2932   7.4190440624e+01   7.2380269793e+01    0.2022024    0.1052338 -40.27  0.001228361    1.377    0.274
        26 -10.2020      7.8491      9.1356   7.1592131610e+01   7.2121528991e+01    0.1653786    0.1271242 -12.23 0.0005591753    1.204    0.170
        27  -9.2936    147.8060      7.1863   2.2345826923e+01   4.7672818622e+01    0.3290592    0.1512834  18.17  0.001075878    4.214    0.763
        28 -10.1135    107.4391      5.8765   3.0253403567e+01   5.7524201534e+01    0.5835813    0.2608218 -20.10  0.002583059    2.399    0.583
        29  -9.4403    103.4192      7.7145   3.2051330197e+01   5.8236083211e+01    0.1745139    0.1204609  -0.47 0.0007739906    1.523    0.343
        30 -11.7245    217.4884      3.8078   1.2385818412e+01   3.0020855869e+01    0.5309708    0.3766371  40.58  0.002080047    1.757    0.431
        31 -11.9363    184.7749      4.7417   1.6168768624e+01   3.8309019278e+01    0.2876502    0.2305781 -43.94 0.0003347856    1.319    0.242
        32  -9.6812    179.7586      1.6408   1.5882786062e+01   3.9906195929e+01     0.301179    0.1231073  73.14  0.001013197    2.255    0.557
        33  -9.5255    138.4232      6.8813   2.3928498555e+01   5.0068016632e+01    0.2349543     0.167638  70.34 0.0005273964    1.370    0.270
        34  -9.9203     24.6220      7.0721   6.1865359149e+01   7.1092734817e+01    0.1611141    0.1082518 -28.55 0.0004534748    1.178    0.151
        35  -9.6547     20.8847      5.5013   6.3034405746e+01   7.1675472953e+01    0.1806121   0.09939222  27.25 0.0007629081    1.989    0.497
        36 -11.6175    231.9003      3.1783   1.0943360162e+01   2.6549046889e+01    0.3881699    0.2544491 -28.84  0.000920465    1.661    0.398
        37 -11.7567    238.2508      3.5342   1.0500384936e+01   2.4993908280e+01    0.6038217    0.2093836  56.05  0.002305942    3.062    0.673
        38 -11.5768    207.4401      3.0084   1.3162732112e+01   3.2633026416e+01    0.5351729     0.291165 -71.37  0.002440423    2.038    0.509
        39 -11.4338     79.2184      4.2195   3.7573395144e+01   6.3528405364e+01    0.2479276     0.197235  -6.20 0.0005633176    1.181    0.153
        40 -11.4139     74.6547      1.8138   3.7938025852e+01   6.4622234153e+01    0.4626157    0.2210485  51.69  0.002282038    2.129    0.530
        41 -12.1516    159.7222      2.2970   1.8803904942e+01   4.5054334174e+01    0.5113493    0.2824938  61.62  0.002440033    1.541    0.351
        42 -10.1670     46.5266      4.0029   4.9910444689e+01   6.8933027884e+01    0.2309886    0.1824048 -16.29  0.001036189    1.180    0.152
        43 -10.1640     41.6816      1.8744   5.0984050168e+01   6.9849924205e+01    0.2677086    0.1590521   7.06 0.0006311783    1.733    0.423
        44 -11.2107    249.3891      2.1426   9.3215467852e+00   2.2550377883e+01    0.3103562    0.2394947  56.51  0.001910712    1.520    0.342
        45 -10.5227     30.8018      2.8646   5.6674928778e+01   7.1044913690e+01    0.2409271    0.1656082 -41.88 0.0008967831    1.746    0.427
        46 -10.4783     13.8037      3.8248   6.5998764523e+01   7.2529725991e+01    0.3111466    0.1710695  20.67  0.002020308    1.937    0.484
        47 -10.0371    135.9190      2.6290   2.2858960411e+01   5.1069508017e+01    0.2673624    0.1888514 -33.21   0.00143761    1.583    0.368
        48  -9.9857      5.0853      2.2162   7.0076479051e+01   7.3404613592e+01    0.2720554    0.1266868 -17.41  0.001270369    2.282    0.562
        49 -10.0303    142.0029      2.1026   2.1581602894e+01   4.9595199614e+01    0.2034476    0.1808231  61.34  0.000390677    1.045    0.043
        50 -10.0538    115.7520      1.9751   2.6701460867e+01   5.5978330023e+01    0.2096171    0.1716056  52.77 0.0003668986    1.119    0.106
        51 -10.1601     90.6573      1.4792   3.2825057901e+01   6.1532810816e+01    0.2369209     0.139574  56.62 0.0006669865    1.709    0.415
        52  -9.6936     23.6754      1.4159   5.9552751129e+01   7.1995475604e+01    0.1340449   0.08902859   4.66 0.0002954005    1.379    0.275
        53  -9.9533    248.4883    132.0474   3.9989842747e+01   4.0804449805e+00     0.365487    0.2100778 -45.24  0.001679458    1.856    0.461
        54 -10.7304    201.3997    249.6775   7.0799267067e+01  -4.4672020949e+00    0.2514004    0.1765692  56.79  0.001358058    1.808    0.447
        55 -11.2697    115.8529    248.6254   8.6013307137e+01   9.4835662467e+00    0.2832287    0.2039145  75.57  0.001905203    1.427    0.299
        56  -9.0187    225.4719    133.5220   4.4327774259e+01   8.5997197741e+00    0.1443964    0.1384547 -22.79  0.000639277    1.079    0.073
        57  -9.6071      8.1838    132.9826   9.6757072760e+01   4.6305486484e+01    0.2012976   0.09419257 -54.07  0.001096359    2.090    0.522
        58  -8.9032     41.4611    129.5139   8.7967197865e+01   4.4265631267e+01    0.1278376    0.1053223 -79.19 7.628489e-05    1.004    0.004
        59 -10.9679      3.5408    123.9840   9.7045082158e+01   4.8614973152e+01    0.3295815    0.1624429  81.77  0.001499093    2.030    0.507
        60 -10.3340     28.4503    118.1690   8.9880904799e+01   4.8111499045e+01    0.2864511    0.1741994 -87.03  0.001133363    1.584    0.369
        61  -9.9649     22.2347    119.7437   9.1762707200e+01   4.8258321535e+01    0.3028285    0.1372579 -69.32  0.001152471    1.731    0.422
        62 -10.7695     20.6678    117.0146   9.1838929063e+01   4.9003943126e+01    0.3963155    0.2637798 -27.40   0.00235287    2.092    0.522
        63 -10.4995    241.2566    124.6499   3.9487289878e+01   6.7490468046e+00    0.2491336    0.2269503 -59.88  0.001417871    1.265    0.210
        64  -9.4455    221.4531    119.5350   4.1725239773e+01   1.1906521950e+01    0.2639696    0.1317606  40.24  0.001025372    2.202    0.546
        65  -9.2970     80.4735    115.5367   7.4728181682e+01   4.2687982311e+01    0.1406269     0.128432 -63.30 1.433314e-05    1.028    0.027
        66  -9.9030      8.4613    113.5052   9.4694160994e+01   5.0649858830e+01    0.1180459    0.0899811 -79.01 9.753154e-05    1.027    0.026
        67 -11.8199     37.0328    110.2439   8.6297250772e+01   4.9182875287e+01    0.2381076    0.1842378 -69.27 0.0003634585    1.067    0.063
        68  -9.2540      4.9633    110.9867   9.5348666372e+01   5.1427917666e+01    0.1333079    0.1107382 -78.60 0.0004490861    1.100    0.091
        69  -9.4383     20.9852    109.6407   9.0781150546e+01   5.0664911994e+01    0.1591121    0.1386583 -72.82 0.0005650069    1.110    0.099
        70  -9.4453    161.6555    103.8836   5.0076418797e+01   2.9044321244e+01    0.2132097    0.2000672 -51.54  0.000337439    1.083    0.076
        71 -10.0930    101.1913    103.8200   6.6024823229e+01   4.1990702388e+01    0.2877225     0.214652  24.87  0.001397207    1.583    0.368
        72 -10.1338     70.7610    102.7621   7.4817318865e+01   4.7066470939e+01    0.3038217     0.240366 -31.06  0.001678848    1.411    0.291
        73 -10.8029     56.2607    101.0947   7.8884640493e+01   4.9297137074e+01     0.413939    0.2214466 -27.45  0.001526153    3.183    0.686
        74  -9.3253     27.9513    102.2588   8.7676333646e+01   5.1813925308e+01    0.1593777    0.1393817 -66.53            0    1.091    0.084
        75 -10.6092     52.0398     98.6743   7.9688675813e+01   5.0338931294e+01    0.6134799    0.1836574 -44.10  0.002020325    4.013    0.751
        76 -11.4989    245.2276     98.4366   3.2626468350e+01   1.0175151106e+01    0.4197335    0.3136648  67.22  0.002165691    1.557    0.358
        77  -9.7506    117.9271     97.6363   5.9620323991e+01   4.0158374943e+01    0.2407534    0.2017609 -33.62 0.0004802894    1.223    0.182
        78  -9.6740    126.0222     97.0119   5.7212648426e+01   3.8606521286e+01    0.2467126    0.1947363  89.40  0.001132289    1.660    0.397
        79  -9.5842      6.9995     97.4918   9.3160166262e+01   5.4326768482e+01    0.1401019    0.1180013  16.70 0.0004588823    1.562    0.360
        80  -9.4990    166.0931     95.3507   4.6690699345e+01   2.9674277665e+01    0.2741872    0.2193369 -24.58   0.00107698    1.360    0.265
        81  -9.6533     86.6858     96.2996   6.8421234447e+01   4.6173585071e+01    0.1413864     0.111658  83.70 0.0002461229    1.609    0.379
        82  -9.9769     42.0368     95.0696   8.2089998901e+01   5.2211767297e+01    0.1948263    0.1592968 -62.52 0.0004434842    1.028    0.028
        83  -9.6982     47.5102     91.5428   7.9630105664e+01   5.2464922729e+01    0.2165684    0.1561961 -67.66  0.000697148    1.274    0.215
        84 -11.0401     42.9819     89.8574   8.0734733354e+01   5.3308691611e+01    0.3267311    0.2261472 -15.09  0.001803469    1.910    0.477
        85  -9.7551     18.0046     90.8834   8.8879090478e+01   5.5129689732e+01    0.1753478    0.1393179 -66.43 0.0003119399    1.015    0.015
        86  -9.3726     61.2906     90.6515   7.4996750805e+01   5.1088430935e+01    0.1337026      0.10152  87.05 0.0007027194    1.665    0.400
        87  -8.9527     34.2989     90.6588   8.3689007567e+01   5.3930958914e+01    0.1240674     0.089156  81.46 0.0007035186    1.667    0.400
        88 -10.4553     26.0563     87.5099   8.5746921377e+01   5.5313450441e+01    0.1925388    0.1387475 -63.91 0.0005100849    1.118    0.105
        89  -9.0376     21.3883     87.4984   8.7244188860e+01   5.5657340154e+01    0.1225103    0.0943112 -63.05 7.000301e-05    1.027    0.026
        90 -11.1978      3.2300     84.6431   9.2542025392e+01   5.7371676844e+01    0.3387013    0.1854481 -56.56 0.0009506744    1.413    0.292
        91 -10.2824    143.2024     83.4256   4.8741264107e+01   3.7541915725e+01    0.5718369    0.1992607 -44.75  0.001789401    2.976    0.664
        92  -9.8802    117.1918     83.1640   5.5672910357e+01   4.3388756930e+01    0.2463755    0.2122982  66.95 0.0003333005    1.323    0.244
        93 -11.2491     66.0555     84.9731   7.2053229850e+01   5.1754211209e+01    0.3911473    0.2614065 -22.25  0.001933087    1.913    0.477
        94  -9.9574    155.0228     85.0534   4.6318141205e+01   3.4387882966e+01    0.2323183    0.2217501  26.13            0    1.064    0.060
        95 -10.7452     81.6637     82.3145   6.6257486456e+01   5.0081487991e+01     0.390227    0.2541213 -33.49 0.0007638863    1.623    0.384
        96 -10.2553     51.7559     82.1649   7.6110332897e+01   5.4122298148e+01    0.2636074    0.1522271 -42.72  0.001342474    1.604    0.377
        97 -10.5872     73.2076     80.5500   6.8523940963e+01   5.1740526525e+01    0.4284968    0.2275851 -32.09  0.001609349    2.345    0.573
        98  -9.9014     91.7862     80.8198   6.2605991106e+01   4.8733006017e+01      0.20993    0.1836882 -25.76 0.0003700532    1.133    0.118
        99  -9.5148    150.0046     80.0550   4.6037321471e+01   3.6567771751e+01    0.2501972    0.1940243  10.50 0.0008099414    1.634    0.388
       100  -9.6024     66.6117     80.2061   7.0621586018e+01   5.2734316507e+01    0.1983195    0.1107426 -44.56 0.0005497452    1.616    0.381
       101 -10.1276     42.7444     79.5541   7.8548843888e+01   5.5646227359e+01    0.3268165     0.197587 -18.38  0.001192969    2.304    0.566
       102  -9.1106     19.5045     80.4626   8.6600365091e+01   5.7353851466e+01    0.1213128   0.09550559 -60.16 0.0001106118    1.003    0.003
       103 -10.6785    166.9760     78.0001   4.1483727074e+01   3.2743339410e+01    0.2300783    0.2277333  76.64            0    1.013    0.013
       104  -9.8488     51.8197     77.4268   7.4919433155e+01   5.5163426096e+01    0.2310694    0.1627854 -52.62 0.0005644523    1.211    0.175
       105  -9.7562    119.1252     76.6091   5.3116934510e+01   4.4312737249e+01    0.2521393    0.2033578 -51.82 0.0004336314    1.303    0.233
       106  -9.6872    110.4512     77.4915   5.5903274238e+01   4.5931418235e+01    0.3189736    0.1475946  43.39  0.001225378    2.220    0.550
       107 -10.6974     88.9917     73.5646   6.1321447925e+01   5.0738953549e+01    0.4714324    0.3014208 -21.62  0.002103686    2.016    0.504
       108 -10.9417     95.4104     71.5220   5.8634646915e+01   5.0025120589e+01    0.3537211    0.3396553  67.74 0.0008964204    1.194    0.162
       109  -9.3989     78.0826     74.7274   6.5247630200e+01   5.2266491839e+01    0.1832353    0.1733997 -18.17 0.0004072796    1.065    0.061
       110 -10.0429     59.4780     72.8951   7.1065511514e+01   5.5243736936e+01    0.2434722    0.1874281 -55.71 0.0003734896    1.220    0.180
       111 -10.2905     28.7185     74.6093   8.2285131516e+01   5.7974896484e+01    0.2390439    0.1764766 -57.79  0.000968598    1.096    0.088
       112 -10.8743    166.2083     72.6672   4.0058471093e+01   3.3896597025e+01    0.3384999    0.2817436  76.96 0.0002102209    1.325    0.245
       113  -9.5597    166.5331     68.4943   3.8724524880e+01   3.4544694969e+01    0.2519785    0.2419223 -28.50 0.0006919712    1.068    0.063
       114  -9.3603    136.5065     71.9759   4.6930911149e+01   4.1316229490e+01    0.2213794    0.1518421 -38.61 0.0003632002    1.464    0.317
       115 -11.0622     52.4369     68.9755   7.2467723461e+01   5.6921781989e+01    0.3743378    0.3492411 -37.58  0.002473812    1.104    0.094
       116  -9.5223    144.0716     70.5856   4.4573101130e+01   3.9773957959e+01      0.44241    0.1029569  42.46 0.0009532698    6.236    0.840
       117 -10.2761     64.3885     69.7680   6.8461928070e+01   5.5276900829e+01    0.2417405    0.2116965  75.68  0.001437106    1.482    0.325
       118  -9.0746     39.5552     71.5538   7.7751034603e+01   5.7707376201e+01    0.1263794    0.1051799 -50.32 0.0001354576    1.021    0.020
       119  -9.4064    102.7661     68.8218   5.5475748605e+01   4.9183539741e+01     0.253979    0.1596562  -2.93 0.0009565859    2.835    0.647
       120 -10.6695     29.9145     67.9624   8.0354978297e+01   5.9323083824e+01    0.3050266    0.2464973 -27.92  0.001257349    1.256    0.204
       121 -10.9235     22.5174     67.8440   8.3009989271e+01   5.9904304300e+01    0.2810895    0.2644545  54.89  0.001562739    1.336    0.252
       122 -10.1335      4.4954     68.9963   8.9642868626e+01   6.0709160789e+01    0.1877497     0.142691 -78.73 0.0003414396    1.260    0.207
       123 -10.2845      2.3470     66.2610   8.9913572660e+01   6.1392281711e+01    0.3026465    0.1162785 -53.97  0.001625679    1.831    0.454
       124  -9.5644    108.8024     72.3314   5.4774630908e+01   4.7299827916e+01    0.2957253    0.1918932 -15.62  0.001228603    2.159    0.537
       125 -11.0642     15.5308     64.6824   8.4867095080e+01   6.1037684859e+01    0.5442253    0.2263879 -24.43   0.00109212    3.700    0.730
       126  -9.7264    147.6102     66.4234   4.2390019365e+01   3.9660526032e+01    0.2623523    0.1842914 -31.57 0.0003589845    1.473    0.321
       127  -8.7073    143.3055     66.3285   4.3408988748e+01   4.0727887448e+01    0.1598501     0.120577  14.12 0.0003578356    1.653    0.395
       128 -10.3402     76.3135     65.3375   6.2971926501e+01   5.4482865518e+01    0.3533899    0.2199275 -17.80  0.001046052    2.185    0.542
       129  -9.9665     77.6338     61.7298   6.1353155410e+01   5.4998889509e+01    0.2597599    0.1842973  17.10 0.0005832135    1.622    0.384
       130  -8.8281    203.5277     65.5032   3.0788005086e+01   2.5500960327e+01    0.1511825    0.1454459 -75.24 -6.848029e-05    1.006    0.006
       131 -11.1340    135.7135     64.3255   4.4674528649e+01   4.2901848446e+01    0.4106121    0.3001669  85.07  0.001782272    1.993    0.498
       132  -9.0468     97.7071     64.2884   5.5564316238e+01   5.1031364804e+01    0.2263762    0.1768641 -40.55  0.000248741    1.237    0.192
       133 -10.3073     96.1741     61.6313   5.5160291429e+01   5.1827173733e+01     0.205534    0.1794972  21.44 0.0005645414    1.155    0.135
       134  -9.2804     26.8439     63.1614   8.0335502558e+01   6.0588117928e+01    0.1745711     0.112861 -42.12 0.0005907807    1.314    0.239
       135 -11.2275      8.7607     50.5492   8.4296170158e+01   6.4368805530e+01    0.3574504     0.212976  -8.48  0.001519269    2.025    0.506
       136 -11.8809      6.5075     61.8853   8.7600601194e+01   6.2125719925e+01    0.3452379    0.2985517 -75.63 0.0006114909    1.232    0.188
       137 -10.7006      5.9619     55.2990   8.6455001248e+01   6.3530785339e+01    0.2269561     0.181992 -36.59 0.0006158082    1.207    0.171
       138  -9.6831    123.7106     62.0339   4.7111573635e+01   4.6076427654e+01    0.2085068     0.186055 -31.99 0.0004414028    1.120    0.107
       139 -10.5050     65.8262     61.7627   6.5518579415e+01   5.6734461270e+01    0.3000254    0.2114937  38.03  0.001200465    1.597    0.374
       140 -10.4288     61.9469     58.3157   6.5825051170e+01   5.7950385809e+01    0.2532555    0.1842869 -40.63 0.0006155971    1.202    0.168
       141 -10.5500     64.4641     54.5339   6.3655845909e+01   5.8352857514e+01    0.2418007    0.2146301 -60.35  0.001040211    1.344    0.256
       142 -10.1746     61.5676     52.4607   6.4030696091e+01   5.9147681317e+01    0.2256363    0.1927911 -28.85 7.039992e-05    1.017    0.017
       143  -9.2314     43.5928     61.7375   7.3683808067e+01   5.9400203502e+01    0.1657818    0.1090831 -59.00 0.0008153549    1.449    0.310
       144  -9.0944     82.5000     61.5345   5.9625508421e+01   5.4252716770e+01    0.1419117    0.1242968 -17.57 0.0008086086    1.073    0.068
       145  -9.5400     71.8861     61.1239   6.3159502314e+01   5.5996343338e+01    0.1983207    0.1880945 -63.79  0.001080732    1.248    0.199
       146  -9.1818    216.9916     59.2286   2.6947745537e+01   2.3062768948e+01    0.1967405    0.1831852 -85.56 0.0002158219    1.044    0.042
       147 -11.9161     55.8857     56.8679   6.7608126587e+01   5.9014124261e+01     0.273548    0.2319872   7.52 0.0003711593    1.250    0.200
       148 -10.1198     29.8818     52.0250   7.6228511552e+01   6.2656242406e+01    0.3343182    0.1602873  21.45  0.001294932    2.464    0.594
       149 -11.4840     25.2702     56.5370   7.9272387154e+01   6.2094520950e+01     0.402438    0.2092493 -66.76  0.002097481    1.980    0.495
       150 -11.1545     20.2294     53.3211   8.0419046149e+01   6.3116193141e+01    0.2871776    0.2440015 -44.50  0.001249207    1.095    0.087
       151  -9.2224    226.4037     57.1488   2.5048915863e+01   2.1037409553e+01    0.2107654    0.1215763 -45.06  0.000505224    1.652    0.394
       152 -10.2127    136.1646     56.0644   4.1819074253e+01   4.4222286355e+01    0.2220367    0.2177509   6.61 0.0004351401    1.034    0.033
       153  -9.3148    163.5688     55.5510   3.5345224608e+01   3.7456261775e+01    0.1524719    0.1468598  45.11 8.772544e-05    1.024    0.023
       154 -10.3939     35.6173     53.3182   7.4326854956e+01   6.1896814482e+01    0.3665462    0.1274916 -44.18  0.001611868    2.350    0.574
       155  -9.5931     43.3201     53.9354   7.1492610974e+01   6.1023545683e+01    0.1806855    0.1418201 -43.10  0.000538895    1.078    0.072
       156  -9.8269    122.9320     52.0425   4.3901919001e+01   4.7979653511e+01    0.2959467    0.1962956 -33.23 0.0007938445    1.521    0.343
       157 -10.4589     70.4696     51.9587   6.0576903492e+01   5.7980726613e+01    0.3744051    0.2213658 -28.79  0.001567113    1.737    0.424
       158 -10.4433     87.4123     48.7538   5.3497795380e+01   5.5783265024e+01      0.33722    0.2522531  10.57  0.001342879    1.465    0.317
       159  -9.4443    176.3427     47.8022   3.0422160619e+01   3.5311512238e+01    0.2160843    0.1461653 -17.30 0.0009517089    1.764    0.433
       160 -10.3062    128.7062     48.4678   4.1116135474e+01   4.7227843645e+01    0.4438763     0.147504  54.64  0.001431256    3.093    0.677
       161 -10.2756     46.2296     47.1287   6.8161016801e+01   6.2049310134e+01    0.2958047    0.2033581  26.59  0.001036336    1.623    0.384
       162  -8.8757    234.7155     47.2818   2.1451654399e+01   2.0437029189e+01     0.143393   0.09801263 -64.33 0.0002127796    1.518    0.341
       163  -9.6712     37.8892     47.5485   7.1654885583e+01   6.2831345689e+01     0.209835    0.1194426  16.82  0.001139615    2.070    0.517
       164  -9.4522     26.5552     46.8042   7.6062976645e+01   6.3969634197e+01    0.1708636   0.09503637 -51.55  0.000576867    1.438    0.304
       165  -9.8955     17.1552     46.7536   7.9927779056e+01   6.4650469810e+01    0.2020349     0.137289 -51.57 0.0007326007    1.151    0.131
       166  -8.6805    166.3126     46.2669   3.1853550038e+01   3.8163696516e+01    0.1534684    0.1119285  32.27 0.0001849968    1.544    0.352
       167  -9.5988    150.1024     44.5356   3.4655339680e+01   4.2592681419e+01    0.4384742    0.1792172 -49.88  0.001373825    3.589    0.721
       168 -12.5260     61.9101     44.4787   6.1089442600e+01   6.0593791139e+01    0.3292561    0.2547897  27.01 0.0003843831    1.374    0.272
       169  -9.5123    122.3345     45.0248   4.1573073240e+01   4.9243806063e+01    0.2092119     0.190829 -24.60   0.00115441    1.119    0.106
       170  -9.3007    115.4298     45.1762   4.3524367279e+01   5.0769912921e+01     0.275604      0.10106  47.76  0.000785186    2.603    0.616
       171 -10.1653    248.8230     43.8204   1.8970520100e+01   1.7588503550e+01    0.1980387    0.1455327 -65.01  0.001059578    1.313    0.238
       172 -10.4420    106.2296     43.6536   4.5628856227e+01   5.2986014019e+01    0.4025516    0.2688108  67.79 0.0008662716    2.197    0.545
       173 -10.8685     22.3265     41.6210   7.6282188361e+01   6.5308152833e+01    0.2782292    0.1531888 -41.36 0.0009261469    1.433    0.302
       174  -9.4521     24.0934     36.7125   7.3965936220e+01   6.6114547362e+01    0.2572823    0.1946676  61.74  0.001071366    2.261    0.558
       175 -10.6456     79.0866     45.6602   5.5217116228e+01   5.7762490976e+01    0.6888675    0.2478536 -34.78  0.002549812    2.898    0.655
       176  -9.8593     11.3816     42.6665   8.1234870656e+01   6.5812793069e+01    0.2264772    0.1216422 -46.29 0.0006367712    1.388    0.279
       177 -10.6684     14.1584     39.0332   7.9026777071e+01   6.6361302011e+01    0.2806264    0.2007226 -55.15   0.00121454    1.223    0.182
       178 -10.2396      8.9870     31.3032   7.9019900219e+01   6.8141981103e+01    0.3025483     0.176495  17.74  0.001467609    2.024    0.506
       179 -11.2210      8.0124     38.0803   8.1430351586e+01   6.6896636072e+01    0.4095029    0.2005592 -67.86  0.001691571    2.156    0.536
       180 -10.8112      4.5236     34.0505   8.1848838764e+01   6.7851457803e+01    0.3413169    0.1527905 -51.49   0.00110304    1.572    0.364
       181  -9.9620    201.0019     43.1672   2.4945443792e+01   2.9504550714e+01    0.3253578    0.1971206  75.93 0.0009517077    1.767    0.434
       182  -9.4460    145.1700     40.7307   3.4460383024e+01   4.4388825102e+01    0.2163767    0.1645236  29.26  0.001051638    1.406    0.289
       183  -9.6851     73.6774     41.0196   5.5397230290e+01   5.9447039142e+01    0.2281125    0.1491661 -23.81  0.001188808    1.506    0.336
       184  -9.2781     34.5274     41.4592   7.1057500932e+01   6.4323839203e+01    0.1258723   0.09468755 -31.01 0.0001342655    1.100    0.091
       185 -10.0742    228.7105     39.4419   2.0206915223e+01   2.2978358124e+01    0.2543051    0.2363275  -7.19 0.0007855126    1.280    0.219
       186  -9.9476    124.8755     40.0154   3.9092172280e+01   4.9414655677e+01    0.2897413    0.1940843  51.56  0.000691749    1.440    0.306
       187 -12.1910    238.6337     37.8262   1.8651017502e+01   2.0787774951e+01    0.3159896    0.2674277 -65.55 0.0003286639    1.071    0.066
       188 -10.7778    242.7788     34.2113   1.7324616278e+01   2.0279530483e+01    0.2517447    0.2257461 -10.40  0.001047808    1.369    0.270
       189 -10.1145     86.0921     38.1557   4.9925027396e+01   5.7798145785e+01    0.3056208    0.1797258 -33.00  0.001498733    1.630    0.386
       190  -9.5620     40.5525     39.0727   6.7702709334e+01   6.4175403281e+01    0.2009791    0.1149322 -32.74  0.000767799    1.553    0.356
       191  -9.7316    205.6617     37.7564   2.2760466495e+01   2.9035079593e+01    0.3637464    0.1802651  41.90  0.001395245    2.576    0.612
       192 -10.3493    247.2380     36.7618   1.7464602041e+01   1.8901629936e+01    0.1699071    0.1616695  16.18 0.0009072774    1.313    0.239
       193 -10.6902    113.4783     34.6275   4.0137798131e+01   5.2784103491e+01    0.4769887     0.254129  42.10  0.002106793    1.801    0.445
       194 -10.6870     97.8417     35.0431   4.4887557853e+01   5.6030223830e+01    0.2357375    0.1879953  30.69 0.0002797515    1.190    0.160
       195  -9.7293     78.3249     35.0513   5.1383504756e+01   5.9660070009e+01    0.2330199    0.2238712 -67.20 0.0008170771    1.412    0.292
       196 -11.5352     78.0959     30.0751   4.9436489249e+01   6.0466971221e+01    0.4071611    0.3303203  68.02 0.0004623717    1.905    0.475
       197 -10.3473     72.6005     30.8022   5.1720476058e+01   6.1282002224e+01    0.3091817     0.203934 -41.74 0.0008272281    1.614    0.380
       198 -10.2160     60.8576     34.2829   5.7603907161e+01   6.2518405544e+01    0.2220696    0.1564754 -29.18 0.0003614267    1.248    0.199
       199  -9.2445    177.3282     34.2174   2.6082414414e+01   3.6939348889e+01    0.1982001    0.1297145 -40.19 0.0002311223    1.578    0.366
       200  -9.8495     43.9803     31.9733   6.3606871225e+01   6.5070890592e+01    0.2093163    0.1589088 -53.82 0.0004804397    1.602    0.376
       201 -10.0506     31.2257     33.6825   6.9786523626e+01   6.6074132757e+01    0.1905984    0.1350685  12.56 0.0006305586    1.526    0.345
       202  -9.6536    223.7353     33.5882   1.9308407607e+01   2.4986290390e+01    0.2825242    0.1198317  61.68  0.001145398    2.228    0.551
       203 -11.5359    106.8730     30.7310   4.0492132524e+01   5.4769969955e+01    0.5096253    0.3391323   5.65   0.00243814    1.821    0.451
       204  -9.8398     76.8963    248.2382   9.2753076118e+01   1.5244245138e+01    0.2481914    0.1197536  62.20  0.001434469    1.804    0.446
       205 -11.0852    248.6536     30.3138   1.5802772408e+01   1.9409439911e+01    0.3282928    0.2432919   0.02  0.001220646    2.002    0.501
       206  -9.5427     65.0365     32.0133   5.5063671549e+01   6.2279451599e+01    0.1790202    0.1610531 -67.25 0.0005173695    1.651    0.394
       207 -10.2030     65.0033     28.0358   5.3426833759e+01   6.2910912085e+01    0.2467336    0.1798389 -19.19 0.0007505913    1.230    0.187
       208 -10.9421     62.4301     23.0187   5.2275247179e+01   6.4058033505e+01    0.2962941    0.2240118 -12.32  0.001285875    1.161    0.138
       209 -10.3486    233.5339     30.6087   1.7438382364e+01   2.2957673436e+01    0.2889643    0.2285495  55.54 0.0008088215    1.376    0.273
       210  -9.7104    141.9946     30.9679   3.1779490459e+01   4.6511607104e+01    0.2375027    0.1620692  27.89 0.0005282796    1.647    0.393
       211  -9.1348    133.2745     31.1767   3.3816722694e+01   4.8638204355e+01    0.1909656    0.1673796  86.62 0.0005255723    1.330    0.248
       212 -10.0255    119.6087     31.0697   3.7143206036e+01   5.1889816599e+01    0.2572897    0.1827715  42.29 9.207946e-05    1.311    0.237
       213  -9.2323    178.6385     30.1636   2.4626060672e+01   3.7112760557e+01    0.1972794    0.1423615  -9.27 0.0006282638    1.707    0.414
       214 -10.5189     18.7610     28.3979   7.3549595176e+01   6.8053587640e+01    0.2750958    0.1755518 -60.48 0.0008976527    1.747    0.428
       215 -10.1866    146.3788     28.8164   3.0100563967e+01   4.5679860846e+01    0.2557209    0.1912949  61.02 0.0002797101    1.269    0.212
       216 -11.2579     36.8846     27.2443   6.4837183047e+01   6.6656656146e+01    0.3317867     0.245406   3.65  0.000935727    1.341    0.254
       217 -10.3624    222.0699     26.5298   1.7688766675e+01   2.6298520767e+01    0.2660517    0.1697381 -51.51 0.0007094111    1.511    0.338
       218 -10.5215     50.1659     22.3288   5.6984770941e+01   6.5893648400e+01    0.2579724     0.183563 -12.80 0.0005523023    1.260    0.206
       219  -9.8504     48.7746     27.0097   5.9567659042e+01   6.5330614942e+01    0.1948788    0.1447258   7.69  0.001223175    1.313    0.238
       220  -9.8246     45.5518     25.0258   6.0117328049e+01   6.6048853483e+01    0.2797694    0.1574149 -38.70  0.001338582    1.560    0.359
       221 -11.4524    245.3245     25.6746   1.5039356114e+01   2.0767336207e+01    0.2390928    0.2243835  48.51  0.001513521    1.301    0.231
       222  -9.2180    100.4171     26.2614   4.0593666727e+01   5.6738422650e+01    0.1857907    0.1242836 -36.97 0.0007732915    1.605    0.377
       223 -10.6100      1.7579     25.3245   8.0557112839e+01   6.9626636775e+01    0.2377026    0.1283479 -58.41  0.001281556    1.558    0.358
       224  -9.1769     78.4877     24.4650   4.6935248234e+01   6.1212020832e+01    0.1336137    0.1123476   3.89 4.946166e-05    1.028    0.027
       225  -9.5979    149.8779     23.2040   2.7468590247e+01   4.5465626553e+01    0.2017483    0.1893755 -77.33  0.000556066    1.155    0.134
       226  -9.5354     49.0508    249.5331   9.7446797027e+01   1.8636765020e+01    0.1589786   0.07997636  47.08  0.001026707    1.580    0.367
       227 -10.6111     86.1049     22.1030   4.3335384733e+01   6.0135738374e+01    0.2531504      0.20711  38.63  0.000497177    1.232    0.188
       228 -10.4997     26.2052     22.3036   6.7767061373e+01   6.8525789564e+01    0.2680023     0.136938 -40.19  0.000587287    1.549    0.355
       229 -10.5503    221.6666     21.0483   1.6330719151e+01   2.7064851790e+01    0.3545192    0.2577794  78.37  0.001120748    1.291    0.225
       230 -10.0861    217.2241     17.4599   1.5893250344e+01   2.8600554291e+01     0.222711    0.2071599 -55.66 0.0004741668    1.129    0.114
       231  -9.8273    116.4217     22.4743   3.4664326458e+01   5.3713604779e+01    0.3253336    0.1368366  47.42  0.001322552    2.122    0.529
       232 -11.8620    105.0232     20.8299   3.7056438014e+01   5.6449337804e+01     0.244208    0.2190757  19.19 0.0002849542    1.027    0.026
       233  -9.3249     70.5194     22.5281   4.8971527909e+01   6.2847376896e+01    0.1303268    0.1090508  -0.47 2.739417e-05    1.003    0.003
       234  -9.3662     12.2801     22.3697   7.4485830223e+01   6.9579307271e+01    0.1876946   0.09459596 -28.36  0.001061889    1.796    0.443
       235 -11.2981    244.5582     20.8277   1.3975743270e+01   2.1539800782e+01    0.2394343    0.1740784  79.44 0.0006202165    1.321    0.243
       236  -9.1060    212.1901     21.5955   1.7543812176e+01   2.9394570699e+01     0.191586    0.1188009  59.64 0.0005343765    1.553    0.356
       237  -9.5899    193.3210     20.0169   1.9467051053e+01   3.4463819928e+01    0.1871502    0.1724039 -56.93 0.0002928502    1.116    0.104
       238 -10.4298    166.1717     18.3575   2.2966361900e+01   4.1786252710e+01    0.3562383    0.2187313  41.50   0.00117703    1.705    0.413
       239 -10.4829    247.6558    244.8739   6.2060858894e+01  -1.0998834451e+01    0.2064859   0.09458052 -20.82  0.001097451    2.594    0.615
       240  -9.2677    238.3189    244.6656   6.3611729521e+01  -9.6086348081e+00     0.100623   0.08710688  49.58 0.0007048905    1.698    0.411
       241  -9.4006     45.7957    243.7080   9.7621288700e+01   2.0022318727e+01    0.1970935   0.08839945  35.12  0.001082164    2.652    0.623
       242  -9.8280    198.6873     18.8563   1.8443168633e+01   3.3195759580e+01    0.2809235    0.1841645  75.29  0.001198551    1.431    0.301
       243 -10.6743    182.3132     18.4030   2.0515366761e+01   3.7537452265e+01    0.2665229    0.2287478  49.91 0.0006726155    1.178    0.151
       244 -10.3734    152.1903     18.2012   2.5328965349e+01   4.5436357669e+01    0.2361164    0.2073318 -74.69  0.000357695    1.257    0.205
       245  -9.1821    109.5094     23.5909   3.6929865975e+01   5.5130967567e+01    0.1397144    0.1226118  26.60 5.930681e-05    1.021    0.021
       246 -10.0209     90.0445     20.7230   4.1474292655e+01   5.9553879587e+01    0.2076031    0.1756857 -14.35 0.0002210456    1.155    0.134
       247  -9.9025    145.5119    242.4731   7.9971348589e+01   5.6905510702e+00     0.123034   0.09607267  45.62 6.784104e-05    1.038    0.037
       248 -10.2003    202.1374    240.3999   6.9324200968e+01  -3.4379638199e+00    0.2871042    0.1210595  39.08  0.001166443    1.872    0.466
       249 -10.8525    188.9696    240.6059   7.1743299883e+01  -1.2910434163e+00    0.2929949    0.0947462  41.67  0.001254949    2.430    0.588
       250  -9.9921     46.0396     15.1149   5.5527295383e+01   6.7506023048e+01    0.2213014    0.1728269   6.89  0.000962787    1.157    0.136
       251 -10.6283    248.5303    239.1629   6.0999550610e+01  -1.0524595587e+01    0.2200567    0.1355667  46.31   0.00132428    1.929    0.482
       252 -10.2625    195.0164     15.1098   1.7856101479e+01   3.4570982092e+01    0.2111307    0.1866701 -89.53 0.0003913687    1.035    0.034
       253 -10.9405    221.5620    237.4285   6.5395442325e+01  -6.2088306320e+00    0.2840609    0.1367208  31.52  0.001090665    1.773    0.436
       254  -9.1333    122.3497    238.7220   8.3801044756e+01   1.0050211153e+01    0.1262717   0.07513867  62.02 0.0004971832    1.641    0.391
       255  -9.8071    177.9905    237.7495   7.3355268034e+01   9.3991682236e-01     0.168203   0.08561404  41.34 0.0007308186    1.550    0.355
       256 -10.1108    239.8061    235.7718   6.1939707911e+01  -8.8534085306e+00    0.1479957    0.1266983  28.57 0.0006535209    1.320    0.242
       257  -9.4700     66.8101    234.7912   9.3451484313e+01   1.8924649229e+01     0.166783     0.100419  66.41  0.001068326    1.353    0.261
       258  -8.9858    218.3523    231.2884   6.4995392009e+01  -4.9417947288e+00    0.1278611   0.07893905  17.78 0.0007024882    1.669    0.401
       259  -9.3169    178.4653    231.4959   7.2374104991e+01   1.7497421512e+00     0.127321    0.1017399  35.87 0.0002910576    1.031    0.030
       260  -9.6308     11.2756    231.3709   1.0251668247e+02   2.5982888636e+01    0.1382715    0.0671792  52.43 0.0006912712    1.570    0.363
       261  -9.2064     32.0028    232.2325   9.9210549773e+01   2.3644173304e+01    0.1268551   0.07138353  47.19 0.0003339461    1.538    0.350
       262  -8.7473    105.6691     13.2819   3.3780859091e+01   5.7170885081e+01    0.1248832    0.1070062 -74.85 0.0002640219    1.608    0.378
       263  -9.3483     97.0037     12.9535   3.6044803909e+01   5.9063297643e+01    0.1866298    0.1602367  19.48 0.0004084425    1.014    0.014
       264 -10.0586    223.8581    225.5822   6.3075369666e+01  -5.1246322241e+00    0.1816856    0.1413098 -30.06  0.001181534    1.505    0.336
       265  -9.0835    125.6079    225.8217   8.1699358168e+01   1.1683876769e+01    0.1587783    0.1140691 -82.01 0.0009434707    1.664    0.399
       266  -9.7726    235.6427    225.1412   6.0905102975e+01  -6.9687838621e+00    0.1988066    0.1419477  35.78 0.0005129288    1.269    0.212
       267  -9.3486    207.8089    226.4041   6.6129585345e+01  -2.5605093485e+00    0.1885334   0.09619633  32.33 0.0009485722    1.732    0.423
       268  -8.8375    109.2835    221.6818   8.4360336406e+01   1.5071573145e+01    0.1268959   0.08102063  68.67 0.0005884217    1.585    0.369
       269  -9.2083     89.1848    221.0112   8.8142099947e+01   1.8289589878e+01    0.1597989    0.1278729  31.37 0.0007445794    1.605    0.377
       270 -10.1717     66.2971     15.6801   4.7488361786e+01   6.4472510185e+01    0.2174116    0.1849636  -5.97  0.000641581    1.097    0.088
       271 -10.4324    249.0907    219.0703   5.7518974587e+01  -8.3480329656e+00    0.1648357    0.1523211  56.34  0.001138215    1.729    0.422
       272  -8.7759    175.0000    217.9355   7.1004109355e+01   4.3986637334e+00    0.1818372   0.07607503 -45.05 0.0005531951    2.875    0.652
       273  -9.6830    179.8406    216.6809   6.9868055783e+01   3.7266412096e+00    0.1997091    0.1724597 -15.69 0.0008083543    1.350    0.259
       274  -9.8451    212.2004    215.1993   6.3461472806e+01  -1.7869721905e+00    0.1623435    0.1428953  41.45 0.0007043348    1.262    0.208
       275 -10.0245    232.9471    212.6860   5.9230456840e+01  -4.9719424307e+00    0.1821154    0.1460041  24.20  0.001172575    1.071    0.066
       276  -8.9801    242.6666    214.6942   5.7863548743e+01  -6.8091189566e+00    0.1298367   0.07995635  12.57 0.0007039286    1.665    0.399
       277  -8.8345    117.7204    211.7095   8.1498958076e+01   1.5526579205e+01    0.1125096    0.1004356  13.09 0.0002488818    1.525    0.344
       278  -9.4425     80.9869    198.9833   8.7437966032e+01   2.3787327155e+01    0.1651055    0.1547136 -21.18 0.0004962085    1.602    0.376
       279  -9.8211      5.3351    199.6988   1.0197844426e+02   3.2459714532e+01     0.114673   0.05513067  66.51 0.0006661267    1.658    0.397
       280  -8.7091    243.3275    197.3183   5.4565091565e+01  -4.6772127698e+00    0.1351412   0.08597843  10.07 0.0007046386    1.680    0.405
       281  -9.2818    157.9578    197.6974   7.1200461114e+01   1.0938673775e+01    0.1966192    0.1549434  49.15 0.0006153723    1.128    0.113
       282  -9.3517    249.4975    183.5272   5.0811311724e+01  -3.8433421205e+00    0.1300834    0.1105879   5.91 0.0001345892    1.039    0.038
       283  -9.6103    241.0448    181.5361   5.1902032920e+01  -2.0893867162e+00    0.2408073    0.1232464  46.86  0.001123165    2.068    0.516
       284  -9.7652     43.7052    164.3733   9.1658607744e+01   3.6053522176e+01     0.219576    0.1500329  73.21 0.0004944564    1.322    0.243
       285 -11.1748     39.2552    160.1293   9.2212500238e+01   3.7484436612e+01    0.4313422    0.2416838  67.75  0.002347361    1.791    0.442
       286 -12.1457     34.9972    158.0207   9.2957297759e+01   3.8398657957e+01      1.11551    0.3498525  58.40  0.003891787    4.695    0.787
       287  -9.2021     24.0489    163.4561   9.5886490278e+01   3.8264318360e+01    0.1470516    0.1099571  42.40  0.000472369    1.503    0.335
       288  -8.9068     67.7215    162.2991   8.5913989189e+01   3.3574474964e+01     0.132741   0.08756586  74.69 0.0002528027    1.539    0.350
       289  -9.3212      2.1646    156.8209   1.0002220235e+02   4.1523335219e+01    0.1446318    0.1082498 -70.66 0.0008498742    1.300    0.231
       290  -9.1253    249.3107    153.6810   4.4652651414e+01   5.4463608096e-01    0.1272942    0.1084675 -63.20 0.0007035043    1.643    0.392
       291  -9.4066     58.3212    150.9708   8.6646910322e+01   3.7378390369e+01    0.1733605    0.1395747 -82.10 0.0003054776    1.067    0.063
       292  -9.0668     53.9628    150.5413   8.7647307041e+01   3.8006515913e+01    0.1622961    0.1222532  43.39 5.549933e-05    1.425    0.298
       293  -9.1443     10.5126    147.4560   9.7495675790e+01   4.2929059338e+01    0.1158892   0.08787425 -87.09 7.589919e-05    1.016    0.016
       294  -9.8531    236.8175    146.1079   4.5158881617e+01   4.1508106146e+00    0.2044002    0.1895892 -40.60 0.0005588984    1.215    0.177
       295  -9.1986      5.6661    143.6843   9.8274036215e+01   4.4117060754e+01    0.1112529   0.07119509 -54.14 0.0003987177    1.689    0.408
       296  -9.6448     13.4494    141.4982   9.6299820890e+01   4.4021578184e+01     0.254271    0.1447968 -37.61  0.001148054    2.647    0.622
       297 -11.5541     35.0959    137.0643   9.0589293674e+01   4.3149286196e+01     0.190746    0.1654291  88.33  0.001300937    1.095    0.087
