#   1 NUMBER                 Running object number                                     
#   2 MAG_AUTO               Kron-like elliptical aperture magnitude                    [mag]
#   3 X_IMAGE                Object position along x                                    [pixel]
#   4 Y_IMAGE                Object position along y                                    [pixel]
#   5 X_WORLD                Barycenter position along world x axis                     [deg]
#   6 Y_WORLD                Barycenter position along world y axis                     [deg]
#   7 A_WORLD                Profile RMS along major axis (world units)                 [deg]
#   8 B_WORLD                Profile RMS along minor axis (world units)                 [deg]
#   9 THETA_WORLD            Position angle (CCW/world-x)                               [deg]
#  10 FWHM_WORLD             FWHM assuming a gaussian core                              [deg]
#  11 ELONGATION             A_IMAGE/B_IMAGE                                           
#  12 ELLIPTICITY            1 - B_IMAGE/A_IMAGE                                       
         1 -11.4372    124.0208     16.3119   5.2052411173e+00   5.1767323990e+01    0.1916315    0.1549428  88.57 0.0003382076    1.079    0.073
         2 -12.1354     91.9190      8.9562   7.7503531212e+00   6.0786251355e+01    0.3770164    0.2338123  45.44  0.001221018    1.712    0.416
         3 -10.7574     49.4107      8.2491   2.0441470777e+01   7.1322592147e+01    0.1626131     0.126934 -41.41 0.0005058896    1.468    0.319
         4 -10.8072    248.5061    247.5550   3.5757321576e+01  -4.2346978087e+00    0.0981517   0.06391822  -9.70 0.0001117063    1.011    0.011
         5 -10.9808    245.9923    250.0033   3.6444593225e+01  -4.3119157046e+00    0.1178588   0.07727422  -8.25 0.0003259971    1.018    0.017
         6 -11.4026    202.7963    250.6320   4.3308190890e+01  -8.5191129929e-01    0.1731815   0.08014714  19.26 0.0004304521    1.853    0.460
         7 -10.2258    170.7367    250.6508   4.9067818078e+01   2.1585285000e+00    0.1136317    0.0678973 -10.69 0.0003633345    1.611    0.379
         8 -11.2022    143.0419    243.5521   5.3686304176e+01   6.0662220039e+00    0.2011525    0.1734083 -39.78  0.001235497    1.442    0.307
         9 -11.2588    139.2909    249.6597   5.5185934157e+01   5.5311569204e+00    0.1793918    0.1410372  21.36 0.0008717381    1.158    0.136
        10 -11.3678    139.5096    246.4912   5.4771415413e+01   5.9933024201e+00    0.1999345    0.1734577  -3.82 0.0008645984    1.182    0.154
        11 -11.3352    124.5772    249.7903   5.8303244041e+01   7.0856539000e+00    0.1895195    0.1076576 -44.60  0.001109013    2.014    0.504
        12 -11.5467    114.8225    248.5179   6.0283633558e+01   8.3487166565e+00    0.3175478    0.1625456 -59.10  0.001716979    2.563    0.610
        13 -11.8835     69.5990    248.0746   7.0511390977e+01   1.3292010166e+01    0.4541326    0.1791284  52.29  0.001962248    3.031    0.670
        14 -11.5025     65.0480    250.0206   7.1708315285e+01   1.3408169257e+01    0.2621069     0.155001  37.11  0.001021384    1.330    0.248
        15 -11.0082     64.1577    245.6498   7.1605810193e+01   1.4303746425e+01    0.1748036    0.1469948  53.55  0.000532274    1.235    0.190
        16 -12.0273     56.4143    249.5648   7.3680494560e+01   1.4366727089e+01    0.3013938    0.1461231  37.99 0.0005612346    1.573    0.364
        17 -11.2509     55.4785    245.5515   7.3641428690e+01   1.5209188015e+01    0.1667105    0.1229291 -79.77 0.0001151983    1.674    0.403
        18 -15.0084     23.9179    190.1252   7.8390234165e+01   3.0381408113e+01     1.279258    0.8344771 -58.54  0.003557568    1.723    0.420
        19 -14.2543     34.8415    246.2841   7.8531218786e+01   1.7072310072e+01     1.122784    0.5023125  24.08  0.003877724    1.810    0.448
        20 -15.3066     19.2506    210.8539   8.0759025038e+01   2.5899531570e+01     2.134975     0.938906  61.14    0.0097515    2.195    0.544
        21 -14.6018     35.0946    230.6203   7.7681345773e+01   2.0167691109e+01     1.271565     0.607307 -83.54  0.006313729    2.479    0.597
        22 -13.6250     12.7235    188.5394   8.1549023941e+01   3.1721566789e+01    0.7309793    0.4748076 -25.13  0.002987661    2.086    0.521
        23 -14.7049      6.7483    184.4209   8.3108895336e+01   3.3199519458e+01    0.9764155    0.6573957  78.42  0.004282158    1.408    0.290
        24 -14.4779     10.6889    215.9530   8.3190378359e+01   2.5475008821e+01     1.003671    0.5104789  11.12  0.004868772    2.171    0.539
        25 -13.5601     20.2117    247.4922   8.1974855669e+01   1.8153465566e+01    0.4161147    0.3629154  42.39  0.001516654    1.151    0.131
        26 -14.0863      3.8620    209.4649   8.4749841405e+01   2.7463029656e+01     0.957058    0.2968494 -75.78  0.003886723    3.312    0.698
        27 -13.4859      9.7149    208.7711   8.3193784118e+01   2.7166093218e+01    0.3640422    0.2893147 -74.89  0.001147066    1.420    0.296
        28 -14.4615      5.2773    200.6950   8.4105700073e+01   2.9377590163e+01    0.9532467    0.6710979  -6.76  0.005307144    1.790    0.441
        29 -15.7836     16.2376    228.3887   8.2237900797e+01   2.2332406754e+01      1.53135     0.610965  49.18  0.007411613    1.990    0.497
        30 -13.9403      2.4500    226.7031   8.5555577153e+01   2.3802058586e+01    0.4180435    0.2637003 -78.82  0.002217137    1.781    0.438
        31 -16.1911      6.7784    244.1878   8.4958669364e+01   1.9913428599e+01     1.085291    0.8876051 -12.03  0.007491162    1.608    0.378
        32 -15.1097      4.8169    234.4027   8.5174830494e+01   2.2021654591e+01    0.5808799    0.5233881  15.21  0.004183101    1.296    0.228
        33 -10.7826    215.0226    247.5207   4.0863261834e+01  -1.5427821684e+00    0.1127924   0.07940236  35.79 0.0003324044    2.170    0.539
        34 -11.2627    178.1566    247.2187   4.7240904939e+01   1.8963790639e+00    0.1676731    0.1141505   0.45 0.0003687986    1.173    0.148
        35 -11.9711     99.9816    246.4836   6.3387213837e+01   1.0314097644e+01    0.2811739     0.167492  17.80 0.0008714127    1.440    0.306
        36 -10.6177    226.4568    246.4789   3.8903108423e+01  -2.3832027664e+00    0.1015975   0.07124197  -7.02 4.780248e-05    1.047    0.045
        37 -10.8455    131.7007    244.6236   5.6200675493e+01   7.1339100169e+00    0.1734164    0.1491535  72.71  0.001173499    1.811    0.448
        38 -11.1185    205.9648    244.2491   4.1924009990e+01  -3.4176258972e-01    0.1334327   0.07326464  20.01 0.0005891626    1.579    0.367
        39 -10.7478    193.0096    242.5218   4.3929196546e+01   1.0856473976e+00    0.1475507   0.08733857  19.37 0.0001534868    1.440    0.305
        40 -11.5795    126.1146    241.5618   5.7052513242e+01   8.2472680198e+00     0.208265    0.1714549  24.03  0.001015939    1.147    0.128
        41 -10.4931     75.5668    242.4945   6.8676655394e+01   1.3686225638e+01    0.1246746    0.1013908  23.85  0.000120946    1.053    0.050
        42 -11.2861    118.0728    240.7177   5.8726073968e+01   9.2889034742e+00    0.1816905    0.1313365  19.95  0.001144094    1.112    0.100
        43 -12.3123     70.9404    238.5923   6.9458691937e+01   1.4917406940e+01    0.3528114    0.1995787 -36.75  0.000831577    2.389    0.581
        44 -12.7996     73.0465    231.6385   6.8367915702e+01   1.6033430040e+01    0.4977935    0.3388691 -38.00  0.001458549    1.814    0.449
        45 -11.6461     65.3912    239.5994   7.0867403458e+01   1.5316715438e+01    0.3129222    0.2153458  70.65  0.001851305    1.748    0.428
        46 -11.0084    163.5378    246.6401   4.9945523347e+01   3.4438791504e+00    0.1790327    0.1118914  34.11 0.0007535105    1.683    0.406
        47 -11.0446    109.0528    239.9408   6.0666491927e+01   1.0438587131e+01    0.1928118    0.1504816  15.49 0.0005427183    1.068    0.063
        48 -10.8913    149.6001    239.2138   5.1795970596e+01   6.0235528975e+00    0.1562094   0.09800927 -30.12 0.0008591551    1.636    0.389
        49 -12.0580    102.6328    238.0607   6.1937156912e+01   1.1496355541e+01    0.3087162    0.1945679 -36.20  0.001541069    1.867    0.465
        50 -11.3721     79.1839    237.7359   6.7415085007e+01   1.4182703201e+01    0.1886267    0.1618018  72.84 0.0008699057    1.399    0.285
        51 -11.2963    210.4337    235.7894   4.0016049444e+01   3.2033620023e-01    0.2393796    0.1837445 -61.55  0.001520507    3.093    0.677
        52 -10.6716     87.3017    236.2623   6.5348392652e+01   1.3556907521e+01    0.1205349   0.08768676  -3.59 0.0001632378    1.517    0.341
        53 -11.5036     47.0606    235.1731   7.5000825946e+01   1.8072808809e+01    0.2730889    0.1872359 -81.36  0.001635628    1.735    0.423
        54 -11.4364    166.1466    234.3706   4.7840735591e+01   4.9630229434e+00     0.253996    0.1439666  32.07  0.001207548    1.699    0.411
        55 -10.9731    121.4500    235.1949   5.7344878852e+01   9.8462273677e+00    0.1391332    0.1248614 -79.65 0.0003085874    1.563    0.360
        56 -11.8130    113.9306    234.7576   5.8990112168e+01   1.0788740749e+01    0.3520013    0.1403455  26.00  0.001101929    2.073    0.518
        57 -11.4876     59.3967    234.3155   7.1924793299e+01   1.6978006710e+01    0.3144288    0.1212019  32.74  0.001040907    1.925    0.480
        58 -11.7719    222.8349    231.7095   3.7431424289e+01  -2.9468226076e-01    0.2247745   0.05322916 -35.51 0.0009921901    3.665    0.727
        59 -11.6604    182.1957    231.4752   4.4378718787e+01   3.6836711121e+00    0.1956494    0.1500292  34.35  0.001197467    1.639    0.390
        60 -10.9400    142.6926    231.3347   5.2234286264e+01   8.0504690884e+00    0.1666908    0.1345882  52.23 0.0007592465    1.733    0.423
        61 -11.8133    123.5491    231.5883   5.6448097918e+01   1.0225998325e+01    0.3151655   0.08740231  32.06  0.001243482    2.831    0.647
        62 -12.2622     61.5054    230.2857   7.1101323515e+01   1.7559505918e+01    0.2848536    0.2149513 -76.90  0.001741761    1.591    0.372
        63 -12.1510    151.3441    229.5368   5.0180885931e+01   7.3527331542e+00    0.3304348    0.1304913  25.74  0.001558079    2.216    0.549
        64 -11.2012     98.1879    228.5194   6.1973535930e+01   1.3761608710e+01     0.217109    0.1450227  73.66   0.00112644    2.316    0.568
        65 -11.5573     86.1043    228.0057   6.4838164836e+01   1.5267892453e+01     0.323304    0.1982203 -24.43  0.001623287    2.199    0.545
        66 -12.0278    230.5026    227.8406   3.5687292998e+01  -4.9862059608e-01    0.1870351    0.1537466  14.44 0.0009759591    1.527    0.345
        67 -11.3120    138.0334    227.0498   5.2680483970e+01   9.3052986003e+00    0.1841316    0.1534945  15.84 0.0003654249    1.082    0.075
        68 -12.5457    106.2361    226.1594   5.9798736312e+01   1.3252274805e+01    0.2690649    0.2019679  -2.11  0.001151275    1.374    0.272
        69 -12.6918     80.4368    226.2059   6.6054773529e+01   1.6274491942e+01    0.2796922    0.2221157  14.33 0.0004799562    1.180    0.153
        70 -11.5610     47.7827    225.4777   7.4191764326e+01   1.9986447371e+01    0.3088905     0.185077  72.65   0.00162526    1.930    0.482
        71 -14.1034     48.1620    217.2347   7.3517925482e+01   2.1707309891e+01    0.6203306    0.5235964 -63.86  0.002304947    1.388    0.280
        72 -12.3447     59.0650    210.9744   7.0143900683e+01   2.1903381554e+01     0.293964    0.2259208  -4.29  0.001178908    1.514    0.340
        73 -13.5909     53.2069    209.8131   7.1611266123e+01   2.2806975983e+01    0.5205244    0.3575186   6.40  0.002362747    1.625    0.384
        74 -12.4271    116.9245    225.6767   5.7242401232e+01   1.2061099601e+01    0.2947204    0.1904063  39.40 0.0004186246    1.508    0.337
        75 -12.2468    114.4956    222.4559   5.7416127707e+01   1.2946812714e+01    0.2571795    0.1951647   6.29  0.001079262    1.244    0.196
        76 -10.9746    182.2869    225.2693   4.3485003080e+01   4.5727266088e+00    0.1399503    0.1189471  14.81 0.0005907815    1.299    0.230
        77 -12.2651     92.5328    223.9465   6.2850881500e+01   1.5307967905e+01    0.3160164    0.2383357  -8.01  0.000958804    1.473    0.321
        78 -12.1066    194.8426    229.3241   4.1780661299e+01   2.6870349887e+00     0.200004       0.1457 -11.80 0.0001577722    1.094    0.086
        79 -11.9876    159.4797    222.3364   4.7519752920e+01   7.5734100701e+00    0.3786943    0.1895027  38.18  0.001957819    2.143    0.533
        80 -11.9589    129.1161    223.1328   5.4143769300e+01   1.1048233976e+01     0.190473    0.1498826  -2.13 0.0003558569    1.194    0.162
        81 -11.5218     73.1070    222.3438   6.7523037317e+01   1.7893216409e+01    0.1835576    0.1737646  -0.94 0.0003781854    1.176    0.150
        82 -12.4959     57.3513    221.0857   7.1429737063e+01   1.9905823664e+01    0.3531251    0.2050009 -42.16  0.001084494    2.214    0.548
        83 -12.5909    124.7299    221.8152   5.4968219977e+01   1.1816681422e+01    0.3158074    0.2091175  32.06  0.001809963    1.347    0.258
        84 -12.8267    121.8503    217.1451   5.5028895484e+01   1.3027981149e+01    0.3018963    0.2179132  47.98 0.0008559937    1.608    0.378
        85 -11.5382     40.8652    222.0722   7.5732214319e+01   2.1405514199e+01    0.2071542    0.1421977  49.05 0.0005419555    1.269    0.212
        86 -13.0044    174.0439    219.6734   4.4243074690e+01   6.3231122052e+00    0.3701744    0.2188589 -33.33  0.002207619    1.610    0.379
        87 -10.8441    237.9689    220.4806   3.3498798964e+01  -2.5444226258e-01     0.116663   0.08535319  42.90 0.0008101878    2.575    0.612
        88 -10.5568    212.2947    220.6645   3.7535665825e+01   2.1225315570e+00   0.09038321   0.08491807 -18.15 0.0007027888    1.645    0.392
        89 -11.7086    190.0474    220.1143   4.1307571141e+01   4.4914609591e+00    0.1721269    0.1323284  -3.95 0.0003181249    1.014    0.014
        90 -13.1439     77.0653    218.9309   6.6195426500e+01   1.8140133269e+01    0.7955688    0.2623157  43.09  0.003053704    2.807    0.644
        91 -11.9720     71.7033    211.8046   6.6880397184e+01   2.0273578805e+01    0.4714684    0.2355059  28.00   0.00178041    1.685    0.406
        92 -10.8962     71.9378    207.4866   6.6386559497e+01   2.1185674551e+01     0.322262    0.1654752  58.20  0.001377526    2.424    0.587
        93 -10.8830     67.4858    220.4808   6.8782522929e+01   1.8915688095e+01     0.132821    0.1125928  28.57 0.0008099289    1.037    0.036
        94 -11.8819    165.8462    219.0768   4.5769124061e+01   7.3560904405e+00    0.2282617    0.1458626  16.28 0.0002519578    1.391    0.281
        95 -12.8029    145.8452    216.5638   4.9566378405e+01   1.0159834101e+01    0.4504511     0.264325  33.16   0.00247853    1.591    0.371
        96 -13.1215    141.2848    211.2163   4.9801898062e+01   1.1665978610e+01    0.4586678    0.3255346 -76.53  0.002393359    2.513    0.602
        97 -12.2842     64.2144    216.1221   6.9240200297e+01   2.0206231594e+01    0.3229082    0.2939224 -19.06   0.00204613    1.266    0.210
        98 -12.2459    105.3338    206.8312   5.7671100825e+01   1.7142041828e+01    0.3658292    0.2284683 -61.59  0.001872766    1.903    0.474
        99 -11.1167    116.2862    216.3470   5.6231483626e+01   1.3873128227e+01    0.1326983   0.09166686 -14.41 0.0003348331    1.652    0.395
       100 -13.0720     85.1156    214.9633   6.3739432532e+01   1.8005395333e+01    0.5739456    0.2477882  37.24  0.002551825    1.944    0.486
       101 -11.5018     77.0702    213.5534   6.5657173031e+01   1.9265645308e+01    0.2471055     0.179417  52.05 0.0004972481    1.396    0.284
       102 -10.9897    242.5135    214.5101   3.1956009876e+01   7.6400290411e-02    0.1044055   0.07380012 -14.85 3.484531e-05    1.020    0.020
       103 -11.4389    155.9735    212.3547   4.6807269496e+01   9.6371603322e+00     0.251823    0.1890682 -64.79   0.00146742    2.043    0.510
       104 -12.8060    107.6173    214.8374   5.8120529766e+01   1.5250877498e+01    0.3577069    0.2640741 -77.70  0.001326852    1.870    0.465
       105 -13.0882     43.2640    211.9047   7.4430333433e+01   2.3388991947e+01    0.7853331    0.2414899  33.24  0.003134725    2.360    0.576
       106 -13.2035     39.3947    204.6024   7.4964241703e+01   2.5443332392e+01    0.4291374    0.2533419  67.20  0.001474033    1.792    0.442
       107 -13.0972     36.3637    203.7898   7.5741504291e+01   2.5934825657e+01     0.513045     0.266376 -59.04  0.001993469    2.160    0.537
       108 -10.8231    209.6561    211.3028   3.6566160059e+01   3.6706126553e+00   0.09248313   0.08937733  19.07 0.0003632144    1.683    0.406
       109 -11.5440    113.3663    210.1914   5.6133524342e+01   1.5432166624e+01    0.2569981   0.09514172  25.57  0.001001432    2.520    0.603
       110 -11.2921     96.5703    208.7507   6.0116683835e+01   1.7872457312e+01    0.2992362    0.1404018 -64.74  0.001298866    2.648    0.622
       111 -11.3726     90.6202    209.8402   6.1762094528e+01   1.8395232779e+01    0.2039079    0.1684986 -81.73 0.0004671943    1.483    0.326
       112 -11.6986    169.5429    208.5221   4.3462627062e+01   8.6195887470e+00    0.2349921    0.1876462  67.84 0.0009021056    2.371    0.578
       113 -11.4088    229.6640    208.3233   3.2922264777e+01   2.0585220583e+00     0.162633    0.1222679  25.39 0.0006333906    1.583    0.368
       114 -12.0592    230.0872    205.0089   3.2348266107e+01   2.4535031521e+00    0.2091846    0.1228937 -34.68 0.0004272098    1.466    0.318
       115 -11.8060    180.9795    208.0031   4.1161766735e+01   7.3387323694e+00    0.2300673    0.1506139  23.66 0.0009167244    1.432    0.302
       116 -12.6274    129.4326    217.0481   5.3271676696e+01   1.2101386985e+01    0.2794029    0.1626902  10.93 0.0005909579    1.811    0.448
       117 -12.3403    160.8901    207.1280   4.5003080869e+01   9.9139808363e+00    0.1749049    0.1585127  18.73 0.0002955338    1.247    0.198
       118 -11.6259    225.1052    203.8502   3.2930338300e+01   3.1059740724e+00     0.155622    0.1282063 -16.91 0.0005877618    1.235    0.190
       119 -13.0208    145.4471    201.1541   4.7389037682e+01   1.2948322220e+01     0.368029    0.3385858  83.17 0.0008789914    1.539    0.350
       120 -11.3834     90.9958    189.4770   5.9121544925e+01   2.2780548132e+01    0.2438105    0.1986763  82.66 0.0004620567    1.483    0.326
       121 -12.9444     90.9207    199.4739   6.0436765850e+01   2.0570617508e+01    0.5960199    0.3943243 -35.95  0.002502628    1.773    0.436
       122 -12.8521     92.6742    193.9759   5.9266555353e+01   2.1547188432e+01    0.5434855    0.3355746  28.45  0.002662707    1.445    0.308
       123 -11.5332     42.9430    227.3222   7.5532429638e+01   2.0089046101e+01    0.1867009    0.1423154  29.10    0.0011397    1.116    0.104
       124 -12.9483    116.1590    204.2979   5.4662841298e+01   1.6234610890e+01    0.3263633    0.2247933   6.79  0.001091786    1.527    0.345
       125 -11.1208    127.1650    202.8314   5.1817049886e+01   1.5061274905e+01    0.1876832    0.1429974  -5.68 0.0004792991    1.350    0.259
       126 -11.8630    212.7266    200.4063   3.4358554523e+01   4.8820410255e+00    0.2134409    0.2014082 -53.97 0.0009985181    1.745    0.427
       127 -14.2094    173.6695    196.1482   4.0696069588e+01   1.0153769048e+01    0.4868703     0.435669  52.79  0.001870616    1.604    0.376
       128 -13.0295    138.1175    197.0839   4.8411853366e+01   1.4690329094e+01    0.5458661    0.2839855  12.57  0.001417526    2.490    0.598
       129 -12.4558    121.0222    201.0292   5.3023560462e+01   1.6237077033e+01    0.2093157    0.1856432  17.63 0.0006224088    1.035    0.034
       130 -12.0947    124.9855    199.5204   5.1852222362e+01   1.6001228904e+01    0.2433605     0.171459 -31.68 -7.29478e-05    1.511    0.338
       131 -13.0495    121.9551    196.0855   5.2076702325e+01   1.7100609434e+01    0.3165728    0.2898757  84.01  0.001185731    1.389    0.280
       132 -10.6661    198.6368    200.6731   3.6787884971e+01   6.4146153626e+00    0.1265206   0.07542669  -8.91 0.0007039747    1.796    0.443
       133 -11.4727     44.9335    199.3031   7.3031001431e+01   2.6107029809e+01    0.2871739    0.2313724 -85.99  0.001653295    1.342    0.255
       134 -11.9842     29.3260    200.1789   7.7459139969e+01   2.7460959819e+01    0.2243564    0.1741353  12.76 0.0007516995    1.358    0.264
       135 -12.2276     84.4023    198.2348   6.2021368084e+01   2.1687714595e+01    0.2599304    0.1783449  88.24  0.001081671    1.946    0.486
       136 -13.0248    150.0821    197.3664   4.5783020260e+01   1.3024000754e+01    0.3400514    0.2919889  47.34  0.001219221    1.453    0.312
       137 -13.0177     37.1594    191.2732   7.4624199169e+01   2.8835810778e+01    0.4244861    0.2612589 -60.73  0.001613044    1.778    0.438
       138 -11.2244     32.2246    196.4037   7.6403784306e+01   2.8083010123e+01    0.2794619    0.1493782  25.15   0.00085703    1.670    0.401
       139 -12.2671    192.1281    195.1614   3.7054404615e+01   8.0244784059e+00    0.3703687    0.2349852   6.58   0.00102557    1.647    0.393
       140 -12.3305    101.7833    196.5233   5.7209801725e+01   1.9766452447e+01    0.3766349     0.311286  -8.72  0.002137048    1.287    0.223
       141 -10.4910    202.3218    194.6970   3.5183718461e+01   6.8884981949e+00   0.09749582   0.09526525 -64.67 0.0005625561    1.633    0.387
       142 -11.3330    231.5969    193.2589   3.0272613832e+01   3.8752617370e+00    0.1517371   0.08011692 -28.15 0.0004263242    1.534    0.348
       143 -11.9863    160.2549    192.4176   4.2812195076e+01   1.2552941212e+01    0.2591219    0.2274386  41.39  0.001645286    1.391    0.281
       144 -12.6566    133.3461    191.0064   4.8570536956e+01   1.6528994473e+01    0.3791199    0.2281734 -13.15   0.00168972    2.328    0.570
       145 -13.4570    110.4810    188.6891   5.3847514534e+01   2.0244385001e+01    0.4260917    0.2931626 -45.05  0.001430383    1.542    0.352
       146 -12.3110     51.4057    189.7071   7.0351411627e+01   2.7694435037e+01    0.3250348    0.2566791  37.76   0.00102101    1.113    0.101
       147 -10.8769     48.1988    186.1302   7.0956762689e+01   2.8927665423e+01    0.1956374      0.17339  72.11 0.0003290123    1.133    0.117
       148 -11.0779     42.6288    190.8069   7.2999463181e+01   2.8384551344e+01    0.1906096     0.163402  24.26  0.000555042    1.144    0.126
       149 -13.1160     76.2981    183.1006   6.2399079105e+01   2.6237344052e+01     1.296158    0.4029512 -68.85  0.004033649    4.194    0.762
       150 -13.9681     79.3789    172.9799   6.0142810400e+01   2.8268508794e+01    0.6358137    0.4643725  44.78  0.002934773    1.306    0.234
       151 -11.4489    136.6979    200.7235   4.9291202311e+01   1.4191574242e+01    0.2030948    0.1611269  -7.77 0.0003903832    1.232    0.188
       152 -12.0790    207.9559    187.0390   3.2966173439e+01   7.3815172007e+00    0.3137038     0.166227  -9.12  0.001512727    2.708    0.631
       153 -12.5740    120.8054    187.3020   5.1023332158e+01   1.9065144605e+01    0.2305506    0.2106825 -38.66   0.00137505    1.167    0.143
       154 -12.1557    134.1373    182.0761   4.6933805595e+01   1.8201201881e+01      0.20934    0.1877765   2.90 0.0002701915    1.023    0.023
       155 -13.3232    127.0727    185.9892   4.9273605859e+01   1.8433746887e+01    0.4383373    0.2519043  32.90  0.002003433    1.615    0.381
       156 -12.0374    132.0333    185.5106   4.8000728164e+01   1.7813786112e+01    0.1993344    0.1838616 -14.14 0.0006298136    1.074    0.069
       157 -12.3670    156.9232    185.4425   4.2357209210e+01   1.4273221018e+01    0.2804221    0.1840726 -37.90  0.001523737    1.478    0.323
       158 -10.6933     70.4685    186.5250   6.4495460760e+01   2.6174493095e+01    0.1444934    0.1290209  38.93 0.0004248879    1.015    0.015
       159 -12.8158     36.5244    196.2722   7.5174560471e+01   2.7691936423e+01    0.6029338    0.2078565  38.43  0.002406686    2.255    0.556
       160 -11.1565    248.9626    185.4984   2.6577042339e+01   3.1467486315e+00    0.1318324   0.09516682  17.82 0.0004467018    1.517    0.341
       161 -11.8866    163.2785    184.6528   4.0883972441e+01   1.3531514924e+01    0.2435522    0.2107619  62.92 0.0009430213    1.663    0.399
       162 -13.2398     94.4793    181.4496   5.7044756431e+01   2.4128312703e+01    0.5307283    0.2993819 -55.72  0.002364546    1.881    0.468
       163 -10.9853     65.9974    184.0334   6.5499846259e+01   2.7338028553e+01    0.2256738    0.1699003 -20.58   0.00112823    1.634    0.388
       164 -10.3536     54.4706    184.4997   6.8942519159e+01   2.8616562289e+01    0.1425754    0.1301011  39.19 0.0008097533    1.032    0.031
       165 -12.3548    105.2924    183.0684   5.4358555911e+01   2.2213465083e+01    0.1911795    0.1865783 -33.29 0.0003995035    1.109    0.098
       166 -12.3227    140.7608    180.1658   4.5057336740e+01   1.7608706005e+01    0.3129429    0.2373095  68.43  0.001238579    2.029    0.507
       167 -13.2360    136.7017    176.0288   4.5296292222e+01   1.9046964088e+01    0.4817946     0.351917  81.51  0.002189424    2.404    0.584
       168 -11.7437    115.2897    181.3343   5.1476880640e+01   2.1135509611e+01     0.218512    0.1354395  27.83 0.0003510824    1.518    0.341
       169 -13.2115    116.3219    178.0595   5.0683030794e+01   2.1692918902e+01    0.3412779    0.2766107  13.12  0.001221716    1.220    0.180
       170 -10.8128     59.0130    180.3003   6.7142630190e+01   2.9115535297e+01    0.1985959    0.1706845  35.05 0.0002474458    1.061    0.058
       171 -10.1849    231.2876    179.6753   2.8097694242e+01   5.7819587846e+00   0.09889707   0.08069783 -46.38 0.0002421492    1.607    0.378
       172 -12.2055     24.2799    178.5608   7.7554613462e+01   3.3244850911e+01    0.3679089    0.1619286  34.05   0.00104441    1.896    0.473
       173 -12.8264     20.0201    176.2197   7.8712042253e+01   3.4218206335e+01    0.4331058    0.3972915  19.18  0.002031069    1.174    0.148
       174 -11.5435    191.5483    177.7297   3.4208120790e+01   1.0891418893e+01    0.1615649    0.1091101 -45.89 0.0009373676    1.563    0.360
       175 -11.8400    154.8091    177.0942   4.1372712332e+01   1.6136686379e+01    0.3318066    0.1791882 -56.44  0.001488898    2.360    0.576
       176 -13.2563    127.3280    175.5913   4.7490331883e+01   2.0559829730e+01     0.387055    0.3040375 -56.32  0.002094542    1.410    0.291
       177 -11.5687     62.8483    176.9835   6.5608271707e+01   2.9468106693e+01    0.3856479    0.1970628   8.33  0.001366758    2.750    0.636
       178 -12.7120     31.1961    176.4825   7.5276751103e+01   3.3131443779e+01    0.3297182    0.2490514   8.97  0.001729139    1.450    0.310
       179 -11.3380    246.0000    175.5424   2.5357052730e+01   4.7613650243e+00    0.2411702   0.04765032 -38.65 0.0009358372    3.944    0.746
       180 -12.8988    106.6473    175.4216   5.2803642564e+01   2.3728127439e+01     0.325899    0.2383808  44.99  0.001005287    1.380    0.276
       181 -12.1702    101.1867    175.8114   5.4348457825e+01   2.4452387911e+01    0.2306249    0.1717312 -49.71            0    1.417    0.294
       182 -12.9312    101.8769    170.2858   5.3274726694e+01   2.5625745203e+01    0.3090264    0.2086522 -42.27 0.0004432288    1.591    0.371
       183 -11.2212    208.5300    173.4868   3.0551908209e+01   9.3798474417e+00    0.1205146   0.09619441 -19.24 5.727128e-05    1.012    0.012
       184 -12.3158    145.1552    173.0139   4.2798849358e+01   1.8371494424e+01    0.3303372    0.1751799  48.94  0.001410092    2.432    0.589
       185 -14.0473     89.1553    164.4433   5.5966147566e+01   2.8943764544e+01    0.8394797    0.4243658  11.73  0.002844078    3.182    0.686
       186 -13.8505     91.1832    170.9532   5.6400565108e+01   2.7068330170e+01    0.4555399    0.4062107 -59.17  0.001836662    1.198    0.166
       187 -13.0383     86.9682    169.1937   5.7352768824e+01   2.8110036553e+01    0.4014465    0.2830782   4.29  0.001629155    1.718    0.418
       188 -12.1211    197.6885    171.0340   3.1940140537e+01   1.1170433483e+01    0.2796419    0.1871559 -30.68  0.001159316    1.291    0.225
       189 -12.9510     13.2972    161.3002   7.9943599507e+01   3.8673235896e+01    0.8071277    0.3017665 -82.29  0.001885158    2.653    0.623
       190 -13.3093     18.1862    168.8922   7.8828299970e+01   3.6274946296e+01    0.6255553    0.4185971   4.58    0.0030944    1.719    0.418
       191 -12.6515     20.8582    165.1894   7.7721337017e+01   3.7026117796e+01    0.4196256    0.2683097  31.65  0.001236278    1.432    0.302
       192 -13.5917      4.4676    166.9920   8.3085823817e+01   3.7805481033e+01    0.6744617    0.4253508  51.30  0.002708066    1.396    0.284
       193 -12.6508      3.5187    160.3359   8.3101384394e+01   3.9619794963e+01    0.4990279     0.282404  41.99  0.001421193    1.562    0.360
       194 -12.5075    153.1682    170.3005   4.0514842478e+01   1.7684659915e+01    0.2682195    0.2282706  49.76 0.0006261455    1.401    0.286
       195 -11.9029     53.4853    170.5570   6.7742103938e+01   3.2247132423e+01    0.2655351    0.2306998 -66.66 0.0007708942    1.223    0.182
       196 -13.0067     52.0323    168.0000   6.7909577300e+01   3.3081943542e+01     0.542304    0.2410611  22.08  0.002077066    2.255    0.557
       197 -13.4898    120.4149    168.6259   4.8029375776e+01   2.3129404662e+01    0.5623398    0.3241955  14.11  0.002309849    2.300    0.565
       198 -11.5231     62.5725    170.6648   6.4921866566e+01   3.1095224610e+01    0.2654498    0.1280972  27.89  0.001068061    1.907    0.476
       199 -10.6110    173.5178    169.5747   3.6142888413e+01   1.4786779230e+01    0.1293759     0.113845 -12.50 1.317273e-05    1.014    0.014
       200 -11.8146    159.4559    168.2733   3.8784370105e+01   1.7117686597e+01    0.2340272    0.1760942  31.14   0.00064004    1.339    0.253
       201 -12.0096     40.9758    168.4882   7.1492735987e+01   3.4207724864e+01    0.3990855    0.1384639  22.19  0.001379415    2.799    0.643
       202 -12.6206    127.3966    166.3711   4.5852816065e+01   2.2515713109e+01    0.3068567    0.2306081 -22.77  0.001196586    1.475    0.322
       203 -12.5745    152.1778    165.2956   3.9810500526e+01   1.8814146868e+01    0.3364677    0.2526411  -0.04  0.001796399    1.487    0.327
       204 -11.8629    198.7323    164.7421   3.0624277503e+01   1.2053212658e+01    0.1844264    0.1480381 -78.24  0.001066775    2.201    0.546
       205 -12.3669    110.4024    165.3140   5.0096375664e+01   2.5451579074e+01    0.2946844    0.1745312  35.64  0.001221336    1.595    0.373
       206 -12.3215     64.0871    164.8419   6.3695739276e+01   3.2389800447e+01    0.2468886    0.2166905 -78.06 0.0004632373    1.194    0.163
       207 -11.5619     44.1496    164.6960   7.0079782373e+01   3.4857123741e+01    0.2538927    0.1959322   1.75 0.0006196463    1.491    0.329
       208 -12.9173     56.4949    163.6851   6.5965930639e+01   3.3662789709e+01    0.3124263    0.2365299  62.62  0.001552308    1.349    0.259
       209 -12.0926    141.7626    162.9337   4.1737423353e+01   2.0939825524e+01    0.2365941    0.2058065   1.58 0.0003207454    1.138    0.121
       210 -12.7338     35.5729    162.1654   7.2637809842e+01   3.6448216993e+01    0.3637928    0.2681683  75.62   0.00167994    1.366    0.268
       211 -12.0738    113.4955    161.9499   4.8664521329e+01   2.5726857683e+01     0.216212     0.144747 -52.40 0.0004884806    1.545    0.353
       212 -12.3257     26.1171    160.7245   7.5650993540e+01   3.7751634280e+01    0.4510383    0.2966776  44.40  0.001308171    1.381    0.276
       213 -11.7592    170.0493    160.0221   3.5047249541e+01   1.7042256513e+01    0.2002462    0.1709458 -88.66  0.001144256    1.730    0.422
       214 -13.6082    105.1144    158.2280   5.0300273407e+01   2.7945617825e+01    0.4918146    0.3442432  78.11  0.001643733    2.096    0.523
       215 -12.3922     85.7396    143.9418   5.3471396345e+01   3.4604251264e+01    0.2610872    0.2145057  35.71  0.000375151    1.172    0.147
       216 -15.8110     81.5169    152.3748   5.6301339601e+01   3.3116360261e+01     1.143929      1.05717  39.13  0.005812595    1.031    0.031
       217 -12.8930    118.6278    158.2804   4.6621936046e+01   2.5722391751e+01    0.3789261     0.254846  60.56  0.001547026    1.977    0.494
       218 -13.3054    132.9426    156.5689   4.2641383027e+01   2.3721262360e+01    0.4157192    0.3293089 -64.11  0.002164582    1.467    0.318
       219 -12.3828    113.2131    156.9561   4.7826435730e+01   2.6918143804e+01    0.2568662    0.2073886  34.22 0.0004738759    1.196    0.164
       220 -12.0244     32.2734    156.7886   7.3229457491e+01   3.8226253417e+01    0.2556718     0.174565 -85.02 0.0008489805    1.483    0.326
       221 -11.8635    141.2101    155.4748   4.0436922487e+01   2.2573707046e+01    0.2459991    0.1918057 -43.98 0.0004521174    1.266    0.210
       222 -10.6049    190.5107    155.5078   3.0329820039e+01   1.4760136194e+01    0.1274206    0.1100139 -24.94 0.0008103815    1.028    0.028
       223 -12.1035     62.3540    155.4272   6.2954102134e+01   3.5075156961e+01    0.2877744    0.1490524  20.93  0.000940098    2.061    0.515
       224 -11.0599     21.1075    154.8836   7.6876933976e+01   3.9771366158e+01    0.2310734    0.1678783  52.11 0.0005912412    1.271    0.213
       225 -12.6323      3.5926    152.1433   8.2699257938e+01   4.1807076507e+01    0.5600521    0.3728124 -71.17  0.002855797    1.487    0.328
       226 -12.7243     67.4183    153.7890   6.1052126494e+01   3.4813827893e+01    0.3003433    0.2182384 -31.83 0.0008783323    1.653    0.395
       227 -11.5480     14.2707    153.4518   7.9119046075e+01   4.0711895347e+01    0.3309857    0.1689053  53.25   0.00126555    1.846    0.458
       228 -13.6376     96.3985    148.8158   5.1099148129e+01   3.1640831457e+01    0.4565919    0.3550679  42.33  0.000495156    1.249    0.199
       229 -13.3486     91.0077    149.9547   5.2936777993e+01   3.2237464384e+01    0.5921199     0.316955 -31.21  0.001471145    2.886    0.654
       230 -13.6549     52.5687    152.4104   6.5810816634e+01   3.7143252402e+01    0.5111922    0.3272986  16.95  0.001766008    1.678    0.404
       231 -11.5933    128.2701    151.3760   4.2792732860e+01   2.5639602364e+01    0.2017378     0.132689  44.15 0.0005295518    1.565    0.361
       232 -13.5103     28.1130    150.0134   7.4023139487e+01   4.0474982571e+01      0.55643     0.428718  45.22  0.002877751    1.208    0.172
       233 -10.9406    224.6820    150.3307   2.3924331734e+01   1.0841957148e+01    0.1103288    0.0849754 -56.82 0.0007047437    1.687    0.407
       234 -12.5860    108.9432    149.0655   4.7506734238e+01   2.9475575342e+01    0.3496508    0.3094995 -35.31 0.0008384475    1.169    0.145
       235 -13.7195    102.3289    142.8052   4.8177056488e+01   3.2109453404e+01    0.7563384    0.4432905  63.89  0.002798849    2.647    0.622
       236 -12.6995    171.4130    146.0931   3.2037592653e+01   1.9408556985e+01    0.5096723    0.2136716 -50.94   0.00165008    2.677    0.626
       237 -11.3932    146.9489    148.6837   3.7751204368e+01   2.3008805746e+01    0.1917218    0.1804597  21.37  0.000379349    1.080    0.074
       238 -12.5167     47.6457    156.9018   6.8042144976e+01   3.6531306301e+01    0.2783657    0.2565474 -53.27 0.0003534297    1.172    0.147
       239 -12.8429      8.5886    125.6198   7.9226710228e+01   4.8822267895e+01    0.5568591    0.2759979  25.52  0.002389026    1.956    0.489
       240 -12.9234     12.3490    134.6606   7.8460576044e+01   4.6037848320e+01    0.6470832    0.2280021 -53.04  0.002278154    2.915    0.657
       241 -13.1917      9.9579    145.6795   8.0119017262e+01   4.3149290035e+01    0.5117083    0.3232396 -77.39  0.001914998    1.521    0.342
       242 -12.7852     10.8036    141.8517   7.9560676373e+01   4.4145928938e+01    0.3853782    0.3011108 -81.44  0.001030337    1.229    0.186
       243 -11.6991     17.2261    135.0059   7.6632563953e+01   4.5580455870e+01    0.2178556    0.2069426  61.53 0.0002208343    1.039    0.037
       244 -13.3165     19.2222    131.2077   7.5513276204e+01   4.6489127264e+01    0.6312516    0.3138112  24.60  0.002642503    1.945    0.486
       245 -13.0481     69.1626    158.7034   6.1222492436e+01   3.3290202527e+01    0.3182094      0.26783 -15.75 0.0003722268    1.376    0.273
       246 -14.1886     52.5343    143.2401   6.4548797680e+01   3.9633824238e+01     1.034465    0.3951059  52.80  0.003192314    3.371    0.703
       247 -12.1988     47.3088    141.6564   6.6190579886e+01   4.0717151551e+01    0.2952508    0.2417437  84.74 0.0007110981    1.246    0.198
       248 -12.5941     19.4135    149.6008   7.7050065160e+01   4.1355518154e+01    0.3572263      0.21867 -44.31  0.001623926    1.872    0.466
       249 -11.2121    187.1079    143.8585   2.8659245043e+01   1.7291194468e+01    0.1875367    0.1643356 -49.89 0.0003473622    1.232    0.189
       250 -10.6959    158.5174    144.4836   3.4342011460e+01   2.1874142120e+01    0.1403086    0.1264839 -18.11 -2.630246e-05    1.064    0.061
       251 -11.5908    143.0316    143.9192   3.7675954041e+01   2.4674595387e+01    0.2766095    0.2217153  -1.55 0.0009898345    1.445    0.308
       252 -10.1697    144.6716    140.6614   3.6610818007e+01   2.5063500236e+01     0.248537    0.1738703   2.37  0.001123533    2.026    0.506
       253 -11.4248    179.4092    142.8848   2.9860182467e+01   1.8693045405e+01     0.207956    0.1832511  51.78   0.00060335    1.353    0.261
       254 -13.8930     94.0075    139.2794   4.9982788666e+01   3.4407399851e+01    0.4943749    0.4450616 -11.72  0.001406972    1.226    0.184
       255 -14.1684    101.8347    133.7780   4.6462312897e+01   3.4395030435e+01    0.6947449    0.3659566  24.22  0.001837096    2.429    0.588
       256 -12.9251     53.1766    135.7351   6.3182580436e+01   4.1607105189e+01    0.4319313    0.2784125  36.28  0.001924142    1.468    0.319
       257 -13.0442     69.0204    131.4718   5.6735793784e+01   4.0509600890e+01    0.4924948    0.1854916 -53.06  0.001220627    2.607    0.616
       258 -13.9152     66.8540    136.7081   5.8450768008e+01   3.9432648292e+01    0.6089597    0.2845974  42.49  0.001833592    2.065    0.516
       259 -12.3092     60.0809    139.3725   6.1283130296e+01   3.9683478568e+01    0.2890152    0.2288239 -65.85 0.0003782915    1.283    0.220
       260 -13.5240     60.0952    134.4654   6.0461317163e+01   4.1014203600e+01    0.5822676     0.377639  60.15  0.002490355    1.730    0.422
       261 -13.5482     40.0521    138.3893   6.8401848119e+01   4.2466358100e+01    0.4731028    0.4256166 -50.47 0.0009690471    1.181    0.153
       262 -11.4237     33.4538    140.4783   7.1098607816e+01   4.2589871934e+01    0.1490199    0.1405404  67.43 1.886531e-05    1.011    0.011
       263 -12.3699    130.7420    137.4049   3.9276952428e+01   2.8277251125e+01    0.4619981    0.3548523  43.68  0.001345002    1.328    0.247
       264 -13.1813     72.1410    138.3409   5.6917161490e+01   3.8202566963e+01    0.3951577    0.2159353 -55.53  0.001601915    1.837    0.456
       265 -13.4555    123.1970    134.9114   4.0683214886e+01   3.0220918867e+01    0.5197405    0.3882261  26.32 0.0004471093    1.449    0.310
       266 -11.7731    126.3147    132.3184   3.9296421453e+01   3.0223878099e+01    0.2427389    0.2286779  46.85 0.0006904766    1.081    0.075
       267 -14.2373     85.5082    133.4921   5.1520564619e+01   3.7316939221e+01    0.5789778    0.4676704  85.07  0.002740163    1.425    0.298
       268 -13.8379     83.0648    128.0253   5.1204312148e+01   3.9139036090e+01     0.524129    0.4059939 -23.62  0.001764421    1.586    0.370
       269 -11.2288    232.9979    136.9699   2.0330147323e+01   1.1729651941e+01    0.1730386    0.1353754 -33.08 0.0003040542    1.034    0.033
       270 -10.6187     48.6656    148.2859   6.6607690911e+01   3.8738174827e+01    0.1636024     0.103418  55.26 0.0001788273    1.624    0.384
       271 -12.1232    174.2939    134.5777   2.9101646130e+01   2.1061119369e+01    0.3615198    0.2262149 -18.13  0.001124071    2.182    0.542
       272 -11.3326    166.7411    136.4264   3.0961656304e+01   2.2016141777e+01    0.1830529    0.1301091  26.70 0.0009410906    1.613    0.380
       273 -11.6807    196.1416    134.2203   2.5178669313e+01   1.7522519383e+01    0.2227469    0.1716892 -47.80 0.0005489934    1.265    0.210
       274 -10.7968    210.1650    134.1813   2.2979252600e+01   1.5372408588e+01    0.1596604    0.1351411 -54.10 0.0004477393    1.316    0.240
       275 -13.5702     58.9836    121.4885   5.8524853216e+01   4.4713410524e+01    0.5574987    0.3602965  27.92  0.002424409    1.553    0.356
       276 -11.9177     41.9148    124.8356   6.5760034915e+01   4.6039025880e+01     0.392552    0.2660623 -68.37  0.001750806    1.456    0.313
       277 -14.2178     49.2310    130.0919   6.3755493131e+01   4.3675342530e+01      0.71793     0.566884  20.25  0.002367723    1.316    0.240
       278 -14.2963     55.4179    127.6496   6.1008117943e+01   4.3529823619e+01    0.7711759    0.4384744  24.48  0.001881049    1.810    0.447
       279 -12.8009     36.9924    131.8186   6.8688110459e+01   4.4638170839e+01    0.4710742    0.2834391 -89.57    0.0017316    1.827    0.453
       280 -10.6600     31.6967    131.2498   7.0661182311e+01   4.5350505225e+01    0.2433929    0.1515948 -34.76  0.001034824    1.935    0.483
       281 -10.9835    160.4431    130.0212   3.0859552211e+01   2.4367488513e+01    0.2094726    0.1294035 -43.60 1.371097e-06    1.512    0.339
       282 -12.3382    122.9066    128.3950   3.9310464913e+01   3.1748933248e+01    0.4125675    0.2303036 -42.93  0.001714004    1.829    0.453
       283 -12.3944    125.1240    123.4069   3.7576880592e+01   3.2442271794e+01    0.3560368    0.2934616  82.56   0.00176275    1.472    0.321
       284 -12.2402    121.6921    124.3139   3.8696800752e+01   3.2905091634e+01    0.2820813    0.2288686 -83.20 0.0006573735    1.494    0.331
       285 -10.9837    150.9044    141.4769   3.5370058971e+01   2.3792975825e+01    0.1980879    0.1391484  38.21 0.0003484755    1.477    0.323
       286 -12.3394    130.2958    128.4298   3.7403882860e+01   3.0333472169e+01    0.2601908    0.2497313 -55.08 0.0003235165    1.042    0.041
       287 -11.3759    250.1917    158.4505   2.1948322150e+01   6.6092218184e+00    0.1890212    0.1133244 -32.99 0.0004017781    1.244    0.196
       288 -13.2938     77.9242    132.5167   5.3851925945e+01   3.8826130069e+01     0.406666    0.2886305 -50.93  0.000590008    1.447    0.309
       289 -10.3055    246.7029    127.3067   1.6873347180e+01   1.1319650585e+01    0.1070555   0.07316811 -52.64  0.000261046    1.589    0.371
       290 -12.2935     64.8384    126.9192   5.7377033980e+01   4.2369881080e+01    0.2433837    0.2140409 -33.92 0.0005416456    1.245    0.197
       291 -12.3512     14.7002    146.1792   7.8460939980e+01   4.2668706617e+01    0.6013687    0.2769964 -79.65  0.002458975    2.099    0.523
       292 -15.0932     77.9563    113.0574   4.9664566483e+01   4.3899455996e+01      1.56085    0.9105626  -3.66  0.004469769    4.518    0.779
       293 -15.0494     78.5571    119.5406   5.0925868838e+01   4.2112277180e+01    0.9080113    0.7313883 -15.85  0.003814562    1.536    0.349
       294 -13.9549     82.0075    115.9821   4.8913014005e+01   4.2427549459e+01    0.5158935    0.4620553 -41.43  0.001098573    1.177    0.150
       295 -12.1092     26.2359    125.8438   7.2159833714e+01   4.7399170176e+01    0.3232141    0.2428419 -17.95  0.001385454    1.567    0.362
       296 -11.9051     49.8673    123.8672   6.2478211788e+01   4.5319701574e+01    0.2312374    0.2047449 -28.79 0.0003684802    1.247    0.198
       297 -13.6264     11.5581    112.7676   7.6862197342e+01   5.2257543432e+01    0.6175979     0.292102  65.40  0.002377301    2.388    0.581
       298 -13.9765     13.0848    119.4387   7.6859173855e+01   5.0269437608e+01    0.6770753    0.4059065  58.95 0.0009054026    1.698    0.411
       299 -12.9567      9.0493    117.3015   7.8357227260e+01   5.1136309084e+01     0.390065    0.3300674  11.49  0.001213124    1.267    0.211
       300 -12.4196    194.1563    121.8630   2.2942551645e+01   1.9938452886e+01    0.2860748    0.1932684  57.78    0.0015747    1.865    0.464
       301 -10.5711    179.0123    121.9276   2.5514749814e+01   2.2544447190e+01    0.1639315    0.1400354 -39.22 0.0004738155    1.045    0.043
       302 -10.9280    169.8087    122.4333   2.7322318639e+01   2.4109925471e+01     0.172368    0.1317736  29.23 0.0003249292    1.517    0.341
       303 -13.2079    105.0445    121.1631   4.2676309577e+01   3.6854206632e+01    0.4143299    0.2635072  53.18 0.0008503734    1.716    0.417
       304 -11.8033    202.5309    120.6081   2.1380518396e+01   1.8762339789e+01    0.2637271    0.1260366  55.00  0.001232277    2.753    0.637
       305 -10.7241     46.1481    119.1864   6.3142071830e+01   4.7100036441e+01    0.2132978    0.1694324  63.07  0.001023937    1.301    0.231
       306 -11.7072     29.6617    117.3221   6.9647502393e+01   4.9483477502e+01    0.3644925    0.1978083 -53.39 0.0006486692    1.827    0.453
       307 -13.6163     93.2568    116.6239   4.5279220625e+01   4.0201845033e+01    0.5051121    0.3067571  53.17  0.002055329    1.816    0.449
       308 -13.1692     98.0669    115.2893   4.3418859145e+01   3.9614582618e+01     0.487795    0.2871926  16.39  0.001694289    2.889    0.654
       309 -11.0971     22.5033    118.4454   7.2805186946e+01   4.9823789680e+01    0.1486959    0.1394197  70.78 0.0002792503    1.024    0.023
       310 -13.5067    114.4860    114.2840   3.8270700061e+01   3.6614264748e+01    0.7970443    0.4544732  42.53  0.002294239    1.758    0.431
       311 -12.9432     64.2512    104.7508   5.2886575625e+01   4.8408981555e+01    0.3786599    0.2371513  42.60  0.001606976    1.567    0.362
       312 -13.0445     67.2412    113.6108   5.3749740336e+01   4.5568775052e+01    0.4004933     0.223414 -44.81  0.001076523    1.959    0.490
       313 -14.0737     62.0751    112.2288   5.5439123402e+01   4.6759791158e+01    0.6517075    0.5552443 -39.31  0.001181406    1.260    0.206
       314 -10.7324    159.5156    112.5555   2.7070901289e+01   2.7927062072e+01    0.1407753    0.1315054 -46.10 0.0001316109    1.006    0.006
       315 -13.2204      5.5329    110.3778   7.9277519852e+01   5.3290496667e+01    0.5038212    0.3800402  83.80  0.002620266    1.271    0.213
       316 -10.7538    198.6965    111.6517   2.0065482171e+01   2.0875010794e+01    0.1278869   0.09555122 -10.30 0.0007040496    1.695    0.410
       317 -11.3191     22.0860    110.7881   7.2019022485e+01   5.2027725029e+01    0.3698329    0.1271257  38.16  0.001180329    2.698    0.629
       318 -10.5976    236.6367    110.7346   1.4919565629e+01   1.5037962101e+01    0.1074895   0.08209939  -6.01 0.0004987217    1.645    0.392
       319 -10.9555    143.1992    114.3993   3.1003799765e+01   3.0793397418e+01    0.2107337    0.1385776  58.75 0.0009519469    1.766    0.434
       320 -10.5725     36.0829    109.7847   6.5731896530e+01   5.0932772561e+01    0.1829002    0.1210655  27.42 0.0003348976    1.501    0.334
       321 -12.7023     76.7921    107.7985   4.8830024788e+01   4.5462506105e+01    0.3280412    0.2427746  61.46 0.0009624935    1.506    0.336
       322 -10.9073    139.9808    107.0347   2.9928010785e+01   3.2959896657e+01    0.1820251     0.173922 -59.34   0.00101111    1.002    0.002
       323 -11.8913    121.9022    106.8691   3.4364675032e+01   3.6760011830e+01    0.2674002    0.2180371 -57.17            0    1.230    0.187
       324 -11.6370     98.0478    107.2672   4.1419521288e+01   4.1558211618e+01    0.2186541    0.2013147  56.23 0.0003284834    1.072    0.067
       325 -11.5101    109.6529    105.6813   3.7468539679e+01   3.9572264844e+01    0.2455781    0.1938241  -8.55  0.001112602    1.730    0.422
       326 -12.6763     11.6872    105.0588   7.5999284700e+01   5.4425605072e+01    0.3989859    0.2721776 -38.65  0.001102237    1.557    0.358
       327 -12.8060    104.3888    103.3307   3.8416432983e+01   4.1201153608e+01    0.3804165    0.2742396 -28.41  0.001670624    1.738    0.425
       328 -11.4517    167.5105    102.5332   2.3149904797e+01   2.8227562749e+01    0.1395588    0.1270005 -50.15  7.35862e-05    1.003    0.003
       329 -12.8135     78.8479    101.4725   4.6480036899e+01   4.6697901394e+01    0.2978226     0.282696 -83.83 0.0006254449    1.059    0.056
       330 -11.7113     55.8650    101.1883   5.5483339972e+01   5.0683741972e+01    0.5948142    0.2932951  31.74 0.0005062207    1.985    0.496
       331 -11.8121     57.4827     97.5034   5.3919223463e+01   5.1414857063e+01    0.3745685     0.282106  58.32 0.0006048779    1.437    0.304
       332 -11.0830    154.5225    101.5134   2.5399435931e+01   3.1045140402e+01    0.1436951     0.133504 -55.22 0.0002144098    1.004    0.004
       333 -13.6582     94.0458     98.9519   4.0509595515e+01   4.4349314140e+01    0.6378569    0.3617142  56.92  0.002259556    2.099    0.524
       334 -12.7239      5.6048     99.3622   7.8240397999e+01   5.6380890813e+01    0.4194739    0.3309839  44.95  0.001528118    1.290    0.225
       335 -11.2135    208.9729     99.9551   1.6118279443e+01   2.0992371490e+01    0.1934516    0.1334632 -62.06 0.0005019481    1.610    0.379
       336 -12.1147     85.8103     99.9869   4.3589844605e+01   4.5740084463e+01    0.2468813    0.2201818 -18.97  0.001224099    1.289    0.224
       337 -12.2361    174.1962     98.4571   2.0993175965e+01   2.7635976874e+01    0.2346058    0.1499742 -45.55 0.0007449738    1.404    0.288
       338 -11.8628    162.4286     99.2616   2.3298226356e+01   2.9848054507e+01    0.2072807    0.1221651 -51.18 0.0009478461    1.656    0.396
       339 -10.9885    189.6120     98.3022   1.8481479481e+01   2.4709468604e+01     0.136843   0.09505162 -70.52 0.0007015602    1.795    0.443
       340 -10.7524    114.5175     98.2383   3.4086136068e+01   4.0220100957e+01    0.2904775    0.1972706  84.40  0.001022208    2.251    0.556
       341 -12.2412    178.3503     96.5281   1.9840494202e+01   2.7157348737e+01    0.2896786    0.2048487 -60.30 0.0009128293    1.479    0.324
       342 -14.8334     78.7691     92.6362   4.4114572237e+01   4.8908725475e+01    0.8928791    0.6095135  57.52  0.002593111    1.623    0.384
       343 -11.5967    167.5233     96.5353   2.1694675972e+01   2.9309372161e+01    0.1393461    0.1267386 -51.11 0.0001154409    1.012    0.012
       344 -11.6023    185.1676    101.2210   1.9835121136e+01   2.5049030089e+01    0.1884129    0.1703155 -28.41 0.0004310875    1.146    0.127
       345 -10.4620     41.5103     91.5885   5.9663728361e+01   5.5302283998e+01    0.1515166    0.1451076  56.65 0.0001309558    1.046    0.044
       346 -10.6955     28.2479     90.6147   6.5888999696e+01   5.7105161151e+01    0.2099378    0.1432121   2.72 0.0009499215    1.668    0.400
       347 -12.8631      3.3884     88.2944   7.8199409435e+01   5.9570053776e+01    0.4564661    0.2811756  86.17   0.00184543    1.644    0.392
       348 -11.8604    125.3286     87.4160   2.8198454405e+01   4.0133674885e+01    0.3853309    0.2472408 -37.49 0.0009773365    1.659    0.397
       349 -10.5024    111.3447     89.3177   3.2470925539e+01   4.2852261785e+01    0.1557998     0.125767   4.60 0.0007048866    1.721    0.419
       350 -11.6582    103.7768     89.5857   3.4772399757e+01   4.4451996374e+01    0.2280013    0.1447735  56.84 0.0008962813    1.678    0.404
       351 -11.9197    171.2806     88.0448   1.8955267487e+01   3.0035545200e+01     0.197065     0.165016 -50.44 0.0003855705    1.069    0.064
       352 -12.5730     64.2329     87.8937   4.8532758724e+01   5.2776088699e+01    0.3116669    0.2154987  -0.47  0.001256449    2.176    0.541
       353 -12.7921     55.0751     85.3566   5.1808365098e+01   5.4967426134e+01    0.5261215    0.4950168   8.24  0.002248209    1.112    0.100
       354 -12.8257     55.6147     78.2692   4.9515749346e+01   5.6669783887e+01    0.5250159    0.3360162  10.23  0.001504456    2.203    0.546
       355 -10.7022     11.9936     86.7324   7.3535096667e+01   5.9529575228e+01    0.1979593    0.1848975  15.74 0.0004407853    1.118    0.106
       356 -12.0364    134.5591     84.1350   2.5071361955e+01   3.8706061678e+01    0.2614441    0.2540286 -81.94 0.0005547653    1.061    0.058
       357 -11.3631    149.6760     84.3467   2.1925472803e+01   3.5294908504e+01    0.1542464    0.1072826 -72.88 0.0007049874    1.743    0.426
       358 -11.2789     96.5346     84.4452   3.5508441335e+01   4.7165866879e+01    0.1552119    0.1491829  74.13 7.263423e-05    1.005    0.005
       359 -13.1021     88.5163     79.5875   3.6681242593e+01   4.9978285598e+01    0.5021361    0.2846288 -42.85  0.001783032    1.872    0.466
       360 -11.3457     10.1683     82.0098   7.3816595387e+01   6.0943532283e+01    0.2122222    0.2034032 -67.16  0.001235713    1.012    0.012
       361 -12.5419    155.7543     81.1495   1.9908120263e+01   3.4535162785e+01    0.3577154    0.1763016  73.68 0.0009539252    3.434    0.709
       362 -11.1485    215.4510     80.5401   1.1163287024e+01   2.2798837361e+01    0.1237171   0.09929747 -46.82 8.084317e-05    1.008    0.008
       363 -12.5363    113.0654     78.6969   2.8823946162e+01   4.4685412515e+01    0.4706304    0.3098512 -77.05  0.001907713    2.190    0.543
       364 -10.6937     94.6759     80.2919   3.4829498035e+01   4.8486933965e+01    0.1587031    0.1213077  83.63 0.0001928609    1.614    0.381
       365 -12.4439     65.7090     79.9517   4.5568005843e+01   5.4475033526e+01    0.2226332     0.201668 -60.11 0.0005770663    1.126    0.112
       366 -11.3668      9.1517     77.8010   7.3743422597e+01   6.2152718591e+01    0.2409501    0.2326452 -70.71  0.001129047    1.029    0.028
       367 -11.9985    161.9988     77.4817   1.7827467524e+01   3.3808191000e+01    0.2094765    0.1374266  60.26  0.001040091    1.613    0.380
       368 -12.2079     75.0255     76.5004   4.0669790812e+01   5.3490478114e+01    0.2860408     0.219379 -70.98 0.0006591589    1.497    0.332
       369 -10.5679    211.2918     75.6429   1.0561144489e+01   2.4249166366e+01    0.1322109   0.07749709 -58.06 0.0007028984    1.688    0.408
       370 -11.6849    183.9916     75.1221   1.3836313916e+01   2.9564317372e+01    0.1983623    0.1700643 -55.17 0.0003501291    1.001    0.001
       371 -10.9913    150.6727     75.0512   1.9199776205e+01   3.6735059040e+01     0.198591    0.1751647 -54.79 0.0004176534    1.062    0.059
       372 -11.7788    116.6858     74.9936   2.6715638501e+01   4.4587050917e+01    0.3075159    0.2171484  62.79  0.001431184    1.450    0.310
       373 -11.8740    105.5018     73.4309   2.9300527622e+01   4.7491866856e+01    0.3617856    0.2680902  55.51  0.001002869    1.321    0.243
       374 -11.9436     86.5123     73.4915   3.5402416841e+01   5.1752378932e+01    0.2655154    0.1475624 -58.53  0.000737797    2.125    0.529
       375 -11.6526      2.3525     72.8496   7.6928718004e+01   6.3832438459e+01    0.4049845     0.161842 -42.55  0.001580735    2.427    0.588
       376 -12.9276     68.2466     72.5517   4.2122795174e+01   5.5746278922e+01    0.3405322    0.2664503   7.65  0.001158556    1.645    0.392
       377 -12.4384     70.2737     69.2692   4.0163696249e+01   5.6092998416e+01    0.3830121    0.2533493  33.79  0.001013626    1.583    0.368
       378 -10.8365    124.2774     72.0344   2.3907872725e+01   4.3378182775e+01    0.2083833    0.1855077 -66.05 0.0003262025    1.085    0.078
       379 -12.3391     54.9915     69.0114   4.6868282680e+01   5.9029246871e+01    0.3443915    0.2230581  25.20 0.0006492473    1.696    0.410
       380 -12.4867     61.7011     69.3273   4.3874226300e+01   5.7743064844e+01    0.2620698    0.2217634 -73.00 0.0005608692    1.305    0.234
       381 -12.7055     57.8764     65.8301   4.4416870733e+01   5.9259105914e+01    0.5765157    0.2964085  49.39  0.002244585    2.114    0.527
       382 -12.2069    154.3216     68.6889   1.6779295642e+01   3.6995532992e+01    0.2481662    0.2260721 -66.26 0.0002639772    1.026    0.025
       383 -10.5376    133.4685     69.5170   2.1060090294e+01   4.1677900352e+01    0.1435324    0.1407823 -89.94  0.000114604    1.118    0.106
       384 -11.5965    120.5346     67.7287   2.3469203170e+01   4.5063196684e+01    0.2957412    0.1497468 -34.78  0.001150697    2.234    0.552
       385 -12.1135     48.5662     66.8066   4.9287583931e+01   6.0639134798e+01    0.5508328    0.4151815   4.75  0.002610088    1.606    0.377
       386 -11.4284     46.9740     62.7276   4.8715661826e+01   6.1869099119e+01    0.2555053    0.2000051  20.52 0.0006033159    1.332    0.249
       387 -10.9292     78.9344     67.0929   3.5976957024e+01   5.4769366216e+01     0.225633    0.1992093  83.04 0.0004256369    1.215    0.177
       388 -11.6684      8.6822     66.9149   7.2197009474e+01   6.5100920885e+01    0.2916099    0.2214824  31.32  0.001004175    1.372    0.271
       389 -13.0030     12.2280     60.0731   6.8551413607e+01   6.6658845541e+01    0.4859491    0.2943233 -42.62  0.002328004    1.587    0.370
       390 -10.9277    173.0219     62.3652   1.2154399119e+01   3.3848103959e+01    0.1823394    0.1577193 -83.43  0.000515383    1.122    0.109
       391 -13.1167    111.6669     56.5768   2.1994644218e+01   4.9203179690e+01    0.5884389    0.3601095 -22.11  0.001949646    2.400    0.583
       392 -13.3884    115.2113     53.5627   2.0086357984e+01   4.8852032547e+01    0.5170729    0.3326607 -75.64  0.001067887    2.038    0.509
       393 -10.6428    208.5509     59.5640   7.2676034869e+00   2.7030251784e+01    0.1249103   0.09882321 -53.82 7.195093e-05    1.018    0.017
       394 -11.5851     41.8914     57.5298   4.9602739940e+01   6.3895773626e+01    0.4272877    0.2109353 -42.00  0.001695112    2.219    0.549
       395 -12.6999     37.2287     54.8244   5.1279036767e+01   6.5229240428e+01    0.5073642     0.296226 -38.77  0.001733564    1.876    0.467
       396 -11.5507    160.5122     57.5001   1.2668709819e+01   3.7375861523e+01    0.1408029    0.1213155 -67.10 -3.672192e-05    1.026    0.026
       397 -12.5835    109.0298     51.7148   2.0964903630e+01   5.0682854355e+01    0.3976422    0.1913505  58.37 0.0007492351    1.987    0.497
       398 -11.4053    179.7260     56.0401   9.6388830015e+00   3.3341979350e+01    0.2038345    0.1739386 -84.84 0.0003526332    1.145    0.127
       399 -12.6460     22.9297     54.8781   6.0162154281e+01   6.7023982134e+01     0.306251    0.2989657 -38.78  0.000816952    1.057    0.054
       400 -10.7530    197.7697     54.5716   7.2165705317e+00   2.9812992703e+01    0.1711837    0.1097174 -85.75 0.0009420585    1.738    0.425
       401 -10.4556    164.7190     52.6890   1.0731738540e+01   3.7140837465e+01    0.1230966    0.1082335  19.17 0.0002023924    1.566    0.362
       402 -11.9070    174.0809     50.3806   8.8760266477e+00   3.5380023055e+01    0.3621458    0.1213321 -44.47  0.001430963    2.517    0.603
       403 -12.8926     30.1785     49.9787   5.3808990343e+01   6.7336603402e+01     0.364906    0.2730463  50.05  0.001166322    1.499    0.333
       404 -12.5467     99.9529     49.5155   2.2585671832e+01   5.3281982197e+01    0.2973326     0.218382 -89.06  0.001294526    1.601    0.375
       405 -11.5589     19.0775     48.8065   6.0825202378e+01   6.8895568903e+01    0.2598405    0.1930075 -42.88 0.0006153484    1.295    0.228
       406 -11.8237     32.4471     56.4997   5.4717933035e+01   6.5497480076e+01    0.3088515    0.1900997  38.67 0.0007807417    1.627    0.385
       407 -11.7952    142.7273     42.8454   1.1153349595e+01   4.3743273676e+01    0.3295898    0.1088688 -36.46  0.001203245    2.816    0.645
       408 -10.4985     49.9378     44.0321   3.9755035659e+01   6.5449839404e+01    0.1739492    0.1538454  36.84 0.0003632011    1.070    0.065
       409 -10.9800    184.0669     43.3182   5.9033145267e+00   3.4176870603e+01    0.1775914    0.1431975 -71.11 0.0003299824    1.094    0.086
       410 -11.2749    155.1276     41.1412   8.8004826976e+00   4.1006427620e+01     0.187609     0.176329 -81.27 0.0003080574    1.146    0.127
       411 -12.8698     34.2647     40.3049   4.7228877983e+01   6.8906809089e+01    0.4777987     0.238487  29.50  0.002035262    1.996    0.499
       412 -12.1488    120.7396     39.3742   1.3946825603e+01   4.9691438146e+01    0.2686515    0.2291507 -83.85 0.0002749694    1.091    0.084
       413 -10.7423     51.8860     40.1867   3.6987747859e+01   6.5829882859e+01    0.1963634    0.1661576  13.21 0.0006088156    1.288    0.224
       414 -10.5927    113.7601     38.9704   1.5259427219e+01   5.1508008176e+01    0.1741346    0.1218448 -36.54 0.0002966302    1.515    0.340
       415 -11.7418    102.4669     37.9812   1.7521483365e+01   5.4498848415e+01     0.211081    0.1083062 -57.38 0.0007194123    2.477    0.596
       416 -11.4292     80.5586     36.9471   2.3456764644e+01   6.0061311096e+01    0.2626886    0.2199079 -74.78 0.0009090231    1.323    0.244
       417 -11.2266     42.4124     33.8088   3.9094976135e+01   6.8836412271e+01    0.2275216    0.1596884  33.58   0.00057428    1.359    0.264
       418 -11.7349     33.7619     33.4027   4.4295634063e+01   7.0402641552e+01     0.237015    0.2097024 -35.91 0.0006971982    1.170    0.145
       419 -12.2602     30.3412     31.6814   4.5759464471e+01   7.1282353548e+01    0.2966489    0.1992022  42.87  0.001128856    1.520    0.342
       420 -10.9329      5.0369     34.4813   6.7026570513e+01   7.3437780769e+01     0.188857     0.124196  10.09 0.0003576808    1.489    0.328
       421 -13.2933    174.4456     32.1597   4.0024544136e+00   3.7724365962e+01    0.2855697     0.235672 -68.53 0.0006525824    1.019    0.019
       422 -10.8993     14.9125     33.2852   5.8268650956e+01   7.2908431386e+01    0.1890498    0.1582832   8.65 0.0004291092    1.132    0.116
       423 -11.1088    141.3151     31.9645   7.9620061815e+00   4.5565726606e+01      0.18856    0.1653422 -58.86  0.000409426    1.109    0.098
       424 -11.4007    106.4066     32.2145   1.4351319287e+01   5.4327795445e+01    0.1959702    0.1265503 -48.04 0.0005925599    1.592    0.372
       425 -10.3694    114.2236     28.9360   1.1468953208e+01   5.2772908908e+01     0.167377    0.1141927 -37.63 -0.000430966    1.530    0.346
       426 -12.5545     45.5912     26.3816   3.3345363542e+01   6.9553495520e+01    0.4271428    0.3078265 -65.94  0.001722525    1.980    0.495
       427 -11.3809     67.5071     28.5231   2.4258557936e+01   6.4451783200e+01    0.1429573    0.1306227  62.17  2.69016e-05    1.043    0.041
       428 -10.2981     19.2944     27.6929   5.2116205817e+01   7.3622691757e+01    0.1277765    0.1031175  58.46 0.0004919286    1.584    0.369
       429 -10.5527      8.6110     26.8384   6.1013425463e+01   7.4913483767e+01    0.1581504    0.1263515 -76.39 0.0001529321    1.501    0.334
       430 -11.3057      1.8055     25.7658   6.7009271684e+01   7.5633920107e+01    0.1917162    0.1539057 -27.46 0.0005030603    1.114    0.103
       431 -12.1329     85.4793     24.4894   1.6371507423e+01   6.0657562427e+01    0.2762067    0.2258276 -82.71 0.0005327848    1.287    0.223
       432 -11.8000     89.5330     21.9937   1.4160859175e+01   5.9953836241e+01     0.292424     0.203567   8.98 0.0007928931    2.148    0.535
       433 -11.4915     74.6276     24.5905   1.9753301433e+01   6.3322990372e+01    0.2361112    0.2096395  61.15  0.000266139    1.016    0.016
       434 -10.8789    124.4986     24.4926   8.0330566283e+00   5.0709930802e+01    0.1410316    0.1221549 -85.15 0.0008106356    1.009    0.008
       435 -11.0573     66.3836     23.2129   2.2008706806e+01   6.5485005753e+01     0.176575    0.1300346 -48.17 8.766803e-05    1.523    0.343
       436 -10.9238     98.3470     20.3720   1.1364798272e+01   5.7901364266e+01    0.2071297    0.1485027  40.32 0.0005771968    1.595    0.373
       437 -10.8008    108.8658     16.8669   7.8474280363e+00   5.5594142071e+01    0.1880006    0.1451904 -72.69 0.0003719486    1.258    0.205
       438 -11.8691    120.0607    248.9437   5.9185948135e+01   7.7097948559e+00    0.3062145    0.1431974  18.08  0.000914736    1.922    0.480
       439 -11.1779     76.4581     15.4552   1.4662906509e+01   6.4025305875e+01    0.1396011    0.1235588  67.60  1.05171e-05    1.008    0.008
       440 -12.2490     50.1031    245.1355   7.4882640337e+01   1.5825371962e+01    0.4316216    0.1905125 -62.50  0.002103953    2.683    0.627
