#   1 NUMBER                 Running object number                                     
#   2 MAG_AUTO               Kron-like elliptical aperture magnitude                    [mag]
#   3 X_IMAGE                Object position along x                                    [pixel]
#   4 Y_IMAGE                Object position along y                                    [pixel]
#   5 X_WORLD                Barycenter position along world x axis                     [deg]
#   6 Y_WORLD                Barycenter position along world y axis                     [deg]
#   7 A_WORLD                Profile RMS along major axis (world units)                 [deg]
#   8 B_WORLD                Profile RMS along minor axis (world units)                 [deg]
#   9 THETA_WORLD            Position angle (CCW/world-x)                               [deg]
#  10 FWHM_WORLD             FWHM assuming a gaussian core                              [deg]
#  11 ELONGATION             A_IMAGE/B_IMAGE                                           
#  12 ELLIPTICITY            1 - B_IMAGE/A_IMAGE                                       
         1 -14.9633    207.0788    168.2831   2.9869171029e+01   1.0375928380e+01     4.284086     3.302245  86.73   0.02329704    2.997    0.666
         2 -14.3586    220.3599    153.4526   2.5121187122e+01   1.0935482185e+01     3.515687     2.162107 -69.15   0.00611269    5.914    0.831
         3 -15.1931    223.8357    122.1400   1.8701816262e+01   1.5220093566e+01     3.490753      2.22141 -81.51   0.01607658    3.872    0.742
         4 -15.9348    227.4609     87.1739   1.1248152253e+01   1.9820026486e+01     6.468355     2.833165 -27.17   0.02898232    2.809    0.644
         5 -14.9548    230.5103    113.3604   1.6146933805e+01   1.5547988565e+01     2.073196      1.09729 -45.43  0.009219509    1.594    0.373
         6 -15.2324    240.1489    135.6738   1.9183959473e+01   1.0982719834e+01     1.186738     0.491812 -26.63  0.005436629    2.871    0.652
         7 -10.6536    240.0026    249.4492   3.7245665304e+01  -3.7981238305e+00    0.2624917    0.1563761  22.28  0.002049879    1.708    0.414
         8 -10.5677    249.1012    248.6227   3.5814971365e+01  -4.3940523988e+00    0.5507746    0.1620043 -35.38  0.003163932    2.773    0.639
         9 -10.3975    244.7201    248.7181   3.6457606242e+01  -4.0770559939e+00    0.3024129    0.1737708 -38.36  0.002249011    2.000    0.500
        10  -9.9492    228.2771    250.0233   3.9094614598e+01  -2.9399420301e+00    0.1632722    0.1115215  -4.21  0.001325457    1.040    0.039
        11 -12.4761    231.6612    210.4057   3.2937467261e+01   1.5949972917e+00    0.3363279     0.257945  37.43  0.001531711    1.992    0.498
        12 -11.1628    240.7702    207.6903   3.1182309882e+01   1.0856731678e+00    0.2326919    0.1953603  -8.60 0.0003274026    1.341    0.254
        13  -8.7459    216.0176    214.9583   3.6074646720e+01   2.5204012042e+00    0.1656134    0.1250181 -12.91 0.0004738408    1.049    0.047
        14  -9.7691    196.1585    213.3595   3.9201013888e+01   4.8141117734e+00    0.2601196    0.1782361  -2.84 0.0002865275    1.279    0.218
        15  -9.1751    213.5625    209.0115   3.5568583390e+01   3.5831604819e+00    0.3293481    0.1710551 -28.82  0.001992073    1.645    0.392
        16  -9.2807    210.9212    203.2845   3.5111122840e+01   4.6670792589e+00    0.2406275    0.1714829 -24.03 0.0007822465    1.152    0.132
        17  -8.0764    194.2574    238.9763   4.3228639125e+01   1.4355559872e+00     0.153915     0.115707  -9.86 0.0006965442    1.088    0.081
        18  -8.5521    205.9847    202.6895   3.5843239456e+01   5.2908674077e+00    0.1778286    0.1289753 -23.26 0.0006502247    1.142    0.124
        19  -8.3135    167.3161    201.9704   4.2893093581e+01   9.9804147114e+00    0.3588453     0.115759 -50.72  0.001349736    3.892    0.743
        20  -8.7018    161.3787    201.0428   4.3961069064e+01   1.0892654626e+01    0.3148021    0.1421049 -42.68  0.001503146    2.181    0.542
        21 -10.2735    218.7921    198.3682   3.3055745097e+01   4.5172349157e+00    0.3012876    0.1945645 -28.89 0.0004657875    1.265    0.210
        22  -9.6137    225.9657    193.8905   3.1221373656e+01   4.3780801452e+00    0.2443046    0.2227073 -53.67  0.001297457    1.803    0.445
        23  -8.5177    209.2850    195.0847   3.4071078821e+01   6.0327250787e+00    0.2353252    0.1704825 -62.67  0.001347273    2.738    0.635
        24  -8.3362    195.6556    196.1136   3.6578438168e+01   7.4552363548e+00    0.1717428    0.1375095 -42.93 0.0009996686    1.480    0.324
        25 -14.4609    229.6087    148.0995   2.2827973622e+01   1.0535960870e+01     1.535815    0.5546969 -45.16  0.007062312    2.651    0.623
        26  -8.8266    219.3020    225.6599   3.7126582486e+01   7.9376316021e-01    0.1354031    0.1269647  16.94  0.001097743    1.781    0.439
        27 -14.3762    247.5370    158.3013   2.2258154411e+01   6.9267545635e+00     1.170986    0.7514265  36.27  0.008205038    1.963    0.491
        28 -13.8558    231.9876    100.7112   1.3484288644e+01   1.7167343332e+01    0.5391861    0.4259042  17.84  0.002360736    1.777    0.437
        29 -13.4684    220.5910    104.0665   1.5498399092e+01   1.8448646379e+01    0.6015034    0.4811669 -36.70  0.002866171    1.061    0.058
        30 -10.2143    210.4205    184.6089   3.2151995424e+01   7.4552183610e+00    0.3520277    0.2424816 -19.26 0.0005600346    1.244    0.196
        31  -9.0842    182.7424    181.3240   3.6456215983e+01   1.1461433579e+01    0.3696533    0.1511017 -44.33  0.001635002    2.346    0.574
        32  -8.8683    183.2602    176.6344   3.5537822467e+01   1.2184160733e+01    0.2801582    0.1639302 -43.11 0.0009434364    1.638    0.390
        33  -8.4738    137.6412    179.8005   4.5722489888e+01   1.8143022193e+01    0.1815287    0.1305192 -58.79  0.000525864    1.649    0.393
        34  -8.3011    169.5398    178.0211   3.8452860701e+01   1.3845629904e+01    0.4588106    0.1540876 -48.41  0.001755098    3.169    0.684
        35  -9.1836    150.3616    178.7199   4.2632918920e+01   1.6478500818e+01    0.2290182    0.1465366 -28.48 0.0004715049    1.654    0.395
        36  -7.7523    145.6927    179.3493   4.3788039133e+01   1.7042607652e+01    0.1295061    0.1087772  72.75 0.0005394291    1.707    0.414
        37  -9.1240    164.0013    176.4862   3.9314122986e+01   1.4913064329e+01    0.2479649    0.1821669 -56.36  0.001369522    1.671    0.402
        38  -8.1102    159.3111    176.2923   4.0264211310e+01   1.5629110952e+01    0.1352335   0.09516548  -8.83 0.0002178055    1.588    0.370
        39  -9.4139    143.1081    170.7160   4.2856891034e+01   1.9144694539e+01    0.2275193    0.1886083 -52.69 0.0006567377    1.323    0.244
        40 -13.2019    232.2263     93.6244   1.2045720974e+01   1.8144806347e+01    0.5018447    0.3077126 -24.41 0.0008246921    1.780    0.438
        41  -8.4753    158.5876    169.7137   3.9233859437e+01   1.6975625625e+01    0.1824434    0.1258959 -53.02 0.0009505098    1.622    0.383
        42  -8.0740    128.6243    168.8272   4.5987850203e+01   2.1794860586e+01    0.1942408    0.1368992 -62.84 0.0007822082    1.701    0.412
        43  -8.2974    177.4320    183.9505   3.7924206807e+01   1.1725632141e+01    0.1872424     0.112529 -40.37 0.0004737996    1.571    0.363
        44  -7.9186    134.3285    167.6993   4.4386879208e+01   2.1134634543e+01    0.1378856    0.1111353  66.53 0.0003568291    1.643    0.391
        45  -8.2541    179.4096    166.2599   3.4390804127e+01   1.4518862251e+01    0.1754245    0.1152874 -48.20 0.0007207961    1.591    0.372
        46  -9.4744    249.1122    213.5903   3.0885027843e+01  -3.9156802749e-01    0.3059822    0.1295924 -29.26  0.001810018    1.843    0.458
        47  -8.8825    159.8416    164.5706   3.8014012148e+01   1.7763382203e+01    0.2495743    0.1870124 -47.33 0.0006148359    1.368    0.269
        48  -8.0072    165.3241    167.6564   3.7442009415e+01   1.6347523672e+01    0.1256595      0.10809  87.26 0.0007050622    1.735    0.424
        49  -8.5790    164.1390    161.1405   3.6464329550e+01   1.7748093403e+01    0.1762242    0.1592343 -59.82 0.0005876013    1.323    0.244
        50  -9.4626    168.0815    159.0971   3.5266263947e+01   1.7518027414e+01    0.2822658    0.1800048 -47.93 0.0008344706    1.580    0.367
        51  -9.4836    159.3840    159.4638   3.7141543905e+01   1.8814435900e+01    0.2569715    0.1605841 -46.28 0.0007314911    1.570    0.363
        52  -9.4417    153.0428    156.5366   3.7947552749e+01   2.0406401000e+01     0.251552    0.1930775 -60.16 0.0007694912    1.540    0.351
        53  -9.4822    165.1683    154.1437   3.4898076251e+01   1.8908722203e+01    0.2739369    0.1992202  28.07  0.001232319    1.442    0.306
        54  -8.8475    130.7938    159.0435   4.3646908726e+01   2.3545191306e+01    0.2152532    0.1979933  78.22  0.001064284    1.291    0.225
        55  -8.7548    138.5091    152.4841   4.0488906335e+01   2.3655067684e+01    0.1426614    0.1346979  -9.23 0.0001311043    1.012    0.012
        56 -11.1818    170.9886    147.1380   3.2332063532e+01   1.9283425471e+01     0.476655    0.3761147 -33.78  0.001229032    1.160    0.138
        57  -9.4092    162.6143    149.1583   3.4433936544e+01   2.0277068860e+01    0.3180327    0.2468016 -48.03  0.001345342    1.293    0.227
        58 -10.4216    133.6001    147.7999   4.0740806355e+01   2.5499633457e+01     0.358247    0.2648512 -52.78  0.001463152    1.392    0.282
        59  -9.0472    148.3751    148.1751   3.7323664836e+01   2.2868972666e+01    0.1995664    0.1302325 -56.73 0.0007935329    1.728    0.421
        60  -8.3534    142.6796    148.1740   3.8634378643e+01   2.3847195268e+01    0.2097091    0.1225818 -39.23 0.0009377858    1.721    0.419
        61 -10.0690    155.1673    141.3251   3.4403125193e+01   2.3076991577e+01    0.4717248    0.1802801 -45.41   0.00157527    2.489    0.598
        62 -10.1268    141.1112    142.1265   3.7752035336e+01   2.5390244249e+01    0.3106961     0.182414 -43.31  0.001402329    1.663    0.399
        63  -8.6241    124.4996    142.0487   4.1864718823e+01   2.8374393687e+01    0.2269866    0.1450711 -49.59 0.0007910821    1.565    0.361
        64  -9.0630    220.5954    214.4984   3.5270135098e+01   2.1289746162e+00    0.3021359    0.2306055 -72.33  0.001567605    4.651    0.785
        65 -15.2279    232.7639    127.2617   1.8542265979e+01   1.3184826402e+01     1.007549    0.6026299 -24.07  0.005952032    1.682    0.406
        66  -9.9046    159.2002    139.0853   3.3070740661e+01   2.2815693847e+01    0.4234172    0.1840034 -48.63   0.00157498    2.292    0.564
        67  -8.0877    108.5010    140.5127   4.5920506953e+01   3.1582165975e+01    0.1504061    0.1476431  23.48 4.327873e-05    1.008    0.007
        68 -10.9838    166.6460    137.8992   3.1291655018e+01   2.1752344022e+01    0.4137544    0.2994015  -2.37  0.001580829    1.819    0.450
        69  -8.1178    122.2905    134.3592   4.0802874296e+01   3.0513734135e+01    0.1555241    0.1169891 -16.57 0.0007027293    1.690    0.408
        70 -10.0155    153.2092    129.6681   3.2311808352e+01   2.5761451752e+01    0.3128678    0.2160443 -39.43  0.001287334    1.388    0.280
        71 -10.2536    141.7967    129.0749   3.4750756110e+01   2.8013626338e+01    0.4653248    0.1847781 -48.43  0.001700062    2.481    0.597
        72 -15.5086    248.1238    119.8615   1.5349097446e+01   1.2170082593e+01     1.303313    0.3178667 -38.92  0.005538137    2.987    0.665
        73 -10.1588    160.1225    127.0394   3.0267029780e+01   2.5007190844e+01    0.4795371    0.1852265 -40.67  0.001804333    2.495    0.599
        74 -15.0930    239.7976    117.2601   1.5802872114e+01   1.3658826411e+01     0.921721    0.3777009 -35.31  0.004777056    1.940    0.485
        75 -10.8445    175.5137    120.4858   2.5827411621e+01   2.3432390555e+01    0.6312233    0.2279956 -44.72  0.002427319    2.528    0.604
        76  -9.2739    177.5000    117.5219   2.4811699887e+01   2.3609224189e+01    0.2997135    0.1945338 -48.10  0.001281337    1.440    0.306
        77  -9.3757    197.9742    205.1175   3.7607870625e+01   5.8258423925e+00    0.2862556    0.2042604 -46.43  0.001135725    1.721    0.419
        78  -9.2662    157.0271    121.0814   2.9563275450e+01   2.6751135678e+01     0.484955    0.2119807 -30.29  0.001589117    3.604    0.723
        79 -10.1413    170.9952    120.2200   2.6603802146e+01   2.4304454378e+01      0.49515    0.1858251 -33.58  0.001683403    3.362    0.703
        80 -10.8775    162.1567    116.9300   2.7564314210e+01   2.6578830488e+01    0.4959105    0.3363154 -11.48  0.002225498    2.259    0.557
        81  -9.5153    152.3444    120.5373   3.0429347833e+01   2.7753928797e+01     0.260897    0.2136071 -37.35 0.0006869508    1.179    0.152
        82  -9.6704    140.3550    116.5395   3.2175066557e+01   3.0918606736e+01    0.2923844     0.173633 -42.71  0.001052948    1.639    0.390
        83  -9.9132    146.7937    113.2781   2.9925838892e+01   3.0302339890e+01    0.4675882    0.1868078 -46.89  0.001722823    2.413    0.586
        84  -8.6067    152.4945    113.5075   2.8745518900e+01   2.9122284740e+01    0.2979993    0.1351831 -43.71 0.0008760401    2.077    0.518
        85 -10.0032    181.5774     96.3259   1.9271530133e+01   2.6565315059e+01    0.5556708    0.3703382 -18.99  0.002723598    2.013    0.503
        86  -8.8109    176.2047    111.5208   2.3689438325e+01   2.4927069695e+01    0.3093413    0.1812934 -36.84  0.001084594    1.598    0.374
        87  -8.7487    178.5981    107.1929   2.2284757039e+01   2.5248708856e+01    0.3502682    0.1504814 -37.44  0.001389528    2.192    0.544
        88  -8.2280    179.2774    103.3142   2.1275898565e+01   2.5801077981e+01    0.1970898    0.1678326  18.55 0.0004169998    1.461    0.315
        89 -10.3505    159.0016    111.7266   2.6978070530e+01   2.8186879336e+01    0.6139134    0.2661605 -34.76  0.002290661    2.629    0.620
        90 -14.4421    248.2602    172.0734   2.4484549905e+01   4.9868840653e+00     1.667135    0.7589358 -32.87  0.006575773    1.682    0.406
        91 -10.7533    169.6308    108.0309   2.4065069818e+01   2.6808490049e+01    0.5637057    0.3969845 -10.72  0.002691075    2.083    0.520
        92  -9.4480    154.8764    106.8635   2.6646143230e+01   2.9945110998e+01     0.353072    0.2194036 -36.79  0.001027007    1.608    0.378
        93  -9.5198    174.5318    101.2397   2.1595878416e+01   2.7079443438e+01    0.4844241    0.2380368 -33.17  0.002063353    2.160    0.537
        94 -10.1329    160.9530     99.7531   2.3699029190e+01   3.0057895436e+01    0.4446749     0.230398 -42.69 0.0009647873    1.779    0.438
        95  -8.8623    167.3630     99.5688   2.2461956104e+01   2.8795240830e+01    0.4175074    0.1642883 -50.13  0.001543592    2.677    0.626
        96  -9.0591    164.9847     93.6683   2.1443665007e+01   3.0341674048e+01    0.3112947    0.1944185 -39.87 0.0009948978    1.493    0.330
        97 -13.5646    221.5811    162.4964   2.6570840519e+01   9.4143103347e+00     1.189465    0.8431343  78.89  0.005653548    4.417    0.774
        98 -11.0641    179.8514     88.6334   1.7717717792e+01   2.8202946085e+01    0.6376343    0.4965161 -25.44  0.002358032    1.423    0.297
        99  -7.8872    154.6841     94.6927   2.3646404905e+01   3.2300493108e+01     0.139102    0.1148593   3.32 0.0007028665    1.629    0.386
       100  -9.1945    187.3545     91.9490   1.7358694807e+01   2.6187328576e+01    0.2106422    0.1789428 -77.92  0.001033977    1.262    0.207
       101  -9.2324    158.5117     89.9959   2.1706941563e+01   3.2356356635e+01    0.3357415    0.1366021 -34.66  0.001215043    2.740    0.635
       102  -8.8033    142.6707     89.3512   2.4718740273e+01   3.5897914760e+01    0.2907868     0.221378 -25.69  0.001032786    1.558    0.358
       103  -9.0796    193.1090     87.2440   1.5441761749e+01   2.5853013083e+01    0.3389997    0.1635307 -28.73  0.001457746    2.449    0.592
       104  -8.7802    151.1661     87.4425   2.2456606065e+01   3.4400297587e+01    0.2662328    0.1953725 -42.87  0.000844023    1.295    0.228
       105  -9.0051    157.8745     81.1937   1.9532255358e+01   3.4064350435e+01    0.3226565      0.18623 -28.80  0.001400414    2.087    0.521
       106  -7.9167    170.4371     81.4797   1.7452077684e+01   3.1328770950e+01    0.1380914    0.1227753 -54.90 9.254182e-05    1.018    0.017
       107  -8.7994    164.0306     79.5890   1.8031788394e+01   3.3009771789e+01    0.2738521    0.1684986 -52.66 0.0006784176    1.557    0.358
       108  -8.2895    167.2666     76.5890   1.6716875445e+01   3.2820698724e+01    0.2228272    0.1681808 -18.27 0.0007800179    1.708    0.415
       109  -8.8003    157.3963     75.2028   1.8019806461e+01   3.5206912013e+01    0.2636485    0.1658398 -48.17  0.001274867    1.471    0.320
       110 -10.0619    229.2534    201.4955   3.1927877972e+01   3.0039669707e+00    0.3234718     0.187998  -9.05  0.002058301    1.706    0.414
       111  -7.7904    133.5346     75.5098   2.2821784874e+01   4.0571556157e+01    0.1470964    0.1396888 -76.12 0.0002372915    1.039    0.037
       112  -9.4020    175.0459     75.2614   1.5163067066e+01   3.1388254005e+01    0.2955764    0.1730788 -47.68 0.0007842852    1.523    0.343
       113  -8.5702    180.5661     71.8651   1.3513022980e+01   3.0777765786e+01    0.2847116    0.2010447  21.53  0.001383206    2.449    0.592
       114  -8.7635    170.3030     70.3739   1.4630793689e+01   3.3183609469e+01    0.2626184    0.1693557 -40.33 0.0008213197    1.424    0.298
       115  -8.7785    169.4405    215.2844   4.4499598364e+01   7.5410271297e+00    0.2646584    0.1148453 -48.07  0.001216792    2.577    0.612
       116  -7.7216     86.5098     68.5306   3.3722181330e+01   5.2811752809e+01    0.1537634    0.1468041  66.38 0.0001234283    1.006    0.006
       117  -8.4215    182.2841     66.8832   1.2040741069e+01   3.1190309931e+01    0.2290072    0.1633213  35.07  0.001202087    2.034    0.508
       118  -8.8164    171.6292     62.2003   1.2307108138e+01   3.4176356390e+01    0.2277327    0.2096372  86.76 0.0005654598    1.146    0.127
       119 -11.3257    204.1338     54.9141   6.6475230300e+00   2.8512542800e+01    0.5040038     0.287534 -52.73  0.001964325    1.488    0.328
       120  -8.4990    113.1879     57.2089   2.1828039062e+01   4.8722334877e+01    0.2024994    0.1645101 -78.35 0.0003317625    1.287    0.223
       121 -15.0944    248.3556    148.1238   2.0395089751e+01   8.2281365805e+00    0.8034478    0.6460731  23.16  0.006248834    1.515    0.340
       122  -8.7226    193.1233     53.9696   7.5674088799e+00   3.0833964807e+01    0.1960841     0.163933 -52.98 0.0006324309    1.059    0.056
       123  -7.8915    183.6125     51.7212   8.0769614272e+00   3.3127531694e+01     0.121841   0.09960604  33.48 0.0007001285    1.731    0.422
       124 -14.5464    246.4149     96.1378   1.1079742311e+01   1.5673722137e+01    0.5943352    0.5013966  33.01  0.004523072    1.623    0.384
       125  -8.8957    182.7231     46.0758   6.7480602823e+00   3.4095239156e+01    0.2195487     0.180472  67.76 0.0004676516    1.352    0.260
       126 -14.8680    247.4010     90.7471   9.9549041152e+00   1.6262297458e+01     1.525154     1.040365  59.44   0.01067819    1.935    0.483
       127 -15.0798    239.2883    106.6027   1.3827175456e+01   1.5244804294e+01     1.073299     0.468852  51.21  0.005828425    2.947    0.661
       128 -14.7851    247.1002    136.2154   1.8438547141e+01   1.0027990702e+01    0.9850495    0.5141295 -16.09  0.004940389    2.923    0.658
