#   1 NUMBER                 Running object number                                     
#   2 MAG_AUTO               Kron-like elliptical aperture magnitude                    [mag]
#   3 X_IMAGE                Object position along x                                    [pixel]
#   4 Y_IMAGE                Object position along y                                    [pixel]
#   5 X_WORLD                Barycenter position along world x axis                     [deg]
#   6 Y_WORLD                Barycenter position along world y axis                     [deg]
#   7 A_WORLD                Profile RMS along major axis (world units)                 [deg]
#   8 B_WORLD                Profile RMS along minor axis (world units)                 [deg]
#   9 THETA_WORLD            Position angle (CCW/world-x)                               [deg]
#  10 FWHM_WORLD             FWHM assuming a gaussian core                              [deg]
#  11 ELONGATION             A_IMAGE/B_IMAGE                                           
#  12 ELLIPTICITY            1 - B_IMAGE/A_IMAGE                                       
         1 -15.0068      6.9183    148.8651   1.4533946501e+02   4.3150233161e+01     10.71855     4.049748  68.67   0.04720604    3.282    0.695
         2 -13.6862    194.9911     28.1152   6.9527493322e+01   3.2846572663e+01     1.519725     1.385348  45.54  0.006760743    1.182    0.154
         3 -13.6342    210.7355      8.4845   6.2373587655e+01   3.1057618264e+01     1.311699    0.9603223  44.23  0.007264444    1.585    0.369
         4 -12.2925      2.9940      7.3748   1.1862001291e+02   7.3028334065e+01     1.114979    0.1617629 -48.85  0.004185524    4.412    0.773
         5 -11.6235    153.9141    248.9007   1.2647436713e+02   4.2347251360e+00    0.4099914    0.1363562  43.11  0.001892947    2.324    0.570
         6 -11.9154    238.5546    248.6756   1.1194462876e+02  -8.6534123145e+00    0.3809304    0.1843431  37.61  0.002271803    1.678    0.404
         7 -11.2101    249.0147    249.2749   1.1034557177e+02  -1.0166773854e+01    0.3078115    0.1889531  32.14  0.002112094    1.311    0.237
         8 -11.9830     29.5888    249.1936   1.4758862357e+02   2.1338821810e+01    0.4387039     0.276723  54.79  0.003386625    1.226    0.185
         9 -11.2758     33.8408    247.9970   1.4685804973e+02   2.1067144825e+01    0.3466004    0.1892459  69.67  0.002443764    1.423    0.297
        10 -11.5218     34.9977    244.0152   1.4645548400e+02   2.1607431235e+01    0.3684637    0.2470553  60.19  0.002845943    1.112    0.100
        11 -11.9979     13.0301    242.0244   1.4982098591e+02   2.4285065595e+01     0.493083    0.1928278 -82.32  0.003056105    2.281    0.562
        12 -10.8783      2.7521    249.5864   1.5167849221e+02   2.4030411675e+01    0.2734758    0.1332981  44.53  0.001994695    1.751    0.429
        13 -10.5051     81.0306    248.3527   1.3912750292e+02   1.5154999103e+01    0.2626078    0.1364657  73.13  0.001505184    2.146    0.534
        14 -10.5536    198.4749    246.0275   1.1829745057e+02  -2.3938924022e+00    0.1503727     0.113142 -29.03 0.0004536853    1.601    0.375
        15 -11.4235     21.5444    244.4712   1.4861042531e+02   2.2994500331e+01    0.3712713    0.1405891  59.99  0.002212744    2.006    0.501
        16  -9.6302    181.6634    244.3320   1.2099518738e+02   4.5910185404e-01    0.1138588   0.08362803  61.88 0.0007052101    1.737    0.424
        17 -11.0287     46.1326    249.1701   1.4496426594e+02   1.9457294780e+01    0.2595753    0.1373407  54.95  0.001267375    1.389    0.280
        18  -8.9665     76.0000    243.9196   1.3962964294e+02   1.6563444179e+01    0.1592032   0.05897938 -67.73 0.0008101786    2.996    0.666
        19  -9.7478     82.5113    243.4953   1.3847363080e+02   1.5750680773e+01    0.1129022   0.08568048  60.80 0.0002055311    1.020    0.020
        20 -11.2612     98.4793    249.7343   1.3626116123e+02   1.2501535958e+01    0.3025301    0.1865128  48.55  0.001998759    1.253    0.202
        21  -9.7955    183.9945    238.5042   1.1977575148e+02   8.5188239707e-01    0.1766071   0.08643536  25.66 0.0008106472    2.588    0.614
        22 -11.8516    139.6335    248.7608   1.2897505037e+02   6.4852371413e+00    0.3391429    0.3113058  85.86  0.002612979    1.292    0.226
        23  -9.3556     68.7804    235.1809   1.4018104446e+02   1.9012144549e+01    0.1887245    0.1660798  60.31  0.001461527    1.297    0.229
        24 -10.5838    173.9323    222.9790   1.1935917202e+02   4.6966800039e+00    0.3644845    0.2682549  65.71  0.002142365    1.749    0.428
        25 -10.3836     90.4485    222.4838   1.3509716022e+02   1.8267335616e+01      0.25534   0.09933976  41.49  0.001223046    2.209    0.547
        26 -12.7227      9.3774    207.2770   1.4873311172e+02   3.0912609724e+01    0.6712731    0.4938961  33.99  0.003639777    1.765    0.433
        27  -9.0587    152.6296    213.0128   1.2193680999e+02   9.9175261082e+00    0.1597318    0.1523801  64.85 0.0003825513    1.143    0.125
        28 -10.4445    139.9975    231.0045   1.2679005435e+02   9.1176883390e+00    0.1945731    0.1320385  66.26  0.001140126    1.668    0.400
        29 -11.6599     61.2789    199.8263   1.3847474190e+02   2.6622658995e+01     0.256559    0.2311229 -56.69 0.0005393565    1.486    0.327
        30  -9.5544    191.8689    193.1567   1.1104288994e+02   6.1218606478e+00      0.35943    0.1826837 -57.51  0.001381451    3.710    0.730
        31 -10.8532     17.1081    198.4884   1.4683618974e+02   3.1881083025e+01     0.280622    0.1450359  56.02  0.001781834    1.608    0.378
        32 -12.0057     67.5614    191.4147   1.3634764549e+02   2.7505366304e+01    0.2536509    0.2240643 -72.28 0.0004845003    1.286    0.222
        33 -12.9617     34.8028    234.2051   1.4592220010e+02   2.3326056249e+01    0.2836493    0.2353636 -87.52 0.0007934343    1.364    0.267
        34 -14.4618     39.9238    227.1262   1.4461275548e+02   2.4009996056e+01     1.232505     1.144674   4.11  0.005880686    1.878    0.468
        35 -13.3168     64.4002    176.5904   1.3535187545e+02   3.1050952435e+01    0.4573459     0.267872 -47.66   0.00178536    2.194    0.544
        36 -10.9416     77.6640    178.3956   1.3267000142e+02   2.8839038717e+01    0.2272314    0.1991204  84.38 0.0002788093    1.062    0.058
        37  -9.9956     99.5915    176.3344   1.2753863937e+02   2.5938082487e+01     0.364895    0.2035431  68.78  0.001350866    2.377    0.579
        38 -11.8212     85.3359    169.0517   1.2968685972e+02   2.9730983277e+01    0.5995412      0.57809  20.32  0.003881344    1.322    0.244
        39  -9.7777      4.4231    228.7908   1.5059345275e+02   2.7420998441e+01    0.1252643   0.07564376 -80.10 0.0005816983    1.515    0.340
        40 -10.1187     97.6242    152.9407   1.2424149606e+02   3.1358967418e+01    0.3568802    0.2842411 -36.10 0.0008201299    1.553    0.356
        41  -9.2496    100.9217    148.5244   1.2265163526e+02   3.1798122439e+01    0.2059288    0.1761436  15.91 0.0007980075    1.489    0.328
        42 -12.0970     86.3480    152.1760   1.2684932305e+02   3.3329221714e+01    0.2830263    0.2422939 -50.08 0.0007469981    1.289    0.224
        43  -9.3412    134.0000    145.9459   1.1416598168e+02   2.6282370803e+01    0.3989733   0.08340281 -48.89  0.001044771    4.875    0.795
        44 -12.3941     67.1795    143.5804   1.3021471598e+02   3.8062905906e+01    0.7127198    0.4256484  64.30  0.003498805    1.928    0.481
        45 -10.0030    109.3472    137.8380   1.1849176439e+02   3.2729455907e+01     0.418778    0.2803623 -19.36  0.001410184    2.644    0.622
        46 -10.5347     96.6932    135.0292   1.2114693692e+02   3.5568999405e+01    0.2536779    0.2209633 -38.14 0.0004234762    1.291    0.225
        47 -10.5492     33.2814    132.7731   1.3729927720e+02   4.4484811663e+01    0.3562385    0.1346202  51.66  0.001514127    3.136    0.681
        48  -8.6587    115.6489    129.7022   1.1516662816e+02   3.3389501244e+01    0.1465792    0.1186937  -5.77 0.0007035436    1.688    0.408
        49  -9.0886    106.6725    124.1089   1.1624319766e+02   3.6309578079e+01    0.1916049     0.172589 -54.84 0.0002825078    1.083    0.077
        50  -8.4753    181.3993    144.5033   1.0330037452e+02   1.6711758266e+01     0.143784    0.1417837  -1.95 0.0001813182    1.042    0.040
        51  -9.6464    167.5644    112.8092   9.8595986251e+01   2.5917930452e+01    0.2931182    0.2358766 -85.70  0.001200042    1.585    0.369
        52  -9.8395    203.2541    111.8302   9.1117325898e+01   1.7850643758e+01    0.2820963    0.2054965 -14.18 0.0007892459    1.603    0.376
        53  -9.2646     38.3838     94.9240   1.2975390140e+02   5.2708169227e+01    0.1846263    0.1660447  73.72 0.0004910438    1.241    0.194
        54  -9.3337     68.5751     83.7616   1.1745070401e+02   5.1604338826e+01    0.1910364    0.1707438  85.83 0.0003968415    1.304    0.233
        55  -9.6879    157.4975     76.0031   9.0507279311e+01   3.5275831616e+01    0.2355389    0.1514573 -35.89 0.0006340379    1.552    0.356
        56  -9.2688     42.0184     67.0561   1.2200583872e+02   5.8497748426e+01     0.254839    0.1549182  54.74  0.001125563    2.489    0.598
        57 -11.4899      2.6347     64.0438   1.3579830748e+02   6.2190744189e+01    0.5640283    0.2028443 -80.22  0.002016322    4.729    0.789
        58 -10.2605     13.9909     54.8481   1.2942499719e+02   6.3461569299e+01    0.1716609    0.1233626  55.34 0.0009628264    1.969    0.492
        59 -12.4220    123.9617    248.8065   1.3173742983e+02   8.8852377353e+00    0.5173015    0.3316325  43.16  0.003361947    1.259    0.206
        60 -10.9548    172.9711    248.5504   1.2308110425e+02   1.2825971284e+00    0.3825573    0.1737519  55.31  0.001746076    2.975    0.664
