#   1 NUMBER                 Running object number                                     
#   2 MAG_AUTO               Kron-like elliptical aperture magnitude                    [mag]
#   3 X_IMAGE                Object position along x                                    [pixel]
#   4 Y_IMAGE                Object position along y                                    [pixel]
#   5 X_WORLD                Barycenter position along world x axis                     [deg]
#   6 Y_WORLD                Barycenter position along world y axis                     [deg]
#   7 A_WORLD                Profile RMS along major axis (world units)                 [deg]
#   8 B_WORLD                Profile RMS along minor axis (world units)                 [deg]
#   9 THETA_WORLD            Position angle (CCW/world-x)                               [deg]
#  10 FWHM_WORLD             FWHM assuming a gaussian core                              [deg]
#  11 ELONGATION             A_IMAGE/B_IMAGE                                           
#  12 ELLIPTICITY            1 - B_IMAGE/A_IMAGE                                       
         1 -16.1641    185.2315    202.0202   2.9081723803e+02   4.3683080663e+00    0.2128788    0.1730093  48.94   0.02449822    1.287    0.223
         2 -14.5023      6.6806     24.3949   2.9183531595e+02   7.4637174968e+00   0.07429515   0.04744368 -51.23  0.007326312    1.526    0.345
         3 -12.4348     75.6569     13.3630   2.9096344588e+02   7.1936704287e+00   0.02758773   0.01506423  18.95  0.001074916    2.024    0.506
         4 -12.9551     96.0413      3.4844   2.9066613230e+02   7.1902588465e+00    0.0272706   0.01875514  12.80  0.001781257    1.611    0.379
         5 -12.0530     90.5692      1.8120   2.9071996605e+02   7.2413314216e+00   0.01640055   0.01471238 -53.05 0.0008817384    1.099    0.090
         6 -13.3536     84.5134      5.0087   2.9080987098e+02   7.2393174188e+00   0.03540134   0.02431346  -9.85   0.00356371    1.839    0.456
         7 -12.0357     82.4918     13.5252   2.9088461972e+02   7.1522526091e+00   0.01290182   0.01243164  -3.12 0.0007477355    1.046    0.044
         8 -13.0647     86.7978     11.1039   2.9081980935e+02   7.1554167960e+00   0.03075788   0.01957314  41.75  0.002405491    1.605    0.377
         9 -12.1070    123.9825     10.0302   2.9037940508e+02   6.9524430927e+00   0.01333614   0.01202642 -63.55 0.0003649768    1.108    0.098
        10 -11.8408    104.2178      5.5108   2.9058287119e+02   7.1194046800e+00   0.01923239   0.01344909 -89.60  0.001959868    1.776    0.437
        11 -11.1161    137.6877      5.6570   2.9019324755e+02   6.9236281665e+00   0.01339788  0.008157988  29.70  0.001333078    1.624    0.384
        12 -11.6497    111.4938      5.5138   2.9049797461e+02   7.0772092415e+00   0.01738353   0.01057154 -13.64  0.001546676    2.379    0.580
        13 -12.3779     73.4983      1.8483   2.9091951228e+02   7.3396849710e+00   0.01664579   0.01192182  53.47  0.000513717    1.548    0.354
        14 -10.9380     33.6848      4.1157   2.9139821152e+02   7.5433472676e+00   0.01172267  0.008873734  39.13 0.0006970416    1.332    0.249
        15 -11.7988    243.1844    222.6869   2.9026753561e+02   3.7922311383e+00   0.01465706   0.01032583  73.02  0.001485578    1.804    0.446
        16 -11.0544     43.6653    167.3425   2.9225809642e+02   5.5899619183e+00  0.007150327  0.004938675  62.76 0.0007050565    1.760    0.432
        17 -10.9532     79.0000    161.4810   2.9181139073e+02   5.4541892131e+00   0.01476129  0.003740043 -62.87 0.0009324827    3.917    0.745
        18 -12.6111    159.8265    155.8500   2.9083648240e+02   5.0519254612e+00   0.03202332   0.02404132  46.25  0.003534039    1.388    0.280
        19 -12.2081     59.3849    146.0908   2.9194805917e+02   5.7463339573e+00   0.03337725   0.01776942  46.66   0.00303684    2.069    0.517
        20 -12.4834     51.6273    143.8955   2.9202537683e+02   5.8166144635e+00    0.0194738    0.0118161  31.30  0.001396905    1.623    0.384
        21 -13.7154     77.4797    142.1567   2.9171365754e+02   5.6875800216e+00    0.0325745   0.02244403 -85.29  0.003317559    1.760    0.432
        22 -13.5230     82.0402    133.8392   2.9161078599e+02   5.7578934601e+00   0.03028914   0.01197252  49.14  0.002169688    3.406    0.706
        23 -11.2562     20.3317    245.3125   2.9299393637e+02   4.8177407515e+00  0.007057034  0.004909569 -27.16 0.0005221438    1.676    0.403
        24 -12.4202     88.1356    132.1978   2.9152992943e+02   5.7417406472e+00   0.01034223  0.009017289 -27.99  0.000732258    1.192    0.161
        25 -12.2617     10.1925    129.9137   2.9242507799e+02   6.2179140883e+00     0.025461   0.01244406  36.26  0.002300109    1.994    0.499
        26 -12.0718     74.7018    156.9263   2.9183426868e+02   5.5319569978e+00   0.01479944  0.009551706 -55.70  0.001519015    1.500    0.334
        27 -14.3912     95.9402    126.6597   2.9140584307e+02   5.7609686729e+00   0.03119333   0.01851348 -47.31   0.00306936    1.682    0.406
        28 -11.5918     40.7727    144.0264   2.9215269796e+02   5.8776951790e+00   0.01129851  0.009371538  24.74 0.0003388273    1.215    0.177
        29 -12.4604     48.3599    129.8827   2.9197978101e+02   5.9983361917e+00   0.01332531   0.01007372  11.29  0.001080245    1.432    0.302
        30 -12.5201     54.1942    125.3211   2.9188449725e+02   6.0176878343e+00   0.01214427   0.01121282  69.39  0.000868094    1.145    0.127
        31 -13.2972    109.4489    122.2259   2.9122188112e+02   5.7343367613e+00    0.0153599   0.01277096  38.08  0.001785305    1.211    0.175
        32 -11.2854     57.1275    119.8705   2.9181771601e+02   6.0641009602e+00  0.009632996  0.008751978  65.82  0.001157214    1.169    0.144
        33 -10.0790      2.7189    118.3131   2.9244304492e+02   6.3957589233e+00  0.006713715  0.005022965  65.37 0.0001492063    1.571    0.363
        34 -13.2098     74.7369    115.9247   2.9158879084e+02   6.0082622360e+00   0.01802771   0.01314048 -34.76  0.001936884    1.477    0.323
        35 -10.1975     17.7496    113.9861   2.9224185938e+02   6.3595222538e+00     0.008418  0.005594316 -61.87 0.0002995833    1.488    0.328
        36 -12.3614    122.4325    109.7740   2.9099601858e+02   5.8038219850e+00   0.01469329   0.01116707  82.49   0.00108844    1.576    0.365
        37  -9.9571      3.3063    110.7331   2.9239095402e+02   6.4804713258e+00  0.006662166  0.004935919  58.52  0.000200907    1.532    0.347
        38 -12.7088     89.2879    107.8025   2.9137053839e+02   6.0185260389e+00   0.01290676   0.01201167 -77.59 0.0002740628    1.103    0.094
        39 -12.4674     79.5608    105.7825   2.9147186165e+02   6.0982240482e+00   0.01605451   0.01132142  80.77  0.001628054    1.810    0.448
        40 -13.3360     17.4935    100.9170   2.9216679006e+02   6.5128668693e+00   0.02499545   0.02135921  18.47  0.002461586    1.194    0.163
        41 -12.1799    104.7540    101.3725   2.9115173404e+02   6.0037520741e+00   0.01221268   0.01080495 -49.34 0.0005280049    1.115    0.103
        42 -12.8434     54.9995     94.9452   2.9169348089e+02   6.3659907197e+00   0.02401062   0.01517005 -36.76   0.00237657    1.756    0.430
        43 -10.8886    188.8305     94.7946   2.9013288590e+02   5.5926312179e+00  0.009315812   0.00772775  64.16 0.0005012898    1.333    0.250
        44 -11.3999     82.0411     95.4825   2.9138128375e+02   6.2035382556e+00   0.01026307  0.006544792  25.19   0.00103147    1.588    0.370
        45 -10.7668     35.7998     94.8038   2.9191664218e+02   6.4783996959e+00  0.009252967  0.007641573  64.21 0.0004879784    1.342    0.255
        46 -10.9852     89.1928     86.3633   2.9124326683e+02   6.2681037396e+00  0.009614375  0.005779137  37.29 0.0007331098    1.651    0.394
        47 -10.6971    129.0062     83.2412   2.9076037697e+02   6.0738603242e+00  0.009018672  0.008592145  24.42 0.0003957201    1.056    0.053
        48 -11.5277     55.3187     82.3378   2.9161431354e+02   6.5105953463e+00   0.01682445  0.007120041  32.72  0.001418502    2.250    0.556
        49 -11.2518     67.7433     81.4307   2.9146392097e+02   6.4493772656e+00   0.01222357   0.00607485  31.90 0.0007554337    1.951    0.487
        50 -10.1304    143.7096     76.7306   2.9054996776e+02   6.0642032000e+00  0.006617427  0.004948096 -25.98            0    1.508    0.337
        51 -10.2499     42.5338     76.4943   2.9172853553e+02   6.6522465994e+00  0.006539482  0.006442865 -38.79 0.0001274076    1.002    0.002
        52 -12.8058     96.6932     72.1953   2.9107089173e+02   6.3892351713e+00   0.02368531   0.01603838   0.40 0.0008721641    1.822    0.451
        53  -9.9697    144.6708     73.7253   2.9052073366e+02   6.0935131031e+00  0.006818354  0.004969388 -23.59 0.0003007956    1.591    0.372
        54 -11.4878     83.2091     68.2326   2.9120442756e+02   6.5132468157e+00  0.009764395  0.008926089 -28.48 0.0007153999    1.114    0.102
        55 -11.5322     49.6225     63.4913   2.9156795660e+02   6.7623448605e+00   0.01746207  0.007032832  19.20  0.001301632    3.054    0.673
        56 -12.6521    125.6524     57.5485   2.9064533386e+02   6.3915423065e+00   0.01424146    0.0127687   8.67 0.0004954592    1.150    0.130
        57 -12.3906     68.4325     55.2803   2.9129922116e+02   6.7490414500e+00   0.01867538   0.01487797  67.73  0.001332111    1.435    0.303
        58 -10.9779    210.4128     54.4034   2.8963905655e+02   5.9357875662e+00   0.01060507  0.007833118   8.83 0.0009205779    1.505    0.336
        59 -10.8879    133.0881     53.8421   2.9053639418e+02   6.3914460218e+00   0.01208004  0.008924394  17.70   0.00130818    1.420    0.296
        60 -11.2858    145.3578     50.9340   2.9037590501e+02   6.3540198139e+00   0.01120357  0.009118457  42.88 0.0009153546    1.254    0.202
        61 -13.1147     42.2861     45.5072   2.9154588169e+02   7.0134706515e+00   0.03744505   0.02249157 -54.42   0.00292429    1.605    0.377
        62 -12.6438      2.9450     46.9236   2.9201382697e+02   7.2237425721e+00   0.01826542   0.01671161  88.67 0.0008604617    1.157    0.136
        63 -16.0838    177.6772    216.8425   2.9099369019e+02   4.2398893301e+00    0.1301512   0.06979339 -53.62   0.01232809    1.787    0.440
        64 -10.3687     11.5170    232.4822   2.9302030725e+02   5.0176670855e+00  0.006507445  0.006480956 -71.21 0.0008101187    1.017    0.017
        65 -11.4954    157.0203     43.7759   2.9019698425e+02   6.3693731399e+00   0.01066991  0.009258594 -53.66 0.0005279722    1.134    0.118
        66 -10.6740    176.3082     33.4958   2.8991046089e+02   6.3765560939e+00  0.008210642  0.006499655   6.58 0.0002545428    1.377    0.274
        67 -11.4649     41.4622     33.0209   2.9148067885e+02   7.1631445060e+00   0.01280069  0.009348997   0.39  0.000722199    1.598    0.374
        68 -11.7686     79.0330     30.7562   2.9102842393e+02   6.9723779360e+00   0.01598407   0.00978075 -61.25  0.001256793    1.609    0.379
        69 -12.1297     83.5568     22.8575   2.9092821345e+02   7.0378456756e+00   0.01763288   0.01521993 -71.97 0.0009684297    1.191    0.160
        70 -11.5181     64.2728     18.0530   2.9112452528e+02   7.2050847789e+00   0.01436086  0.009548837  24.25 0.0006810884    1.530    0.346
        71 -12.4086     78.8909    210.8664   2.9210733143e+02   4.8807027809e+00   0.01466807  0.007936646  53.58  0.001278596    2.314    0.568
        72 -11.7081      8.4169    211.2153   2.9293000024e+02   5.2828205244e+00  0.009568871  0.006460737 -79.37 0.0009569486    1.714    0.416
        73 -11.5225    142.6031    207.3706   2.9134500048e+02   4.5530437996e+00   0.01285606   0.01165298 -25.07 0.0009003667    1.135    0.119
        74 -10.4578     53.3196    201.6725   2.9235027466e+02   5.1351433951e+00  0.007006419  0.004974035  62.87 0.0007047147    1.683    0.406
        75 -12.5987     70.1030    197.7043   2.9213117868e+02   5.0844549724e+00   0.01231597   0.01146514  -7.96  0.001509253    1.104    0.094
        76 -10.4068     82.4879    187.4822   2.9192598241e+02   5.1317904933e+00   0.01833839  0.009422274  74.78  0.001196205    4.549    0.780
        77 -11.6387     69.6626    183.9936   2.9205453837e+02   5.2463980849e+00   0.01647055   0.01283241 -64.72  0.001425817    1.288    0.223
        78 -10.5621     33.4823    177.9762   2.9244015070e+02   5.5250196104e+00  0.009450291  0.005731945  81.93  0.000809823    2.500    0.600
        79 -10.5671     42.3413    175.7038   2.9232338291e+02   5.5003828953e+00   0.00698946  0.004919294  59.30 0.0006077642    1.661    0.398
        80 -12.2465    131.3673    248.3673   2.9172035732e+02   4.1415968807e+00   0.01740301   0.01234891  62.25  0.001805958    1.678    0.404
        81 -10.8946     89.6857    168.4756   2.9172868316e+02   5.3111515777e+00   0.01207111  0.005997855 -62.41   0.00107441    1.990    0.498
