#   1 NUMBER                 Running object number                                     
#   2 MAG_AUTO               Kron-like elliptical aperture magnitude                    [mag]
#   3 X_IMAGE                Object position along x                                    [pixel]
#   4 Y_IMAGE                Object position along y                                    [pixel]
#   5 X_WORLD                Barycenter position along world x axis                     [deg]
#   6 Y_WORLD                Barycenter position along world y axis                     [deg]
#   7 A_WORLD                Profile RMS along major axis (world units)                 [deg]
#   8 B_WORLD                Profile RMS along minor axis (world units)                 [deg]
#   9 THETA_WORLD            Position angle (CCW/world-x)                               [deg]
#  10 FWHM_WORLD             FWHM assuming a gaussian core                              [deg]
#  11 ELONGATION             A_IMAGE/B_IMAGE                                           
#  12 ELLIPTICITY            1 - B_IMAGE/A_IMAGE                                       
         1 -14.0384    213.4030      8.9554   3.9854719371e+01   3.0857466810e+01      2.37486     1.514672  40.06   0.01211678    2.066    0.516
         2 -13.3932    189.1322     40.1420   5.1273479053e+01   3.3106811941e+01     1.054096    0.9691734  63.02  0.003592846    1.098    0.089
         3 -12.7570    194.1578     33.9654   4.8783883860e+01   3.2662833423e+01    0.6648917    0.5537876  60.56  0.001738655    1.200    0.167
         4  -9.8653     50.3341      7.9952   7.4058245760e+01   6.7938714692e+01    0.2032002   0.08636895 -12.91 0.0007052011    4.375    0.771
         5 -13.2147    174.2091     53.8576   5.7826702479e+01   3.4895593360e+01     1.903317     1.227034  29.75  0.005623832    2.058    0.514
         6  -9.4803     72.2655    202.9577   1.1533141541e+02   2.3243819015e+01    0.2879923    0.1718456  72.46   0.00129115    1.713    0.416
         7 -12.9899    246.9055    241.3632   8.7000982227e+01  -1.0319746683e+01      1.36492    0.5967884 -26.14  0.007414006    2.408    0.585
         8  -9.7360     56.1970    223.9290   1.2039320843e+02   2.1139222552e+01    0.1136956   0.07782029 -89.19 0.0007345363    1.327    0.246
         9 -10.8132    193.1124    195.1277   8.8851277150e+01   4.5065864373e+00    0.9270924    0.4800694 -62.35  0.002863901    5.852    0.829
        10 -10.3559     58.3908    202.2812   1.1810101965e+02   2.5211661695e+01    0.2889251     0.201117 -42.36  0.001110375    2.181    0.542
        11 -19.5122     24.1865    147.0569   1.2021954067e+02   4.1365002845e+01     19.26037     4.806879 -75.13   0.06731034    3.761    0.734
        12  -9.8627     75.1300    249.9092   1.1903057191e+02   1.3975157446e+01    0.2523961   0.09661157 -57.94  0.001294164    3.149    0.682
        13 -10.7974    202.4256    199.0988   8.7757312415e+01   2.2151903886e+00    0.3374423    0.1825992  48.84  0.001579798    2.050    0.512
        14 -11.5126     60.6852    195.8252   1.1700199012e+02   2.6284446458e+01    0.3409024    0.2330657 -43.01  0.001396395    2.134    0.531
        15  -9.3163     82.2914    195.0725   1.1234198149e+02   2.3495256940e+01    0.2140511    0.1712715  53.12 0.0008018339    1.159    0.137
        16  99.0000     61.6043    220.1071   1.1906336916e+02   2.1195605606e+01    0.2103898   0.09676956 -64.35  0.001115633    2.216    0.549
        17 -11.0887     99.3716    180.7521   1.0665832998e+02   2.4004226874e+01    0.3254688     0.301235 -40.94 0.0005692683    1.310    0.236
        18 -10.4078     95.5381    189.4749   1.0874657970e+02   2.2708575259e+01    0.5657063    0.3706537  22.99  0.000974525    2.116    0.527
        19 -10.4093     99.1584    186.3998   1.0751835237e+02   2.2804498967e+01    0.4575663    0.1971747  48.08  0.001322409    2.199    0.545
        20  -9.4266    156.5284    189.8779   9.5447000135e+01   1.2122723203e+01    0.1925039    0.1386459 -47.25 0.0005820833    1.507    0.336
        21 -11.6496    149.6674    187.2067   9.6457274543e+01   1.3900461848e+01    0.5129993    0.3377894 -63.96  0.002479508    1.888    0.470
        22 -11.0434    150.8899    179.6601   9.4844254283e+01   1.5174435511e+01    0.4622448    0.3034132 -71.50   0.00207377    2.182    0.542
        23 -11.3881    144.8291    180.3892   9.6316313112e+01   1.6158359485e+01    0.4106452    0.3584485  22.95  0.001235036    1.223    0.182
        24 -11.5826    141.1115    174.3047   9.6048741493e+01   1.8108078010e+01    0.7180837    0.4491489  70.57  0.002448958    2.457    0.593
        25 -10.8242    140.7949    188.1497   9.8550543193e+01   1.5328698193e+01    0.2713433    0.2312322  -1.17  0.001510638    1.457    0.314
        26 -10.9614    133.8622    184.6758   9.9494464667e+01   1.7282035942e+01    0.2961043    0.1977687 -48.15  0.001486197    1.616    0.381
        27  -8.5293     91.6254    185.2762   1.0904841546e+02   2.4222587097e+01    0.1434645   0.09030949  66.02 0.0007005445    1.694    0.410
        28 -10.5692    189.1897    177.4185   8.6255739930e+01   8.3104364926e+00    0.5285444    0.3850708 -59.22   0.00264432    1.797    0.443
        29  -9.1828     50.3464    216.5742   1.2090887870e+02   2.3296614320e+01    0.3069671     0.229812  -1.34  0.001766967    2.826    0.646
        30 -10.2119    234.6205    174.1865   7.6892444705e+01   5.3380862117e-01    0.1983653    0.1148044 -23.85 0.0009587951    1.739    0.425
        31  -8.7003     98.7146    214.5319   1.1120686540e+02   1.7085008786e+01    0.2315121    0.1150061  35.93  0.001118846    2.017    0.504
        32 -11.1285    239.4863    175.5022   7.6301111514e+01  -5.0260256969e-01    0.3163775    0.1846718   3.45  0.001402757    2.440    0.590
        33  -9.9034    240.4784    169.4660   7.4889457255e+01   2.5487245301e-01     0.134743    0.1153132  -6.08 4.261071e-05    1.006    0.006
        34 -10.8913     91.2584    157.9047   1.0502423740e+02   3.0505702308e+01    0.2715319    0.2660897 -87.25 0.0003982082    1.146    0.128
        35 -11.9172     97.1099    151.2853   1.0241175638e+02   3.1124367658e+01    0.5965092    0.5008937 -27.33  0.003201458    1.498    0.332
        36 -10.9726    134.0292    145.8759   9.2084891393e+01   2.5671300845e+01     1.276654    0.3279585 -55.28   0.00300155    5.901    0.831
        37  -9.6532    113.2806    151.0620   9.8292593779e+01   2.8394983239e+01    0.3868203    0.2413124 -86.93  0.001283554    2.520    0.603
        38  -9.4641    187.4921    151.5393   8.1153845520e+01   1.3499924068e+01    0.1461615    0.1429434   1.13 0.0002046663    1.054    0.052
        39  -9.4323    174.6620    149.1114   8.3356594438e+01   1.6645553899e+01     0.256589    0.2089489  56.28 0.0006800948    1.329    0.248
        40 -10.0943    143.5789    145.3115   8.9645771840e+01   2.3886992885e+01    0.3008898       0.1473 -53.05  0.001138417    2.173    0.540
        41 -10.6297    106.9186    144.8592   9.8693880659e+01   3.0975200030e+01    0.4029258    0.2680763 -88.71  0.001436275    2.073    0.518
        42 -11.5838    108.1750    138.0852   9.6995239703e+01   3.2352838821e+01     0.625373    0.4920183 -53.53  0.003191771    1.232    0.188
        43  -9.2726    184.4749    212.4464   9.3583465414e+01   3.1862441336e+00    0.2139934    0.1260703 -54.99  0.001038799    2.376    0.579
        44 -11.8189     96.5542    137.2544   9.9897777965e+01   3.4560513760e+01     0.312025    0.2847909 -80.10 0.0003732608    1.036    0.035
        45 -10.9588    105.9083    131.1120   9.6114613567e+01   3.4411754272e+01    0.4566384    0.3369557 -52.03  0.001343971    1.300    0.231
        46  -9.9610    136.0057    128.3938   8.7634330847e+01   2.9220507446e+01     0.470489    0.1367391 -50.04  0.001341837    3.583    0.721
        47 -10.3699    115.2815    128.8460   9.3107845441e+01   3.3224177622e+01    0.3263449    0.2861753 -24.23 0.0006501152    1.294    0.227
        48  -9.5177    160.8215    127.9182   8.1505100614e+01   2.4020147767e+01    0.3107168    0.2265559 -62.77  0.001382338    1.624    0.384
        49 -10.6163    102.9520    124.6210   9.5483414068e+01   3.6482050596e+01    0.3087091    0.2659293 -11.81 0.0007343274    1.419    0.295
        50 -10.1149    120.3495    123.0926   9.0418158424e+01   3.3590413976e+01    0.4511071    0.2736629 -23.83  0.001652676    2.724    0.633
        51  -9.4586    134.9968    119.9715   8.5828609662e+01   3.1327402696e+01    0.2933702    0.1979658 -46.96  0.001027372    1.449    0.310
        52  -9.4926    110.3803    118.1057   9.1916567325e+01   3.6666312150e+01    0.2555069    0.2156224  52.26 0.0003401788    1.243    0.196
        53 -10.0173    231.2089    113.7202   6.3986985649e+01   1.1261426647e+01    0.2715385    0.2622891  26.04 0.0007806799    1.126    0.112
        54  -9.1658    134.7418    112.8461   8.4071098991e+01   3.2974269909e+01    0.3745243    0.1326101 -47.59  0.001183629    2.799    0.643
        55 -10.0554     55.6604    211.5541   1.1947592876e+02   2.3648209397e+01    0.2820157     0.142263  55.86   0.00154684    1.719    0.418
        56  -9.5960    167.5010    112.3098   7.5999682550e+01   2.5788165002e+01    0.3342481     0.268759 -83.71  0.001393531    1.594    0.372
        57 -11.2997    118.7718    110.7215   8.7763637083e+01   3.6751770340e+01    0.5983185    0.4108466  63.02  0.002041875    1.823    0.451
        58  -9.6037    205.4672    110.1821   6.7631427557e+01   1.7493070003e+01    0.3168356    0.2179227  40.78 0.0009348639    1.567    0.362
        59  -9.7695    134.6054    105.4971   8.2148476973e+01   3.4625182896e+01    0.4550029    0.1486491 -44.47  0.001392739    2.977    0.664
        60  -8.8956    130.5445     96.5301   8.0719911376e+01   3.7449826184e+01     0.155606    0.1504907 -50.10 0.0001194506    1.029    0.028
        61  99.0000     43.9333    211.3386   1.2171910128e+02   2.5107262500e+01    0.2732085    0.1232981 -83.39  0.001411173    2.182    0.542
        62  -9.3564     70.6076     72.3188   9.1794022827e+01   5.3815327515e+01    0.2265812     0.184928  32.71 0.0005672565    1.351    0.260
        63 -10.5756     71.8923    245.3075   1.1923777861e+02   1.5195319273e+01    0.2263968    0.1442171 -67.49  0.001500853    1.755    0.430
        64  -9.7923     64.8045    223.6610   1.1876031965e+02   2.0092902390e+01    0.1974015   0.08144263 -83.14 0.0008701851    3.110    0.678
        65  -8.8121    167.8732    230.8299   9.9652522090e+01   3.0766790573e+00    0.1779597    0.1473197  20.18 0.0004832158    1.190    0.160
        66 -11.2349     67.1149    205.9697   1.1668853073e+02   2.3313829368e+01    0.2031361    0.1993069  24.35 0.0003049438    1.430    0.301
        67 -10.8889     59.0648    230.2304   1.2035942064e+02   1.9581581018e+01    0.1766814    0.1328854  83.29 0.0003528158    1.168    0.144
