#   1 NUMBER                 Running object number                                     
#   2 MAG_AUTO               Kron-like elliptical aperture magnitude                    [mag]
#   3 X_IMAGE                Object position along x                                    [pixel]
#   4 Y_IMAGE                Object position along y                                    [pixel]
#   5 X_WORLD                Barycenter position along world x axis                     [deg]
#   6 Y_WORLD                Barycenter position along world y axis                     [deg]
#   7 A_WORLD                Profile RMS along major axis (world units)                 [deg]
#   8 B_WORLD                Profile RMS along minor axis (world units)                 [deg]
#   9 THETA_WORLD            Position angle (CCW/world-x)                               [deg]
#  10 FWHM_WORLD             FWHM assuming a gaussian core                              [deg]
#  11 ELONGATION             A_IMAGE/B_IMAGE                                           
#  12 ELLIPTICITY            1 - B_IMAGE/A_IMAGE                                       
         1 -14.7438      3.4479    128.2589   1.4440431870e+02   4.8391584417e+01     5.357744    0.4912719 -74.53   0.01388648    7.558    0.868
         2 -13.4835    198.5860     26.2301   6.7395739734e+01   3.2384369555e+01     1.527772     1.395425  27.44  0.006152742    1.299    0.230
         3 -13.4450    213.8450      7.7699   6.0804631173e+01   3.0583795628e+01    0.9686009    0.8182861  71.68  0.004045653    1.182    0.154
         4 -10.4662      2.2016      3.6927   1.1783308118e+02   7.4406507939e+01    0.2455956    0.1131886 -45.64  0.001491716    1.710    0.415
         5 -10.7737    156.4930    249.5216   1.2518847233e+02   3.2998911142e+00    0.2001237     0.156172  44.31 0.0009953039    1.029    0.028
         6 -12.7458    237.3929    247.8222   1.1083407303e+02  -8.9503314976e+00     1.224957    0.3081589  35.13  0.005003167    3.477    0.712
         7 -12.0989    243.5385    247.2598   1.0973459007e+02  -9.7570185311e+00    0.3882037    0.2609677  34.26  0.002707373    1.315    0.240
         8 -11.1946    126.3703    249.0436   1.3056278450e+02   8.1257059099e+00     0.344943    0.1470715  54.13  0.001692054    2.229    0.551
         9 -11.0765     47.9370    249.4546   1.4427313274e+02   1.9061739180e+01     0.291328     0.135144  48.20  0.001510401    1.612    0.380
        10 -13.1566     33.2232    246.6900   1.4653484444e+02   2.1264944497e+01     1.436656    0.9730583 -50.21  0.009736451    2.654    0.623
        11 -13.0426     46.8395    216.4143   1.4225842270e+02   2.5198054815e+01    0.9404112    0.7305352 -73.69  0.005856003    1.428    0.300
        12 -13.1153     31.6622    234.5795   1.4613728937e+02   2.3573522170e+01    0.2952161    0.2406023 -86.71 0.0007547756    1.382    0.276
        13 -14.0063     36.6968    228.0031   1.4488170991e+02   2.4202093419e+01    0.7199052    0.4488878  59.29  0.002400812    1.211    0.174
        14 -12.1085     19.5816    242.8300   1.4855115100e+02   2.3429902969e+01    0.4759114    0.2170688  75.43  0.003000275    1.811    0.448
        15 -11.8070      5.5920    248.3774   1.5097159835e+02   2.3908727341e+01    0.8812073    0.2640465  48.67  0.005291653    2.184    0.542
        16 -12.9243     10.0802    240.6682   1.4997283877e+02   2.4786166140e+01    0.8792695    0.4586148  79.73  0.006221225    1.476    0.323
        17 -11.0983    124.5822    232.6505   1.2907053455e+02   1.1032131462e+01    0.2566279    0.1273255  45.29  0.001347665    1.610    0.379
        18 -10.4501    195.4906    246.4980   1.1782449898e+02  -2.5029072938e+00    0.1192271   0.09197926  31.30 0.0008106196    1.001    0.001
        19 -11.9178    102.7749    230.0646   1.3291785699e+02   1.4904733821e+01    0.6446921    0.1118111  45.20  0.002171361    4.150    0.759
        20 -11.8247     90.5259    227.1824   1.3494707810e+02   1.7262591937e+01    0.6815149    0.1512427  48.62  0.002484598    3.682    0.728
        21  -9.6191     53.9205    229.0699   1.4189003603e+02   2.1929553869e+01    0.1900337    0.1137623  66.45  0.001219729    1.343    0.256
        22 -10.1556    171.2396    247.9890   1.2234546002e+02   1.1545942649e+00    0.1305164    0.1024343 -43.36 0.0008528991    1.637    0.389
        23 -11.4290    139.0623    250.0709   1.2839023573e+02   5.9854647995e+00    0.4552826    0.1462618  43.41  0.002056559    2.364    0.577
        24  -9.7935    173.3121    222.1958   1.1836345376e+02   4.5207889815e+00      0.27136    0.1552965  48.78  0.001428813    1.603    0.376
        25 -11.2467     58.0535    212.7528   1.3983930034e+02   2.4508975940e+01    0.8112996    0.1803302  55.44  0.002421128    6.136    0.837
        26  -8.8331     92.2085    214.3085   1.3328885460e+02   1.9409299913e+01    0.2061154    0.1147277  69.85 0.0009677261    1.996    0.499
        27  -8.1927    221.7134    213.6853   1.0801859277e+02  -2.4923625226e+00    0.1257019   0.08422299   9.94 0.0002982338    1.584    0.369
        28  -8.7810    152.4954    213.0206   1.2104849096e+02   9.6383481454e+00    0.1603679    0.1316029 -53.03 0.0004624712    1.435    0.303
        29 -12.3203     10.0455    206.9872   1.4842020748e+02   3.1021647695e+01    0.5837154    0.3696156  33.11  0.002890827    1.941    0.485
        30 -10.4712     59.3401    208.0081   1.3917833523e+02   2.5282003799e+01    0.2304756    0.1273939  61.14  0.000863576    1.563    0.360
        31 -11.8670     58.9546    200.2850   1.3855383163e+02   2.6896302532e+01    0.2552435    0.2135265 -85.92 0.0005074918    1.206    0.171
        32  -9.4993     40.9600    199.4772   1.4208942906e+02   2.9273639481e+01    0.1750856    0.0639525  56.06  0.000809205    2.480    0.597
        33 -10.4906     11.1432    195.2966   1.4757878414e+02   3.3244530270e+01    0.2699197    0.1474158  54.37 0.0007820903    1.527    0.345
        34 -12.0658     65.5427    191.6398   1.3633251580e+02   2.7824684118e+01    0.2546107     0.222234 -88.58 0.0005249401    1.181    0.153
        35 -10.7624     28.5931    186.6965   1.4357714009e+02   3.3300395101e+01    0.4615103    0.1582786  72.72  0.001652573    4.537    0.780
        36 -13.1481     62.5873    176.7225   1.3533617796e+02   3.1443915247e+01    0.4859601     0.272336 -48.36  0.001666749    2.322    0.569
        37 -10.9079     76.2241    178.4112   1.3247339532e+02   2.9181091159e+01    0.2314042    0.2059446  79.68 0.0003324654    1.099    0.090
        38 -13.9354     10.0613    157.0973   1.4525443721e+02   4.1445665379e+01      1.98289     0.814176 -84.18   0.01007861    2.067    0.516
        39 -11.0352    201.7668    249.5659   1.1715543229e+02  -3.8541980417e+00      0.30004   0.09044467  42.48  0.001311449    2.676    0.626
        40 -10.6316     96.5419    153.3265   1.2391598269e+02   3.1668800755e+01    0.3434375    0.3087861 -56.48 0.0008560267    1.204    0.169
        41  -9.4944     99.7913    148.8871   1.2231471808e+02   3.2138915824e+01       0.2277     0.200661  50.85 0.0003787502    1.149    0.130
        42 -12.0241     85.2065    152.2355   1.2656158564e+02   3.3752345953e+01     0.299549    0.2433037 -50.75 0.0007422279    1.353    0.261
        43 -12.0120     67.4142    143.5480   1.2970578525e+02   3.8393176518e+01    0.6665552    0.4039992  64.04  0.003219764    1.838    0.456
        44 -10.2031    109.1273    137.5432   1.1773001906e+02   3.3094399497e+01    0.4969209    0.3433909 -12.37  0.001799368    2.748    0.636
        45 -10.5432     95.8307    135.1971   1.2073684370e+02   3.5996973647e+01    0.2364005    0.2215972 -52.51 0.0002760606    1.152    0.132
        46  -8.3752     78.7091    131.3314   1.2459915803e+02   3.9660792587e+01     0.144686    0.1022722  80.36 0.0003091412    1.628    0.386
        47 -10.8696     28.5326    130.1525   1.3806431049e+02   4.5989578748e+01    0.3847201    0.1907228  61.63   0.00135499    2.355    0.575
        48 -10.7168     24.0111    127.5043   1.3894591621e+02   4.7007682999e+01    0.3218159    0.1605605  69.37  0.001536609    2.423    0.587
        49 -11.2061     20.0310    125.5241   1.3977633050e+02   4.7800170001e+01    0.2947935    0.1739953  60.52  0.001437383    1.806    0.446
        50  -8.9450    106.2650    124.0889   1.1558832283e+02   3.6730278109e+01     0.193792    0.1783053 -74.92 0.0003194828    1.041    0.039
        51 -12.1116     84.2312    168.8916   1.2935107621e+02   3.0102135745e+01    0.7031059      0.67813  18.81  0.004460757    1.343    0.255
        52  -9.0910     41.5120     96.4936   1.2889364362e+02   5.2632998179e+01    0.2264847    0.1027362  43.13  0.001028029    2.557    0.609
        53 -11.0039    157.9932     76.2379   8.9349311048e+01   3.5401727756e+01    0.3590109    0.2513992 -56.73  0.001205419    1.612    0.380
        54  -9.4210     97.4646    174.2442   1.2705513436e+02   2.6820103147e+01    0.2639384    0.1799857  67.74 0.0006817575    1.502    0.334
        55 -11.5560      4.1095     50.8627   1.3279344459e+02   6.5534873193e+01    0.2999252    0.2176439  36.50  0.001646286    1.791    0.442
        56 -11.5233    146.9957    247.8904   1.2670694445e+02   5.0484137927e+00    0.2665318    0.2635061 -84.02  0.002073304    1.298    0.230
        57  -9.5882     80.6206    248.3989   1.3863545611e+02   1.4986358132e+01    0.2013776   0.09011278 -87.46 0.0009573438    3.332    0.700
