#   1 NUMBER                 Running object number                                     
#   2 MAG_AUTO               Kron-like elliptical aperture magnitude                    [mag]
#   3 X_IMAGE                Object position along x                                    [pixel]
#   4 Y_IMAGE                Object position along y                                    [pixel]
#   5 X_WORLD                Barycenter position along world x axis                     [deg]
#   6 Y_WORLD                Barycenter position along world y axis                     [deg]
#   7 A_WORLD                Profile RMS along major axis (world units)                 [deg]
#   8 B_WORLD                Profile RMS along minor axis (world units)                 [deg]
#   9 THETA_WORLD            Position angle (CCW/world-x)                               [deg]
#  10 FWHM_WORLD             FWHM assuming a gaussian core                              [deg]
#  11 ELONGATION             A_IMAGE/B_IMAGE                                           
#  12 ELLIPTICITY            1 - B_IMAGE/A_IMAGE                                       
         1 -12.8968     96.4325     28.2368   2.1387402632e+01   5.7463255594e+01    0.5059044    0.2361646 -29.38  0.001691553    2.239    0.553
         2 -11.0120    122.9720     11.7647   8.8530303737e+00   5.2411444050e+01    0.1917887    0.1687155  83.16  0.000247416    1.054    0.051
         3 -12.0609     84.9072     10.3114   1.5704133475e+01   6.2547923370e+01    0.3786686    0.2118822 -39.32  0.001564365    1.901    0.474
         4 -11.7657     54.3432     11.9229   2.7137088216e+01   6.9704912399e+01    0.2420478    0.1799676  43.43 0.0003432281    1.248    0.199
         5 -11.6509     92.0884      8.5106   1.3064224480e+01   6.0874909518e+01    0.2316603    0.1956827  18.40 0.0005471058    1.296    0.228
         6 -11.6159     87.7098      7.0945   1.3346462809e+01   6.2143408502e+01    0.1847802     0.177425  -5.38 0.0004769306    1.121    0.108
         7 -12.0421    215.0952      2.7458   3.5804641933e+02   3.0896923595e+01    0.1972723     0.151875 -35.04 0.0002638582    1.214    0.177
         8 -10.6314    221.2632    242.3387   4.7077215190e+01  -1.2868748842e+00    0.1064573   0.05947118  -3.38 0.0003475783    1.589    0.371
         9 -13.8815    246.0148    249.6013   4.4261966239e+01  -4.3806707092e+00    0.2739671    0.1661907  19.56  0.001656904    1.408    0.290
        10 -11.4068    237.0258    250.5808   4.5744407688e+01  -3.6549477134e+00    0.1405696   0.07293078  21.32 0.0003471932    1.542    0.351
        11 -10.7405    179.4413    250.5561   5.5310747630e+01   2.2131708716e+00    0.1097729   0.07910266  11.95 7.298629e-05    1.001    0.001
        12 -12.1416    139.8017    248.6142   6.2548461880e+01   6.9893232574e+00    0.2718013    0.1650685 -50.31  0.001566756    2.172    0.539
        13 -12.3524    119.7584    244.4483   6.6123032313e+01   9.9621101348e+00    0.1800665    0.1439538  11.78  0.001076149    1.166    0.142
        14 -11.9008    124.8909    249.7594   6.5633360780e+01   8.5754873761e+00    0.2033027    0.1753531 -42.04   0.00135888    1.493    0.330
        15 -11.6619    122.6523    246.2413   6.5719475144e+01   9.3515289277e+00    0.1545923    0.1307815  14.98 0.0005037336    1.131    0.116
        16 -11.1225    106.5287    250.7020   6.9446672855e+01   1.0575389579e+01     0.188873   0.08034763  29.51 0.0002556974    1.783    0.439
        17 -11.8401     98.2484    249.1238   7.1006907759e+01   1.1771570464e+01    0.2453572    0.1654024 -24.34  0.001543687    2.041    0.510
        18 -11.8733     84.2767    250.6356   7.4028180476e+01   1.3120667590e+01    0.2575431   0.08695589  28.15  0.001206023    2.340    0.573
        19 -12.2803     77.1688    250.1337   7.5467503337e+01   1.3990268410e+01    0.2228939    0.1557059 -51.59  0.001524516    1.863    0.463
        20 -15.3711     40.8995    200.9210   8.0184177235e+01   2.7168420161e+01     2.325447     1.513736  75.79  0.009145538    1.573    0.364
        21 -15.1841     65.2516    247.3296   7.7765448475e+01   1.5748129118e+01     2.803902    0.6292405  23.94  0.008426528    6.167    0.838
        22 -15.5100     44.4873    223.4931   8.0790163286e+01   2.2224848068e+01     1.825088    0.9400861 -65.81   0.01022246    2.239    0.553
        23 -15.0240      3.4580    180.4184   8.8687552040e+01   3.5091553871e+01     2.359807    0.6065908 -70.69  0.009149104    3.632    0.725
        24 -15.6482     34.5005    230.6384   8.3421363684e+01   2.1874891973e+01     1.674644    0.8378274 -46.29  0.008623046    3.100    0.677
        25 -16.5783     18.8389    211.7938   8.6111633750e+01   2.7024569385e+01     2.319518    0.8438359  50.26   0.01131703    2.139    0.532
        26 -15.1386      2.1594    218.7209   9.0131150816e+01   2.7036617680e+01    0.7392342    0.3857427 -81.51   0.00441948    2.015    0.504
        27 -16.0570     14.6120    226.8299   8.7630000117e+01   2.4429664524e+01     1.165012    0.5036061  56.24  0.006462979    1.877    0.467
        28 -15.8483      6.7419    249.3919   8.9897726881e+01   2.1012716528e+01     2.184501    0.4774584  20.84  0.007358364    6.258    0.840
        29 -16.3566      7.9014    241.3100   8.9470883124e+01   2.2330612300e+01     1.289927    0.5783492  18.72  0.007062578    2.394    0.582
        30 -15.9504      5.2342    230.9324   8.9767419945e+01   2.4446451154e+01    0.9159409    0.4140909  64.25  0.005331984    1.892    0.471
        31 -11.9614    143.0099    241.8014   6.1133266878e+01   7.5620756075e+00    0.3698473    0.1221302  32.36  0.001743778    2.337    0.572
        32 -11.2996    247.3859    241.4741   4.2928018574e+01  -3.7207093221e+00    0.1893569   0.07731031  27.34  0.001205884    2.155    0.536
        33 -11.0902    197.9442    240.7113   5.0749159511e+01   1.3488657789e+00    0.1557123    0.1119067  40.86  0.001067375    2.024    0.506
        34 -11.1432    187.0332    241.2847   5.2747054087e+01   2.4887302654e+00    0.1525618    0.1050465  16.71 0.0001651131    1.111    0.100
        35 -11.2212    125.4985    241.4804   6.4630298964e+01   9.7185596338e+00    0.2294403   0.07423842  38.51  0.001030092    2.561    0.609
        36 -12.1704    108.0293    240.0427   6.8111065590e+01   1.2044992137e+01    0.2996847    0.1619857  22.90  0.001084763    1.617    0.382
        37 -12.8026    103.8193    236.9577   6.8696954465e+01   1.3046738360e+01    0.2370732    0.2151189  10.29 0.0004520339    1.189    0.159
        38 -11.5428    149.4570    239.0363   5.9525678059e+01   7.1760739612e+00    0.2177316    0.1333792  15.16 0.0009023032    1.451    0.311
        39 -11.0747    168.6428    236.7927   5.5533170753e+01   5.1838842692e+00     0.127789     0.106008 -40.25  0.000302633    1.621    0.383
        40 -11.3019     79.7774    236.9346   7.3883784061e+01   1.5890446995e+01    0.2314915    0.1421406  18.14   0.00129268    1.624    0.384
        41 -11.3705    210.4782    235.5145   4.7888940076e+01   5.9251867566e-01    0.1093088    0.0783441   4.40 0.0001350868    1.012    0.012
        42 -11.4747    121.9631    236.0000   6.4758889565e+01   1.0985770739e+01    0.2032742   0.05451645  30.65 0.0007784194    2.944    0.660
        43 -11.3832    223.0000    231.9669   4.5322124465e+01  -3.3456009447e-01    0.1566603   0.05167251 -34.84 0.0008033168    2.949    0.661
        44 -11.6077    182.3677    232.1334   5.2345669920e+01   4.1714859500e+00    0.2147024    0.1395515  29.80  0.001425932    1.400    0.286
        45 -11.6824    150.7373    230.4597   5.8191800914e+01   8.2460403721e+00    0.2459669    0.1677622  64.20  0.001286243    3.124    0.680
        46 -11.3289    139.0139    229.8192   6.0490545972e+01   9.8117808897e+00    0.1785896     0.130836  11.03 0.0004071674    1.227    0.185
        47 -12.0980    237.9932    220.5116   4.1259797452e+01  -6.2648230286e-01    0.2031872    0.1360344  -0.36  0.001524477    1.093    0.085
        48 -12.5869    232.5007    226.7925   4.3054772116e+01  -7.4949173634e-01    0.3437264    0.1746195 -19.39  0.001518388    1.733    0.423
        49 -12.4258    233.2033    220.9024   4.2057962004e+01  -1.7063500345e-01    0.2266946    0.1488024 -29.46 0.0009386225    1.571    0.364
        50 -11.3319    194.5286    229.0392   4.9714233526e+01   3.1461003543e+00    0.1753379    0.1210708  15.45 0.0004621639    1.138    0.121
        51 -11.8909    178.2353    228.4961   5.2603151928e+01   5.1402052994e+00    0.1899009     0.140204 -21.93 0.0006124077    1.357    0.263
        52 -12.5206     96.4182    228.5746   6.9470581717e+01   1.5352328327e+01    0.3278465    0.1478921  24.86  0.001129393    2.014    0.503
        53 -11.7804    128.9944    226.4653   6.2169495489e+01   1.1606279375e+01     0.211107    0.1537714 -19.82 0.0006527489    1.574    0.365
        54 -11.3313    120.9558    227.4877   6.4004371239e+01   1.2465670139e+01    0.1894015   0.09917527  28.93 0.0004681653    1.552    0.356
        55 -11.8363    112.2071    227.8361   6.5931884008e+01   1.3514370814e+01    0.1699513    0.1302043   5.11  0.001085547    1.359    0.264
        56 -11.6808     87.4523    220.5039   7.0685275566e+01   1.7890837931e+01    0.3566339    0.2086824  -8.53  0.001593091    3.176    0.685
        57 -11.1619     74.1281    211.9746   7.2974153755e+01   2.1135887160e+01    0.3699605    0.2624216 -12.59  0.002057873    1.975    0.494
        58 -12.6934     77.0817    219.5482   7.2981288598e+01   1.9328704652e+01    0.5574958     0.339709 -81.46  0.002579802    2.146    0.534
        59 -12.2373     81.5435    225.4873   7.2501440476e+01   1.7700246193e+01    0.3756779    0.2431865   8.03  0.001443175    1.879    0.468
        60 -12.9856     80.7720    220.7498   7.2241166582e+01   1.8660644389e+01    0.5598761    0.4679897 -66.37  0.003779321    1.439    0.305
        61 -10.9122    222.4471    225.5267   4.4462606253e+01   4.4957087375e-01    0.1085916    0.0785633   0.63 0.0001562372    1.031    0.030
        62 -11.1668    182.1314    225.3234   5.1428712023e+01   5.0921609043e+00    0.1625472    0.1150176  18.45 0.0005505896    1.139    0.122
        63 -12.3417     91.7027    224.5877   7.0125165536e+01   1.6630204846e+01    0.1970608    0.1671399 -65.27  0.001000213    1.448    0.310
        64 -13.1188     57.3745    222.0724   7.7741375563e+01   2.1119301154e+01    0.3971999    0.3137476 -30.94  0.001672645    1.699    0.411
        65 -12.4150    246.2082    221.3657   4.0154261983e+01  -1.5527430566e+00    0.2386327    0.1383211  -5.39  0.001680961    1.399    0.285
        66 -12.2367    160.1327    222.5721   5.5260654498e+01   8.2126228500e+00    0.3388096    0.1848993  30.76  0.001210512    1.537    0.349
        67 -13.4295    174.1674    219.7395   5.2121402872e+01   6.8392903919e+00    0.3534645    0.2336774 -29.54 0.0008647567    1.553    0.356
        68 -13.2723    123.4526    209.7754   6.1257694912e+01   1.5130961455e+01    0.2623204    0.2451807 -60.17 0.0005964397    1.335    0.251
        69 -11.6442    122.0112    217.4673   6.2566180741e+01   1.3995887840e+01    0.1923915     0.158101  42.05 0.0007110478    1.243    0.196
        70 -13.0378    120.0492    213.7684   6.2534955265e+01   1.4892727821e+01    0.8503786    0.2311302  45.09  0.002602482    5.211    0.808
        71 -11.5235    114.3362    222.2971   6.4837101417e+01   1.4175171985e+01    0.1231527   0.08674211  -0.16 0.0006810038    1.652    0.395
        72 -11.4515    211.9631    223.5319   4.5893112663e+01   1.8337171704e+00    0.1720471    0.1403975 -26.18 0.0005635918    1.531    0.347
        73 -11.5650    193.3298    219.8876   4.8587147435e+01   4.4567250661e+00    0.1976323    0.1002701 -44.52  0.001081534    2.535    0.606
        74 -12.5026    145.3626    216.4525   5.7421249603e+01   1.1065652202e+01    0.3581764    0.3038011  20.06  0.001808388    1.091    0.083
        75 -13.1127    139.8401    212.6409   5.8061380527e+01   1.2419188901e+01    0.5282866    0.3020951 -36.98  0.001786582    1.971    0.493
        76 -12.6481    142.5056    205.0371   5.6406394752e+01   1.3316305490e+01    0.3973442    0.2200669  31.02 0.0005405085    1.555    0.357
        77 -12.7200    145.6584    201.4924   5.5200251882e+01   1.3470631250e+01    0.2674807    0.2408587 -82.25  0.001046877    1.611    0.379
        78 -12.0976    104.0458    206.7990   6.5325295789e+01   1.8300842824e+01    0.3445973    0.2511084  67.63   0.00168102    1.776    0.437
        79 -11.0466     94.4933    218.4361   6.8862419058e+01   1.7390344081e+01    0.1263698    0.1026414  33.63 3.715033e-05    1.017    0.017
        80 -11.2501    225.9906    216.4861   4.2517505619e+01   1.1093184130e+00    0.1603209    0.1134444  -9.09 0.0003945553    1.100    0.091
        81 -12.4374    129.9914    216.5164   6.0702565789e+01   1.3098514294e+01     0.175641    0.1606006  -4.75 0.0004708481    1.173    0.148
        82 -11.6317    115.5813    217.1877   6.3954568541e+01   1.4890764907e+01    0.1594244    0.1121135 -34.98 0.0006886219    1.674    0.403
        83 -12.3596     83.3784    214.5969   7.1042331671e+01   1.9496607920e+01      0.51599    0.1465067  38.68  0.002065817    2.674    0.626
        84 -12.0467    247.4212    212.9601   3.8679267628e+01  -7.6847684389e-01    0.1791285    0.1229804  11.47 0.0004029571    1.241    0.194
        85 -11.4619    156.2620    213.2275   5.4713731923e+01   1.0120962828e+01    0.2047439    0.1799363 -29.51 0.0009019234    1.323    0.244
        86 -13.5067    159.2691    206.9740   5.3173594022e+01   1.0689147829e+01     0.520327    0.3705638  15.79   0.00262011    1.228    0.186
        87 -10.8064    209.7597    211.9991   4.4497593449e+01   3.5074442409e+00    0.1399856   0.08271443 -29.26 0.0006740819    1.589    0.371
        88 -11.1684    187.4453    211.5231   4.8387392992e+01   6.3067693681e+00    0.1188567   0.09334228   5.05 5.902396e-05    1.016    0.015
        89 -12.6922    124.6728    221.8964   6.2534925267e+01   1.2904962714e+01    0.3470174    0.1950551  34.49  0.001932986    1.472    0.321
        90 -13.5109    228.9505    206.3710   4.0448438664e+01   1.9764084585e+00    0.4080769    0.3415552 -25.54  0.001902942    1.547    0.354
        91 -11.0400    170.1600    210.1129   5.1467007774e+01   8.7475101865e+00    0.1521509     0.130942  28.89 0.0003920305    1.316    0.240
        92 -11.1553     90.8732    210.1181   6.8810347356e+01   1.9403514870e+01    0.1817485    0.1467307  49.38 0.0003079351    1.194    0.163
        93 -11.6312     59.2188    208.2083   7.6228213793e+01   2.3644189271e+01    0.2225537    0.1960319  56.92  0.001489258    1.097    0.089
        94 -10.8746     63.0399    208.4734   7.5323549543e+01   2.3149486766e+01    0.1847366     0.114213  17.62 0.0009767239    1.730    0.422
        95 -15.9638     13.0673    186.8277   8.6448272376e+01   3.2882758331e+01      1.99707     1.330775 -61.54   0.01175297    1.713    0.416
        96 -11.8956    180.0567    207.7857   4.9193274172e+01   7.7858806632e+00    0.2326504    0.1686419  20.45  0.000764425    1.176    0.150
        97 -11.4708     72.0997    206.3630   7.2929638068e+01   2.2495891545e+01      0.23155    0.1821865  86.54   0.00142372    1.445    0.308
        98 -12.2431    116.6356    205.7189   6.2267190726e+01   1.6789208030e+01    0.2060711    0.1760642 -77.41  0.001293143    1.523    0.343
        99 -12.1014    238.8960    204.6542   3.8631250149e+01   1.0708804416e+00    0.1838431    0.1261258 -20.84 0.0003795799    1.247    0.198
       100 -12.4198    110.9070    203.6318   6.3320981643e+01   1.7962291621e+01    0.2828573    0.1891636  42.53  0.000320623    1.393    0.282
       101 -11.2299     97.1974    188.8068   6.4689469624e+01   2.2789341182e+01    0.2023807     0.179968 -79.44  0.001229692    1.296    0.228
       102 -12.0425     84.9284    199.9772   6.9119011608e+01   2.2168176018e+01     1.137846     0.580036  61.76  0.004834882    2.844    0.648
       103 -12.4985     61.9034    177.1282   7.2559246865e+01   3.0070308972e+01     0.329063    0.2323319  22.27   0.00112414    1.448    0.309
       104  99.0000     64.8862    182.3645   7.2321640950e+01   2.8506409611e+01     1.267292    0.6685862   5.98   0.00487812    3.288    0.696
       105 -12.5905     90.6246    200.7303   6.7808961305e+01   2.1268062975e+01     0.577336    0.2861879 -40.22  0.002575798    2.734    0.634
       106 -13.0565     92.9163    193.2433   6.6336007282e+01   2.2472074006e+01    0.8824187    0.2938502  36.17  0.002540287    2.454    0.592
       107 -11.7370     91.2273    188.8492   6.6202617945e+01   2.3613876988e+01    0.2821315    0.2207727 -31.98  0.001189892    1.519    0.342
       108 -13.1544     94.1811    183.9021   6.4794162769e+01   2.4241622982e+01    0.5934895    0.3184119 -64.66  0.002145135    2.199    0.545
       109 -12.5932     89.8277    182.2043   6.5690420514e+01   2.5219900041e+01    0.4314326    0.2968959 -85.02  0.001812079    1.883    0.469
       110 -12.1411     69.0721    187.1816   7.1733703876e+01   2.6909702389e+01    0.9927022    0.1591334  39.03  0.001680854    4.071    0.754
       111 -12.2635     75.7728    186.2094   6.9866196011e+01   2.6260951307e+01    0.7725704     0.298658 -63.30  0.003175449    2.800    0.643
       112 -10.6616     60.6779    204.2564   7.5536003115e+01   2.4285690567e+01    0.1329965   0.07809092  50.70 0.0002564003    1.545    0.353
       113 -14.1479    122.0298    196.1821   5.9707298394e+01   1.7790531641e+01    0.5398131    0.3825947 -38.29   0.00305327    1.570    0.363
       114 -12.0639    136.3948    200.0790   5.7013085005e+01   1.5027990807e+01    0.2851407     0.207589 -89.80 0.0008082674    2.606    0.616
       115 -11.6256    212.4900    199.9764   4.2095515081e+01   4.7235551392e+00    0.1885167    0.1533486  31.65 0.0009123062    1.547    0.354
       116 -11.2461    181.0204    199.4382   4.7677014846e+01   8.8797373728e+00    0.1860152    0.1049309  29.07  0.001025733    1.595    0.373
       117 -13.3670    173.6494    196.3098   4.8597859307e+01   1.0366950116e+01    0.4092314    0.3127702  60.09  0.001758411    2.243    0.554
       118 -13.1936    108.1132    214.9832   6.5369929520e+01   1.6260057027e+01    0.4362963    0.2911803  75.31  0.002047328    2.419    0.587
       119 -11.1030    138.2927    197.3087   5.6177283034e+01   1.5242566901e+01    0.1297824   0.09249274  -4.02 0.0002354828    1.584    0.369
       120 -12.8811    110.6753    196.0285   6.2363477105e+01   1.9440216357e+01    0.3527349    0.2471275  -1.07 0.0003144699    1.780    0.438
       121 -12.1756    191.7652    195.5900   4.5022455659e+01   7.9946446557e+00    0.3251461     0.215744 -10.41 0.0007638878    1.452    0.311
       122 -11.4259    188.9847    192.1504   4.4957210425e+01   8.8732992458e+00    0.1934838    0.1552262 -19.47 0.0002961463    1.181    0.153
       123 -11.1217    166.0933    196.0917   5.0074709168e+01   1.1462833412e+01    0.1688848    0.1538189  58.53 0.0005372718    1.581    0.368
       124 -12.2119    153.4780    195.4575   5.2591614106e+01   1.3369605400e+01    0.2230669     0.188121  14.68 0.0004828565    1.023    0.022
       125 -11.7102    211.8501    193.6679   4.1146803131e+01   5.6381286742e+00     0.229141   0.09254476  27.64   0.00109797    2.543    0.607
       126 -12.0733    161.6934    192.3257   5.0360179897e+01   1.2702489545e+01    0.3280535    0.1579417  41.21  0.001550359    2.135    0.532
       127 -12.7970    133.3977    190.6470   5.6256371865e+01   1.7156202580e+01    0.3148101    0.2292485  -7.40  0.001724405    1.578    0.366
       128 -12.7607     50.7267    190.1266   7.6836491476e+01   2.8451340629e+01    0.3514316    0.2289237  15.26  0.001180582    1.728    0.421
       129 -12.0174    219.3198    198.1441   4.0652987476e+01   4.1247544620e+00    0.1787661    0.1247915   7.08 0.0003287026    1.201    0.167
       130 -12.1194    201.4878    196.3641   4.3396981682e+01   6.6022769524e+00    0.2938853    0.1939952  -3.40  0.001037078    1.422    0.297
       131 -12.7562    110.3526    188.1779   6.1339275831e+01   2.1028969346e+01    0.2723356    0.2010525  46.09  0.001243024    1.337    0.252
       132 -10.9568    206.4696    188.4953   4.1181515800e+01   7.0410585387e+00    0.1207199   0.09615409  -3.39 2.694176e-05    1.024    0.023
       133 -11.6130    239.6731    185.9284   3.5387811628e+01   3.2205552859e+00    0.2207465    0.1681114 -56.04  0.001352217    2.795    0.642
       134 -13.6094    127.5193    185.9645   5.6885319950e+01   1.8911695948e+01    0.3843475    0.3084825 -14.77  0.002188546    1.350    0.259
       135 -13.3237    122.6983    185.8597   5.8009772965e+01   1.9657001559e+01    0.4248925    0.2209782  29.70  0.001273214    1.776    0.437
       136 -11.4497     43.2064    186.7214   7.8532611442e+01   3.0040051355e+01    0.2107703    0.1569167  75.32  0.000533558    1.320    0.243
       137 -11.8694    247.4260    185.8927   3.4246184302e+01   2.3263373468e+00    0.2050765    0.1327004  13.58  0.001079205    1.438    0.305
       138 -10.6000    209.2965    186.2831   4.0308863065e+01   6.9743990541e+00    0.1207148   0.07727344  -1.63 0.0001708219    1.542    0.352
       139 -12.0638    163.9876    185.5137   4.8738040744e+01   1.3494584940e+01    0.2223355    0.1803552 -30.28 -5.594351e-05    1.261    0.207
       140 -10.8978    210.1615    182.8093   3.9548806299e+01   7.3419681769e+00    0.1694704    0.1162265  -6.29 0.0004485834    1.320    0.242
       141 -11.7011    201.8618    182.6177   4.0955632803e+01   8.4953339718e+00    0.1958561    0.1545616  -2.08 0.0004301477    1.038    0.036
       142 -11.3359    198.1120    180.1700   4.1186353433e+01   9.3743919981e+00    0.1826625    0.1498506  -5.09 0.0002973121    1.027    0.026
       143 -12.1238    151.4386    182.0583   5.0813425142e+01   1.5985390713e+01    0.2585566    0.1848831   3.33 0.0007785826    1.511    0.338
       144 -12.4646     49.0042    182.2711   7.6598740652e+01   3.0414296886e+01    0.3516936    0.3403417 -31.24   0.00226955    1.232    0.188
       145 -11.9683    157.0266    185.4739   5.0192814420e+01   1.4541820376e+01    0.2428757    0.1699848 -19.39 0.0009435419    1.516    0.340
       146 -12.3710    142.1853    181.1600   5.2716358515e+01   1.7572367041e+01    0.2247284    0.1976822  11.24 0.0003431336    1.016    0.016
       147 -13.6748    118.0373    179.6391   5.8162551016e+01   2.1592922153e+01    0.5623945    0.3006299  47.02  0.001602258    1.995    0.499
       148 -11.2445    246.4678    179.5278   3.3283358131e+01   3.2038310393e+00    0.1134219   0.08291475 -10.87 6.016964e-05    1.003    0.003
       149 -12.6787    137.7034    177.2267   5.3070962515e+01   1.9006581311e+01    0.2616564     0.218466  40.20  0.000483979    1.224    0.183
       150 -13.9597    122.6627    167.6010   5.5009584477e+01   2.3317636221e+01    0.7154273    0.3410995  28.05  0.002916978    2.210    0.547
       151 -13.5228    132.7860    174.3830   5.3732429497e+01   2.0331084495e+01    0.5700353    0.3293059  -8.73  0.002145537    3.350    0.702
       152 -13.4083    130.9075    169.2298   5.3278506788e+01   2.1648705448e+01    0.4696585    0.2960646  36.87  0.002302757    1.482    0.325
       153 -13.4462    127.1735    176.2217   5.5384673855e+01   2.0857284855e+01    0.4206686    0.3059678  -6.10  0.001743927    1.663    0.399
       154 -12.8923    125.8044    172.0629   5.5010210969e+01   2.1903377264e+01    0.3352276     0.279895 -37.55 0.0004370674    1.263    0.208
       155 -11.2357     53.8636    177.7324   7.4838242209e+01   3.0901298417e+01    0.2733887    0.1438962  44.75  0.001295398    1.682    0.405
       156 -13.6327    148.6275    175.3044   5.0253368496e+01   1.7640821120e+01     0.632991    0.3616334  56.54  0.001160891    2.950    0.661
       157 -13.2563    105.8512    176.0407   6.0656232882e+01   2.4193461950e+01     0.340809    0.2448231  33.26 0.0007569159    1.263    0.208
       158 -11.8440    225.1055    176.0435   3.5881409851e+01   6.2922453769e+00      0.27587    0.1556503  32.32  0.001632145    1.825    0.452
       159 -11.9006    247.9466    175.9886   3.2451575397e+01   3.4609985369e+00    0.1725766    0.1262833 -12.98  0.001248815    1.016    0.016
       160 -11.8761    242.0587    175.3503   3.3183845988e+01   4.2464152354e+00     0.156348    0.1187387   4.19 0.0007417391    1.168    0.144
       161 -11.5448    173.1783    173.5107   4.4718354817e+01   1.4105368705e+01    0.2239042    0.1690683 -30.13 0.0002533125    1.284    0.221
       162 -14.0055     87.7050    163.6868   6.3605979149e+01   2.9658383183e+01    0.6716667    0.3780649  71.51  0.002524243    3.076    0.675
       163 -15.0111     77.8629    153.8120   6.4903477516e+01   3.3443847228e+01    0.7866786     0.602454  69.51  0.001754487    1.439    0.305
       164 -13.5303     90.6499    172.0804   6.4055900040e+01   2.7321027165e+01    0.5214241    0.3805485 -37.52  0.001505956    1.594    0.373
       165 -12.2270     91.9961    166.4813   6.2850411054e+01   2.8378993212e+01    0.2276154    0.1855654  60.29 0.0004646579    1.291    0.226
       166 -12.9107     84.2920    149.9327   6.2371040207e+01   3.3416730386e+01    0.3175347    0.2863267 -39.23  0.000481134    1.200    0.166
       167 -14.0916     84.1924    144.7017   6.1496766084e+01   3.4698529933e+01    0.6254475     0.359071  35.82  0.002413482    1.653    0.395
       168 -12.5517     79.0887    172.7622   6.7295592656e+01   2.8814530998e+01    0.3884394    0.2184814  47.44  0.001798198    1.719    0.418
       169 -11.0453     28.3088    173.5496   8.1589777879e+01   3.4606014358e+01    0.1688503    0.1250961  12.29  0.000944305    1.556    0.357
       170 -13.0939    100.2984    171.2864   6.1363981529e+01   2.6057125051e+01    0.2736389    0.2486155  41.68 0.0007796007    1.047    0.045
       171 -12.3686     61.6133    170.9965   7.1946190484e+01   3.1535246481e+01     0.399633    0.2147603  29.59  0.001849206    1.735    0.424
       172 -11.8593     42.4629    172.2796   7.7502761390e+01   3.3470618614e+01    0.3424928    0.1427206  36.88  0.001489512    2.015    0.504
       173 -14.0094     24.2681    197.0835   8.4105217328e+01   2.9630030488e+01    0.6710594     0.491717   6.76  0.002062942    1.679    0.404
       174 -12.1199    204.6151    173.8892   3.8890302188e+01   9.3790381538e+00    0.2956222    0.1735139 -46.62 0.0009809691    2.155    0.536
       175 -11.1338    234.9587    171.2738   3.3499772741e+01   5.6509009327e+00    0.2188019    0.1046861  -6.58 0.0008994387    3.668    0.727
       176 -11.6249    197.6260    170.2713   3.9453913969e+01   1.0927157819e+01    0.2189775    0.1406344 -22.61 0.0009778095    1.450    0.310
       177 -12.2838    160.1694    168.8518   4.6551997797e+01   1.6963161210e+01    0.2125825    0.1841502   1.84 0.0004580348    1.043    0.041
       178 -12.7023    156.8675    165.5836   4.6647476468e+01   1.8089269498e+01    0.2771106    0.2313448  10.93  0.000401436    1.122    0.109
       179 -13.2174    153.1683    170.2857   4.8338412152e+01   1.7833454364e+01    0.3650268    0.2702819 -34.75 0.0008378969    1.363    0.267
       180 -12.7991    151.7350    165.3928   4.7741433114e+01   1.8969452197e+01    0.3360941    0.2204372  20.83  0.001111549    1.604    0.376
       181 -13.0153     72.1281    167.0329   6.8473804145e+01   3.1095641424e+01    0.3724097    0.2680416  65.72  0.001295964    1.501    0.334
       182 -11.8888    110.0178    170.0015   5.8622848611e+01   2.4833220120e+01    0.2061199    0.1924498  25.79  0.000321029    1.015    0.015
       183 -12.9535     47.7778    161.8569   7.4931086573e+01   3.5401698278e+01     0.350227    0.1957991  55.65   0.00119897    1.790    0.441
       184 -12.5468     50.4642    165.4678   7.4528817156e+01   3.4209347637e+01    0.2783246    0.2065885 -80.21 0.0009632495    1.376    0.273
       185 -11.8372    174.4866    168.5505   4.3527546566e+01   1.4732256252e+01    0.3597031    0.2014171  17.68  0.001646023    2.215    0.548
       186 -12.1210     31.1758    167.5749   8.0328212881e+01   3.5764282028e+01    0.2520073    0.1939376  63.59 0.0003701945    1.169    0.145
       187 -12.6967    212.3371    163.9287   3.5704715339e+01   9.7271715010e+00    0.2563342    0.1958223 -34.16 0.0004469296    1.332    0.249
       188 -12.6233    201.6219    165.8869   3.7912694819e+01   1.1001429972e+01    0.3527697    0.2008298  44.41  0.000623771    2.092    0.522
       189 -11.2775     25.4600    153.9946   8.0941028039e+01   3.9665671878e+01     0.250223    0.1579823  44.58 0.0005309174    1.435    0.303
       190 -13.7091     39.1085    161.2431   7.7448957264e+01   3.6508771047e+01    0.6235608    0.3203462 -42.37  0.002653576    2.597    0.615
       191 -13.6246     31.7245    157.1315   7.9292462033e+01   3.8284869887e+01     0.680488    0.3920492  60.45  0.003294506    1.695    0.410
       192 -11.1927      1.2548    163.7346   8.8670665139e+01   3.9167378977e+01    0.1595718    0.0921103 -88.94 0.0008417419    1.585    0.369
       193 -12.8597      4.3512    160.1179   8.7635602286e+01   3.9832096589e+01    0.3944948    0.2933304  49.23  0.001309814    1.185    0.156
       194 -11.6188    170.6710    165.3093   4.3681620565e+01   1.5891579303e+01    0.1897415    0.1670929  86.32  0.001095443    1.751    0.429
       195 -13.0588    110.5579    164.9988   5.7643705948e+01   2.5820620973e+01     0.381065    0.2514347   9.09  0.001726692    1.984    0.496
       196 -13.0964     57.2110    163.8963   7.2380330101e+01   3.3780212328e+01    0.3872261    0.2882189  75.01  0.002061083    1.396    0.284
       197 -13.0705     53.9806    167.2712   7.3704735427e+01   3.3358259292e+01    0.4572263    0.3056642  80.26  0.002312406    1.634    0.388
       198 -12.9000     64.0289    163.8528   7.0386728744e+01   3.2927231273e+01    0.2816185    0.2103446 -87.16  0.001482525    1.438    0.305
       199 -11.7620     24.6163    161.4024   8.1770703612e+01   3.7892944462e+01    0.4509167    0.2258869  40.52  0.002160422    1.742    0.426
       200 -10.9778    229.7990    161.8072   3.2526015632e+01   7.5854951169e+00    0.1459907     0.128475 -23.15 0.0004452648    1.315    0.240
       201 -11.1695    186.0258    162.2837   4.0067569924e+01   1.3949893936e+01    0.1757779    0.1498887   7.38 0.0002369325    1.073    0.068
       202 -12.5732    170.3098    159.7879   4.2678715801e+01   1.6908324163e+01    0.3006399    0.2547699  10.23  0.001339655    1.094    0.086
       203 -12.9395     95.3333    159.1046   6.0747205822e+01   2.9547805315e+01    0.3552803    0.2793003 -13.79 0.0004103023    1.569    0.363
       204 -12.5669     78.0108    160.1690   6.5826761056e+01   3.1898601318e+01    0.2922353    0.1871213  61.09 0.0009311633    1.793    0.442
       205 -10.7870     18.1732    160.8083   8.3632379807e+01   3.8601871389e+01    0.1620305    0.1476138 -55.46 0.0003120674    1.273    0.214
       206 -13.2408    121.5364    156.9888   5.3365274561e+01   2.5727394472e+01    0.5041144    0.2466197 -43.47  0.001310181    2.171    0.539
       207 -12.7838    117.2213    158.0111   5.4667289003e+01   2.6235765279e+01    0.3033035    0.1999742  18.50  0.001397703    1.742    0.426
       208 -11.9713    146.0214    157.9144   4.7592607385e+01   2.1350853480e+01    0.2504983    0.2031749 -50.70 0.0003812739    1.371    0.271
       209 -11.8657    105.6173    158.7194   5.7865260936e+01   2.7995496192e+01    0.2717161     0.224268 -85.73 0.0007563642    1.464    0.317
       210 -12.0221    133.6105    157.3014   5.0411735835e+01   2.3601621381e+01    0.2734045    0.2201283  73.89  0.001400754    1.712    0.416
       211 -10.3211    231.6249    157.6848   3.1470100779e+01   7.8956597037e+00    0.1266394   0.07829967  -0.68 0.0007030573    1.796    0.443
       212 -12.1439    190.8327    155.5991   3.7843866692e+01   1.4269451835e+01    0.2423836    0.1993198 -45.01  0.001065524    1.421    0.296
       213 -13.9582     62.8728    153.4813   6.9358075980e+01   3.5611995207e+01    0.4911484    0.3345931 -85.76  0.002391257    1.628    0.386
       214 -11.1339    141.5023    155.5424   4.8177110995e+01   2.2594204912e+01    0.1407425    0.1319571  13.30 4.509842e-05    1.037    0.035
       215 -12.4539     20.6241    154.5090   8.2462954510e+01   3.9963124261e+01    0.2452159    0.2158936  44.41   0.00102602    1.121    0.108
       216 -12.0826      2.4182    152.4919   8.7864857268e+01   4.1843370790e+01     0.387368    0.2336317  76.12  0.002073115    1.476    0.323
       217 -11.8741      5.1977    150.1988   8.6913461501e+01   4.2231350095e+01    0.3634379    0.1910163  75.30  0.001773721    1.761    0.432
       218 -11.5576    224.4535    152.6818   3.1590103904e+01   9.5916730674e+00    0.3269962    0.1480156 -23.45  0.001161275    2.311    0.567
       219 -12.0875    212.4487    153.5718   3.3672223135e+01   1.1226932116e+01    0.2123366    0.1873724   1.77  0.001303755    1.148    0.129
       220 -12.7231     89.0025    153.2808   6.1561656630e+01   3.1890382174e+01    0.2788523    0.2549292  33.84  0.001559802    1.055    0.052
       221 -13.0218    172.4545    151.9660   4.0663317048e+01   1.7919387755e+01    0.3370562    0.2314904 -53.88   0.00170559    1.838    0.456
       222 -12.5545     57.8739    143.8540   6.9560702050e+01   3.8689737579e+01    0.3150076    0.2259528 -17.65  0.000953433    1.900    0.474
       223 -11.9745     44.3000    152.4939   7.4958191159e+01   3.8131407915e+01      0.25781    0.1733621  50.84  0.000581679    1.399    0.285
       224 -10.5985     13.0307    153.6764   8.4720764354e+01   4.0790431088e+01    0.2055041    0.1227584  30.51 0.0002968749    1.604    0.376
       225 -12.0637     12.0851    149.9029   8.4777439215e+01   4.1813114828e+01    0.2719535    0.1612783 -63.97  0.000792495    1.690    0.408
       226 -13.1095    133.9940    151.1692   4.9107894259e+01   2.4790167683e+01    0.3841731    0.3114635  59.64  0.001709048    1.476    0.323
       227 -10.5368    249.3128    151.7252   2.7837527518e+01   6.3264259729e+00    0.1005965    0.0820298 -41.71 0.0002162976    1.559    0.358
       228 -12.4826    167.8889    150.5392   4.1306055139e+01   1.8955973633e+01    0.2230347    0.1931189 -51.94  0.001283723    1.365    0.267
       229 -12.5793    108.6553    149.1959   5.5292868311e+01   2.9627523247e+01    0.3475592    0.2733912 -56.67 0.0009345794    1.348    0.258
       230 -13.1129    124.8614    148.2863   5.0816770056e+01   2.7008946781e+01    0.5090017    0.3189748  65.18  0.001968546    2.616    0.618
       231 -13.5707    120.7839    144.5051   5.1106121185e+01   2.8551668081e+01    0.5220616    0.3599684  30.46  0.001216219    1.453    0.312
       232 -12.6550     95.8858    149.3624   5.8898326848e+01   3.1717533997e+01    0.2814863    0.2162902 -47.97 0.0008709485    1.363    0.266
       233 -11.8394     20.2057    149.7147   8.2234740177e+01   4.1211863593e+01    0.3453003      0.24142 -10.57  0.001142485    1.904    0.475
       234 -11.5590    146.9512    148.7852   4.5533348166e+01   2.2970107750e+01    0.2326435    0.1970163 -33.46 0.0003265385    1.172    0.147
       235 -13.4457     41.8693    146.9408   7.5093314389e+01   3.9816799103e+01    0.4824958    0.2667982 -55.45  0.002205594    1.865    0.464
       236 -13.3975     13.0694    134.8791   8.3428956578e+01   4.5610351802e+01     0.482024    0.3018204  70.24  0.001739728    1.512    0.339
       237 -13.8038     16.7703    141.6414   8.2715598899e+01   4.3566883370e+01    0.8878523     0.275837  21.81  0.003297302    3.165    0.684
       238 -12.0449     32.5870    147.5895   7.8131032746e+01   4.0620395718e+01    0.2531032    0.2218015 -41.95  0.000546394    1.316    0.240
       239 -11.1860    151.3417    145.9395   4.3931815510e+01   2.2738331700e+01    0.1947505    0.1721706 -24.13 0.0003541636    1.096    0.087
       240 -10.8947    229.0016    145.2906   2.9448155953e+01   9.9710520035e+00     0.161285    0.1361547  -6.87  0.000355182    1.100    0.091
       241 -13.2370    102.1509    142.9998   5.5908999881e+01   3.2158397551e+01    0.6213242     0.395635  66.12  0.002466251    2.269    0.559
       242 -13.7299     70.8599    143.1537   6.5333595786e+01   3.7087713474e+01    0.4064685    0.3072989 -61.20  0.001207383    1.343    0.256
       243 -11.0482    194.8183    143.6211   3.4659561768e+01   1.5553997626e+01    0.1654772    0.1252311  48.32 0.0004551783    1.596    0.373
       244 -11.7501    187.2058    143.1554   3.5948901370e+01   1.6912886353e+01    0.1959827    0.1629484  -8.60 0.0003356136    1.114    0.102
       245 -12.4257     51.0455    142.2278   7.1538116366e+01   3.9966155121e+01    0.3509313    0.1806917  42.60 0.0008390223    1.829    0.453
       246 -13.8876     52.4246    151.4590   7.2307124761e+01   3.7443220550e+01    0.5925489    0.3917637 -31.37  0.001784202    2.023    0.506
       247 -12.0072    209.2192    142.1245   3.1882926692e+01   1.3443397404e+01    0.2169022    0.1777266  82.72  0.001005846    2.141    0.533
       248 -11.2549    178.0137    142.4783   3.7560391012e+01   1.8617787549e+01    0.1950472    0.1320626  38.36 0.0004320712    1.526    0.345
       249 -13.2310     94.7240    140.6465   5.7603780588e+01   3.3970625535e+01    0.4322304    0.3348588 -26.98  0.001431525    1.532    0.347
       250 -11.0643      2.1350    142.3538   8.7474129352e+01   4.4415473827e+01    0.1811857    0.1530423  53.64 0.0006162958    1.112    0.101
       251 -13.5270     39.3325    139.8850   7.5093385531e+01   4.1919877147e+01    0.4209096    0.3350753  45.49  0.001297111    1.197    0.165
       252 -11.1423    132.5074    139.9791   4.7141633019e+01   2.7389088827e+01    0.2091703    0.1225951 -24.43 0.0008091067    2.439    0.590
       253 -11.2102    232.9744    136.9578   2.7205754320e+01   1.0549367616e+01    0.1839661    0.1481602 -20.66 0.0003690679    1.035    0.034
       254 -11.7676    127.5803    135.3083   4.7372080613e+01   2.9302363121e+01    0.5680069    0.2380597 -31.70  0.001613026    4.482    0.777
       255 -12.6824    119.5676    135.2551   4.9469978048e+01   3.0810663757e+01    0.4214421    0.2600809 -68.90  0.001688298    2.369    0.578
       256 -12.7674    115.2655    133.9737   5.0358487021e+01   3.1894023343e+01    0.3686824     0.190465  47.18  0.001409292    2.038    0.509
       257 -10.9081    109.4922    137.5401   5.2725236994e+01   3.2134099838e+01    0.1494854    0.1432916   8.94 0.0001559793    1.051    0.048
       258 -12.7256     46.3769    136.0960   7.2248471222e+01   4.2118947266e+01     0.286021    0.2415198  55.68 0.0003773121    1.132    0.117
       259 -11.8979     42.4936    133.0016   7.3151164734e+01   4.3379132264e+01    0.2971235    0.1792901  87.56  0.001320322    1.837    0.456
       260 -13.3505     90.0426    135.9741   5.8093535978e+01   3.5878936725e+01    0.6298565    0.2398023  30.35 0.0004333303    2.880    0.653
       261 -12.2394    102.3074    129.5630   5.3081690904e+01   3.5284730980e+01    0.3456268    0.1764942 -42.76 0.0008233233    2.125    0.529
       262 -13.4290    101.8786    134.2032   5.4201958462e+01   3.4266761276e+01    0.6900021     0.318667  23.79  0.002249018    3.247    0.692
       263 -13.6919     57.3694    133.7415   6.8195525809e+01   4.1363113156e+01    0.5846736    0.2732264  40.66  0.001953013    2.027    0.507
       264 -11.7900     36.6726    134.7182   7.5367760361e+01   4.3558018844e+01    0.2106828    0.1808946  38.67 0.0005831078    1.165    0.141
       265 -12.9883     34.9465    131.7774   7.5604888082e+01   4.4514449164e+01    0.5167149    0.2639369   7.97  0.001861116    2.706    0.630
       266 -12.6997     35.5195    128.0768   7.4940072548e+01   4.5439705453e+01    0.3551909    0.2570846  70.72  0.001076356    1.394    0.283
       267 -10.9614    209.9592    134.0352   3.0065037908e+01   1.4557024116e+01    0.1578434    0.1315914 -19.82  0.000443552    1.012    0.012
       268 -11.7184    174.0132    134.4576   3.6595868509e+01   2.0745603437e+01    0.2001256    0.1354854  40.23 0.0003429124    1.537    0.349
       269 -11.6400    230.4842    130.9518   2.6331759830e+01   1.1760887469e+01    0.2661712    0.1859389 -55.81  0.001333188    2.035    0.509
       270 -11.1406     19.5066    131.8772   8.0978628655e+01   4.5903938738e+01    0.2193567    0.1876514 -41.96  0.001263909    1.325    0.245
       271 -13.3052     47.9489    130.0649   7.0848744066e+01   4.3518672011e+01    0.5461982    0.2525693  39.19  0.002225638    2.038    0.509
       272 -13.5209     26.4880    146.2693   7.9957805454e+01   4.1541074740e+01    0.7446478    0.3598472 -86.24  0.003225989    2.107    0.525
       273 -10.9125    199.4796    130.4501   3.1020142299e+01   1.6881542823e+01    0.1333883    0.1154439 -18.15 0.0001337315    1.005    0.005
       274 -12.2960     94.0210    128.7494   5.5395441726e+01   3.6954050863e+01    0.3487617    0.2021453 -47.23   0.00146817    1.772    0.436
       275 -15.3266     77.8637    119.2763   5.8552742274e+01   4.2056606772e+01     1.422711    0.8460402 -85.18  0.005277199    2.645    0.622
       276 -12.7705     70.5889    119.3340   6.1050863925e+01   4.3206542493e+01    0.4342264    0.2888046  13.93  0.001873356    1.911    0.477
       277 -13.6799     80.1492    127.2018   5.9451640410e+01   3.9680323051e+01    0.3935373    0.2847464 -87.82 0.0008464821    1.698    0.411
       278 -13.2064     75.2534    125.0171   6.0621985375e+01   4.1018220062e+01    0.3770331    0.3128799  45.09 0.0007808784    1.186    0.157
       279 -14.0986     64.3024    121.1299   6.3599578424e+01   4.3689084539e+01    0.5817314    0.3575214 -59.73  0.002590095    1.589    0.371
       280 -13.0219     64.5983    127.7133   6.4726557690e+01   4.1933449505e+01    0.4137822    0.2615684  60.89   0.00014729    1.839    0.456
       281 -13.5593     58.7787    125.3876   6.6316164616e+01   4.3356840585e+01    0.6100556     0.344334  13.24  0.002296375    2.397    0.583
       282 -10.8268    130.4967    128.4772   4.5072788855e+01   3.0211712995e+01     0.148633     0.144418   1.39  0.000284582    1.004    0.004
       283 -11.8850    186.3943    124.2745   3.1932540921e+01   2.0236188649e+01    0.4292081    0.2034454 -46.78   0.00179815    2.275    0.560
       284 -11.7411    189.6957    121.5679   3.0719604678e+01   2.0081062048e+01    0.2584451    0.1375434  47.07  0.001034799    2.069    0.517
       285 -12.0581    124.2799    125.3614   4.5962487393e+01   3.2096204633e+01     0.605893    0.3723789   2.36  0.002029946    3.523    0.716
       286 -10.8253     22.3430    127.2857   7.9538894174e+01   4.6888700605e+01    0.1412635    0.0998196 -38.94 0.0002887918    1.642    0.391
       287 -11.7996    169.0734    125.9500   3.5648653640e+01   2.3203443334e+01    0.2316801    0.1688007   4.05  0.001127974    1.705    0.414
       288 -11.6919      5.3760    123.7225   8.5292887721e+01   4.9063199688e+01    0.3401107    0.1521029 -89.88  0.001451936    2.100    0.524
       289 -11.3649     15.0256    122.9806   8.1755831135e+01   4.8616821070e+01    0.2017501     0.144507  60.82 0.0003737869    1.337    0.252
       290 -12.9560     20.8005    122.9361   7.9646192331e+01   4.8180505235e+01    0.3259695    0.2937442 -18.50 0.0005846452    1.293    0.227
       291 -12.5377     23.0040    116.9089   7.8157563933e+01   4.9619908607e+01    0.4624803    0.2354556 -50.76  0.002011554    2.007    0.502
       292 -12.9851     18.1996    114.2801   7.9696485537e+01   5.0718423439e+01    0.5000644    0.3597199  26.79  0.001524567    1.465    0.317
       293 -11.9176    194.9795    122.7010   3.0059252582e+01   1.8928606953e+01    0.1807947    0.1677306  -5.59 0.0003483953    1.085    0.079
       294 -11.9406     51.2295    123.5757   6.8671363679e+01   4.4831053692e+01    0.3275238    0.1531935  14.03  0.001132711    3.117    0.679
       295 -13.4081    105.0503    121.3057   5.0398165688e+01   3.6721859796e+01    0.5749782    0.3097149  47.12  0.001528297    1.928    0.481
       296 -11.7037    199.5688    121.3059   2.8969968117e+01   1.8328537941e+01    0.2272109     0.156998  19.69  0.001184671    1.752    0.429
       297 -12.5069     26.8078    124.8208   7.7667377452e+01   4.7156606284e+01     0.311719    0.2778244  69.88  0.001597914    1.053    0.051
       298 -11.4434    224.0906    120.3183   2.4996077374e+01   1.4285051162e+01    0.1637861    0.1488901 -15.96 0.0004420318    1.132    0.116
       299 -11.1111     46.8304    120.1964   6.9705044379e+01   4.6276941299e+01    0.2274042     0.120436  11.81   0.00086693    2.557    0.609
       300 -10.4863     36.6390    119.2971   7.3335275729e+01   4.7676193109e+01    0.1582443   0.09828933  58.42 0.0007033367    1.710    0.415
       301 -12.9099     14.0022    118.2960   8.1698947092e+01   4.9946243716e+01    0.3706026    0.2272033  43.05  0.001844928    1.599    0.375
       302 -11.7031      8.9858    117.3369   8.3490243161e+01   5.0540829696e+01    0.2182173    0.1916085  87.26 0.0009093578    1.009    0.009
       303 -12.4011     94.8681    117.5984   5.2629597322e+01   3.9504815496e+01    0.3125972    0.2367809 -62.39  0.001473431    1.388    0.280
       304 -12.8859     57.6115    117.8455   6.5357630280e+01   4.5502996666e+01    0.2514236    0.2113633  10.68 0.0007074945    1.348    0.258
       305 -11.3829     29.2408    116.3418   7.5713564768e+01   4.9214979621e+01    0.2153691     0.175219 -64.99 0.0004320383    1.177    0.151
       306 -11.4755    241.7509    115.9819   2.1736009621e+01   1.2104884304e+01    0.1762051    0.1577456  -9.42 0.0003662165    1.172    0.147
       307 -12.2917    197.0191    115.0360   2.7957066338e+01   1.9798773779e+01    0.4104193    0.2278335 -18.30  0.001783692    2.290    0.563
       308 -10.3574    221.2880    115.3189   2.4307750328e+01   1.5474742649e+01    0.1268825   0.08992474  -4.35 0.0002502228    1.596    0.373
       309 -12.9498    115.3530    113.5776   4.5523091833e+01   3.6486818579e+01     0.513885    0.3475825  13.49  0.001581016    2.166    0.538
       310 -13.1476    104.3232    114.2100   4.8899351892e+01   3.8524852033e+01    0.3276614    0.2952064  10.33  0.001315824    1.208    0.172
       311 -12.6566    108.8355    111.6937   4.6922292514e+01   3.8221612897e+01    0.3270706    0.2889774 -18.27 0.0009151828    1.243    0.196
       312 -13.4940     83.2728    111.2988   5.4913014977e+01   4.3143706178e+01    0.5971197     0.291483 -52.58 0.0006219283    2.012    0.503
       313 -12.6529     89.8452    110.9086   5.2630376546e+01   4.2056826287e+01    0.3404967     0.282609  33.02 0.0003498336    1.229    0.187
       314 -13.8356     62.5283    109.0538   6.1772256819e+01   4.7109610354e+01    0.8228218     0.407012 -65.39  0.002051984    2.103    0.524
       315 -10.7453    229.4916    112.4428   2.2559684108e+01   1.4529330549e+01    0.1257363    0.1026789 -30.37 3.374547e-05    1.059    0.056
       316 -12.3389     11.8091    112.0646   8.1941406238e+01   5.1774886308e+01    0.2243012    0.1695414  69.75 0.0007931315    1.265    0.210
       317 -12.1146     53.1089    110.3303   6.5582498258e+01   4.8109144514e+01    0.3436622     0.241715  26.99  0.001004442    1.492    0.330
       318 -12.1932    217.8981    109.9085   2.3589311011e+01   1.6847037040e+01    0.2247853    0.1884712  59.28 0.0006959695    1.503    0.335
       319 -11.5864    210.0502    108.5898   2.4427174307e+01   1.8430660143e+01    0.2544626    0.1571543 -44.62 0.0007904414    1.563    0.360
       320 -11.6239    121.7215    108.1095   4.2338205073e+01   3.6392974756e+01     0.270369    0.2476785  77.97 0.0005171151    1.201    0.168
       321 -11.6701    113.4693    109.0231   4.4885008897e+01   3.7895103477e+01    0.2355507    0.2043761  42.51  8.17356e-05    1.156    0.135
       322 -11.5580     19.0236    107.2868   7.8561628797e+01   5.2550306507e+01    0.2865824    0.1767894 -75.54 0.0003410482    1.477    0.323
       323 -13.0945      3.1020    106.8889   8.4908660424e+01   5.3683094245e+01    0.3151469    0.2637492 -67.36 0.0008657352    1.137    0.120
       324 -10.8751    237.0505    108.4544   2.0734274183e+01   1.3862061609e+01    0.1562495       0.1212  42.87 0.0007845826    1.561    0.359
       325 -10.8260    139.6655    107.3161   3.7527488754e+01   3.2768848253e+01    0.1537196    0.1219399 -84.76 0.0007047471    1.692    0.409
       326 -11.5230    158.8046    106.5383   3.3009215894e+01   2.8862468410e+01    0.3329163    0.1479651  51.43  0.001142907    2.459    0.593
       327 -12.0062     92.9135    105.7002   5.0310273175e+01   4.2747303713e+01    0.2701432    0.2158459 -39.12 0.0006642007    1.306    0.234
       328 -13.6243     10.1752    104.0881   8.1800781289e+01   5.4036175480e+01     0.618795    0.3900429  58.74  0.001325823    1.612    0.380
       329 -12.3208    105.3895    103.1243   4.5695389005e+01   4.0888106569e+01    0.3088169    0.2421559 -84.88  0.001243868    1.635    0.388
       330 -14.4596     78.8325     92.0830   5.1480351067e+01   4.8708051966e+01    0.8191314    0.4827482  60.36  0.002082086    2.340    0.573
       331 -11.0011    182.5344    102.5141   2.7413866620e+01   2.4668061861e+01    0.1413727    0.1279637 -30.38 6.055356e-05    1.006    0.006
       332 -12.3143    153.1975    100.1282   3.2516586758e+01   3.1266807315e+01    0.4641773     0.348219 -61.66  0.002229721    1.564    0.361
       333 -11.8365     55.7782    101.6869   6.2738033576e+01   5.0031680306e+01    0.2555222    0.2239876 -70.96 0.0002910502    1.113    0.101
       334 -12.6138    162.5375     99.5214   3.0406000345e+01   2.9364344613e+01    0.3042707    0.2081115 -71.06 0.0007894911    2.188    0.543
       335 -12.9621     65.8297     94.8258   5.7140389852e+01   5.0281835306e+01     0.386215    0.2625898  -1.02  0.001584294    2.203    0.546
       336 -11.9746     60.5092     99.0190   6.0262959263e+01   5.0035896931e+01    0.3437524    0.2757875  78.17  0.001117758    1.412    0.292
       337 -11.0683     57.4574     97.4500   6.1097307902e+01   5.0901733536e+01    0.2279703    0.1913797  21.06 0.0007116376    1.283    0.221
       338 -11.9147     33.0730     98.3845   7.1395630563e+01   5.3708760010e+01    0.3770432    0.2703402 -17.05 0.0007000763    1.720    0.419
       339 -10.9396    191.6786     99.6903   2.5167184960e+01   2.3301517441e+01    0.1383229    0.1043841   4.77 0.0007035937    1.646    0.393
       340 -12.5682     93.7016     98.8992   4.8230046667e+01   4.4221378555e+01    0.3133798    0.2446721  89.20  0.001097584    1.640    0.390
       341 -11.1967     26.1688     98.9796   7.4435888751e+01   5.4212689923e+01    0.2542853    0.1459268  69.40  0.001079443    2.068    0.516
       342 -12.8858     79.0707    101.8258   5.4022184941e+01   4.6253590987e+01    0.3399765    0.3020284  54.71 0.0006236495    1.150    0.130
       343 -11.9544    220.0232    104.2400   2.2021028397e+01   1.7307352081e+01    0.2099745      0.15602 -32.19 0.0003326386    1.123    0.110
       344 -11.4193    118.1148     95.1199   3.9740324611e+01   3.9979821190e+01    0.2264225    0.2206541 -65.30 0.0004459842    1.034    0.033
       345 -12.9468     76.8296     97.0212   5.3570035896e+01   4.7850813862e+01    0.3618236    0.3159035  -5.47   0.00031614    1.322    0.243
       346 -10.3147     25.9724     95.0000   7.3876248986e+01   5.5311468132e+01     0.229077   0.08291792  20.19 0.0001379869    2.991    0.666
       347 -11.1748     41.1461     91.7668   6.6611371364e+01   5.4591798760e+01    0.2220081    0.1869698  64.10 0.0004782167    1.259    0.205
       348 -10.8285    243.6169     90.7433   1.6169365101e+01   1.5176311958e+01    0.1677459   0.08933914 -37.87 0.0003667111    1.483    0.326
       349 -12.2707    188.9889     90.9416   2.3412463927e+01   2.5252281317e+01    0.3166829      0.19549  41.92  0.001202718    1.862    0.463
       350 -10.5217    140.6854     91.2918   3.2870567284e+01   3.5731751260e+01    0.1520474    0.1202924 -79.01 0.0002769213    1.594    0.373
       351 -12.5891    149.2993     88.0144   3.0000277058e+01   3.4402585485e+01    0.3339888    0.2487805 -50.46 0.0008846232    1.354    0.262
       352 -12.1118    150.0497     83.2936   2.8477882759e+01   3.5096474073e+01    0.2880742    0.2162246 -28.08 0.0006335333    1.379    0.275
       353 -11.2990     86.6155     88.7733   4.7730669596e+01   4.8018991657e+01    0.2246036    0.1481757 -61.14 0.0006274916    1.673    0.402
       354 -12.0018    125.8015     86.3815   3.5084374384e+01   4.0086399047e+01    0.5071415    0.2845902 -37.46  0.001426198    1.814    0.449
       355 -11.0062     39.1189     88.1359   6.6707255924e+01   5.5800859081e+01    0.1901231    0.1623936  69.67            0    1.246    0.197
       356 -10.9271      3.4010     87.6966   8.3028590901e+01   5.8836906262e+01    0.2701838    0.1208619 -84.89  0.001129889    2.091    0.522
       357 -12.5901     54.9242     85.7913   5.9204835126e+01   5.4305122954e+01    0.5551971    0.4256109   8.44  0.002151913    1.551    0.355
       358 -13.7443     64.0636     82.8045   5.4532548364e+01   5.3610109722e+01    0.8843537    0.5956677 -27.44  0.003802515    1.890    0.471
       359 -11.1654    133.5811     84.1665   3.2462427986e+01   3.8738385420e+01    0.2454594    0.2048082  63.87 0.0004846807    1.276    0.216
       360 -11.9197    112.1285     82.7844   3.7719115376e+01   4.3932009949e+01    0.3471127    0.1857307  51.35  0.001166721    1.936    0.483
       361 -11.7328    115.4198     74.5305   3.4123503186e+01   4.4864841393e+01    0.3006112    0.2796855 -46.82 0.0008774872    1.065    0.061
       362 -12.2590    112.3768     78.3940   3.6245066953e+01   4.4787817252e+01    0.4451206    0.2950255 -70.01  0.001772846    2.174    0.540
       363 -12.5310    106.5665     73.4710   3.6317494021e+01   4.7129408338e+01    0.5147493    0.3470794  74.91  0.002088254    2.111    0.526
       364 -12.8738     78.7000     82.2045   4.8595535168e+01   5.1115912840e+01    0.2966713    0.2869952  64.58 0.0003213021    1.056    0.053
       365 -10.4449    247.4934     81.5579   1.3789614155e+01   1.5729691058e+01    0.1207357   0.09465031 -33.62 6.593165e-05    1.009    0.009
       366 -11.2178     52.5241     78.9118   5.8345877821e+01   5.6421760608e+01    0.4777113    0.2841807  18.68  0.001986865    2.061    0.515
       367 -13.8281      6.9976     77.6118   8.0080356094e+01   6.1368901269e+01     0.469631    0.3361874 -36.40  0.001310466    1.443    0.307
       368 -11.2098     10.5298     71.5177   7.7323357160e+01   6.2797409555e+01     0.271459    0.1396896  10.89  0.001106994    2.195    0.545
       369 -12.0661     88.4273     78.9112   4.4018826096e+01   4.9933954753e+01    0.3552062    0.2447291  66.67  0.001263518    1.900    0.474
       370 -11.7224     86.0686     75.1453   4.3604364103e+01   5.1270388669e+01    0.2352928    0.2110058  -1.50 0.0004664108    1.247    0.198
       371 -12.6881    161.6994     77.0071   2.4345795284e+01   3.3511300771e+01    0.3470346    0.2064232 -55.27  0.001444726    1.921    0.479
       372 -12.4757    156.5887     74.3194   2.4527059104e+01   3.5153017249e+01    0.2846158    0.2423128  44.67 0.0009743806    1.259    0.206
       373 -11.3972     11.3455     85.9735   7.9133433996e+01   5.8870686582e+01    0.3784887     0.177038  72.88  0.001462274    2.690    0.628
       374 -12.8461     75.3649     75.0215   4.7556923350e+01   5.3445506826e+01    0.3998987    0.2338977 -38.57  0.001630573    1.852    0.460
       375 -11.2614     78.6038     70.1956   4.4660221873e+01   5.3908585005e+01    0.3341054    0.2287887 -22.94 0.0008282184    1.921    0.479
       376 -11.6176     51.5463     72.8866   5.6999336456e+01   5.8084156189e+01    0.3384921    0.2651015  45.98 0.0008611119    1.354    0.261
       377 -10.9717    218.8515     72.1483   1.4696548155e+01   2.2068485459e+01    0.1688383    0.1420827 -12.70 0.0004737058    1.281    0.219
       378 -11.8378     68.1161     72.1776   4.9513737724e+01   5.5475626378e+01    0.2324156    0.2047867 -21.45 0.0006329097    1.216    0.178
       379 -12.3820      2.6169     71.1449   8.1441099993e+01   6.3301592251e+01     0.394013    0.2150036 -89.73  0.001423392    1.818    0.450
       380 -11.0976    189.0676     70.5025   1.8073112515e+01   2.8401111426e+01    0.1884712    0.1389408  65.34 0.0004841952    1.511    0.338
       381 -10.6153    133.0237     70.4645   2.8314811066e+01   4.1447044119e+01    0.2137933    0.1505807  55.00 2.686463e-05    1.442    0.307
       382 -10.5272    236.2689     69.3448   1.2204711974e+01   1.9213731036e+01    0.1174511   0.08816306  -5.14 0.0002506165    1.612    0.380
       383 -11.3336    178.5268     69.0153   1.9228418283e+01   3.0957068237e+01     0.219967    0.1285928 -35.58 0.0004297516    1.553    0.356
       384 -12.2925    154.3535     68.2692   2.3141303251e+01   3.6696175801e+01    0.2794012    0.2376297  86.57 0.0002362179    1.274    0.215
       385 -11.2118     71.9425     69.0936   4.6889465422e+01   5.5471868855e+01    0.2488933    0.1892144  -8.87 0.0009273618    1.731    0.422
       386 -12.3968     60.0159     66.9677   5.1211229540e+01   5.8148062850e+01    0.2303092    0.2182259 -36.72 0.0005215924    1.029    0.029
       387 -11.5148    204.6296     65.2068   1.4652989813e+01   2.5860935592e+01    0.1932637    0.1169887 -23.04 0.0009508659    1.705    0.413
       388 -10.8514     67.7822     65.5781   4.7352775203e+01   5.7065912708e+01    0.2042197    0.1439017  49.88 0.0003345345    1.517    0.341
       389 -11.6822    164.9724     63.9990   1.9967913986e+01   3.4860379640e+01    0.2162765    0.1983611 -46.97 0.0003293575    1.020    0.020
       390 -11.9867     92.0545     63.8302   3.7519757932e+01   5.2398588902e+01    0.2480522    0.2191908 -46.26  0.000313792    1.135    0.119
       391 -11.8811    100.6545     62.2454   3.4157012952e+01   5.0742556740e+01    0.2705812    0.2350586 -77.70 0.0005211352    1.293    0.227
       392 -11.6799     45.1797     61.8482   5.6491063112e+01   6.1742705848e+01     0.290458    0.2094962 -49.49  0.001075036    1.315    0.240
       393 -11.8789     41.5706     59.6715   5.7600630396e+01   6.2784116679e+01    0.2972954    0.2189717  38.01  0.001492588    1.423    0.297
       394 -11.5242      9.8635     63.1548   7.6165043831e+01   6.5042803533e+01      0.22129    0.1699102 -39.31 0.0004292346    1.261    0.207
       395 -11.4694     12.7810     60.3355   7.3900853701e+01   6.5593170097e+01    0.3780915    0.2178669 -78.21  0.001776369    1.739    0.425
       396 -12.8276    120.8922     53.0228   2.5212502055e+01   4.7479831374e+01     0.390486    0.2817168 -48.11  0.001185905    1.406    0.289
       397 -12.1607    116.5084     54.0160   2.6659332677e+01   4.8407311210e+01    0.2644606     0.211905  76.12 0.0004279937    1.351    0.260
       398 -12.1347    109.4879     59.5206   3.0555533386e+01   4.9155118796e+01    0.4518788    0.2958456 -20.94  0.001894045    1.942    0.485
       399 -11.9320    109.6822     55.6813   2.9080920969e+01   4.9802414779e+01    0.2451973    0.1823876  20.74  0.001005639    1.750    0.429
       400 -12.8644    113.1274     52.0818   2.6808227923e+01   4.9578262500e+01    0.4626068    0.3182873  16.25  0.001392803    2.178    0.541
       401 -11.4745     18.3793     59.2556   7.0382128422e+01   6.5456210648e+01    0.3062871    0.1912869 -65.68  0.001055644    1.468    0.319
       402 -11.7161    198.6926     57.6912   1.3426457782e+01   2.8146738886e+01    0.2363883    0.1582046  50.09  0.001250118    1.736    0.424
       403 -12.4276     37.0403     54.7156   5.8304789503e+01   6.4593684105e+01     0.510131    0.2454958 -43.80   0.00201876    2.044    0.511
       404 -11.3163     40.5394     53.4402   5.5916297083e+01   6.4416820433e+01    0.2387124    0.2261564  78.31 0.0005783232    1.194    0.162
       405 -11.6982    182.0827     57.0200   1.5363039930e+01   3.1921445932e+01    0.2106928    0.1933566 -50.26  0.000589005    1.025    0.024
       406 -12.1238    159.9069     57.1961   1.8769176629e+01   3.7117563677e+01    0.2266872    0.1887794 -66.80 0.0006320365    1.218    0.179
       407 -11.3260     54.8721     57.2056   5.0023505417e+01   6.1296039833e+01    0.2085664    0.1968787  81.45 0.0005645732    1.185    0.156
       408 -12.8174     24.0926     55.6067   6.6020082740e+01   6.5868503333e+01    0.3704255    0.2862626 -19.95 0.0009207077    1.369    0.269
       409 -12.0084     19.8646     53.0983   6.7814136824e+01   6.6891297922e+01    0.2238335    0.1887084 -62.58 0.0003077781    1.127    0.112
       410 -11.3691    205.1634     54.7660   1.1927596518e+01   2.7162629640e+01    0.1943356    0.1556903 -50.52  0.000461738    1.106    0.096
       411 -10.5567    195.2980     52.3300   1.2408473366e+01   2.9607161528e+01    0.1293495    0.1037023  14.38 0.0004313257    1.640    0.390
       412 -12.5313    132.0072     51.4098   2.2125507203e+01   4.4941761969e+01    0.2986802    0.2663521 -60.26  0.001589532    1.112    0.100
       413 -12.2484    175.8403     50.8385   1.4454293750e+01   3.4235675458e+01    0.2455725    0.2144922 -73.79  0.000338869    1.130    0.115
       414 -11.6386    106.7985     51.5831   2.8321725018e+01   5.1230149207e+01    0.2132673     0.147026  68.51 0.0009424051    1.617    0.381
       415 -13.0895     30.6207     50.1622   6.0353013536e+01   6.6493071501e+01    0.3200158    0.3014932  43.53 0.0008309228    1.174    0.148
       416 -12.0031    162.2599     49.9781   1.6171884370e+01   3.7609221684e+01    0.2271329    0.2026114  78.10 0.0003377349    1.142    0.124
       417 -12.2495     99.1658     49.6829   2.9780800289e+01   5.3425702048e+01    0.2714704    0.2087061 -49.58  0.001236025    1.355    0.262
       418 -11.0016    204.5574     47.4396   1.0107457589e+01   2.8239912862e+01    0.1320657    0.1117704 -47.92 6.808519e-05    1.007    0.007
       419 -11.8517     41.6844     46.9187   5.2707773173e+01   6.5747639989e+01    0.2638865    0.2077421  39.09 0.0005921145    1.337    0.252
       420 -11.6363    143.0000     45.0088   1.7770120782e+01   4.3122390600e+01    0.3102177    0.1215996 -30.89  0.001116039    2.534    0.605
       421 -11.7746    141.9697     41.5331   1.6765875900e+01   4.3878799667e+01    0.2303177    0.1410393  64.66  0.001040007    1.620    0.383
       422 -11.5286     95.2185     44.8032   2.8980785479e+01   5.5225344020e+01    0.2160777    0.1784278  23.14  0.001071724    1.370    0.270
       423 -11.5776    197.0210     43.9971   9.9906849614e+00   3.0311241260e+01    0.2036624    0.1744147 -49.85 0.0003220246    1.006    0.006
       424 -12.8757    158.4453     41.4125   1.4067649306e+01   3.9737671699e+01    0.2701003    0.2476153 -47.08  0.000412624    1.061    0.058
       425 -12.3641     34.7059     40.5174   5.4027733011e+01   6.8188143329e+01    0.3569852    0.2312588  17.74  0.001014659    1.719    0.418
       426 -12.7257     23.0006     39.8691   6.1270599753e+01   6.9785614860e+01    0.4264506    0.2192362 -46.99  0.001951278    1.757    0.431
       427 -13.2068     28.8518     36.1173   5.5768095327e+01   6.9944420156e+01    0.3600826    0.2830348 -26.93  0.001060778    1.238    0.192
       428 -13.1531     30.7930     31.8957   5.2468782720e+01   7.0592692952e+01    0.3834001    0.3496192  10.23  0.001641956    1.093    0.085
       429 -11.4936    123.9500     39.6601   1.9563635539e+01   4.8779624303e+01    0.2236485    0.2039777 -14.67 0.0002291798    1.200    0.167
       430 -11.1481    118.9684     38.9075   2.0355348590e+01   5.0173716650e+01    0.2559303    0.1716494 -64.03  0.001134643    1.776    0.437
       431 -11.4842     88.3302     37.3157   2.7892413260e+01   5.8130080845e+01    0.1554956    0.1137246  22.11 0.0003187673    1.681    0.405
       432 -11.5681     80.7138     36.4816   3.0073460671e+01   6.0079361585e+01    0.3614452    0.1904534 -45.43  0.001477599    2.058    0.514
       433 -13.1885      8.3724     35.8175   7.0212514893e+01   7.2016500800e+01      0.40773    0.2612092 -78.00  0.001439131    1.719    0.418
       434 -11.1536    203.1245     40.8638   8.5450839532e+00   2.9368525723e+01    0.1606472    0.1515377   6.15            0    1.288    0.224
       435 -11.2009     52.9998     33.9735   4.0596017694e+01   6.6475472467e+01    0.2164698    0.1816891 -89.57  0.001122189    1.648    0.393
       436 -12.2962    106.9108     32.1810   2.0437246026e+01   5.4238776186e+01    0.2673663    0.2125446 -33.71 0.0008514448    1.295    0.228
       437 -11.4351     42.4988     33.0612   4.5805759446e+01   6.8547137223e+01    0.2122087    0.1350268 -45.37 0.0005939209    1.563    0.360
       438 -11.2069     36.7205     32.9064   4.9181293394e+01   6.9512643597e+01    0.1893345    0.1674143 -36.47 0.0002820118    1.105    0.095
       439 -10.2617    198.2773    249.2583   5.1835975403e+01   3.3084118644e-01    0.1038314    0.0614424   3.36 0.0006851049    1.468    0.319
       440 -12.1774     77.1905     30.8547   2.8624741785e+01   6.1804921224e+01    0.2204762    0.2018209 -79.46  0.000946015    1.235    0.190
       441 -12.3499     46.5057     30.5142   4.2204468337e+01   6.8333959366e+01    0.4372709    0.1322611 -40.21  0.001438444    3.401    0.706
       442 -12.6920     45.7683     24.5314   3.9267849760e+01   6.9548509109e+01    0.4200743    0.2586954 -38.25  0.001285005    1.627    0.386
       443 -13.2417     83.7272     29.5640   2.5764192980e+01   6.0438065754e+01    0.4954302     0.234077  65.21  0.001142022    2.525    0.604
       444 -11.9988     67.7536     29.1828   3.1381316462e+01   6.4230978245e+01    0.2076748    0.1956898 -65.86 0.0005662505    1.197    0.165
       445 -10.8266     19.7166     29.3397   5.9042342918e+01   7.2519131472e+01    0.1268775    0.1057855  73.25 0.0006153054    1.630    0.387
       446 -12.0218     60.0361     27.9897   3.4059295280e+01   6.6105547593e+01    0.2132474    0.1996308  12.60 0.0003136255    1.017    0.017
       447 -10.6696    196.6667     27.3016   5.5517270803e+00   3.2388059800e+01    0.1417422   0.08118153 -58.21 0.0007035007    1.655    0.396
       448 -10.3712      1.4949     25.5316   7.2249187146e+01   7.4849630403e+01    0.1286592    0.1118429 -42.35 0.0003136532    1.024    0.023
       449 -10.7926    128.8043     24.6160   1.2928371637e+01   4.9485821385e+01    0.1955478    0.1316004  85.88 0.0002445278    1.563    0.360
       450 -11.7532     84.2364     23.8499   2.2805762207e+01   6.1116651364e+01    0.2547553    0.1484945 -66.87 0.0009558447    2.889    0.654
       451 -12.1082     66.9731     23.8063   2.8830250647e+01   6.5233349724e+01    0.2307058    0.1701324  89.11  0.001081176    1.983    0.496
       452 -10.9478    132.9951     20.9501   1.0870905091e+01   4.8805232277e+01    0.1951391    0.1783228 -79.51 0.0003065934    1.026    0.025
       453 -11.8107    131.8268     17.1531   9.6232720933e+00   4.9524488467e+01    0.2470323    0.2056371 -55.38 0.0003359649    1.175    0.149
       454 -10.4853    139.3059     19.3507   9.3626645580e+00   4.7327860835e+01    0.1456192    0.1037903  34.46 0.0007042122    1.707    0.414
       455 -11.2311    123.1442     19.3761   1.1854842279e+01   5.1576078908e+01    0.2058925    0.1671424  80.06 0.0009655341    1.177    0.150
       456 -10.6329    175.6132     31.1871   8.7153959989e+00   3.6828573277e+01     0.176433    0.1285279 -16.40 0.0002124047    1.561    0.359
       457 -11.6478     80.9763     18.0110   2.0830419934e+01   6.2673529750e+01     0.173985      0.16373  47.42 0.0005155235    1.003    0.003
       458 -11.5023     66.9376     15.8558   2.4375190377e+01   6.6335463172e+01     0.246857    0.1982367 -21.87 0.0008209741    1.301    0.231
       459 -10.9384     74.5202     13.5426   2.0436963269e+01   6.4797524414e+01    0.1402719    0.1309651  47.64 0.0001063855    1.016    0.015
       460 -11.7620    114.4684    248.5041   6.7615349576e+01   9.9806137254e+00    0.1624964    0.1149709 -52.16 0.0006550497    1.825    0.452
       461 -11.2041    214.8925    247.1683   4.8774219032e+01  -1.1594275075e+00    0.1450406    0.1088629   8.47 0.0003759617    1.203    0.169
       462 -11.4672    103.5414    246.5292   6.9675085795e+01   1.1559941723e+01    0.2272817   0.06995122  37.86  0.001035454    2.428    0.588
       463 -15.7104     65.0182    230.9727   7.6665757907e+01   1.8615867767e+01     2.647093     1.716762  -0.25    0.0139009    2.198    0.545
       464 -12.0211    168.7336    244.7806   5.6544070555e+01   4.1325703596e+00    0.1814783    0.1565524  -6.24 0.0002999298    1.297    0.229
