#   1 NUMBER                 Running object number                                     
#   2 MAG_AUTO               Kron-like elliptical aperture magnitude                    [mag]
#   3 X_IMAGE                Object position along x                                    [pixel]
#   4 Y_IMAGE                Object position along y                                    [pixel]
#   5 X_WORLD                Barycenter position along world x axis                     [deg]
#   6 Y_WORLD                Barycenter position along world y axis                     [deg]
#   7 A_WORLD                Profile RMS along major axis (world units)                 [deg]
#   8 B_WORLD                Profile RMS along minor axis (world units)                 [deg]
#   9 THETA_WORLD            Position angle (CCW/world-x)                               [deg]
#  10 FWHM_WORLD             FWHM assuming a gaussian core                              [deg]
#  11 ELONGATION             A_IMAGE/B_IMAGE                                           
#  12 ELLIPTICITY            1 - B_IMAGE/A_IMAGE                                       
         1 -14.6001    135.3883    126.8695   9.5515355534e+01   2.9800321133e+01     2.572478    0.3868901 -49.50  0.005299209    7.853    0.873
         2 -15.0135    171.4670     46.5333   6.4409997474e+01   3.6431162169e+01     1.395249     1.089876   9.10  0.004243877    1.514    0.340
         3 -15.1002    188.6809     15.4488   5.1793510239e+01   3.5851713603e+01     1.229431     1.018765 -52.67  0.004456274    1.235    0.190
         4 -13.6497    151.2691    227.4386   1.0942299689e+02   8.2696119443e+00    0.8701269    0.3590404  39.58  0.004193016    2.136    0.532
         5 -10.2037    127.0943    250.6289   1.1615395001e+02   8.7677694004e+00    0.1331795   0.08280592  41.78 0.0002634567    1.377    0.274
         6 -17.5577     69.9479    219.7578   1.2296022976e+02   2.1890932637e+01     7.995796     5.085594 -78.22   0.04675437    1.543    0.352
         7 -14.7779    173.9825    219.7489   1.0432525909e+02   5.5322448616e+00    0.8054376    0.4834063  25.10  0.004255345    2.047    0.511
         8 -13.4686    161.9834    226.0674   1.0734418855e+02   6.6756608142e+00    0.3980537     0.257614  50.49  0.001509908    1.304    0.233
         9 -13.4621    166.9447    222.5303   1.0597949145e+02   6.3424659551e+00    0.3419186    0.3313777 -27.78 0.0008877763    1.277    0.217
        10 -11.1512    126.6783    227.9387   1.1383234686e+02   1.2197337627e+01    0.2566396    0.1459904  46.06 0.0008341916    1.413    0.293
        11 -12.2503    186.0006    222.6981   1.0261370773e+02   3.0579035047e+00    0.1803329    0.1353207  40.19 0.0006403417    1.072    0.067
        12 -10.9152    127.4370    222.7404   1.1310000170e+02   1.2900233911e+01    0.1821388    0.1156623 -64.76 0.0006433337    1.883    0.469
        13 -13.1698    153.3211    219.0556   1.0796094622e+02   9.1824038209e+00    0.3847095     0.277193  18.37  0.001192805    1.897    0.473
        14 -13.0050    164.4929    214.6153   1.0530674760e+02   7.9309667212e+00    0.3543821    0.2229351 -55.49  0.002012614    2.031    0.508
        15 -11.3954    112.9978    205.7856   1.1373651639e+02   1.8089585388e+01    0.2292465    0.1732568  62.23 0.0008339162    1.121    0.108
        16 -11.2076     11.8139    206.0693   1.3183906074e+02   3.0971522666e+01    0.1851115    0.1263669  48.88  0.001450991    1.485    0.326
        17 -11.8642    133.5725    195.5931   1.0842750297e+02   1.6475153044e+01    0.2403097    0.1875936  63.80   0.00146017    1.194    0.162
        18 -10.6700    151.3204    238.6365   1.1078735614e+02   6.6555009201e+00     0.240811     0.153318  26.60  0.001410829    1.969    0.492
        19 -13.1436    151.6474    181.0008   1.0254932238e+02   1.5832570452e+01    0.3640822    0.2775975 -63.00 0.0006201183    1.508    0.337
        20 -13.0012    152.2533    193.3051   1.0442672926e+02   1.3550604383e+01    0.3963075    0.2642821  63.86  0.002100096    1.670    0.401
        21 -13.8324    150.1618    188.1962   1.0402973354e+02   1.4822959217e+01    0.5055858    0.4002152 -85.13  0.002922363    1.533    0.348
        22 -10.5097    135.2047    236.8312   1.1334617439e+02   9.4933469055e+00    0.1752929    0.1253517  60.48 0.0007386589    1.236    0.191
        23 -11.6067     27.5458    184.1648   1.2774548755e+02   3.3584631957e+01      0.16212    0.1425256  52.61 0.0008122277    1.445    0.308
        24 -12.5389    162.5508    181.0729   1.0036815951e+02   1.3755101997e+01    0.2485454    0.2019742 -75.18  0.001407262    1.514    0.339
        25 -13.3258    187.4732    176.1852   9.4557645778e+01   9.7469074462e+00    0.5347138    0.3810756 -54.45  0.001088685    1.747    0.428
        26 -12.1730    186.2966    170.3456   9.3666360183e+01   1.0951021630e+01    0.2458863    0.2219552 -37.27  0.001453383    1.214    0.176
        27 -11.7687      9.0818    175.4072   1.3056266513e+02   3.7060394342e+01     0.144289    0.1048034  46.19 0.0007971491    1.527    0.345
        28 -11.8136    193.8915    171.3207   9.2376181760e+01   9.2755669091e+00    0.2377161     0.233031  72.10 0.0007149173    1.183    0.155
        29 -11.3094    177.0000    169.9491   9.5435392830e+01   1.2875925957e+01      0.21577   0.08055841 -42.72 0.0008008421    2.931    0.659
        30 -11.3153     23.2518    166.2731   1.2719701588e+02   3.7622739067e+01    0.2091771    0.1539474   5.47   0.00134878    2.539    0.606
        31 -12.7611    124.2651    161.0996   1.0491194648e+02   2.4757543136e+01    0.2706608    0.2288488 -82.90 0.0007498445    1.202    0.168
        32 -15.1936    133.3446    145.4319   9.9953528485e+01   2.6295301422e+01     1.485316    0.5780807 -59.01  0.004896259    3.552    0.718
        33 -19.1179     52.2729     97.7319   1.1122785216e+02   4.9814742988e+01     16.49187    0.8839207 -60.68   0.02614971   16.338    0.939
        34 -11.7064    188.1874    153.1924   8.9792415292e+01   1.3518921226e+01    0.1997098    0.1777733  87.73  0.001089128    1.375    0.273
        35 -12.0219     16.7159    148.8583   1.2708687949e+02   4.1863005922e+01    0.4746065    0.2160151 -53.94  0.002571606    2.450    0.592
        36 -14.6297    143.3057    143.8302   9.7370818293e+01   2.4655390360e+01     1.236315    0.4683442 -58.63  0.003653481    4.384    0.772
        37 -11.3890    132.7115    229.4233   1.1293991176e+02   1.1003855783e+01    0.2613694    0.2048303 -21.37  0.001317278    2.134    0.531
        38 -11.6606    174.8735    149.1515   9.1650029168e+01   1.7058233269e+01    0.2233236    0.2005226  78.95  0.000598326    1.258    0.205
        39 -12.6647    160.3532    127.4612   8.9897067968e+01   2.4381325515e+01    0.4178878    0.2766226 -56.44  0.001411591    1.719    0.418
        40 -12.7082    107.6382    122.8344   1.0142991907e+02   3.5995149900e+01    0.3075899     0.263598 -35.10 0.0006544637    1.318    0.241
        41 -11.2870     97.9520    248.6962   1.2071563054e+02   1.3321821319e+01     0.157365   0.09915216  60.17 0.0005654872    1.223    0.182
        42 -12.5806    113.5356    117.4751   9.8746050501e+01   3.6108032114e+01    0.2773578     0.243383 -86.80  0.001514637    1.179    0.152
        43 -10.9133    231.1829    113.8932   7.2589576065e+01   1.0793201148e+01    0.2397746    0.2122485  43.57 0.0008510059    1.178    0.151
        44 -11.9461    167.6541    112.7418   8.4642000337e+01   2.5650582747e+01    0.4408624    0.3251631  89.98  0.001267473    1.966    0.491
        45 -11.8517    125.3167    237.9665   1.1516171479e+02   1.0874266346e+01    0.2705512     0.135268 -58.33  0.001562695    2.472    0.596
        46 -12.3344    130.4574    110.1281   9.2714185754e+01   3.4380006093e+01    0.2876045    0.2434401  -6.21  0.001446895    1.463    0.317
        47 -11.1342    205.6456    110.1137   7.6200596915e+01   1.7239138070e+01     0.293265    0.2195564  41.81  0.000694195    1.348    0.258
        48 -10.5129     14.7434    157.0813   1.2817465873e+02   4.0301206790e+01    0.1490915    0.1098855 -87.72 0.0003452559    1.056    0.053
        49 -10.8618    135.0399    240.9808   1.1383087914e+02   8.9151883584e+00    0.1597845    0.1284488  48.05  0.001161638    1.115    0.103
        50 -10.2522    148.3016     82.3631   8.0669458057e+01   3.6102324618e+01    0.1619594    0.1230476   5.04 0.0007035918    1.727    0.421
        51 -10.7298    139.2216    243.0943   1.1335396639e+02   7.9575058498e+00    0.1792148    0.1323743 -64.35 0.0008803335    1.713    0.416
        52 -14.1864    158.8016     60.6601   7.1530701074e+01   3.7454884609e+01    0.9289589    0.6367669  36.30  0.001042046    1.587    0.370
        53 -13.7348    102.8654    240.6396   1.1920676621e+02   1.3842956588e+01    0.5868473    0.2161008 -56.46   0.00305505    3.308    0.698
        54 -13.0080    176.5105     38.9466   6.1058687950e+01   3.6189012101e+01    0.4274625    0.3942251 -24.01 0.0008406864    1.111    0.100
        55 -10.5743     13.6546     59.9368   1.1575516524e+02   6.1514346256e+01    0.1678511    0.1140612 -61.67 0.0004182046    1.137    0.120
