#   1 NUMBER                 Running object number                                     
#   2 MAG_AUTO               Kron-like elliptical aperture magnitude                    [mag]
#   3 X_IMAGE                Object position along x                                    [pixel]
#   4 Y_IMAGE                Object position along y                                    [pixel]
#   5 X_WORLD                Barycenter position along world x axis                     [deg]
#   6 Y_WORLD                Barycenter position along world y axis                     [deg]
#   7 A_WORLD                Profile RMS along major axis (world units)                 [deg]
#   8 B_WORLD                Profile RMS along minor axis (world units)                 [deg]
#   9 THETA_WORLD            Position angle (CCW/world-x)                               [deg]
#  10 FWHM_WORLD             FWHM assuming a gaussian core                              [deg]
#  11 ELONGATION             A_IMAGE/B_IMAGE                                           
#  12 ELLIPTICITY            1 - B_IMAGE/A_IMAGE                                       
         1  -9.9224    240.4142     24.1518   3.5647500782e+02   2.3459549948e+01    0.2212576    0.1282965  60.37  0.001333991    2.108    0.526
         2 -11.1541    183.0224     14.7062   3.5875133354e+02   3.6772945678e+01    0.3148551    0.1634268 -74.46  0.001038395    1.945    0.486
         3 -12.2436    184.6294     10.2880   3.5750204032e+02   3.6868055652e+01    0.5218206    0.2813887 -85.86  0.002598987    1.740    0.425
         4 -11.2357     49.5532     14.1005   2.7744905251e+01   6.9120215992e+01    0.3046494    0.2413396  26.07 0.0008139383    1.125    0.111
         5 -10.5040     45.1936     11.8983   2.8689871222e+01   7.0234507728e+01    0.2498104    0.2006319  12.43  0.001149653    1.186    0.157
         6 -10.2582     35.0825     13.7985   3.5345664873e+01   7.1751587743e+01    0.2146844    0.1724963  -1.42 0.0006035418    1.179    0.152
         7 -10.0216     32.4510     10.5091   3.5041594167e+01   7.2647332401e+01    0.1605366    0.1210094 -42.14 5.855577e-06    1.615    0.381
         8  -9.4672     27.6642     11.6320   3.8756548886e+01   7.3225325648e+01    0.1947272     0.130053   2.64  0.001083601    1.613    0.380
         9 -10.5957    241.4892      9.9869   3.5362801459e+02   2.4844738426e+01    0.1681148     0.092636 -38.19  0.001037216    1.608    0.378
        10  -9.1709     69.4551      9.4919   1.7210225986e+01   6.5455490424e+01    0.1359191    0.1126386  41.89 0.0001522962    1.052    0.050
        11 -10.2058    238.0341      8.4780   3.5351566821e+02   2.5665694087e+01    0.1588729   0.09581989  87.08 0.0004770496    1.561    0.360
        12  -9.2967    115.0066      8.7996   5.6160740205e+00   5.4380243217e+01    0.1866202   0.09367651  68.95 0.0007526786    1.693    0.409
        13 -11.4411     99.9478      6.3688   7.5833423600e+00   5.8421230704e+01    0.4638903    0.3014162  50.90  0.001958705    1.385    0.278
        14 -10.7454     85.5147      7.2071   1.1322532996e+01   6.1908791979e+01    0.2392545    0.2266162  69.44 0.0007907305    1.123    0.110
        15 -10.9593    124.0028      6.6508   3.3622879333e+00   5.2278115820e+01    0.3775038    0.2093168  87.73  0.001460659    1.836    0.455
        16 -11.9534    173.8434      3.7181   3.5674702409e+02   4.0082185909e+01    0.3476086    0.2373529 -53.65  0.001333638    1.340    0.254
        17 -10.1584     16.9027      4.4044   4.2061268222e+01   7.5787309945e+01    0.2522658    0.1849992 -16.79  0.001566757    1.268    0.211
        18  -9.5921     14.4294      1.4969   4.2135165187e+01   7.6528257612e+01    0.1810451    0.1384494  26.13 0.0001101578    1.267    0.210
        19 -10.8532    113.8026      1.7983   3.2423982279e+00   5.5309759571e+01    0.2671944     0.162785  77.07 0.0006716923    1.433    0.302
        20 -10.2801    178.9668      1.4189   3.5573791381e+02   3.9085836170e+01    0.1816161    0.1045074  80.91  5.80699e-05    1.499    0.333
        21 -11.0903    250.2841    127.4907   1.5997279881e+01   7.5012295597e+00    0.2588418    0.1148911 -46.24   0.00128141    2.085    0.520
        22  -9.4028      5.4785    125.4381   8.0133670788e+01   4.8926162203e+01    0.1334192    0.1199509 -88.89 5.868333e-05    1.007    0.007
        23 -10.3796    134.8496    124.1961   3.6632210930e+01   2.9787838710e+01    0.2140663    0.1880272  -1.89 0.0006217185    1.313    0.238
        24 -12.2739    245.0894    120.8439   1.5378273866e+01   9.2823192586e+00    0.3511831    0.1517469 -40.58  0.001497372    1.880    0.468
        25 -10.0667    103.1295    122.2579   4.5164641052e+01   3.6774633705e+01    0.3259306    0.2054995 -49.36  0.001118017    1.629    0.386
        26 -10.3655     64.0307    122.6639   5.8354821006e+01   4.3542619581e+01    0.2094079     0.196142  46.33 0.0006199431    1.052    0.049
        27 -11.7674    249.5996    115.4862   1.3778720134e+01   9.3856775955e+00    0.4364098    0.1004594 -36.26  0.001537824    3.817    0.738
        28 -10.3008     14.8015    115.1189   7.5637448803e+01   5.1029091703e+01    0.4845879    0.1384188 -57.59  0.001235487    2.869    0.651
        29  -9.6115     20.5227    115.9839   7.3548298985e+01   5.0365074059e+01    0.2091402   0.08557408 -49.61 0.0008081271    2.398    0.583
        30 -10.2331     96.0735    111.8003   4.4858391517e+01   4.0697044460e+01    0.2601778    0.2254139 -52.54  0.000519304    1.184    0.155
        31  -9.6368     79.4426    110.7254   5.0232708334e+01   4.4083535864e+01    0.2077755    0.1464506 -44.15 0.0006916224    1.489    0.328
        32  -9.8940     39.9823    105.5274   6.4157654325e+01   5.1242349154e+01    0.2058692    0.1212672 -13.86 0.0008092021    2.481    0.597
        33  -9.9435     91.6116    116.2131   4.7399498935e+01   4.0482279578e+01    0.2656018    0.2059581  48.64 0.0006163388    1.279    0.218
        34 -10.1165      1.8970    104.6636   7.9540789426e+01   5.4541415402e+01    0.2472754    0.1556738 -60.32  0.001297977    1.414    0.293
        35  -9.9702     66.0183    102.9937   5.3297336560e+01   4.8304353721e+01    0.2197812    0.2182054 -67.43   0.00120183    1.012    0.012
        36 -13.1685    249.1783     86.5839   8.1746198269e+00   1.3674338564e+01     1.334383    0.3786261 -29.88  0.003653743    7.168    0.860
        37 -11.6824    249.6338     99.9913   1.0759922122e+01   1.1661395355e+01    0.3598986    0.1296805 -36.87  0.001641589    2.284    0.562
        38 -12.5652    247.7622     93.7591   9.7422007960e+00   1.2875098732e+01    0.4714443    0.3210741 -85.77  0.002794062    2.024    0.506
        39 -10.7736    117.5179    102.0331   3.5726527642e+01   3.8464289617e+01    0.2472355    0.2055286  47.48 0.0003382099    1.169    0.144
        40  -9.6846     55.5330    102.4874   5.7265162991e+01   5.0028540667e+01    0.1492634    0.1440921  72.27 8.442461e-05    1.058    0.055
        41  -9.9526    209.6817     99.3269   1.5748711521e+01   1.8872658604e+01    0.1381114   0.09588134 -66.33 0.0004842099    1.679    0.404
        42 -10.8517    103.0794     95.8656   3.8374709178e+01   4.2985533310e+01    0.3826438    0.2537406 -52.68 0.0009790394    1.583    0.368
        43 -11.5720     64.7936     96.3305   5.2115219761e+01   5.0169658760e+01    0.3490096    0.2909025  45.52 0.0006475734    1.213    0.176
        44 -11.9917    236.8755     95.4157   1.1319082667e+01   1.4476012453e+01     0.270168    0.1665629 -38.98  0.001298098    1.358    0.264
        45  -9.4640      4.5132     95.9609   7.7503000046e+01   5.6661509825e+01    0.2075001   0.07138453 -52.24 0.0008092894    2.491    0.599
        46 -10.9204     16.0199     93.7636   7.2222309133e+01   5.6532892413e+01    0.2795328    0.2075502  16.05  0.001214141    1.447    0.309
        47 -10.0935     89.8908     94.1394   4.2244049721e+01   4.6119891593e+01    0.2388454    0.2128649  67.28 0.0006086057    1.189    0.159
        48  -9.6553    109.0000     89.0062   3.4577904472e+01   4.3201089674e+01    0.2632639   0.09046671 -45.56 0.0008129835    3.016    0.668
        49  -9.8451     96.9406     86.3170   3.7594459283e+01   4.6424931985e+01    0.2207694    0.1914752  41.26 0.0003387149    1.119    0.106
        50 -10.5696     11.9812     85.8055   7.2771701977e+01   5.8842470609e+01    0.2235966    0.1783587 -64.26 0.0003203169    1.139    0.122
        51 -12.0503    238.9024     82.5058   8.4495117032e+00   1.6032051125e+01    0.3961935    0.1418349 -48.17  0.001718888    2.503    0.600
        52  -9.7059    187.9978     82.7770   1.5213003570e+01   2.6113789872e+01      0.17951    0.1138208  60.02 0.0005983341    1.650    0.394
        53  -9.0352    160.4202     81.4455   1.9744214773e+01   3.2630933393e+01    0.1480778    0.1364159 -77.10 0.0001217532    1.038    0.037
        54 -11.8119     54.3315     78.6113   5.1642584664e+01   5.6111182405e+01    0.4173529    0.3045043  47.64  0.000720287    1.480    0.324
        55 -10.5410     78.0143     78.0189   4.1756816002e+01   5.2131292448e+01    0.2234881    0.2134588  31.38            0    1.011    0.011
        56  -9.4369     72.5221     78.0392   4.3888115503e+01   5.3169474421e+01    0.2131212    0.1501511 -50.42 0.0002940635    1.464    0.317
        57 -12.1372    154.6842     75.2965   1.9209944770e+01   3.5084199248e+01    0.3148738    0.2738639  53.56 0.0002085502    1.178    0.151
        58  -9.8627    143.8109     77.3741   2.2086309279e+01   3.7331302683e+01     0.213772    0.1357709  47.07 0.0007265268    1.604    0.377
        59  -9.7888     30.3041     75.9739   6.2070421450e+01   5.9805404040e+01    0.1987211    0.1740775 -53.18 0.0004847425    1.094    0.086
        60 -10.5432    134.5298     75.5174   2.3682244547e+01   3.9917736901e+01    0.1532395    0.1440635  80.95 0.0001521229    1.015    0.015
        61 -11.9401     95.3901     68.6364   3.2524984577e+01   5.0462434532e+01    0.4913441    0.3798501 -40.84  0.001323724    1.370    0.270
        62 -11.6485     64.1390     69.5847   4.4617320106e+01   5.6564134523e+01    0.2524082    0.2409171 -43.31 0.0003262085    1.092    0.084
        63 -12.1200      5.6895     65.3223   7.2304844950e+01   6.4280528415e+01     0.571104    0.3371147 -82.29  0.002873007    1.844    0.458
        64 -10.7824      3.6939     58.8582   7.2131453314e+01   6.5922717193e+01    0.2855583    0.2371753   7.92  0.001788065    1.280    0.219
        65  -9.1912     83.2895     68.2925   3.6618267176e+01   5.3145202833e+01    0.1484765    0.1185429   4.08  0.000209666    1.547    0.353
        66 -10.0341    151.9703     66.6838   1.7332171937e+01   3.7222004951e+01    0.2147408    0.1872861  72.25 0.0008407392    1.093    0.085
        67  -9.9072     46.9793     67.5169   5.1664339551e+01   5.9768266563e+01    0.2121961    0.1232745   1.08 0.0008102024    2.697    0.629
        68  -9.7731    204.5022     65.5011   8.7557615212e+00   2.5268009761e+01     0.225514    0.1021102 -46.78 0.0007670485    1.965    0.491
        69  -9.2556    192.1831     65.8235   1.0455292894e+01   2.7902640562e+01    0.1636956    0.1580405 -21.33 0.0003440384    1.252    0.201
        70 -10.3612     84.9781     63.8975   3.4498102782e+01   5.3673184085e+01    0.2204583    0.2083988  41.20  0.001203184    1.010    0.010
        71  -9.7153     74.8685     64.6064   3.8546933828e+01   5.5612130608e+01    0.2161454    0.1338391  52.03 0.0009338451    1.735    0.424
        72 -10.7868     99.6898     62.1006   2.8929669192e+01   5.0739030841e+01    0.3382655     0.258473 -73.01  0.001115913    1.670    0.401
        73  -9.8527     78.4657     62.5693   3.6442757510e+01   5.5299299119e+01    0.1487047      0.14009  41.93 0.0001316449    1.039    0.037
        74 -11.6156    230.5854     59.8938   4.6134290516e+00   2.0788665331e+01     0.400826     0.224719 -63.74  0.001346499    1.840    0.457
        75 -11.7399    248.6352     55.2801   2.0401628878e+00   1.8076079802e+01    0.5820873    0.2347846 -48.41  0.002977646    1.964    0.491
        76 -10.2128    125.0283     59.6858   2.1107818036e+01   4.5065013382e+01    0.2159255     0.181753  58.84 0.0004201411    1.114    0.102
        77  -9.7042    114.4743     60.5673   2.4103632944e+01   4.7503391091e+01    0.1519513    0.1405567  54.31 5.096533e-05    1.043    0.041
        78  -9.8851    152.4841     58.4852   1.4884496525e+01   3.8434362610e+01    0.1474514    0.1335896 -87.76 7.789467e-05    1.017    0.017
        79 -10.5490     65.5774     57.8397   3.9933227594e+01   5.8773695177e+01    0.3649412    0.1857988  54.55  0.001329687    2.655    0.623
        80 -11.0682     22.2325     57.8688   6.1501923588e+01   6.4881754166e+01    0.2351377    0.2135906  58.42 0.0005025665    1.315    0.239
        81 -10.4499     28.9790     57.0303   5.7546434515e+01   6.4402445103e+01    0.2338196     0.143829 -29.83  0.001130166    1.713    0.416
        82  -9.6901     78.0362     55.7091   3.4124398749e+01   5.6720051035e+01    0.2153707    0.1852801  39.57 0.0005170646    1.090    0.082
        83 -10.3780     44.2918     55.9714   4.9153101514e+01   6.2701578984e+01    0.3024208    0.2102471  58.68  0.001441145    2.002    0.501
        84  -9.6112     99.3906     55.2805   2.6642326539e+01   5.2039816615e+01    0.1954301    0.1419559 -50.69  0.000590013    1.521    0.342
        85 -10.7283     88.2040     48.7005   2.7834689127e+01   5.5760260360e+01    0.3876927    0.2715212  41.90  0.001254914    1.351    0.260
        86 -10.2131    146.5652     49.1336   1.3232884323e+01   4.1349395869e+01    0.2972127    0.1636446  48.93 0.0007250561    1.900    0.474
        87 -11.4946     94.0696     48.6096   2.5878962909e+01   5.4426411966e+01    0.2412485    0.2324869 -28.59 0.0002353626    1.126    0.112
        88 -10.4169     14.7854     48.3686   6.3064570208e+01   6.7657245096e+01    0.1781421    0.1139197  -2.52 0.0003595979    1.623    0.384
        89 -11.1655    249.0392     44.8722   3.5996231973e+02   1.9345933179e+01    0.3657262    0.1977398 -45.26  0.002174679    1.425    0.298
        90 -10.8347     39.1514     43.8225   4.7309434842e+01   6.5942181569e+01    0.3527762    0.2939284 -28.37   0.00206341    1.161    0.139
        91 -10.3649      6.4529     44.0984   6.7009752878e+01   6.9170669627e+01    0.3138952    0.1726728  43.26  0.001546052    2.326    0.570
        92 -10.5790    118.9967     42.4492   1.6824008687e+01   4.9306121153e+01    0.3335578     0.221718 -29.14 0.0008386061    1.735    0.424
        93 -10.6631    185.8389     41.4706   5.2236773982e+00   3.2859197687e+01    0.2335343    0.2057256 -68.09 0.0002698648    1.065    0.061
        94 -10.9549    225.8010     41.2006   1.0841800882e+00   2.4224628514e+01    0.2269108   0.09204921 -62.23 0.0009573322    2.862    0.651
        95 -10.5250    144.3168     40.9378   1.1156004726e+01   4.3097332535e+01    0.2748289    0.1662925  52.40  0.001283357    1.641    0.391
        96 -10.4185    107.1294     41.0379   1.9281094900e+01   5.2476889257e+01    0.2467645    0.1943128  56.17 0.0004343682    1.150    0.130
        97 -11.1370    158.9848     39.3105   8.2680085319e+00   3.9632937573e+01    0.2408758    0.2160411 -78.92 0.0002893362    1.045    0.043
        98 -10.3993     75.9375     39.9669   2.8748136544e+01   5.9932099741e+01    0.3556104    0.1979927  55.89   0.00149735    1.875    0.467
        99  -9.6616     96.1067     38.0750   2.1248664320e+01   5.5601892797e+01    0.2149064    0.1784697  36.16 0.0003644759    1.219    0.180
       100 -10.2854    129.9494     36.1878   1.2342431887e+01   4.7405839209e+01    0.2289933    0.2067917 -51.82 0.0003794068    1.182    0.154
       101 -11.8043     27.9443     33.8528   4.9709748609e+01   6.9375619234e+01    0.5396861    0.3893721  -1.58  0.002279843    1.395    0.283
       102 -11.8827     36.5770     29.3712   4.2512015585e+01   6.9022178982e+01    0.6357515    0.2820889  35.01  0.002536085    2.114    0.527
       103 -10.3104    173.3401     35.5734   5.2387509439e+00   3.6603438766e+01     0.319775     0.196918  50.44  0.001586338    1.856    0.461
       104  -9.5202      6.4980     36.5056   6.4751610659e+01   7.0822871383e+01    0.1257757    0.1076471 -28.27 -5.403062e-05    1.018    0.018
       105 -10.8338    119.1667     34.8141   1.4135213736e+01   5.0337906083e+01    0.2695276    0.2147781  53.61 0.0004024933    1.184    0.156
       106 -10.4204     39.3681     35.5317   4.3726579422e+01   6.7497511152e+01    0.4026627    0.1182684  37.17  0.001431923    3.200    0.687
       107 -10.7563    139.2992     33.1192   9.6073661644e+00   4.5422568539e+01    0.2689898     0.204926  57.15 0.0006923605    1.268    0.211
       108 -10.4291     48.4919     32.4690   3.7484854482e+01   6.6560294592e+01    0.2126672    0.1546339   6.49 0.0001366098    1.535    0.349
       109 -10.8223      4.2214     31.5520   6.4736359738e+01   7.2007698396e+01    0.3516472    0.1869811  37.13  0.001429288    2.269    0.559
       110  -9.9752    153.5093     32.0110   6.9732906256e+00   4.1959007272e+01    0.2136097    0.1693638  78.02 0.0004709543    1.128    0.114
       111  -9.7952    124.5338     31.9670   1.2012312275e+01   4.9346733852e+01    0.1926151    0.1430551 -33.91 0.0003379371    1.496    0.332
       112 -10.4660     92.4182     31.1049   1.9582192487e+01   5.7478497888e+01    0.2500457    0.1867956  61.20 0.0003206958    1.244    0.196
       113 -10.2669     17.3848     31.0295   5.5369109763e+01   7.1088435860e+01    0.2531705    0.1614625  35.85  0.001263189    1.739    0.425
       114 -10.1845     58.9886     29.8096   3.1240638280e+01   6.5045145010e+01    0.2529221    0.1891751  57.83  0.001348551    1.528    0.345
       115 -10.9169    153.3201     27.6764   5.7236872179e+00   4.2544382442e+01    0.2338698     0.206955  77.21 0.0002621866    1.096    0.088
       116  -9.6189    160.5085     27.0015   4.5403045533e+00   4.0826027223e+01    0.1854764    0.1299609 -39.03 0.0003818734    1.480    0.324
       117  -9.8489     76.9697     26.5005   2.2595534568e+01   6.1708978760e+01    0.1977326    0.1905588   4.44 0.0006390584    1.126    0.112
       118 -11.3177     47.2719     26.4928   3.5274950730e+01   6.7754480115e+01    0.3080237     0.223282   7.16  0.001667716    1.522    0.343
       119  -9.4715     60.5271     25.9821   2.8763580418e+01   6.5313307066e+01    0.1881678    0.1342811 -29.05 0.0006333385    1.525    0.344
       120  -9.7353     88.1259     24.7831   1.8246776074e+01   5.9338385120e+01     0.206313     0.184871  88.00 0.0006308128    1.228    0.186
       121 -10.8950    243.9822    180.4586   2.6614051266e+01   5.7953654769e-01    0.2130493    0.1438681 -42.97 0.0009367843    1.592    0.372
       122  -9.7821    128.9853     23.9979   8.4591859398e+00   4.9188152315e+01    0.2098816     0.182608  78.27 0.0003242683    1.001    0.001
       123 -10.5905     98.4946     22.7881   1.4556986010e+01   5.7061207349e+01    0.2585662    0.2173137  61.41 0.0005544976    1.047    0.044
       124 -10.3975     38.2465     22.4503   3.8150230574e+01   6.9922368965e+01    0.2417483    0.1969584 -41.16 0.0005148897    1.407    0.290
       125  -8.8566     84.6920     20.3215   1.7362091020e+01   6.0705122686e+01     0.135506    0.1052938 -78.23 0.0003834122    1.643    0.391
       126 -10.3385     67.7499     19.8492   2.2889891145e+01   6.4630840667e+01    0.2944528    0.1817943  24.62   0.00139929    1.951    0.488
       127  -9.7702     55.4310     19.7216   2.7945570381e+01   6.7219380615e+01    0.2282379    0.1266413 -38.79 0.0009006799    2.029    0.507
       128 -10.2931     24.4660     19.9691   4.5466698405e+01   7.2333581095e+01    0.2230338    0.1214193 -49.28  0.000371934    2.066    0.516
       129  -9.4236     48.5669     19.5193   3.1103236424e+01   6.8569853369e+01    0.1322448    0.1148359  22.36 6.605547e-05    1.012    0.012
       130  -9.7313    108.6445     18.3182   1.0423094508e+01   5.5029737357e+01     0.145923   0.09980442 -75.17 1.243631e-05    1.751    0.429
       131  -9.8890     73.6395     15.9609   1.8918030724e+01   6.3790662075e+01    0.2044378    0.1598397  12.07 0.0005653619    1.444    0.308
       132  -9.7148     66.0011     16.2861   2.1824176643e+01   6.5455334707e+01    0.1925803    0.1547937  46.27 0.0002061074    1.088    0.081
       133  -9.8881     19.8629     15.8860   4.6539934286e+01   7.3599930025e+01    0.1962357    0.1454406  -9.87 0.0005830738    1.247    0.198
       134  -9.1770      1.2652    181.3367   8.4955632416e+01   3.5051330298e+01    0.1207644   0.08900833 -54.22 0.0002981967    1.589    0.371
       135  -9.8715     20.8075    174.7901   7.9202189441e+01   3.5013631698e+01    0.2169613    0.1704249 -84.62 0.0007750569    1.216    0.178
       136  -9.7009     85.2833     15.8508   1.5227812850e+01   6.1078945704e+01    0.3525243   0.07400934  57.80  0.001084892    3.666    0.727
       137 -10.3459     21.5977    170.0904   7.8621596250e+01   3.6117204104e+01    0.2295949    0.2183273  -4.64  0.000575486    1.265    0.209
       138 -11.2146    224.4806    173.1956   2.8403087663e+01   4.2571353784e+00    0.2700197     0.184035 -52.77  0.001497743    1.935    0.483
       139  -9.2276      6.7183     15.6973   5.6537166952e+01   7.4964834382e+01    0.1256089   0.07550117 -23.61 0.0001879083    1.552    0.356
       140  -9.3669    177.0099     24.0425   1.7531048702e+00   3.7144337702e+01    0.1607807    0.1347801 -61.24 0.0009022288    1.117    0.105
       141 -10.6053     63.3341    162.9678   6.5310050289e+01   3.3121834776e+01     0.258318    0.1948193  44.81 0.0003641733    1.233    0.189
       142  -9.1685      7.3580    159.2374   8.2043317693e+01   4.0053432710e+01    0.1242117   0.09607189 -35.28 0.0003373774    1.585    0.369
       143  -9.7898    151.3132     13.3340   1.7460594672e+00   4.4665191252e+01    0.1334589   0.09465508  44.45  0.000704553    1.684    0.406
       144  -9.6268    120.0268     12.9959   6.2458464451e+00   5.2686370061e+01    0.2155337    0.1427432  43.96 0.0004833738    1.614    0.380
       145  -9.3452     39.6660     12.2742   3.1842992295e+01   7.1187937849e+01    0.1160386     0.100515  65.33 0.0005432717    1.600    0.375
       146  -9.6220      3.4540    156.4810   8.3037379576e+01   4.1032202997e+01    0.1324013    0.1133931  75.50 5.432036e-05    1.007    0.007
       147  -9.3632     79.0778     11.7863   1.5219715498e+01   6.2991721431e+01    0.1840744   0.09761561  60.40 0.0008568741    1.662    0.398
       148  -9.9006     40.0980    147.8331   7.0668410164e+01   3.9993845390e+01    0.2260192    0.1778319  63.27 0.0004833331    1.239    0.193
       149 -10.5170     24.8413    146.4732   7.5523162227e+01   4.1909412044e+01    0.3827087    0.2232107   4.51  0.001434036    2.232    0.552
       150  -9.4882    135.5142    143.4932   4.0850840277e+01   2.5360259904e+01    0.1522539    0.1478219  36.14 0.0001422492    1.015    0.015
       151  -9.6334      7.2067    143.0011   8.0963022551e+01   4.4232608298e+01    0.1872612   0.09753931 -80.19 0.0008702921    1.744    0.427
       152  -9.1956      1.6678    141.3073   8.2631094584e+01   4.5030837669e+01    0.1436694   0.08293428  57.27 0.0004720274    1.666    0.400
       153 -11.3662    245.8588    138.1018   1.8594778437e+01   6.5659860883e+00    0.1846236    0.1447935 -47.02  0.001085292    1.288    0.224
       154 -10.1725     28.8990    138.0975   7.3246023519e+01   4.3742101115e+01    0.2069037     0.194968 -87.86 0.0004069358    1.039    0.038
       155  -9.4385     43.1619    134.8139   6.7867685520e+01   4.3099899459e+01     0.188492    0.1644574 -37.43 0.0002526272    1.258    0.205
       156  -9.8825     11.2069    134.1875   7.8908940716e+01   4.6254630742e+01     0.193008    0.1426195  59.85 0.0009750958    1.316    0.240
       157 -10.3254     18.0643    132.4400   7.6368724341e+01   4.6197878666e+01     0.328715    0.1700255  47.32  0.001168289    1.937    0.484
       158 -12.0456    236.0609    130.2001   1.8415121592e+01   9.2591701786e+00    0.4269513    0.2020588 -27.36  0.001948259    2.380    0.580
