#   1 NUMBER                 Running object number                                     
#   2 MAG_AUTO               Kron-like elliptical aperture magnitude                    [mag]
#   3 X_IMAGE                Object position along x                                    [pixel]
#   4 Y_IMAGE                Object position along y                                    [pixel]
#   5 X_WORLD                Barycenter position along world x axis                     [deg]
#   6 Y_WORLD                Barycenter position along world y axis                     [deg]
#   7 A_WORLD                Profile RMS along major axis (world units)                 [deg]
#   8 B_WORLD                Profile RMS along minor axis (world units)                 [deg]
#   9 THETA_WORLD            Position angle (CCW/world-x)                               [deg]
#  10 FWHM_WORLD             FWHM assuming a gaussian core                              [deg]
#  11 ELONGATION             A_IMAGE/B_IMAGE                                           
#  12 ELLIPTICITY            1 - B_IMAGE/A_IMAGE                                       
         1 -14.8082    134.4853    146.9607   1.1569462391e+02   2.7097074226e+01     1.515761    0.5083165 -56.65  0.004998447    4.631    0.784
         2 -14.9084    161.3599     42.8525   8.1834298940e+01   3.9634064709e+01     1.446537     1.051892 -14.04  0.003868143    1.397    0.284
         3 -14.6291    174.2101      9.9557   6.7863135284e+01   4.0142627841e+01     1.190703     1.047377  10.78  0.003963668    1.124    0.110
         4 -11.8416    189.8532     14.6880   6.7366162909e+01   3.5498714676e+01    0.2646977     0.200809  -0.54 0.0008387032    1.367    0.268
         5 -12.0286    198.4931      7.4903   6.3936513830e+01   3.3880532571e+01    0.2614606    0.1406684  89.11  0.001039496    2.355    0.575
         6 -10.7623     28.8166    242.3831   1.4417135836e+02   2.5222499743e+01    0.1960585    0.0583766 -82.62  0.001153486    3.658    0.727
         7 -20.0877     77.8428    175.5399   1.3144223760e+02   3.0467758372e+01     13.74578     5.722939 -68.16   0.07140291    2.550    0.608
         8 -12.6219    163.7863    203.0624   1.1879640362e+02   1.3438292988e+01    0.2872232    0.2000525  52.30 0.0007293766    1.365    0.267
         9 -12.4390    154.0083    195.5023   1.1949309086e+02   1.6024474181e+01    0.3635157    0.2361159  76.87   0.00191052    2.753    0.637
        10 -12.7706    157.2525    201.3342   1.1970796441e+02   1.4703832187e+01    0.4337067    0.2821674  67.37  0.002122876    2.169    0.539
        11 -11.1014    139.4550    201.0690   1.2282970180e+02   1.7513533351e+01    0.2056936    0.1775417  76.23 0.0005733715    1.297    0.229
        12 -10.7816    136.1348    196.7549   1.2288466867e+02   1.8650857076e+01    0.2781258    0.1864652  80.15  0.001627951    2.195    0.544
        13 -11.4656     16.4639    250.1150   1.4617251006e+02   2.5311985207e+01    0.1097771    0.0645557  84.43 0.0009939095    1.484    0.326
        14 -10.5692    150.9139    243.0330   1.2561708337e+02   1.0474713110e+01    0.1409525    0.1035444  22.11 0.0005164491    1.574    0.365
        15 -13.9258    207.2203    178.0328   1.0729518937e+02   9.3589630027e+00    0.7752329    0.5011385 -36.04  0.004582074    1.818    0.450
        16 -12.3389    203.6179    172.2193   1.0688477125e+02   1.0714939595e+01     0.450883    0.3347914  -7.52  0.002770342    1.438    0.305
        17 -12.0527     31.6722    184.2183   1.4087515822e+02   3.4075707063e+01    0.4424856    0.1981991  75.92  0.002340314    2.185    0.542
        18 -11.3221     27.6071    179.8240   1.4134577025e+02   3.5238763940e+01    0.2251975     0.183805 -30.72  0.001736193    2.158    0.537
        19 -10.5036     24.9945    185.4867   1.4214351705e+02   3.4484051363e+01    0.1410771      0.10326  83.32 0.0003794431    1.127    0.113
        20 -10.9616     21.7253    239.9812   1.4509778551e+02   2.6225947554e+01    0.1124503   0.07417651  78.03  0.001032106    1.245    0.197
        21 -12.3964    200.2856    179.9695   1.0883514896e+02   1.0324013317e+01    0.3332886    0.2296726 -63.15  0.001722735    2.907    0.656
        22 -13.5704    195.7047    170.5789   1.0799142957e+02   1.2338820449e+01    0.5176271    0.3773401 -37.78  0.001890121    1.609    0.378
        23 -12.1636    193.8064    165.5810   1.0742217840e+02   1.3351902528e+01    0.3122435    0.2374808  30.78  0.001048213    1.132    0.117
        24 -14.0229    123.7235    166.9708   1.2118927353e+02   2.5371520124e+01     1.053531    0.5026986  62.57  0.003486404    3.469    0.712
        25 -13.8502    138.7031    171.7976   1.1893553497e+02   2.2118311007e+01    0.6061907    0.4267656  62.55  0.002781372    1.546    0.353
        26 -11.0019    219.3033    177.3459   1.0511657603e+02   7.3492510030e+00     0.129618   0.08043045  15.18 0.0002731172    1.689    0.408
        27 -13.6045    177.7056    171.6204   1.1145568334e+02   1.5409271846e+01     0.478669    0.4147302 -19.14  0.003166597    1.281    0.219
        28 -14.6266    143.0018    168.1581   1.1752514684e+02   2.1991289115e+01     0.919934    0.5371444  62.76  0.004525869    2.256    0.557
        29 -11.3255     26.1153    172.9469   1.4120016159e+02   3.6616295520e+01    0.2335547    0.1565199  78.88  0.001113749    1.172    0.147
        30 -11.7500    201.2107    164.7898   1.0594264359e+02   1.2108880837e+01    0.4137652    0.2743278 -42.99  0.001826165    1.875    0.467
        31 -11.0027    222.4619    161.6625   1.0164597495e+02   8.6441213965e+00    0.2278476    0.1934625 -57.89  0.000783425    1.860    0.462
        32 -10.7327     17.6883    158.7057   1.4193067648e+02   4.0011495128e+01    0.2483287    0.1473686  24.57  0.001660667    2.284    0.562
        33 -11.1786     17.8393    154.5176   1.4163263645e+02   4.0799394604e+01    0.2908667    0.1363612 -86.99  0.001493407    1.823    0.451
        34 -12.7116    164.2288    157.3977   1.1150280752e+02   1.9975999360e+01    0.3088443    0.2225436  35.58  0.001000294    1.274    0.215
        35 -11.2530    131.2068    236.9238   1.2812900525e+02   1.3923529141e+01    0.1909371    0.1336374 -54.99 0.0007646283    1.909    0.476
        36 -10.1358    192.3277    153.3005   1.0534695906e+02   1.5337439785e+01    0.1372496   0.09311119  16.88 0.0003491443    1.640    0.390
        37 -10.5808      7.6135    237.4988   1.4702119687e+02   2.7839788308e+01   0.08879437   0.05392065  64.93  0.000161207    1.077    0.072
        38 -11.6781    138.9973    250.2153   1.2814707879e+02   1.1293507169e+01    0.2105564    0.1405327  36.66  0.001652609    1.282    0.220
        39 -10.8697    140.2106    230.5990   1.2605419905e+02   1.3453055684e+01    0.2591451     0.155937  69.23  0.001597549    2.383    0.580
        40 -12.3656    174.0101    149.0903   1.0800831409e+02   1.9453283622e+01     0.307694    0.3019371 -39.27  0.001492452    1.184    0.155
        41 -10.3772     30.0170    232.5407   1.4359886622e+02   2.6504232047e+01    0.1277021   0.06623022  45.78 0.0007645991    1.498    0.332
        42 -11.3592     27.4030    145.6049   1.3899709761e+02   4.1715891748e+01    0.2087876    0.1662426 -72.15 0.0008934987    1.285    0.222
        43 -14.2188    135.7895    127.7288   1.1169499174e+02   3.0398151923e+01      2.49679    0.3242958 -48.77  0.005022215   10.301    0.903
        44 -11.5715    174.2113    140.6478   1.0626325971e+02   2.0746914512e+01     0.176806    0.1734771  33.70 0.0007642588    1.136    0.120
        45 -11.0799    138.3694    243.8425   1.2765409416e+02   1.2111708052e+01    0.2106251    0.1794303 -68.38  0.001794151    1.583    0.368
        46 -10.5334     16.7717    225.7975   1.4530802416e+02   2.8731064785e+01   0.06802502   0.05601967  66.01 0.0002635842    1.329    0.248
        47 -12.7753    160.5999    128.0337   1.0635614961e+02   2.5539554596e+01    0.3629391    0.3238665 -56.14  0.001744337    1.267    0.211
        48 -12.0015    141.0822    121.0666   1.0907441105e+02   3.0640143619e+01    0.3689097    0.2475457  86.87   0.00154244    2.757    0.637
        49 -10.4768     22.8821    156.1954   1.4072872886e+02   4.0044508535e+01    0.1569122    0.1086273  71.34 0.0004170767    1.159    0.137
        50 -12.3865     22.5371    220.6288   1.4423356101e+02   2.8981227457e+01    0.1827119    0.1239496 -75.56  0.001394441    1.636    0.389
        51 -11.2969     23.6771    215.2066   1.4382641301e+02   2.9708860286e+01    0.1169449   0.08665355  79.11 0.0004769959    1.177    0.150
        52 -13.1059     11.4623    206.0294   1.4538070839e+02   3.2256358072e+01    0.3339178    0.2003502  35.24    0.0021661    1.853    0.460
        53  -9.7619     22.7602    205.1445   1.4352112070e+02   3.1389277317e+01     0.157482    0.1164939 -38.77  0.001186103    2.673    0.626
        54 -10.8468    205.3362    110.2339   9.3310728767e+01   1.8964602867e+01    0.3034895    0.1890215  41.88 0.0009533074    1.539    0.350
        55 -12.6623    155.1191    190.1103   1.1853558054e+02   1.6610618971e+01     0.287575    0.2125918  52.20  0.001872187    1.259    0.205
        56 -12.5669    153.8528    185.6576   1.1812307537e+02   1.7464278899e+01    0.2332926    0.2163926  73.17  0.001613081    1.229    0.186
        57 -14.5718    143.3651    144.1549   1.1329532217e+02   2.6009273798e+01     1.062208    0.4668378 -55.56  0.004269051    3.027    0.670
        58 -13.1667    161.4863    197.5454   1.1844116769e+02   1.4541950958e+01    0.3405001    0.2839777  67.57   0.00234213    1.415    0.293
        59 -10.5600    143.4322     80.2700   9.8028189617e+01   3.7784386478e+01    0.2083831    0.1387546 -46.60 0.0009396778    1.564    0.361
        60 -14.4785    150.2832     57.3936   8.9195192273e+01   4.0169025556e+01     1.252369     1.015521  16.00  0.001020002    1.313    0.238
        61  -9.8351    133.4845    249.3698   1.2891497461e+02   1.2128239536e+01    0.1035449     0.081445  60.53 0.0002030069    1.254    0.203
        62 -13.1307    165.1096     34.2546   7.8074817914e+01   3.9831216085e+01    0.4868575    0.3930506 -13.78 0.0008165255    1.214    0.176
        63 -10.6604     13.6629     59.9207   1.3247898573e+02   6.1188522706e+01    0.1681377    0.1190106 -71.16 0.0004718529    1.114    0.103
        64 -11.1250    133.9466    245.1715   1.2846557321e+02   1.2555775518e+01     0.135803     0.112654  46.27  0.000395763    1.162    0.140
        65 -12.7050    125.1253    242.8491   1.2963046644e+02   1.4017698703e+01    0.3218178     0.141047 -52.49  0.001829291    3.079    0.675
