#   1 NUMBER                 Running object number                                     
#   2 MAG_AUTO               Kron-like elliptical aperture magnitude                    [mag]
#   3 X_IMAGE                Object position along x                                    [pixel]
#   4 Y_IMAGE                Object position along y                                    [pixel]
#   5 X_WORLD                Barycenter position along world x axis                     [deg]
#   6 Y_WORLD                Barycenter position along world y axis                     [deg]
#   7 A_WORLD                Profile RMS along major axis (world units)                 [deg]
#   8 B_WORLD                Profile RMS along minor axis (world units)                 [deg]
#   9 THETA_WORLD            Position angle (CCW/world-x)                               [deg]
#  10 FWHM_WORLD             FWHM assuming a gaussian core                              [deg]
#  11 ELONGATION             A_IMAGE/B_IMAGE                                           
#  12 ELLIPTICITY            1 - B_IMAGE/A_IMAGE                                       
         1 -13.8543    244.8169    157.9413   8.8669321674e+01   1.1604236230e-01     2.596075    0.8966021 -46.58  0.009030417    3.191    0.687
         2 -13.1297    194.1780     31.6440   6.7175148586e+01   3.2912413884e+01     1.124239    0.8184918  47.30  0.006099788    1.511    0.338
         3 -14.0431    206.9935     14.8480   6.1557708875e+01   3.1761759527e+01     1.517771     1.085288  34.74  0.008386753    2.002    0.500
         4 -12.5201      2.2531      5.3232   1.1434084521e+02   7.2056518738e+01    0.6203765     0.350964 -33.11  0.004449439    1.366    0.268
         5 -10.9934    189.8865     15.6175   6.3757341694e+01   3.5835544098e+01    0.2414192    0.1841289 -54.09 0.0008261425    1.367    0.269
         6 -10.1854    205.2814    250.4408   1.1386107135e+02  -8.0288651580e+00    0.2454515    0.1025444  35.20 0.0008153457    2.041    0.510
         7 -10.9280    184.6773    250.2933   1.1786105479e+02  -4.5848798235e+00    0.4242868    0.1515462  42.52  0.001638251    2.343    0.573
         8 -10.7626    169.8167    248.3809   1.2052063014e+02  -1.7421972218e+00    0.3492238    0.2417159   5.51 0.0008087148    2.065    0.516
         9 -11.4830    149.9775    248.4146   1.2448824908e+02   1.6932185957e+00    0.4077989    0.3261881  71.36  0.002485252    1.425    0.298
        10 -10.8920    122.3150    232.9231   1.2802291279e+02   9.3078897508e+00    0.4061644     0.316719 -53.35  0.002387653    1.515    0.340
        11 -11.5366    134.1763    249.1487   1.2773384882e+02   4.2889152040e+00    0.5559704    0.2812454  43.68  0.002680281    1.607    0.378
        12 -11.2971    125.3251    248.9468   1.2946097712e+02   5.8269845856e+00    0.6029073    0.2938864  35.68  0.002844065    2.019    0.505
        13 -12.5640    124.4920    241.8418   1.2873785090e+02   7.2542934702e+00    0.9037581    0.6046321  25.84  0.004741885    1.886    0.470
        14 -11.1142    116.4211    238.9565   1.3000445040e+02   9.1634895631e+00    0.4660653    0.3241337 -32.37  0.002054356    2.345    0.574
        15 -10.3546    102.9340    247.1119   1.3363777668e+02   9.8547471107e+00    0.3222319    0.2327856 -58.25  0.001689474    1.654    0.395
        16 -10.9681     98.6678    246.9715   1.3444975938e+02   1.0562058133e+01    0.4971121    0.3019934  65.76  0.002743098    1.601    0.375
        17 -10.7089    115.2334    250.5361   1.3163085002e+02   7.2256842387e+00     0.487443    0.1560767  42.43  0.001446413    2.523    0.604
        18 -11.4473    109.6128    247.2646   1.3235196094e+02   8.7437531389e+00    0.5139335    0.3477684 -76.38  0.002131663    1.697    0.411
        19  -9.5908     84.1100    242.1071   1.3675154812e+02   1.3749249076e+01    0.2763404    0.1804354 -75.70  0.001632394    1.594    0.373
        20  -9.2633     82.6222    238.4106   1.3666267474e+02   1.4696080218e+01    0.3265543    0.1020031  41.38  0.001338467    2.721    0.633
        21 -10.6433     81.4486    246.2012   1.3766546355e+02   1.3363614456e+01    0.5353014    0.3031949  79.00  0.002840122    1.973    0.493
        22  -9.7846     89.1997    250.6745   1.3664180027e+02   1.1347859370e+01    0.3136128    0.1123469  37.56 0.0006023627    2.795    0.642
        23 -10.6429     88.2163    247.4942   1.3650973236e+02   1.2093769558e+01    0.4174323    0.2705693  37.77  0.001950873    1.594    0.373
        24 -12.5691     62.5696    244.6941   1.4104656972e+02   1.6372043015e+01     1.671125    0.6489509  39.37  0.007412687    2.419    0.587
        25 -11.8936     63.1600    221.5339   1.3879409063e+02   2.0968692799e+01    0.8853589    0.4224422 -78.76  0.003900486    2.207    0.547
        26 -13.7524      2.6278    190.0710   1.4809030900e+02   3.4549544475e+01     3.006423    0.3286393 -72.68  0.009573922    5.547    0.820
        27 -14.1815      9.9214    209.7728   1.4806288894e+02   2.9707595939e+01     2.147342     1.072294 -71.64   0.01289399    1.709    0.415
        28 -14.4878     29.7875    245.2427   1.4688637544e+02   2.0451789983e+01     2.093336     1.249199  50.37   0.01395752    1.439    0.305
        29 -13.9130      5.8787    245.3465   1.5082636607e+02   2.3050658508e+01     1.206925    0.6226405  79.67  0.007977437    1.504    0.335
        30 -12.8448     13.6826    238.8099   1.4920253010e+02   2.3484161602e+01    0.6525158    0.2667387  57.83  0.003746426    1.956    0.489
        31 -13.0442     38.3782    228.5466   1.4417903416e+02   2.2727998499e+01    0.5868821     0.362233  53.93  0.001938639    1.379    0.275
        32 -14.7546     44.6760    218.7886   1.4218120551e+02   2.3979067498e+01     1.919579      1.46868 -52.69  0.008761575    1.745    0.427
        33  -9.6449    136.5094    227.5018   1.2429949115e+02   7.8459327512e+00    0.2023344    0.1868775 -43.62  0.001100438    1.299    0.230
        34 -11.3965    135.4008    241.1680   1.2644113306e+02   5.4953853378e+00    0.5068378    0.3366857  13.31  0.001872089    2.601    0.616
        35 -11.4196    135.5939    236.2273   1.2572820009e+02   6.3649729768e+00    0.4689965    0.3316831  29.38   0.00156403    1.535    0.349
        36 -11.2224    134.0929    232.3994   1.2550611455e+02   7.3450531732e+00    0.3066633    0.2683799 -52.22 0.0007629763    1.354    0.261
        37  -9.6704     77.8993    233.0472   1.3703608647e+02   1.6472847872e+01    0.3266286    0.1834255 -86.22  0.001340008    1.987    0.497
        38 -11.7854     96.3572    240.6171   1.3420786357e+02   1.2135582688e+01    0.5669486    0.4909902 -24.10  0.002938744    1.824    0.452
        39 -11.4874     90.1834    238.7896   1.3522366961e+02   1.3461204762e+01    0.4954064    0.3349292  89.31  0.001737675    1.541    0.351
        40 -11.4262    104.5974    237.9254   1.3226242759e+02   1.1326666516e+01     0.616665    0.3806244 -38.79  0.003020773    2.679    0.627
        41 -10.2806     84.7016    234.1384   1.3580724577e+02   1.5227076905e+01    0.3392733    0.1955492  84.56  0.001715153    2.036    0.509
        42 -10.2443     84.6546    229.4851   1.3531272479e+02   1.6173216485e+01    0.2495614    0.2285322  18.71  0.000830935    1.546    0.353
        43 -11.1494     98.5269    231.7826   1.3276581680e+02   1.3521319810e+01    0.3990992    0.2735388 -81.03 0.0007171029    1.568    0.362
        44 -11.0522    112.6627    230.2182   1.2966882512e+02   1.1489344322e+01     0.401134    0.3337607  21.19  0.001716884    1.556    0.357
        45 -11.4499    105.6702    228.8295   1.3094139889e+02   1.2940415962e+01    0.6063224    0.3564195  48.92   0.00302405    1.451    0.311
        46 -11.1113     79.4527    226.4336   1.3602897708e+02   1.7589625869e+01    0.4863889    0.3042184 -72.41  0.001383502    1.615    0.381
        47 -10.5313     77.3350    220.8412   1.3584859442e+02   1.9073883679e+01    0.2370668    0.1913517  73.96 0.0004794728    1.036    0.035
        48 -11.8098    245.2787    241.8443   1.0488340083e+02  -1.3041935499e+01    0.2731467    0.1816738 -26.01  0.001693618    1.502    0.334
        49 -10.9914    172.8134    239.6880   1.1860602806e+02  -8.5144036309e-01    0.3805982    0.2249044 -53.99  0.001924295    2.182    0.542
        50 -14.2334      9.3310    140.6720   1.4221793390e+02   4.5058969155e+01     1.670974     1.104465 -81.38   0.01051485    1.253    0.202
        51 -10.5991    165.0484    242.1952   1.2056209666e+02   1.0175840929e-01    0.1985074    0.1919497  16.19 0.0004834277    1.176    0.149
        52 -10.2635    165.5868    235.2554   1.1939684646e+02   1.1851108681e+00    0.2318085    0.1348915 -53.00  0.001143442    2.112    0.526
        53  -9.1962    156.0301    236.5196   1.2155689627e+02   2.6778811196e+00    0.2078602    0.1147044  41.96 0.0004397899    1.526    0.345
        54 -13.7304     11.5580    153.9900   1.4310519562e+02   4.1851787456e+01      1.62525    0.3380638 -64.95  0.006362101    3.166    0.684
        55  -9.4539    162.6182    233.3207   1.1970995862e+02   2.0562820496e+00    0.1415635   0.09791376  65.53 6.976286e-05    1.832    0.454
        56 -10.8896    156.7856    231.5691   1.2065144184e+02   3.4226124671e+00    0.2295037    0.2227864  49.36 0.0003107475    1.138    0.121
        57  -9.5033     62.9917    233.1632   1.3994194872e+02   1.8592875168e+01    0.1652037    0.1479254  63.64 0.0003641699    1.278    0.218
        58  -8.9854     92.4559    232.5143   1.3407936648e+02   1.4345760185e+01    0.1302318    0.1077001  64.65 5.105729e-05    1.027    0.026
        59 -10.4315    141.8689    230.1436   1.2355735804e+02   6.3810837256e+00    0.3591386    0.2250014 -35.98   0.00174209    2.208    0.547
        60  -8.9660    180.6924    229.3053   1.1533015514e+02  -5.1600104197e-01     0.130372    0.1025993  65.65 0.0002090993    1.607    0.378
        61 -11.1657    245.7043    227.6991   1.0230429359e+02  -1.1195532332e+01    0.2189541    0.1946813  84.82  0.001359291    2.079    0.519
        62  -9.7618    197.6060    226.6359   1.1142136946e+02  -3.0969492629e+00    0.2656049     0.218093  70.08  0.001314555    1.718    0.418
        63 -10.0227    165.8779    226.5524   1.1795917513e+02   2.6649625805e+00    0.3014155    0.2169727 -89.96  0.001464789    2.237    0.553
        64 -10.6122    132.4924    224.5149   1.2471644611e+02   9.1465841729e+00    0.2714722    0.2689976  84.07  0.001376397    1.188    0.159
        65 -10.2206    129.1793    221.0753   1.2492294082e+02   1.0422246186e+01    0.2650964     0.220633  71.34  0.001389821    1.196    0.164
        66 -11.0353     99.2915    223.4733   1.3160138351e+02   1.5082861168e+01    0.4285586     0.273715  61.63 0.0001487865    1.474    0.322
        67 -10.3649     92.5640    225.9754   1.3330196831e+02   1.5654283374e+01    0.2970414    0.1775704  44.98 0.0006189303    1.480    0.324
        68  -9.6477    146.8700    225.3827   1.2178866860e+02   6.3708974879e+00    0.1802559    0.1575128  16.14  0.000162049    1.314    0.239
        69 -10.8426    138.2156    214.2230   1.2192075641e+02   1.0149238884e+01    0.4999472    0.3522685  36.78  0.001376336    1.360    0.265
        70 -11.1344    141.9408    221.6364   1.2226625884e+02   7.9928730594e+00    0.2974961    0.2667869  15.30  0.000244326    1.297    0.229
        71 -10.1780    145.3043    221.6970   1.2155429166e+02   7.3628098613e+00    0.2473004    0.1845773  64.47 0.0004752649    1.436    0.304
        72 -10.6862    117.2055    224.3178   1.2793641320e+02   1.1886663241e+01    0.2759198     0.216348  41.09 0.0003503419    1.229    0.187
        73 -10.6323    160.0731    223.6293   1.1871107008e+02   4.2677482773e+00    0.2970929    0.1927413  25.99 0.0009359099    1.726    0.421
        74 -11.3360     72.9451    210.0116   1.3554352695e+02   2.2049019497e+01    0.4336826    0.2964116  25.18  0.001693431    2.023    0.506
        75  -9.6422     67.7437    214.6535   1.3714980430e+02   2.1790893591e+01    0.2276734    0.1681315 -71.95 0.0005081489    1.333    0.250
        76 -10.4857    245.6814    220.8747   1.0106305920e+02  -1.0224147711e+01    0.2527666    0.1037042 -29.90  0.001103632    2.592    0.614
        77  -9.7592    111.0685    221.5424   1.2886455513e+02   1.3507638735e+01    0.3080615    0.1686667 -59.06  0.001453098    1.991    0.498
        78  -9.6075    104.8752    218.6883   1.2980578574e+02   1.5148933848e+01    0.1964231     0.178391 -76.13 0.0002439437    1.208    0.172
        79 -10.0422     99.7393    217.3215   1.3072513616e+02   1.6291963123e+01    0.2712517    0.1895735 -46.30 0.0009028952    1.820    0.450
        80  -8.7399    119.3381    216.8782   1.2643937861e+02   1.3029538976e+01    0.1798604    0.1251027 -48.48 0.0003382578    1.689    0.408
        81  -9.0281     93.8041    217.0015   1.3195039678e+02   1.7328721179e+01    0.2232139    0.1347152  79.72  0.001057925    1.998    0.500
        82 -11.0673    128.5783    234.6278   1.2695664145e+02   7.8942107199e+00     0.481222    0.2544982  58.70  0.001464437    2.070    0.517
        83  -8.9172    175.6962    216.3280   1.1417017051e+02   2.6927833090e+00    0.1372985    0.1086066  72.30 0.0003785733    1.648    0.393
        84  -9.8593     88.1404    212.8302   1.3263853165e+02   1.9125280001e+01    0.2534413     0.180289 -76.94 0.0005735643    1.403    0.287
        85 -10.0007    102.2422    212.2987   1.2951905145e+02   1.6942685881e+01    0.3723199     0.185015  65.37   0.00145772    2.765    0.638
        86 -10.4609    107.3298    209.2556   1.2798077282e+02   1.6732481159e+01    0.3884022     0.269161 -35.34  0.001453263    2.123    0.529
        87 -10.7728    112.5821    208.3335   1.2668432722e+02   1.6019264723e+01    0.3055694    0.2371198  42.80 0.0003476222    1.236    0.191
        88  -9.1496    134.7499    208.2110   1.2172892210e+02   1.2025389470e+01      0.19228    0.1689302  12.54 0.0009636991    1.383    0.277
        89  -9.1577     28.6291    208.2782   1.4441354963e+02   2.8097699909e+01    0.1280885   0.06875695  66.06 0.0002151148    1.690    0.408
        90 -11.3091    247.3586    205.8474   9.7927787158e+01  -8.2566175067e+00    0.4515306    0.2716959  19.59  0.002318384    1.800    0.445
        91  -9.5327    102.6506    195.7614   1.2706508789e+02   2.0511118819e+01    0.2038654    0.1354822 -60.63 0.0004375299    1.541    0.351
        92 -11.9875     93.3611    202.7139   1.3017257523e+02   2.0505371390e+01    0.5660027     0.481227 -78.02   0.00334684    1.164    0.141
        93  -9.8457     98.2300    196.9433   1.2825500906e+02   2.0993172616e+01    0.5248921    0.2342656  54.12  0.001626664    2.393    0.582
        94  -8.9818     32.9085    207.0211   1.4346945551e+02   2.7891223646e+01    0.1644221    0.1259086 -57.88 0.0004633615    1.580    0.367
        95  -9.1190    125.4763    205.3135   1.2334233864e+02   1.4351843698e+01     0.188552    0.1369988 -75.80 0.0009436168    1.576    0.366
        96  -9.0099    149.3817    204.2853   1.1780979357e+02   1.0057582163e+01    0.1469613    0.1126194  10.67 0.0007012284    1.733    0.423
        97  -9.9071    166.9872    203.2321   1.1372274258e+02   6.8474451055e+00    0.2001611    0.1704073  43.31  0.001086134    1.076    0.070
        98  -9.7552    102.6828    202.7191   1.2808254530e+02   1.8952683383e+01    0.4199935    0.2198115  52.34  0.001740295    1.827    0.453
        99 -10.7196     70.4876    218.4829   1.3699629328e+02   2.0578200265e+01     0.485878    0.2688439 -75.57  0.002303832    1.807    0.447
       100 -10.4871     32.6771    201.8554   1.4306712115e+02   2.9040456000e+01    0.1977387    0.1621767  73.48 0.0003273536    1.112    0.101
       101 -10.0870    115.1094    200.2816   1.2490149625e+02   1.7321444149e+01    0.2347065    0.1958621 -81.22 0.0002249987    1.227    0.185
       102  -9.5947    196.9779    200.4943   1.0676968868e+02   1.5451196770e+00    0.2226224    0.1317269  39.89 0.0005610489    1.572    0.364
       103  -8.8059    183.1473    200.3945   1.0968293459e+02   4.2374582083e+00    0.1962616    0.1283891  49.86 0.0002914119    1.547    0.353
       104  -8.9141    132.7926    202.9727   1.2131622686e+02   1.3492002629e+01     0.180901    0.1166971 -54.94 0.0004253665    1.681    0.405
       105  -9.8819    120.0312    199.5770   1.2366712320e+02   1.6587122273e+01    0.2315735    0.1911017 -89.39 0.0006496696    1.266    0.210
       106  -9.6410     43.4773    199.2559   1.4060569129e+02   2.8361879377e+01    0.2450512    0.1659017 -50.82  0.001041773    1.837    0.456
       107  -9.3903     86.1044    197.0455   1.3102983947e+02   2.2941059733e+01    0.4230628    0.1777251 -63.55  0.001749883    2.391    0.582
       108  -9.4816    134.0037    197.7316   1.2016448595e+02   1.4384077649e+01    0.2031692    0.1779867  53.48 0.0003112738    1.040    0.039
       109 -11.5434     64.0374    194.8925   1.3570022799e+02   2.6692828707e+01     0.380836    0.2587302 -48.45  0.001607216    1.808    0.447
       110 -11.7417     69.6237    187.4047   1.3350154882e+02   2.7630477341e+01    0.2976742    0.2651078 -50.76 0.0007986075    1.357    0.263
       111 -11.3108    249.5029    194.4604   9.5323112144e+01  -6.8328135464e+00    0.3661046    0.2814041 -10.39  0.002160762    1.213    0.176
       112 -12.2239     37.9701    194.2188   1.4126647117e+02   3.0132705691e+01    0.2993413    0.1971598 -71.86 0.0005069573    1.347    0.258
       113  -9.8958     40.6983    188.1527   1.4006994506e+02   3.1187917404e+01    0.2552532    0.1693238 -86.99 0.0009242024    1.314    0.239
       114 -10.3633    112.9300    193.8263   1.2438571295e+02   1.9145771263e+01    0.4789747    0.2464292 -62.37  0.001448017    2.109    0.526
       115  -9.5756    159.9683    194.1424   1.1361177097e+02   1.0065637015e+01    0.2226017    0.2052031  44.62 0.0004048523    1.005    0.005
       116  -9.1369    133.4028    194.2362   1.1970332971e+02   1.5255997272e+01    0.1966076     0.171409  43.06 0.0009712093    1.109    0.098
       117 -10.1667    120.3677    192.5522   1.2244560192e+02   1.8078623911e+01    0.3814152    0.3030114 -53.43  0.001647869    1.352    0.260
       118  -9.1212    118.0118    190.0051   1.2257251525e+02   1.9083703185e+01    0.1984275    0.1829237  75.94  0.001113287    1.031    0.030
       119  -9.5403     72.8954    193.0289   1.3348619632e+02   2.5861721629e+01    0.1964054    0.1712101  81.34 0.0003524005    1.036    0.035
       120  -9.2098     25.5387    192.2435   1.4367275739e+02   3.1926419062e+01    0.2460756    0.1504117  69.49  0.001457407    1.486    0.327
       121  -9.4950     20.4121    191.7538   1.4467996843e+02   3.2553205867e+01    0.2845936    0.1429646  73.64  0.001493554    1.981    0.495
       122  -9.9036    191.5018    191.4677   1.0616301623e+02   4.2967054584e+00    0.2489976    0.2362264  17.58 0.0006944215    1.032    0.031
       123  -9.0416     84.6864    192.1256   1.3067478989e+02   2.4285946507e+01    0.1870482    0.1588645 -83.35 0.0003814982    1.103    0.094
       124  -9.0998    135.2798    190.0501   1.1853247626e+02   1.5810746967e+01    0.1967792    0.1852566 -86.58 0.0003350293    1.089    0.082
       125  -9.8401     32.2572    189.7456   1.4204014545e+02   3.1772813567e+01    0.3230135    0.2012258  39.13  0.001907042    1.727    0.421
       126 -10.6661    249.9148    187.4665   9.3860099287e+01  -5.7823238316e+00    0.3935724    0.2063265 -32.86   0.00189082    1.797    0.443
       127 -10.0871     76.9320    188.4787   1.3195996301e+02   2.6314081061e+01    0.2893556    0.2017676 -74.89  0.001026969    1.367    0.268
       128  -9.4548     31.8597    195.1917   1.4263404233e+02   3.0599745987e+01    0.3075246   0.09662041  49.54  0.001310171    2.985    0.665
       129  -9.8703     29.9471    183.8260   1.4196056567e+02   3.3354646248e+01    0.3232802     0.201228 -74.29  0.001556988    1.350    0.259
       130  -9.8565    140.1266    183.1497   1.1613226193e+02   1.6382844283e+01    0.2138602    0.2020847  20.80 0.0002959459    1.158    0.136
       131 -10.1730     24.2470    184.2260   1.4321825192e+02   3.3847728433e+01    0.2033233    0.1639637  72.69 0.0004684689    1.134    0.118
       132  -9.1349     36.9215    184.0968   1.4047140724e+02   3.2540147080e+01    0.2431267    0.1433955  42.50 0.0007911249    1.732    0.423
       133 -12.8364    248.3953    101.3152   7.5768539229e+01   9.4212901727e+00    0.9686299      0.57191 -42.74  0.004711246    1.520    0.342
       134 -11.0587    201.0404    246.2963   1.1402204063e+02  -6.7348815700e+00    0.3435846    0.1923008  51.96 0.0009470261    2.186    0.543
       135 -12.6530    248.7603    133.0200   8.2642082111e+01   3.7791351634e+00      1.24696    0.6820063 -37.58  0.005761751    1.671    0.402
       136 -11.0614    249.4222    151.0069   8.6400423528e+01   4.7793659113e-01    0.5579633    0.3341457 -37.01  0.002624564    1.518    0.341
       137  -9.7351    115.5364    177.7561   1.2105059702e+02   2.2344945119e+01    0.3280928    0.2339276 -64.57  0.001586187    1.451    0.311
       138  -9.1063     47.8260    179.6915   1.3754202866e+02   3.2293195169e+01    0.1738274     0.103666  47.27 0.0005916049    1.660    0.398
       139  -9.9229     20.0921    179.1356   1.4363480581e+02   3.5397724044e+01    0.1721406    0.1378244 -68.33 0.0004509268    1.258    0.205
       140  -8.8975     92.5406    178.4284   1.2676918184e+02   2.6215021137e+01    0.1416076     0.130502  81.66 -6.064042e-05    1.041    0.039
       141  -8.9630     84.7630    177.8223   1.2856132062e+02   2.7609803138e+01    0.2385584    0.1558744 -24.14 0.0009767109    2.940    0.660
       142  -9.9551     64.2525    175.0254   1.3309956799e+02   3.1282600004e+01    0.3712374    0.2570869  77.65  0.001247734    1.482    0.325
       143 -10.7195     66.5143    172.4607   1.3219498861e+02   3.1580830728e+01      0.52157    0.2908205  89.12  0.002263973    2.290    0.563
       144  -9.4318    121.9024    175.5316   1.1909259097e+02   2.1665483361e+01    0.2137961    0.1926625 -72.94 0.0007728604    1.117    0.104
       145 -11.2881     78.6673    175.3071   1.2965839087e+02   2.9145464675e+01    0.3195777    0.2792917  38.13  0.001006687    1.283    0.221
       146  -9.4042     85.0665    173.8748   1.2787198558e+02   2.8498670610e+01    0.2193506    0.1753238  72.33 0.0003217844    1.224    0.183
       147  -9.6347    107.3002    172.9390   1.2221838158e+02   2.4973217204e+01    0.2069445    0.1825821 -81.21  0.001116147    1.104    0.094
       148  -9.0104     90.9418    172.9624   1.2627600699e+02   2.7772583415e+01    0.1755702    0.1535438 -77.92 0.0007893421    1.081    0.075
       149 -10.2875     28.9128    170.7059   1.4084790999e+02   3.6461699354e+01    0.3863766    0.2878978 -81.08  0.001860232    1.095    0.087
       150  -8.9587     95.2551    172.4621   1.2512410213e+02   2.7176949488e+01    0.1931891    0.1289189  53.57 0.0004755482    1.491    0.329
       151  -8.8730     52.6181    171.1239   1.3536075309e+02   3.3717387622e+01    0.1742927    0.1071419 -59.71 0.0002285934    1.516    0.340
       152 -10.9899     44.6696    168.0701   1.3686846606e+02   3.5385627491e+01    0.4808891    0.3843359 -61.69   0.00297236    1.240    0.194
       153 -12.0669     86.6831    166.9065   1.2633630961e+02   2.9908635203e+01    0.5923294    0.5199533  46.31  0.003355605    1.189    0.159
       154 -10.5971     89.6324    159.3306   1.2427224708e+02   3.1257964940e+01      0.49289    0.2357344 -64.51  0.001207869    2.189    0.543
       155  -9.5566    126.7831    167.4760   1.1635278443e+02   2.2591522217e+01    0.2781599    0.2289021  42.97  0.001036138    1.196    0.164
       156  -9.6143     68.8569    166.8986   1.3080474933e+02   3.2582854279e+01    0.2097435    0.1754988  89.45 0.0005695624    1.095    0.087
       157  -8.7444     58.4936    167.4735   1.3344691867e+02   3.3841390912e+01    0.1362571    0.1162799 -89.65 0.0001049431    1.028    0.028
       158  -8.8273     53.7858    164.9646   1.3425386078e+02   3.5034538792e+01    0.1769347   0.09578045 -66.69 0.0003826429    1.635    0.388
       159  -9.4247     33.0407    164.9676   1.3925260432e+02   3.7375672722e+01    0.1938411     0.154083 -82.49 0.0004226523    1.032    0.031
       160 -10.1579     39.6379    162.0875   1.3732810881e+02   3.7356947275e+01    0.3476904    0.1950021  22.14  0.001148338    2.430    0.588
       161  -9.6839     73.5524    159.5368   1.2846186482e+02   3.3685199783e+01    0.2635126    0.1805494 -45.37 0.0005918281    1.608    0.378
       162  -9.8679     72.4787    156.3685   1.2821755183e+02   3.4605936908e+01    0.3325996    0.2336151  26.46  0.001691259    1.719    0.418
       163  -9.4882     78.9373    158.7861   1.2694786609e+02   3.3069577732e+01    0.2005133    0.1871021 -47.89 0.0005595084    1.195    0.163
       164  -9.5108     81.9586    155.9984   1.2568036063e+02   3.3282638430e+01    0.2276208    0.1850864  74.08 0.0005479762    1.263    0.208
       165  -8.8464    112.3187    157.8721   1.1811786518e+02   2.7634066968e+01    0.2040568     0.182579 -64.47 0.0003723857    1.104    0.094
       166  -8.8542     52.4744    158.4437   1.3366599662e+02   3.6751819546e+01    0.1334089    0.1156007 -79.71 0.0001737343    1.021    0.021
       167 -11.7060     31.8992    155.8279   1.3843443366e+02   3.9629783045e+01    0.4478606    0.2823564 -50.60  0.002254533    1.634    0.388
       168  -8.8646     47.7096    157.7026   1.3475925415e+02   3.7493118840e+01    0.1268642   0.09341639 -43.81 0.0001845397    1.558    0.358
       169  -9.2567    228.5045    155.3277   9.1059916672e+01   3.7315630661e+00    0.2585281     0.134041 -43.61 0.0006111395    1.878    0.468
       170 -10.8719     98.8400    151.1339   1.2031619992e+02   3.1686490541e+01    0.3980214    0.3258772 -47.63  0.001392314    1.256    0.204
       171  -9.5781    102.0362    146.4368   1.1851826139e+02   3.2255476587e+01    0.3848512    0.2155166 -35.47  0.001481591    2.432    0.589
       172  -9.9227    113.7881    150.6566   1.1626812555e+02   2.9079092923e+01    0.3086869    0.2556815 -71.03 0.0007637691    1.239    0.193
       173 -10.2613     86.8564    150.6028   1.2340682334e+02   3.3819042138e+01    0.2859941    0.1851654 -79.90 0.0007178139    1.843    0.458
       174 -11.0244     55.3609    149.0102   1.3150937057e+02   3.8663361879e+01    0.5778675    0.4461934  70.56  0.003290594    1.357    0.263
       175 -12.5079     22.8610    154.9378   1.4052332042e+02   4.0686266357e+01    0.5197516    0.4296224 -83.33  0.003515096    1.036    0.034
       176 -12.5527     67.9738    144.4278   1.2737091110e+02   3.8129112773e+01    0.7134135    0.5263423  81.70  0.002618183    1.527    0.345
       177 -11.3187     73.6853    139.4604   1.2489544406e+02   3.8525470282e+01    0.4506944    0.3887085  46.00  0.001523437    1.233    0.189
       178 -11.2616     39.3563    146.6923   1.3534786909e+02   4.1031690382e+01    0.3324553    0.2156286  55.65  0.001452365    1.690    0.408
       179 -10.5917    236.3367    145.9744   8.7584087030e+01   3.8928231181e+00    0.2783623    0.2206229  43.93 0.0007697401    1.346    0.257
       180  -9.3983     60.4894    151.1469   1.3049948605e+02   3.7502821327e+01    0.3523123     0.142857  53.61  0.001277771    3.344    0.701
       181 -10.7804    133.4601    142.3007   1.0930341081e+02   2.7111205642e+01    0.8585008     0.279715 -52.54  0.002537845    3.366    0.703
       182 -10.7702     33.3093    141.3128   1.3616830512e+02   4.2909111943e+01    0.1977455    0.1606122 -59.04 0.0005676363    1.152    0.132
       183 -10.9238     31.6791    138.6938   1.3622969937e+02   4.3680123575e+01    0.2638147    0.1488198 -53.35 0.0008391183    1.595    0.373
       184 -11.0793     60.4308    136.7319   1.2807999455e+02   4.0983432589e+01    0.3814443    0.2560231 -83.96            0    1.677    0.404
       185  -8.7825     55.8397    138.6537   1.2968642956e+02   4.1094001264e+01     0.174354     0.119339  46.36 0.0003311506    1.586    0.370
       186 -11.4872     45.2580    131.1834   1.3136361398e+02   4.4090862071e+01    0.4327243    0.2985932  82.96  0.001993153    1.701    0.412
       187  -9.9942    110.3476    136.2766   1.1408062737e+02   3.3157588191e+01    0.3217393    0.2494327 -14.33  0.001133183    1.741    0.425
       188 -10.1914     80.0719    132.3790   1.2170352662e+02   3.9282795966e+01    0.3475263    0.2219869  64.56 0.0008358417    2.085    0.520
       189 -11.2884     33.1552    131.6189   1.3479571313e+02   4.5204121393e+01    0.3560368    0.2309314  16.42  0.001978274    2.012    0.503
       190 -11.9009     31.6066    127.1245   1.3453462505e+02   4.6398346478e+01     0.438899    0.2856151  57.49  0.001931625    1.832    0.454
       191  -9.5551    126.0614    180.1617   1.1893418683e+02   1.9805916956e+01    0.2753723    0.2196582 -80.86  0.001245824    1.379    0.275
       192 -11.9021     67.4405    128.2641   1.2449503115e+02   4.2089620749e+01     0.465447    0.3585146 -47.19  0.002540495    1.243    0.196
       193  -8.9425    106.3130    129.6642   1.1368981742e+02   3.5479616913e+01    0.1571335    0.1196273  83.23  0.000704591    1.688    0.407
       194 -12.2172     11.0263    128.2393   1.4030558964e+02   4.7775658114e+01    0.4105043    0.2227926  28.90  0.002357355    2.212    0.548
       195 -12.8711     20.1657    121.7061   1.3692053948e+02   4.8606639968e+01    0.7275737    0.3997257  -6.45  0.003571204    3.005    0.667
       196 -10.4845    209.9207    125.8111   8.7882484792e+01   1.3335845220e+01    0.3160497    0.2332856 -38.03 0.0004949965    1.334    0.250
       197  -9.8396    116.4857    128.6530   1.1063621715e+02   3.3762251049e+01    0.3497929    0.2371575   1.23  0.001227963    2.626    0.619
       198 -11.7337    247.9420    142.5729   8.4843009775e+01   2.2430456677e+00    0.6664423    0.5418431 -10.28  0.002523958    1.350    0.259
       199 -10.1355     38.0109    121.4707   1.3178266384e+02   4.7117133053e+01    0.1998651    0.1507364 -63.32 0.0003792022    1.123    0.109
       200 -11.4315     32.2296    120.3959   1.3327728754e+02   4.7907279860e+01    0.4218558    0.2473187  82.51    0.0020144    2.396    0.583
       201 -10.3429     54.7770    120.6465   1.2670327079e+02   4.5505101293e+01    0.2753364    0.2135233   4.63  0.001128827    1.615    0.381
       202 -13.4119     19.4723    167.9137   1.4269567548e+02   3.8001929177e+01      1.43912     0.736993 -51.05  0.005182031    2.128    0.530
       203 -12.4505     15.0564    114.7149   1.3733679796e+02   5.0569732628e+01     0.421214    0.2618435 -49.26  0.002534111    1.417    0.294
       204  -9.4715    203.6641    111.6456   8.5682506191e+01   1.7527928179e+01    0.2346066    0.1863327  12.17 0.0007701087    1.686    0.407
       205 -11.0338    168.1772    113.3043   9.3579872647e+01   2.5672180701e+01    0.3948635    0.3245135  89.64 0.0009603531    1.439    0.305
       206 -10.7215     31.6120    110.8974   1.3182399081e+02   5.0146792121e+01    0.2124178    0.1836111  40.21  0.000575176    1.367    0.268
       207  -9.8267     62.4825    107.0293   1.2147563768e+02   4.7708889863e+01    0.2147523    0.1249234 -57.03 0.0006626988    1.580    0.367
       208 -12.9651    248.3105    114.4669   7.8664482963e+01   7.1495750999e+00     1.297946    0.9075843 -16.41  0.006315737    1.902    0.474
       209 -10.0113     17.2218     99.3859   1.3421128303e+02   5.3847326240e+01    0.1465294    0.1100582  36.83 0.0006139027    1.632    0.387
       210 -12.3941    248.1711    171.8757   9.0998903305e+01  -2.8995080931e+00    0.7875153    0.4890705 -33.02  0.004011679    1.490    0.329
       211  -9.3433     42.8215     92.1426   1.2443346130e+02   5.3288838140e+01    0.1749484    0.1299825 -32.74 0.0003082053    1.283    0.221
       212  -9.2141     24.0314     88.2188   1.2987310581e+02   5.5792473133e+01      0.14096   0.09977616  13.89 0.0003842953    1.665    0.399
       213 -10.4282    250.0180     86.7253   7.2359487752e+01   1.1547587787e+01    0.1903643    0.1699547 -75.28 0.0004845218    1.068    0.063
       214  -9.1782     77.9641     85.2339   1.1091465856e+02   5.0269394504e+01    0.1844307     0.168097  -1.98   0.00108124    1.076    0.070
       215  -8.8156     63.9728     76.4974   1.1312899755e+02   5.4077140186e+01    0.1763275    0.1291683  24.88 -0.000233461    1.432    0.302
       216 -10.5774    193.8569    245.2384   1.1526388901e+02  -5.3739031142e+00    0.2099806    0.1929942  16.09 0.0003187471    1.148    0.129
       217 -10.3326    222.8245    244.8662   1.0958461412e+02  -1.0052206401e+01    0.1974899    0.1459684  12.50 0.0009680372    1.210    0.173
       218 -10.9640    143.2081    249.0747   1.2592819845e+02   2.7514877060e+00    0.2449334    0.2123436  60.18 0.0004853707    1.135    0.119
