#   1 NUMBER                 Running object number                                     
#   2 MAG_AUTO               Kron-like elliptical aperture magnitude                    [mag]
#   3 X_IMAGE                Object position along x                                    [pixel]
#   4 Y_IMAGE                Object position along y                                    [pixel]
#   5 X_WORLD                Barycenter position along world x axis                     [deg]
#   6 Y_WORLD                Barycenter position along world y axis                     [deg]
#   7 A_WORLD                Profile RMS along major axis (world units)                 [deg]
#   8 B_WORLD                Profile RMS along minor axis (world units)                 [deg]
#   9 THETA_WORLD            Position angle (CCW/world-x)                               [deg]
#  10 FWHM_WORLD             FWHM assuming a gaussian core                              [deg]
#  11 ELONGATION             A_IMAGE/B_IMAGE                                           
#  12 ELLIPTICITY            1 - B_IMAGE/A_IMAGE                                       
         1 -12.8607    246.4577     14.8756   4.3771342317e+01   2.1267079330e+01     3.030431     2.133214 -69.15   0.01717432    1.478    0.323
         2  -9.7156    202.7498     20.2970   4.8991814351e+01   3.1113633856e+01    0.4489304    0.3883767  -8.03  0.002511379    1.230    0.187
         3 -11.4534    235.2986     27.1460   4.7818081592e+01   2.2516553928e+01     2.287775    0.6727417 -51.07  0.007070793    4.492    0.777
         4 -10.3672    212.7661     16.2834   4.6825593819e+01   2.9005675462e+01    0.6256334    0.4081464 -57.96  0.003127628    1.547    0.354
         5  -9.7151    199.4834     10.4326   4.6317715684e+01   3.2961396390e+01    0.3721365    0.2675461  78.12  0.001920743    1.405    0.288
         6  -9.2665    171.9426      5.5208   4.7565761105e+01   4.0796855702e+01    0.5665556    0.1606208 -34.21  0.001895542    2.985    0.665
         7  -7.3112    156.2146      8.5979   5.0666216972e+01   4.4844461773e+01    0.2140853    0.1260931  57.33 0.0009327632    1.612    0.380
         8  -8.7781     94.7133      6.4359   6.2041928918e+01   6.1561668375e+01    0.3764526    0.1848243 -29.23  0.001579875    1.998    0.499
         9  -8.4226    102.3946      6.8030   6.0144438421e+01   5.9596470190e+01    0.2037461    0.1381679  -5.35 0.0009476352    1.635    0.388
        10  -8.6143    145.2127      2.4450   4.9834848393e+01   4.8488989837e+01    0.3612561    0.1775041 -33.79  0.001466516    1.994    0.498
        11  -8.5029    203.1855      2.4181   4.3562034174e+01   3.2756537207e+01    0.2301371    0.1579977 -32.94 0.0006444303    1.357    0.263
        12  -7.9527     46.6867      2.3526   7.8964800645e+01   7.2300584158e+01    0.1256251    0.1038504 -64.26 2.009036e-05    1.730    0.422
        13  -7.5883    193.4863      1.5352   4.4102731363e+01   3.5357724102e+01    0.1407658    0.1303437 -64.19 0.0001949854    1.004    0.004
        14  -8.0833    221.0036    178.4977   8.4849957614e+01   6.5065240966e+00    0.1814094    0.1009824  38.40 0.0005673441    1.585    0.369
        15  -7.7227    192.4694    172.5491   8.8828581101e+01   1.1913709102e+01     0.127461    0.1042322  22.15 0.0002035201    1.008    0.008
        16  -8.0852    176.7733    170.9737   9.1537514807e+01   1.4823791809e+01    0.1551002    0.1056666 -34.95 0.0006809904    1.658    0.397
        17  -8.4023    237.0000    165.9777   7.9993074275e+01   5.4276859811e+00    0.1885892   0.06177167 -29.59 0.0003217933    3.023    0.669
        18  -8.2787    237.0000    159.0025   7.8682464448e+01   6.2180536540e+00    0.1888906   0.06259755 -29.51 0.0004430196    2.951    0.661
        19  -7.3372    142.6879    157.3063   9.6248364713e+01   2.3062632498e+01      0.13238    0.1009977  68.16  0.000275558    1.619    0.382
        20  -7.9593     23.0170    157.2311   1.2523596292e+02   3.9855969919e+01    0.1832463   0.09632108  67.94  0.001042063    1.642    0.391
        21  -8.0981    184.4758    155.9799   8.7307744017e+01   1.5675064248e+01     0.170366    0.1162574 -62.62 0.0008101272    2.580    0.612
        22  -8.9735    230.9638    145.3011   7.6950434954e+01   8.8428413120e+00    0.3314086     0.230911 -53.07  0.001767731    2.400    0.583
        23  -9.0840    191.1824    139.1949   8.2648621158e+01   1.6939962075e+01    0.3274395    0.2214641  74.48  0.001412506    2.976    0.664
        24  -9.6737    245.3946    131.0682   7.1795093584e+01   8.0850047760e+00    0.3641722    0.2765817  -4.24  0.002296826    1.131    0.116
        25  -8.8627    138.6917    132.3851   9.2440036659e+01   2.8413553404e+01    0.2787868    0.1943476  30.67 0.0006601152    1.494    0.331
        26  -7.1548     13.3171    133.6473   1.2636466873e+02   4.5787364358e+01    0.1321693   0.06586476  61.86 0.0007046739    1.740    0.425
        27  -7.6533    212.4810    127.4942   7.6254274782e+01   1.4532226002e+01    0.1349877    0.1184992   6.98   8.7896e-05    1.009    0.009
        28  -9.0240    232.5301    124.0810   7.2232469087e+01   1.1217203037e+01    0.4057147    0.1450776  40.16  0.001638817    2.853    0.650
        29  -9.3372    229.8698    117.5890   7.1202594925e+01   1.2544822103e+01    0.3928936    0.1775897 -28.28  0.001773904    2.068    0.516
        30  -9.2957    122.1905    109.0776   9.1440684682e+01   3.6376996738e+01    0.5858321    0.3711345 -65.12  0.002538516    2.011    0.503
        31  -7.5264    174.6939    107.3323   7.8620621274e+01   2.5466349956e+01    0.1442526    0.1176461 -75.95 0.0007039092    1.663    0.399
        32  -7.4191    192.3300    108.2954   7.5400946753e+01   2.1473538932e+01    0.1487004     0.105445  16.26 0.0007025533    1.635    0.388
        33  -7.7250     71.3173    107.6707   1.0600928988e+02   4.5613707265e+01    0.1475286   0.09978672  71.17 0.0003547946    1.682    0.406
        34  -8.1587    219.6832    115.3246   7.2303019395e+01   1.4808949391e+01    0.1283157    0.1060506 -59.99  0.000704397    1.670    0.401
        35  -8.2090     58.1683    103.9828   1.0956466500e+02   4.8289683241e+01    0.3251894    0.1600719 -58.38  0.001471628    1.904    0.475
        36  -7.6564    243.3036    102.3335   6.5757692567e+01   1.1936952831e+01    0.1358633   0.09039635  10.18 0.0007037169    1.660    0.398
        37  -8.8318     69.4565    101.7610   1.0547390293e+02   4.7286019872e+01    0.2706927    0.1586896  47.17  0.001274966    1.710    0.415
        38  -8.1149    160.6478     98.8199   7.9434615053e+01   3.0090034505e+01    0.2154998    0.1360431 -46.92 0.0008500266    1.705    0.414
        39  -9.2702    124.7734     97.9619   8.7987512278e+01   3.8168559523e+01    0.3749738    0.2090453 -43.20  0.001568784    1.855    0.461
        40  -8.2975    240.5947     99.1904   6.5401986012e+01   1.2841542299e+01    0.1926209    0.1138714 -15.28 0.0009575664    1.664    0.399
        41  -9.3284    214.4638     95.2760   6.8337569066e+01   1.8656585692e+01    0.3710856     0.202453 -30.26  0.001453879    1.719    0.418
        42  -8.1877     35.7021     97.6515   1.1612720507e+02   5.2345159985e+01    0.1331405    0.0892747 -45.70 0.0007035474    1.682    0.406
        43  -8.3717    197.1759     95.1647   7.1216589843e+01   2.2438189559e+01     0.196951    0.1731601 -57.78 0.0006841737    1.332    0.249
        44  -7.0297     45.2992     91.3326   1.1177353875e+02   5.2897854317e+01    0.1359371   0.09491774 -41.45 0.0002219803    1.648    0.393
        45  -9.3078    247.8946     84.5440   6.0984908000e+01   1.3225058665e+01    0.4059396    0.3175098 -33.23  0.001562658    1.209    0.173
        46  -7.9879    235.1480     86.3508   6.3078094112e+01   1.5535627704e+01    0.2617236    0.1658853   0.69  0.001068074    1.876    0.467
        47  -7.6309    139.7973     86.0604   8.0822729592e+01   3.7244920567e+01    0.2044147    0.1215796 -41.37 0.0005271783    1.704    0.413
        48  -9.0645    154.7128     81.8899   7.6069481222e+01   3.4524139049e+01    0.5028963    0.2506538 -55.10  0.001717689    2.931    0.659
        49  -9.7254    240.5147     63.0999   5.6612757767e+01   1.7296538591e+01    0.6645228    0.4588165  89.60  0.003447527    2.020    0.505
        50  -8.2129    243.6649     76.0095   5.9447269561e+01   1.5092182554e+01    0.4558471    0.2668436 -24.25   0.00232596    1.510    0.338
        51  -9.7946    248.6249     74.1015   5.8389130027e+01   1.4328299869e+01    0.6511717    0.3216881 -27.02  0.002773981    1.736    0.424
        52  -9.7835    249.1091     66.6831   5.6527703209e+01   1.5104283833e+01    0.4587125     0.422608  -6.33  0.002099738    1.087    0.080
        53  -7.5168    234.5342     74.2600   6.0157334281e+01   1.7188642972e+01    0.1922995    0.1219891 -13.85 0.0008964414    1.591    0.372
        54  -8.7414    105.1242     70.8659   8.5887432411e+01   4.8035504158e+01    0.6326507    0.3395367 -62.53   0.00225952    2.764    0.638
        55  -7.2282     69.3130     73.3439   9.8940797992e+01   5.4076132590e+01    0.1472997    0.1085047 -26.77 0.0005036156    1.707    0.414
        56  -8.6504    132.9698     64.9051   7.6024896210e+01   4.2877641975e+01    0.2556654    0.2204377 -54.78            0    1.217    0.178
        57  -9.1305    232.3134     59.4493   5.6638920002e+01   1.9498307763e+01    0.4450344    0.2927539  -8.39  0.002227841    1.646    0.392
        58  -7.8037    215.6720     62.3341   5.9531707698e+01   2.2883308871e+01    0.2324152    0.1582194 -58.13  0.001112275    1.753    0.430
        59  -7.6753    171.5035     61.8958   6.6520991075e+01   3.3741141435e+01    0.2270886    0.1482132 -31.93 0.0004687815    1.507    0.336
        60  -8.5023    218.0622     76.6799   6.3029085952e+01   2.0434787442e+01    0.3953288    0.2584938 -81.64  0.001710281    2.609    0.617
        61  -8.7809    250.0221     57.9635   5.4286404322e+01   1.5926562886e+01    0.5100527    0.2199187  36.84  0.001999215    3.407    0.707
        62  -7.8505     82.0000     58.9278   8.9783168907e+01   5.5196949942e+01    0.2445365   0.08095231 -48.37 0.0005289048    2.901    0.655
        63  -7.7272    237.9579     52.2700   5.4134974584e+01   1.9124130314e+01    0.1781441    0.1736846 -39.72 0.0005870166    1.106    0.096
        64  -9.0856    228.1524     51.7942   5.5111461876e+01   2.1352060018e+01    0.3409088    0.2235697  34.94  0.001039219    1.793    0.442
        65 -10.0754    232.4326     45.3862   5.2931117299e+01   2.1145232245e+01    0.7456316    0.5051185  31.28   0.00381446    1.781    0.439
        66  -8.0788    124.4938     51.9896   7.3755394374e+01   4.7293630287e+01     0.230645    0.1239153 -56.22 0.0008105814    2.576    0.612
        67  -8.7049    243.8993     49.6350   5.2835052683e+01   1.8151411393e+01    0.3236418    0.2657751 -32.17  0.001954389    1.069    0.065
        68  -9.1204    207.5043     48.2539   5.6685339292e+01   2.6642107079e+01    0.4496502    0.3013173  41.29  0.002166748    1.646    0.393
        69 -10.0045    249.9113     43.0499   5.0592753982e+01   1.7616998597e+01    0.7653704    0.2187283 -22.87  0.002692703    3.304    0.697
        70  -7.5294    111.9354     46.4634   7.5195939363e+01   5.1316364048e+01    0.2130296    0.1386328  81.35 0.0008082058    2.490    0.598
        71  -7.8963     85.5072     42.9979   8.2526363037e+01   5.7823380036e+01    0.2142729    0.1251972 -62.55 0.0008105492    2.589    0.614
        72  -8.4005    199.6475     43.5265   5.6350162311e+01   2.9186030540e+01    0.2936217    0.1736073 -31.22  0.001323858    1.574    0.365
        73  -7.8199      6.4853     39.9839   1.1931136040e+02   6.8478572592e+01    0.1724333   0.08802699  76.74 0.0008085324    2.405    0.584
        74 -10.3377    216.7975     33.5058   5.1357935469e+01   2.6158823626e+01    0.6262459    0.3144947 -32.92  0.002510706    1.755    0.430
        75  -9.2722    212.5584     28.7306   5.0446398167e+01   2.7731117120e+01    0.4853055    0.2373691 -28.22   0.00210528    1.849    0.459
        76 -10.0819    216.4613     25.6632   4.9165977048e+01   2.7111374853e+01    0.7107857    0.4093783 -57.38  0.003268127    1.876    0.467
        77  -8.0437    127.0000     38.9936   6.8191313280e+01   4.8855127013e+01    0.2593469    0.0877634 -31.75 0.0008070252    2.974    0.664
        78  -7.6673    164.5176    245.5006   1.0405567855e+02   7.1165539441e+00    0.1077699   0.07552208  35.39 0.0003301665    1.068    0.064
        79  -7.2673     40.7002     31.6499   9.7923301107e+01   6.7599408755e+01    0.1416414   0.09201903 -29.26 0.0004182151    1.690    0.408
        80  -7.5215    184.3991     25.7783   5.2858603266e+01   3.5295605578e+01    0.2007442     0.142554 -10.56   0.00064142    1.552    0.356
        81  -7.8443     15.3916     24.2083   1.1006061961e+02   7.1676809895e+01    0.1808005    0.1081142 -75.81  0.000955574    1.728    0.421
        82  -9.9790    232.3341    241.3208   9.2575421184e+01  -1.2989800671e+00    0.2817631    0.1916602  12.96  0.001330847    1.131    0.116
        83  -7.2412      9.3362    240.7144   1.3096939037e+02   2.6046708603e+01    0.1044738   0.04038446  53.62 0.0003252403    1.627    0.385
        84  -8.5433    152.3944     20.1743   5.5625462959e+01   4.4645296811e+01    0.2196347    0.1308008 -37.81 0.0004479064    1.662    0.398
        85  -7.3462    234.3733    226.6923   9.0271858575e+01  -2.9954722764e-01   0.09223112   0.07458877  40.59 0.0006208755    1.770    0.435
        86  -9.1195    144.4137     15.9793   5.5364170411e+01   4.7326095174e+01    0.3695785    0.1667715  84.15  0.001074134    3.321    0.699
        87  -8.2440     92.3091     14.6558   6.7050815753e+01   6.1098648030e+01    0.1485665    0.1118301 -61.80 0.0007044505    1.699    0.411
        88  -7.4566    156.4967    225.4813   1.0321945812e+02   1.0571296176e+01    0.1143606   0.08421939  32.55 0.0008101636    1.033    0.032
        89  -7.2976     51.6897     33.6963   9.3107534754e+01   6.5680000221e+01    0.1393063    0.1005479 -20.06 0.0005865162    1.610    0.379
        90  -9.9217    248.0928    219.5443   8.7158555534e+01  -1.4260582518e+00    0.4140522    0.2493894 -25.53  0.002998012    1.855    0.461
        91  -7.7544    165.1577    208.1967   9.9459621829e+01   1.1516468297e+01    0.1489346    0.1186421  45.94 0.0003714492    1.284    0.221
        92  -7.4398     17.7642    203.9765   1.2845262900e+02   3.1291197490e+01    0.1222639   0.07364887  87.66 0.0003921037    1.557    0.358
        93  -7.3948    176.5099    197.5017   9.5837068043e+01   1.1174643722e+01    0.1217112   0.09569535  28.79 0.0001421511    1.005    0.005
        94  -8.2656    238.8419    191.9143   8.4250443856e+01   2.3899184584e+00    0.1853148    0.1188027  11.01  0.001218414    1.337    0.252
        95  -7.4359    227.2510    186.0105   8.5110893823e+01   4.7037109050e+00    0.1338026   0.08978251 -19.28 0.0003885964    1.490    0.329
        96  -8.3532    245.2926    181.6543   8.1512961268e+01   2.5059444752e+00    0.1470427    0.1457839  19.22  0.001124673    1.777    0.437
