#   1 NUMBER                 Running object number                                     
#   2 MAG_AUTO               Kron-like elliptical aperture magnitude                    [mag]
#   3 X_IMAGE                Object position along x                                    [pixel]
#   4 Y_IMAGE                Object position along y                                    [pixel]
#   5 X_WORLD                Barycenter position along world x axis                     [deg]
#   6 Y_WORLD                Barycenter position along world y axis                     [deg]
#   7 A_WORLD                Profile RMS along major axis (world units)                 [deg]
#   8 B_WORLD                Profile RMS along minor axis (world units)                 [deg]
#   9 THETA_WORLD            Position angle (CCW/world-x)                               [deg]
#  10 FWHM_WORLD             FWHM assuming a gaussian core                              [deg]
#  11 ELONGATION             A_IMAGE/B_IMAGE                                           
#  12 ELLIPTICITY            1 - B_IMAGE/A_IMAGE                                       
         1  -9.9885     21.4793      7.0099   6.5897535449e+01   7.0677593608e+01    0.2368276    0.1239299   0.60  0.001298532    2.482    0.597
         2  -9.2040      6.7010      3.3343   7.1597380120e+01   7.2413827687e+01   0.09019002   0.07948341 -56.34 0.0003189417    1.652    0.395
         3  -9.3922    236.2019      2.1566   1.3730589983e+01   2.5143785610e+01    0.1960219    0.1360686 -67.41 0.0009494293    1.350    0.259
         4  -9.1360     47.4892    248.5783   9.9448405856e+01   2.0038963197e+01    0.1990175    0.1037393  61.21 0.0004876041    1.383    0.277
         5 -10.3323     90.0335    247.7478   9.2708598276e+01   1.4599984073e+01    0.3487497    0.2069987 -71.75  0.002363294    1.890    0.471
         6  -9.2531     82.3160    247.9633   9.3971189915e+01   1.5645362391e+01    0.2812465    0.1368546 -75.58  0.001711983    2.328    0.570
         7  -9.7601     31.1857    248.7044   1.0188367747e+02   2.1900752857e+01    0.1835421    0.1483678  58.68  0.001127795    1.456    0.313
         8 -15.1053     33.5480    210.9061   9.9330298232e+01   2.8138797399e+01     3.634308     2.026042  85.02   0.02434229    1.489    0.328
         9 -12.1796      2.2909    243.5514   1.0579919979e+02   2.5715683808e+01    0.7574598    0.1752071  59.68  0.003450952    3.039    0.671
        10  -9.4620     56.3397    245.9522   9.7930168660e+01   1.9379616320e+01     0.271479   0.09878387  46.99   0.00108111    2.067    0.516
        11  -9.8878     49.0294    244.5275   9.8970427344e+01   2.0507520959e+01     0.526548    0.2327958  46.21  0.003359512    1.827    0.453
        12  -9.2115     39.4123    247.8035   1.0061897426e+02   2.1113362244e+01    0.1897302    0.1607933   9.73  0.001421228    2.738    0.635
        13  -9.6557     40.5597    243.1259   1.0018411660e+02   2.1739294961e+01    0.5045268    0.2565933  69.41  0.003470264    1.537    0.349
        14  -7.9589     65.6720    248.0940   9.6618814231e+01   1.7850343222e+01    0.3287766    0.1357637  41.96  0.001899826    2.182    0.542
        15 -11.1409     90.9608    238.1167   9.1736212353e+01   1.6001703746e+01    0.4913276    0.2409468  61.58  0.002336852    1.815    0.449
        16  -8.5655     77.8448    241.0547   9.4153697103e+01   1.7364446472e+01    0.1661378   0.08490732  59.59 0.0009896266    1.548    0.354
        17  -8.7718    144.7548    240.3627   8.2747129756e+01   7.2926315406e+00     0.175142   0.08964008  39.52 0.0009538287    1.710    0.415
        18  -8.3216     99.4770    240.4736   9.0516663017e+01   1.4379807451e+01    0.1142291   0.08511001  60.81 0.0001317842    1.014    0.014
        19 -14.1247      6.5295    160.9853   1.0081760127e+02   4.0499181573e+01     3.675812    0.7370654 -73.24   0.01540168    3.574    0.720
        20  -8.5252     67.4979    239.0021   9.5680279429e+01   1.9087848312e+01    0.1403083   0.09079475 -85.23 0.0003627239    1.484    0.326
        21  -9.6147     73.7245    234.4676   9.4310433421e+01   1.9013783079e+01    0.2155577    0.1885257 -23.99  0.001529929    2.272    0.560
        22  -9.0563    105.0000    236.9205   8.9245005302e+01   1.4122361075e+01    0.1894857    0.1411347 -89.45 0.0008133744    1.390    0.280
        23 -10.4728    103.8601    233.1669   8.9074833232e+01   1.4902965078e+01    0.2508163    0.1847163 -54.54 0.0003017399    1.802    0.445
        24 -10.7692     95.0305    232.3371   9.0519711882e+01   1.6359214956e+01    0.3161182     0.183066  73.26   0.00107855    1.765    0.433
        25  -8.9916    244.9953    236.4921   6.5028468890e+01  -8.7438738700e+00    0.1436816   0.09209826  56.09 0.0008089172    2.419    0.587
        26  -9.8089    227.6879    234.1522   6.7538661950e+01  -5.7646367102e+00    0.3242751    0.1749353 -21.42  0.001824821    2.317    0.568
        27  -9.9904    125.0866    236.1671   8.5695789060e+01   1.1114635448e+01    0.2287547    0.1292672  49.47  0.001362628    1.371    0.271
        28 -10.4709    141.3853    234.9201   8.2696025070e+01   8.6511430185e+00    0.2490829    0.1483123  42.09   0.00147686    1.408    0.290
        29 -10.8115    111.8507    234.2061   8.7792809747e+01   1.3509435056e+01    0.2956543    0.1493091  53.55  0.001681134    1.587    0.370
        30  -8.9486     63.7414    233.7778   9.5906062491e+01   2.0452023115e+01    0.2000304    0.1584454 -59.71  0.001065493    1.805    0.446
        31  -8.3604     80.8409    233.6859   9.3055867342e+01   1.8167893559e+01    0.2122777   0.09094142  37.97  0.001085003    2.532    0.605
        32 -10.8349    122.7759    231.0573   8.5540281184e+01   1.2289360283e+01    0.2368269    0.2164832   8.07   0.00100157    1.620    0.383
        33  -8.3611    207.0013    231.5215   7.0675028823e+01  -2.0355256507e+00    0.1620515   0.09296757  58.56 0.0006777158    2.434    0.589
        34  -9.0172     52.2711    231.0441   9.7584045823e+01   2.2366303933e+01    0.1469371     0.114062  78.03 0.0004005348    1.162    0.139
        35  -8.2504    192.3727    230.1783   7.3034558147e+01   6.2950254994e-01    0.1370831    0.1164608 -58.33 0.0003838014    1.619    0.382
        36  -9.3511    118.7873    228.8000   8.5998430623e+01   1.3292043732e+01    0.2001426     0.119273  68.33   0.00073675    1.774    0.436
        37  -9.7907     75.1235    229.1036   9.3637963812e+01   1.9734105900e+01    0.3043105    0.1478309  57.76  0.001792384    1.668    0.400
        38  -8.3646     81.3317    229.2890   9.2595553555e+01   1.8842902616e+01   0.09452555   0.08714835  35.35 0.0003286989    1.625    0.384
        39 -11.2772     92.7620    225.4204   9.0256758302e+01   1.7861548280e+01    0.3405577    0.2758208  77.88  0.001678574    1.134    0.118
        40  -9.3868    101.9165    226.7148   8.8770381839e+01   1.6270091806e+01    0.1683279    0.1210882  59.21 0.0004174081    1.079    0.074
        41 -13.5114      5.6306    202.0903   1.0347033709e+02   3.2569648659e+01     2.217463    0.6105594 -84.73   0.01045835    3.395    0.705
        42 -10.3035     99.0119    234.5083   9.0040105995e+01   1.5411693631e+01    0.2559597    0.1794929  45.94  0.001255978    1.324    0.245
        43  -9.7522     63.2895    223.3043   9.5179228311e+01   2.2321898027e+01    0.3577671    0.1455835  56.51  0.001944444    2.039    0.510
        44 -10.6647    122.7443    222.9256   8.4620901805e+01   1.3617956490e+01    0.2993394     0.172643  55.91  0.001019801    1.475    0.322
        45  -9.1847    122.4822    218.7429   8.4174802923e+01   1.4361221990e+01    0.1951149    0.1544476  48.51 0.0006477144    1.156    0.135
        46  -8.1770    242.6669    223.6904   6.3335015655e+01  -7.0210122529e+00    0.1250709   0.07458772  17.34 0.0007042524    1.673    0.402
        47 -10.4250     87.7685    216.4265   9.0267393075e+01   2.0171644376e+01    0.3112855    0.1429844 -55.74  0.001636221    2.597    0.615
        48  -9.3862    102.5048    220.0331   8.7971793928e+01   1.7323957810e+01    0.1617008    0.1112184 -70.94  0.000896052    1.580    0.367
        49  -8.8331    196.7873    218.2213   7.0430462678e+01   1.4507616300e+00     0.211717    0.1315601  15.68  0.001074278    2.186    0.543
        50 -12.2500      8.6990    177.8676   1.0154683891e+02   3.6925228374e+01     1.003583      0.38366  35.41  0.004470967    2.807    0.644
        51  -9.0465    115.6028    217.2694   8.5269416801e+01   1.5734786261e+01    0.2027973     0.139841  31.77  0.001182091    1.790    0.441
        52  -8.8011    223.5856    216.2719   6.5355171233e+01  -2.9859701816e+00     0.223713    0.1217321  28.21 0.0008362533    1.762    0.432
        53  -9.1292    232.6158    214.7342   6.3529753677e+01  -4.3362440164e+00    0.2521528    0.1232048  33.30  0.001287504    1.790    0.441
        54  -8.4101    166.4469    214.5497   7.5435958447e+01   7.4233985393e+00     0.128193    0.1053035  46.47 2.386043e-05    1.010    0.010
        55  -9.9820     96.6166    212.4377   8.8236866071e+01   1.9570391847e+01    0.2637532    0.1441706 -64.43   0.00149255    1.974    0.493
        56 -10.8373     98.9424    208.6321   8.7384925959e+01   1.9905375813e+01    0.3441671    0.1723361  46.48  0.001547965    1.699    0.411
        57  -8.7628    185.8286    213.0120   7.1607261837e+01   4.1500150168e+00    0.1986541     0.140007   2.68 0.0008102214    2.017    0.504
        58 -11.5661     84.5831    209.5614   9.0160312495e+01   2.1883087448e+01    0.4991817    0.2573266 -52.38   0.00195151    2.519    0.603
        59  -8.0322    207.4938    210.4993   6.7243639871e+01   5.8818211089e-01     0.129021    0.1052463  30.83 0.0008106409    1.011    0.011
        60 -10.9119     77.2297    206.3658   9.1200312018e+01   2.3525881869e+01    0.4826501    0.1596891  42.09  0.002203036    2.677    0.626
        61  -9.6197     69.5287    204.9443   9.2486429375e+01   2.4852735553e+01    0.2732259    0.1721772 -73.78  0.001126655    1.538    0.350
        62 -10.2673    124.0119    206.0054   8.2293883753e+01   1.6316641712e+01     0.180853     0.150213  59.24            0    1.020    0.020
        63  -9.4200     71.4807    208.4941   9.2461277624e+01   2.3921834624e+01    0.2112192    0.1498363  59.13  0.000752961    1.159    0.137
        64 -10.2584     59.9869    203.5099   9.4107116497e+01   2.6379180473e+01    0.4825952    0.2438832  62.42  0.002756837    1.764    0.433
        65  -8.5256    190.1862    203.8195   6.9306662534e+01   4.7036733788e+00    0.1848215    0.1388802  24.34  0.001069444    1.343    0.255
        66  -8.7553    235.2215    203.0541   6.1030060282e+01  -3.3467622485e+00    0.2481348     0.163275   1.85  0.001382642    1.710    0.415
        67  -9.0103     53.0740    198.0493   9.4899075673e+01   2.8294337983e+01    0.1759277    0.1271653  73.93 0.0003977642    1.077    0.072
        68  -9.6092     68.7485    195.6284   9.1728439864e+01   2.6748397665e+01    0.2002315    0.1277258 -62.60 0.0007537656    1.668    0.401
        69  -9.7259    242.6921    190.3566   5.7385211638e+01  -3.0350850198e+00    0.2987013    0.1836872 -10.04  0.001411965    1.854    0.461
        70  -8.3970    211.9977    190.5008   6.2894215903e+01   2.5711287562e+00    0.1956456   0.09866589  26.92  0.000809868    2.478    0.596
        71 -12.6204      5.2312    227.6374   1.0473539235e+02   2.8072339017e+01    0.5362663    0.4404327  86.82  0.003854257    1.439    0.305
        72  -9.3088    240.6894    204.6051   6.0366210780e+01  -4.4785439185e+00    0.2012489    0.1257645  14.88 0.0008286221    1.676    0.403
        73  -8.9894     92.3970    187.7886   8.6199219229e+01   2.4892354192e+01    0.1666503    0.1108284 -56.66 0.0009500863    1.669    0.401
        74  -8.5033    191.0236    183.4423   6.5555488264e+01   7.7147755073e+00    0.2093008    0.1210173  43.55 0.0003301315    1.530    0.346
        75  -9.6738     29.1952    181.8218   9.8017389010e+01   3.4194759911e+01    0.2145866    0.1429477  71.18  0.001008081    1.213    0.176
        76 -11.7195     26.4664    234.2867   1.0184810398e+02   2.4788672506e+01    0.4561354    0.2712995 -68.79  0.002482991    1.883    0.469
        77  -8.0969    206.5371    176.4570   6.1238338315e+01   5.7552980019e+00    0.1384311    0.1225031  28.17 0.0001097943    1.005    0.005
        78  -9.0730    121.3579    175.2714   7.8410031872e+01   2.2599765190e+01    0.1267454    0.1072502  12.96 0.0004383774    1.645    0.392
        79  -8.3018    239.3465    173.3151   5.4618938066e+01  -1.3297035157e-01    0.1422945   0.09262583  14.00 0.0007047665    1.719    0.418
        80  -9.1327    106.6790    170.3291   8.0795400616e+01   2.6146462537e+01    0.1414204   0.09405006  75.36 0.0007048479    1.690    0.408
        81 -12.7908     11.9936    233.4487   1.0398561961e+02   2.6430704010e+01    0.9710434    0.4262148 -59.92  0.005946859    3.221    0.690
        82  -9.0288     46.3139    170.2950   9.3620756791e+01   3.4694324919e+01     0.105309   0.08622164 -51.80 0.0002514244    1.599    0.375
        83 -10.8346     45.7094    165.6686   9.3272314521e+01   3.5735328881e+01    0.3300762    0.1536449  45.87  0.001781497    2.049    0.512
        84  -8.5874    226.0451    161.7458   5.4599252512e+01   4.1392130307e+00    0.1916581    0.1625167  29.20 0.0003378423    1.085    0.078
        85 -10.5288     76.7339    160.3537   8.5924677560e+01   3.2916836374e+01    0.4033447    0.1705401  64.18  0.001433165    3.932    0.746
        86  -7.9798    207.3973    158.5257   5.7408033328e+01   8.4748794457e+00     0.140927    0.1305045  18.38  0.000119669    1.021    0.021
        87 -11.7144      3.3984    249.7586   1.0587527922e+02   2.4619688839e+01    0.3623908    0.1327952  44.26  0.002265848    2.230    0.552
        88 -13.1134     22.1412    134.7499   9.5179516310e+01   4.4742610173e+01    0.9835933    0.4163578  63.11  0.004639455    2.956    0.662
        89 -13.2061     25.6144    155.0513   9.6444868970e+01   4.0070440400e+01    0.8159728    0.4982293 -44.43   0.00483057    2.339    0.572
        90 -10.7798     85.3687    152.8448   8.2871978815e+01   3.3285833861e+01    0.3088727    0.1771941  46.54  0.001565501    1.711    0.415
        91  -8.6316    209.7332    150.9147   5.5314671973e+01   9.2488851752e+00    0.1879777    0.1788408  -6.12 0.0002799988    1.073    0.068
        92 -10.0734     55.7882    151.2009   8.9410467734e+01   3.7666964445e+01    0.1590161    0.1394948 -57.04 0.0007339948    1.344    0.256
        93 -12.9848     13.5708    241.8443   1.0412580741e+02   2.4882097826e+01    0.7745796    0.3165136 -82.75  0.003917906    2.110    0.526
        94  -8.5451     94.6714    148.2979   7.9971907490e+01   3.2834169062e+01    0.1411838   0.09683108  75.50 0.0007027859    1.637    0.389
        95 -11.3396     82.6212    143.9058   8.2097872047e+01   3.5669214288e+01    0.3900102    0.2785538 -34.79  0.002042589    1.963    0.491
        96 -10.7391     51.0229    143.7835   8.9547962124e+01   3.9861441285e+01    0.2881768     0.162619 -79.79  0.001543423    1.661    0.398
        97 -11.7851     29.0831    144.0386   9.4593018142e+01   4.2102590060e+01    0.3812424    0.2598943 -29.27   0.00224687    2.487    0.598
        98 -10.8546     43.5962    136.2566   9.0315081810e+01   4.2352396311e+01    0.2214194    0.2029596 -56.59  0.001500254    1.308    0.235
        99 -12.2381     58.4924    127.9199   8.5449575673e+01   4.2520841399e+01    0.5491033    0.3600845 -53.25  0.003104006    1.482    0.325
       100 -10.8033     21.6699    126.6839   9.4394151991e+01   4.6540791322e+01    0.2649413    0.1746681 -41.15  0.001647453    1.935    0.483
       101 -10.7166     93.3933    122.8743   7.5567153128e+01   3.8708341567e+01    0.3697225    0.1614286 -57.67  0.001498793    2.209    0.547
       102  -9.3892    249.5154    122.0680   4.1669137926e+01   5.4245063827e+00    0.2175319    0.1298339 -31.81 0.0007308662    1.569    0.363
       103  -8.3686    229.4362    121.5140   4.4898106170e+01   9.8289150629e+00    0.1450112    0.1369647  -9.24 0.0003284699    1.020    0.019
       104 -10.3784     25.0296    128.5077   9.3798768185e+01   4.5856352064e+01    0.1860571    0.1301735  65.24  0.001216551    1.443    0.307
       105  -9.7643     43.5586    131.7344   8.9721307160e+01   4.3361492813e+01     0.175637     0.101164 -80.76 0.0009462674    1.618    0.382
       106 -10.7001      3.0925    121.0093   9.8229924400e+01   4.9139710027e+01     0.336934    0.2145244 -70.05  0.002320787    1.224    0.183
       107 -10.9823      9.7775    104.2322   9.4699979592e+01   5.2322786433e+01    0.3636805    0.1838554 -67.03  0.001522791    1.476    0.322
       108 -11.2540      2.0348    111.8744   9.7563234977e+01   5.1162644656e+01    0.4374451    0.3253016  -8.57  0.003139902    2.030    0.507
       109 -10.6937      3.2776    107.1305   9.6735435622e+01   5.2105762492e+01    0.3665585    0.2203506  40.30  0.002442029    1.969    0.492
       110  -9.8366     75.4932    112.0066   7.8101483131e+01   4.3888554158e+01    0.1955866    0.1122613 -82.35  0.000596029    2.563    0.610
       111  -9.5458    105.1033    107.8838   6.9152932072e+01   4.0044778683e+01    0.2106853    0.1877947  84.71  0.000370824    1.186    0.157
       112  -9.8240    113.7970    103.6170   6.5778929125e+01   3.9358897284e+01    0.2088742    0.1369033  54.59 0.0008712195    1.677    0.404
       113  -9.1515    243.6594    101.3024   3.7640416146e+01   9.8921472159e+00    0.1455901    0.1104753 -66.33  0.000302379    1.674    0.403
       114  -8.0794    232.7342    101.2936   3.9386784506e+01   1.2364541550e+01    0.1425361    0.1116359 -61.52            0    1.508    0.337
       115 -11.1368     95.6727    101.5905   7.0202568251e+01   4.3081610324e+01    0.4553063    0.2732105  66.35  0.001878234    2.576    0.612
       116  -9.9869     15.6022     94.0309   9.1706116109e+01   5.4150609807e+01    0.3269326    0.1722832 -55.09  0.001933645    1.553    0.356
       117 -11.1582     91.8399     90.5126   6.8488630268e+01   4.6144925519e+01    0.3905652    0.2933066  86.71  0.001935162    1.833    0.454
       118  -9.5481     48.9106     91.8699   8.1551339032e+01   5.1718634153e+01    0.1983615    0.1546735 -42.75 0.0008924557    1.267    0.210
       119  -9.1082     67.0523     25.0199   5.4768008991e+01   6.2410392401e+01    0.1977152    0.1680699  -9.98 0.0008158538    1.031    0.030
       120  -9.4827     14.8068     18.3818   7.3775730269e+01   6.9381830552e+01    0.1976425    0.1211094 -45.60 0.0002646731    1.296    0.228
       121 -10.5539    122.7173    247.7241   8.7307898832e+01   9.7393583256e+00    0.4884701    0.2092771  65.85  0.001990819    4.081    0.755
       122 -11.3390    112.1735    244.9441   8.8803441554e+01   1.1777732455e+01    0.4472669    0.3338496 -88.43  0.003229873    1.450    0.310
