#   1 NUMBER                 Running object number                                     
#   2 MAG_AUTO               Kron-like elliptical aperture magnitude                    [mag]
#   3 X_IMAGE                Object position along x                                    [pixel]
#   4 Y_IMAGE                Object position along y                                    [pixel]
#   5 X_WORLD                Barycenter position along world x axis                     [deg]
#   6 Y_WORLD                Barycenter position along world y axis                     [deg]
#   7 A_WORLD                Profile RMS along major axis (world units)                 [deg]
#   8 B_WORLD                Profile RMS along minor axis (world units)                 [deg]
#   9 THETA_WORLD            Position angle (CCW/world-x)                               [deg]
#  10 FWHM_WORLD             FWHM assuming a gaussian core                              [deg]
#  11 ELONGATION             A_IMAGE/B_IMAGE                                           
#  12 ELLIPTICITY            1 - B_IMAGE/A_IMAGE                                       
         1 -10.1272    194.0355     30.7938   6.9468090190e+01   3.3113257631e+01    0.6645539    0.3868821 -48.42  0.003223754    1.772    0.436
         2  -9.1610     61.5641     26.6724   9.8923102798e+01   6.2275179887e+01    0.3035883   0.09479655  35.47  0.001222243    3.320    0.699
         3 -11.2494    185.0746      2.5834   6.3400016287e+01   3.8410192135e+01     1.332725    0.1762263  58.22  0.004135677    4.392    0.772
         4 -12.0963    174.3268     11.9465   6.7248030653e+01   4.0116706496e+01    0.9440854    0.6277925  83.60  0.004552267    1.477    0.323
         5  -9.9217    181.1716     22.0377   6.8995071414e+01   3.7347024064e+01    0.4814594    0.3300259 -29.82  0.002120019    1.653    0.395
         6 -10.0548    159.4951     16.9900   7.0908959243e+01   4.3222611615e+01    0.3720763    0.2479292 -29.18  0.001997609    1.693    0.409
         7 -11.9126    165.3225      5.0365   6.6617681677e+01   4.2974126979e+01     1.005591    0.5035339  59.04  0.003988818    1.656    0.396
         8 -10.2007    203.5695     11.3110   6.3415687073e+01   3.3048823375e+01    0.6771505     0.622615 -25.83  0.004429062    1.356    0.263
         9 -10.5501    194.6625      6.3072   6.3211225280e+01   3.5724471771e+01    0.4769932    0.3908389 -29.21  0.002561904    1.459    0.314
        10 -10.9940    200.2774      5.4520   6.2375207201e+01   3.4455302443e+01    0.6425195    0.3210429  65.01  0.003206976    1.705    0.414
        11  -8.3208     59.3882     12.1267   9.3786165253e+01   6.4376462136e+01    0.1533249   0.09899098 -33.80 0.0008673479    1.712    0.416
        12  -9.0949    125.5211      8.0560   7.4272379729e+01   5.2065176796e+01    0.2446552    0.2213645 -57.57 0.0008431191    1.334    0.250
        13  -9.0373    121.1119      4.6774   7.4025384036e+01   5.3340731099e+01    0.3775573    0.1723147  62.91    0.0017652    2.022    0.505
        14  -8.6278     65.5348      5.0679   8.8702640302e+01   6.4140465324e+01    0.2768202    0.1608674  65.16  0.001266571    3.791    0.736
        15  -8.5218    128.2874      2.3465   7.1846029258e+01   5.1927016458e+01    0.1335832   0.08149667  34.21 0.0007022356    1.654    0.395
        16  -9.9591     11.8600      1.3382   1.0864916367e+02   7.1315177500e+01    0.1436184   0.08286355  21.15 0.0002886177    1.698    0.411
        17 -10.1518     40.2289    110.7374   1.3028720744e+02   4.8891260301e+01    0.3095732    0.2068224  13.29  0.001161775    1.979    0.495
        18  -8.8581    249.0265    249.9812   1.0856969414e+02  -1.4140690258e+01    0.1590091    0.1399005  47.09  0.001128345    1.657    0.396
        19 -10.2203      2.5149    246.8285   1.5197136282e+02   2.3394885586e+01    0.3507004    0.1549431 -73.38  0.002269047    1.999    0.500
        20 -11.0485     13.4721    242.6693   1.5008339172e+02   2.3021692487e+01    0.2658636    0.1600529  32.51  0.001748323    2.403    0.584
        21 -11.2948     15.3239    249.6062   1.5018225697e+02   2.1551576242e+01    0.3740705    0.2122821  43.06  0.002593055    1.836    0.455
        22 -11.0103      8.2593    248.2789   1.5118333133e+02   2.2543576025e+01    0.3988088     0.215478 -87.64  0.002807462    1.456    0.313
        23  -8.1492    218.5003     97.9361   8.2560973718e+01   1.6601562913e+01    0.2073426    0.1413819 -40.64 -0.0006538627    1.406    0.289
        24  -8.8557    245.4466     92.4664   7.7055141453e+01   1.1489464584e+01    0.1409221    0.1264969 -55.22 5.639113e-05    1.013    0.013
        25  -9.9515    228.2377     90.7816   7.9250061224e+01   1.5617788999e+01    0.4781807    0.2283077  47.07  0.001912917    2.368    0.578
        26  -9.7918    222.3629     90.9101   8.0218228134e+01   1.6952901199e+01    0.4510803    0.2818271  78.74  0.001449239    2.088    0.521
        27  -9.6235    211.3719     91.3603   8.2167780189e+01   1.9463757811e+01    0.3763756    0.2429841 -56.79 0.0008545903    1.659    0.397
        28  -7.8838    181.0427     90.9988   8.7761955531e+01   2.6892501058e+01    0.1800456    0.1694871  68.91 0.0009411226    1.046    0.044
        29  -7.8859    128.0089     90.9352   1.0007468798e+02   3.9326462497e+01    0.1708429    0.1680479 -23.33 0.0009322586    1.007    0.007
        30  -8.2759    148.7706     89.8259   9.4560463210e+01   3.4879219989e+01    0.1996425    0.1774814 -88.00 0.0003571287    1.247    0.198
        31  -7.8049    100.7034     87.6282   1.0668295127e+02   4.5456859302e+01    0.1513285    0.1103869 -12.37 0.0007028155    1.737    0.424
        32  -9.1452    160.8516     81.0548   8.9310715181e+01   3.3657550312e+01    0.2205368    0.2144776  72.06 0.0004027195    1.005    0.005
        33  -8.4209    216.4675     77.5180   7.7900732317e+01   2.0652094001e+01     0.146148    0.1363866 -73.29 2.371953e-05    1.020    0.019
        34  -9.1717    246.7310     73.9753   7.2707013966e+01   1.4264569466e+01    0.1947427    0.1611663 -53.71  0.000332071    1.080    0.074
        35  -8.7754    122.2970     74.6157   9.6790855770e+01   4.3688531134e+01    0.2054027    0.1342484  37.46 0.0009368568    1.577    0.366
        36  -8.5615    133.3268     72.6509   9.3340449355e+01   4.1627530242e+01    0.1530091    0.1185244 -78.44 0.0007049062    1.757    0.431
        37  -8.5697     40.2684     70.9557   1.2132077174e+02   5.7402350653e+01    0.1677929    0.1389979 -31.69 0.0006915724    1.057    0.054
        38  -9.2984     16.5989     66.2630   1.2838751242e+02   6.0315075367e+01    0.3428137    0.1837698 -69.00  0.001845554    2.141    0.533
        39  -9.6866     12.3276     70.0168   1.3073501500e+02   5.9849694427e+01    0.3189648    0.2161732 -17.35  0.001811672    1.616    0.381
        40  -9.3470      7.0014     66.4780   1.3179136945e+02   6.0871446992e+01    0.3493508    0.2076129 -74.24  0.002077028    1.925    0.480
        41  -9.6959    243.0871     68.9578   7.2052508553e+01   1.5872918706e+01    0.2087599    0.1885172 -64.50 0.0005621837    1.054    0.051
        42 -10.1116    231.1393     68.4944   7.3550938306e+01   1.8671261166e+01    0.3789853    0.2401135  80.53  0.001024196    1.791    0.442
        43 -10.1735    232.9341     65.2173   7.2539511238e+01   1.8774448985e+01    0.2833129    0.1856734  81.62 0.0008635942    1.672    0.402
        44 -10.4371    139.2859     66.3952   8.9982504695e+01   4.1356236536e+01    0.4380928     0.210669 -48.36  0.001672851    2.432    0.589
        45  -9.5631     59.9801     67.5052   1.1358959250e+02   5.5818943414e+01    0.1836536    0.1252769  26.64  0.001029719    1.585    0.369
        46  -9.8015    241.4684     63.5561   7.1040091638e+01   1.7082809655e+01    0.2174916    0.1754511 -39.40 8.677261e-05    1.265    0.210
        47  -9.3765    243.6614     61.2763   7.0252145309e+01   1.6940720029e+01    0.2002956    0.1640358 -50.59 0.0002340718    1.135    0.119
        48  -9.7519     80.0038     64.9006   1.0616938634e+02   5.3406171383e+01    0.2022756    0.1792435 -19.26  0.000421002    1.019    0.018
        49  -8.6635     84.6345     62.2960   1.0386261688e+02   5.3115297907e+01    0.1834376    0.1178431 -31.15  0.000341045    1.517    0.341
        50  -8.3042    250.2948     61.3219   6.9456936187e+01   1.5461879016e+01    0.1225085      0.10787  15.95  0.000274621    1.616    0.381
        51  -9.4005    220.2190     59.7027   7.2990356003e+01   2.2629718449e+01    0.2488298     0.223758 -20.42  0.000666069    1.344    0.256
        52  -9.3226    150.5030     58.4957   8.5021756371e+01   3.9999832486e+01    0.1462867    0.1394779  56.13 0.0008106521    1.011    0.010
        53  -9.1101    245.2733     55.9946   6.8880847274e+01   1.7379483517e+01     0.192204    0.1557891 -54.88 0.0003850865    1.112    0.101
        54  -7.9183    237.6543     56.6947   6.9965736928e+01   1.8999395910e+01    0.1309464    0.1071892  31.40 0.0005680528    1.693    0.409
        55  -9.3170    212.3729     55.7740   7.3155780498e+01   2.5125245581e+01    0.2390226    0.2091634  83.25 0.0003922754    1.068    0.064
        56  -9.3414     84.1546     55.5231   1.0178612917e+02   5.4364405720e+01    0.2159472    0.1662993  -8.49  0.000710668    1.323    0.244
        57  -9.1520    217.1875     55.0505   7.2290355069e+01   2.4067347913e+01    0.2190235      0.16852  10.46  0.001075555    2.016    0.504
        58  -9.8672     98.0232     54.0000   9.7024140627e+01   5.2132749283e+01     0.421679    0.2091426  42.07  0.001886211    1.981    0.495
        59  -9.7691     95.2085     51.5820   9.7045108046e+01   5.3046447319e+01    0.2808905    0.2271155  21.18  0.001247681    1.197    0.164
        60  -8.8636     47.5146     55.5115   1.1427184353e+02   5.9558952512e+01    0.1236799    0.1034394 -26.14 -0.0001028987    1.030    0.029
        61  -8.5795    222.6203     53.7928   7.1240262379e+01   2.2952333101e+01    0.2076396    0.1141804 -48.31 0.0009454563    1.739    0.425
        62  -9.9431     63.1099     52.0386   1.0760802221e+02   5.8195477845e+01    0.2604729     0.178896  35.73  0.001054255    1.574    0.365
        63  -8.9783    236.8595     51.1667   6.8809553084e+01   2.0003907305e+01    0.1677212    0.1632915 -11.57 0.0003281365    1.317    0.241
        64  -9.3632    207.8282     50.5342   7.2512851669e+01   2.7016388984e+01     0.313706    0.2563661  78.19  0.001731065    1.147    0.128
        65  -9.4212     83.3902     50.6840   1.0038794983e+02   5.5289644587e+01    0.2177275    0.1925907  27.46 0.0004459757    1.164    0.141
        66  -8.7110    172.0569     49.9106   7.8188330262e+01   3.6008615978e+01     0.207341    0.1776904 -87.67            0    1.205    0.170
        67 -10.5318    148.6694     49.4703   8.2690140252e+01   4.1807967654e+01     0.564862    0.1643935  55.89  0.001825897    3.166    0.684
        68  -9.6486     54.1344     47.3375   1.0919618832e+02   6.0181347746e+01    0.2572576     0.230506  72.16  0.001673006    1.776    0.437
        69 -10.2914    133.6756     38.8272   8.2650659070e+01   4.6813911056e+01    0.3177645    0.1952062  33.35     0.001488    1.790    0.441
        70  -9.8352    125.4301     43.4910   8.6104847279e+01   4.8047931165e+01    0.5144403    0.2237107 -38.04  0.002113312    2.417    0.586
        71  -9.8109    129.9970     42.2963   8.4620999782e+01   4.7187333128e+01    0.2644099    0.1990427  41.87 0.0008629563    1.241    0.194
        72  -8.7077    113.3636     44.3851   8.9470520597e+01   5.0532831812e+01    0.2740924    0.1311906 -26.48  0.001144426    2.366    0.577
        73  -8.9238     66.2457     43.7730   1.0366293680e+02   5.9101500504e+01     0.221758    0.1321706  -2.98  0.001059579    2.286    0.563
        74  -9.1464     96.4997     43.5089   9.3877322799e+01   5.4034258644e+01    0.1339704    0.1200056  10.43 -8.188375e-05    1.009    0.009
        75  -8.5617    155.5140     42.5204   7.9184408133e+01   4.1131642333e+01    0.1424002     0.131944  64.61   6.8219e-05    1.025    0.025
        76  -9.7195    205.9601     37.1297   6.9431936817e+01   2.9351924517e+01    0.4233047    0.3197886   0.38  0.002170899    1.994    0.498
        77  -9.1193    199.6139     28.4409   6.8109426809e+01   3.2030040190e+01    0.3999559    0.2193877  75.00   0.00186718    1.763    0.433
        78  -9.7138    199.5828     39.8568   7.1005400626e+01   3.0556265222e+01    0.4774532    0.2745558 -77.71   0.00202206    2.312    0.568
        79 -10.2421    177.3344    249.2167   1.2152044051e+02  -2.6036561850e+00    0.2313968    0.1610125  43.21  0.001386605    1.192    0.161
        80 -10.0636    151.9906     39.2757   7.8905742182e+01   4.2422596224e+01    0.2813706    0.2514868  52.37  0.001270337    1.035    0.034
        81  -9.0630    213.0821     49.1987   7.1435171088e+01   2.5927651398e+01    0.1960525     0.180004  71.39 0.0003450626    1.132    0.117
        82  -9.1853     27.9257     37.6741   1.1588056298e+02   6.4638412880e+01    0.1583812    0.1274507 -14.44 0.0008117967    1.097    0.088
        83  -8.9984     96.1630     36.1511   9.1368718561e+01   5.5132013547e+01    0.1648833    0.1575198 -51.57 0.0004054856    1.325    0.245
        84  -8.7634     18.9810     36.4833   1.1909917408e+02   6.5592629391e+01    0.1430211     0.101422  12.11 0.0004211452    1.499    0.333
        85  -9.1070      8.7065     35.0004   1.2285527562e+02   6.6572219100e+01    0.1526093     0.105562 -38.19 0.0003491315    1.093    0.085
        86  -8.7995    248.7639     33.2565   6.3577996930e+01   1.9823037698e+01    0.1937692    0.1489683 -72.66  0.001176286    1.109    0.099
        87  -8.4755    147.2960     32.6625   7.7817210511e+01   4.4396439972e+01     0.138785    0.1048946 -70.76 0.0004773852    1.652    0.395
        88 -10.4429     69.9307     27.0735   9.6184526390e+01   6.0939334541e+01    0.2975845    0.2658717 -81.08   0.00148061    1.904    0.475
        89  -9.9040    171.1274    249.1766   1.2268197546e+02  -1.5359880607e+00    0.1956818     0.156459  26.79  0.001217375    1.242    0.195
        90 -10.3021    153.9968    247.4718   1.2567871529e+02   1.6785605250e+00     0.220183     0.183298 -21.39  0.001391591    1.621    0.383
        91  -9.4686     34.4822    247.4930   1.4704648132e+02   1.9753260777e+01    0.1779879   0.08081985 -64.64  0.000887394    2.312    0.567
        92  -7.7980    245.7160     20.3207   6.1157554158e+01   2.2165524567e+01    0.1335768   0.07828926 -66.02 0.0005230081    1.591    0.372
        93 -10.5554    160.1019    244.9139   1.2416730331e+02   1.0369531413e+00    0.2877525    0.1461088  45.91  0.001443792    1.642    0.391
        94  -8.9004     62.0928     19.8945   9.6038608259e+01   6.3061787014e+01    0.1647308    0.1436093  13.57 0.0002728488    1.192    0.161
        95  -7.8426     18.2500     20.6944   1.1379697048e+02   6.8138636857e+01   0.09059315   0.07892594 -38.20            0    1.505    0.335
        96  -9.4369    245.3689    240.6275   1.0763728500e+02  -1.2463433705e+01    0.3379661    0.1869588  23.71  0.001875922    1.713    0.416
        97  -8.8373    195.5450     21.9153   6.6998087260e+01   3.3815369026e+01     0.199686     0.158671  78.46  0.000341907    1.106    0.096
        98 -11.2885      5.4863    236.9990   1.5101537935e+02   2.4904992003e+01    0.2974899     0.284714 -82.39  0.002586114    1.749    0.428
        99  -8.3945    135.8733     16.7992   7.5080198419e+01   4.8869999554e+01    0.1671532    0.1490373 -86.07 0.0003786547    1.273    0.214
       100  -8.0260     15.1879     17.6033   1.1395128616e+02   6.8844850163e+01    0.1295309   0.08311945  -2.50 9.327177e-05    1.433    0.302
       101  -8.5358     36.7152     16.1443   1.0413404359e+02   6.6925140637e+01    0.2281869    0.1225062   4.34  0.001051214    2.269    0.559
       102  -8.2433    228.2125     15.6382   6.1817201739e+01   2.6713594846e+01    0.1715843    0.1026197  64.34 0.0002929513    1.579    0.367
       103  -8.6275    144.5134     13.9970   7.2575606023e+01   4.7122920245e+01    0.1762484    0.1327255 -23.47 0.0004776978    1.516    0.340
       104  -8.4644     55.9892    215.0253   1.4066528074e+02   2.3424117235e+01    0.1458449    0.1110498  86.87 0.0009495441    1.086    0.079
       105 -10.4352    211.2155    210.6243   1.0862716725e+02  -2.5190581238e+00    0.2571412     0.162075  32.00  0.001314352    1.502    0.334
       106 -10.0571    123.9946    206.0110   1.2574725923e+02   1.4656832523e+01    0.1955452    0.1713138  65.07            0    1.005    0.005
       107  -9.8817    205.4838    205.4976   1.0879399115e+02  -6.2046998060e-01    0.2558198    0.1217319  51.63  0.001041285    2.448    0.591
       108  -8.5853     94.2295     21.4075   8.6514304604e+01   5.7325746066e+01    0.1627256    0.1165044  57.14  0.000239559    1.564    0.361
       109  -8.4425    111.8562     10.4718   7.8035816398e+01   5.4844468270e+01    0.1827874    0.1098205  53.50 0.0005480596    1.448    0.309
       110  -8.2031    139.0267    198.9904   1.2141811391e+02   1.3336732392e+01    0.1605159    0.1487596  71.59 0.0009291591    1.042    0.040
       111  -8.6746    133.0095    198.9596   1.2271083223e+02   1.4471126630e+01    0.2001698    0.1798807  65.08  0.001156225    1.008    0.008
       112  -8.9278    223.0107    188.0242   1.0199951837e+02  -9.1569165216e-01    0.1987186    0.1800406   8.05            0    1.012    0.012
       113  -8.7045    101.0044    175.9776   1.2609908268e+02   2.5269714019e+01     0.196712     0.175697  88.45  0.001129258    1.019    0.019
