#   1 NUMBER                 Running object number                                     
#   2 MAG_AUTO               Kron-like elliptical aperture magnitude                    [mag]
#   3 X_IMAGE                Object position along x                                    [pixel]
#   4 Y_IMAGE                Object position along y                                    [pixel]
#   5 X_WORLD                Barycenter position along world x axis                     [deg]
#   6 Y_WORLD                Barycenter position along world y axis                     [deg]
#   7 A_WORLD                Profile RMS along major axis (world units)                 [deg]
#   8 B_WORLD                Profile RMS along minor axis (world units)                 [deg]
#   9 THETA_WORLD            Position angle (CCW/world-x)                               [deg]
#  10 FWHM_WORLD             FWHM assuming a gaussian core                              [deg]
#  11 ELONGATION             A_IMAGE/B_IMAGE                                           
#  12 ELLIPTICITY            1 - B_IMAGE/A_IMAGE                                       
         1 -13.2398    242.3590     26.0219   3.4789852613e+02   2.5380272374e+01    0.7922085    0.5438491 -52.45  0.003946247    1.027    0.026
         2  -9.9036    227.2619      9.7879   3.4541213888e+02   2.9796525419e+01    0.1933739    0.1449753 -66.82 0.0007864711    1.119    0.106
         3 -10.5379      2.2805      2.7989   3.9069803709e+01   7.9358620521e+01    0.4134843    0.1308539 -45.19  0.001778135    3.057    0.673
         4  -8.8331     68.7056    246.7023   6.0200148016e+01   1.3163472445e+01    0.1151602   0.08847128 -10.60 0.0003169388    1.566    0.361
         5 -10.2205    139.4862    249.0026   4.4924416275e+01   4.9622134451e+00    0.2209066    0.1207291 -58.85  0.001208053    2.571    0.611
         6  -9.9740    100.9972    250.0237   5.3223374827e+01   9.0279375772e+00    0.3760302    0.1625961 -55.34  0.001898291    2.665    0.625
         7  -9.5899     99.5177    243.4470   5.2894840005e+01   1.0355884452e+01    0.3693268    0.1613998  36.89  0.001813654    1.927    0.481
         8  -9.0082     75.0000    250.1227   5.9040215859e+01   1.1851964016e+01    0.1655623   0.07982028 -55.10 0.0008527827    2.430    0.588
         9  -9.1964     75.7179    245.7924   5.8518061747e+01   1.2575912207e+01    0.2433731    0.1067784 -55.65  0.001197408    2.614    0.617
        10 -15.4043     67.0609    148.2144   4.9405074770e+01   3.6189713424e+01     9.731232     5.019542 -85.90   0.03367301    2.969    0.663
        11  -9.2828    194.5277    226.1673   3.1343735091e+01   2.5325264613e+00     0.157652   0.09647363 -35.77 0.0007343628    1.511    0.338
        12 -10.8966    159.8577    223.6276   3.7492446113e+01   6.7635283639e+00    0.2887531    0.1287172 -43.08  0.001449642    2.232    0.552
        13  -9.6010     71.9928    224.0320   5.7461368746e+01   1.7297518073e+01    0.1898999    0.1686035  18.24 0.0004378822    1.116    0.104
        14  -9.5203    174.5418    223.4970   3.4608646823e+01   5.1006087388e+00     0.118358    0.0961613  -4.13 -6.108971e-06    1.006    0.006
        15 -10.4838    109.8354    222.9298   4.8249959356e+01   1.2961463511e+01    0.1991126    0.1617391  -7.41 0.0006485882    1.276    0.216
        16 -13.0654    112.6050    229.3423   4.8384745331e+01   1.1410534373e+01     1.081706    0.3574089  29.14  0.004097695    2.548    0.607
        17 -11.6917     98.4021    227.4010   5.1443811092e+01   1.3489402051e+01    0.7170551    0.4973985  23.04   0.00414134    1.268    0.211
        18  -9.8556    105.9926    215.2554   4.8206350950e+01   1.4953512978e+01    0.1913863    0.1605087  21.58  0.000695303    1.061    0.058
        19  -9.9186    111.2631    214.2529   4.6826085171e+01   1.4481166908e+01    0.1764969    0.1405071  46.83 0.0005624137    1.331    0.249
        20  -9.9939     45.7991    241.4105   6.5143939666e+01   1.6586276911e+01    0.2230369    0.1612899 -79.76  0.000837276    1.600    0.375
        21  -9.9224     95.3399    209.0907   5.0035648103e+01   1.7590149658e+01     0.297561    0.1734855 -72.12  0.001408556    2.213    0.548
        22  -9.9368    210.7466    198.8915   2.4407796329e+01   4.8126371259e+00    0.2040228    0.1511916 -10.62 0.0004761028    1.163    0.140
        23  -9.9524    194.1806    196.5730   2.6845359581e+01   7.0907512628e+00    0.2246239    0.1472526 -70.47 0.0009627478    4.349    0.770
        24 -15.0480     10.1790    206.2753   7.2065733609e+01   2.7603195285e+01    0.8130118    0.5238991   5.57  0.002597207    1.876    0.467
        25  -8.9051    234.4763    191.4415   1.9555355680e+01   3.3300146125e+00     0.109523   0.08351971 -22.38 8.740998e-05    1.044    0.043
        26 -11.0809    101.0017    191.1437   4.6209990151e+01   2.0734232666e+01    0.3457593    0.1938559  29.54  0.001192832    1.668    0.401
        27 -10.1935     67.3528    190.9113   5.5210819301e+01   2.5293876727e+01    0.2442384    0.1977169  53.50 0.0005417145    1.188    0.158
        28  -9.2413     65.7901    186.8638   5.5175219296e+01   2.6469495291e+01    0.2307458    0.1810542  89.71 0.0002909824    1.382    0.276
        29  -9.4434     51.9953    185.9770   5.9012436334e+01   2.8369523865e+01    0.2894233    0.1885501   2.07  0.001019746    1.984    0.496
        30  -9.6769    157.0407    184.7035   3.2013449791e+01   1.4034337726e+01    0.1812375    0.1608102  -0.05 0.0004187671    1.046    0.044
        31 -16.4104     11.4371    148.4173   6.8324102979e+01   4.2347417050e+01     13.77771     4.311647  83.40     0.039626    4.446    0.775
        32 -10.9901    171.6023    174.6768   2.7298499160e+01   1.3824297433e+01    0.3470589    0.3012962   6.53  0.001170075    1.130    0.115
        33 -11.1473    172.9780    170.7916   2.6327691370e+01   1.4338910808e+01     0.493679    0.2652354  45.23  0.001910319    2.223    0.550
        34 -10.2725    104.4294    171.0005   4.2191606388e+01   2.4833848553e+01    0.3623207    0.2487275 -73.21  0.001148358    1.772    0.436
        35 -11.0352     88.9988    170.0238   4.6276277631e+01   2.7399545593e+01    0.3413282    0.3196171  34.35  0.001044646    1.032    0.031
        36 -11.1807     43.5618    237.1524   6.5402571657e+01   1.7670895682e+01    0.2106146    0.1957041  33.77 0.0004523871    1.152    0.132
        37 -10.8244    179.4416    165.9193   2.4198419403e+01   1.4283348829e+01    0.5076982    0.3133407 -64.33  0.002334857    2.676    0.626
        38 -10.1288    110.5241    167.3670   3.9956285585e+01   2.4728896684e+01    0.2796746    0.2438551  75.63 0.0005181232    1.316    0.240
        39  -9.2783     53.2675    158.8135   5.5432957884e+01   3.5229769864e+01    0.2457013    0.1715606  72.38 0.0007949583    1.559    0.359
        40 -10.9344     44.8819    150.1021   5.7040262484e+01   3.8604921512e+01    0.3419231    0.2770433 -40.63 0.0003443672    1.380    0.275
        41 -10.3645    102.7723    238.7248   5.1670580685e+01   1.0839860828e+01    0.2727936    0.1873191 -51.38  0.001152116    1.674    0.402
        42 -12.0845     50.2443    143.6186   5.4305591784e+01   3.9713659519e+01    0.4274912    0.3830402 -39.29 0.0005935516    1.223    0.182
        43 -10.7753    134.0883    147.5801   3.0245696340e+01   2.5271515355e+01     0.783039    0.2330995 -54.04  0.002334904    3.915    0.745
        44 -11.5764     85.5144    144.8424   4.2982846019e+01   3.4241370554e+01    0.6643108    0.4567991 -17.78  0.001950062    2.109    0.526
        45 -10.7054    108.8859    145.4169   3.6292068360e+01   3.0166473305e+01    0.2928088     0.267734  55.21 0.0006267501    1.117    0.105
        46 -10.4468     36.6680    142.6760   5.8911895619e+01   4.1584639860e+01    0.3370907    0.2563832 -76.59 0.0007874209    1.278    0.217
        47 -10.8052     29.1065    143.1755   6.1647561544e+01   4.2239422411e+01     0.536516    0.2825229  34.23  0.001288983    1.790    0.441
        48  -9.6791     37.6681    137.4185   5.7859713419e+01   4.2929481576e+01    0.3759983     0.192987  57.39 0.0009425153    2.207    0.547
        49  -9.0665    129.2607    140.6606   2.9985029709e+01   2.7655645369e+01    0.1448242    0.1156263 -86.74 0.0002699893    1.586    0.370
        50 -10.6445     44.9716    136.3149   5.5067483458e+01   4.2377385675e+01    0.3485999    0.2975063 -59.10 0.0008067009    1.181    0.153
        51 -11.6446     41.2589    132.0047   5.5769422465e+01   4.4017331834e+01    0.7693444    0.4455873  10.85 0.0007715317    2.148    0.535
        52 -10.8943    101.1588    133.2273   3.5952284122e+01   3.4478469899e+01    0.4305705    0.3125144 -11.04  0.001860499    2.006    0.502
        53 -10.3815    105.1469    130.6935   3.4249381739e+01   3.4371319337e+01    0.3841012     0.330143  61.66  0.001257207    1.221    0.181
        54 -11.6043     87.7382    131.8387   3.9718536464e+01   3.7186893163e+01    0.2989718    0.2781522 -53.19 0.0003715383    1.088    0.081
        55 -10.7682    110.6674    126.0033   3.1639479450e+01   3.4464432294e+01     0.364594    0.2642143   7.38  0.001498786    2.014    0.503
        56 -14.5503      5.4090    227.7713   7.4076621351e+01   2.3169161614e+01    0.4070499    0.3557221  22.66  0.001733226    1.259    0.206
        57 -10.1518     97.2420    121.2548   3.4447367795e+01   3.8129187054e+01     0.284874    0.2473014  -8.53 0.0005468379    1.386    0.278
        58  -9.3818    221.2465    127.3670   1.0066721306e+01   1.4667917448e+01    0.2040345    0.1195827 -51.49 0.0005485594    1.679    0.405
        59 -11.1596     53.9902    234.2996   6.2711516008e+01   1.7171917636e+01    0.5877685    0.2549352 -69.31  0.002131095    2.618    0.618
        60 -10.3705     27.7331    119.1249   5.9076433941e+01   4.9088334570e+01    0.2913897    0.1847037 -52.77  0.001004768    1.562    0.360
        61 -11.3493     36.1152    117.5186   5.5457031730e+01   4.8640237375e+01    0.4966085    0.2171284  46.08  0.001824973    2.402    0.584
        62  -9.6690    106.9268    116.0210   3.0345369200e+01   3.7538947799e+01    0.2264207     0.216177 -77.96 0.0003160635    1.022    0.022
        63  -8.6341     95.4808    110.9930   3.2521863050e+01   4.0962616887e+01    0.1982788    0.1353703 -85.69  0.000373478    2.072    0.517
        64 -11.6729     87.2762    222.5375   5.3569201585e+01   1.5798782227e+01    0.7181699    0.3763846  41.35  0.003538614    1.732    0.423
        65 -11.4773     31.1423    109.0823   5.6084545058e+01   5.1530389054e+01    0.4566858     0.297666  55.95  0.001332283    1.657    0.397
        66 -12.0780     24.0082    105.2681   5.8524488829e+01   5.3308243300e+01    0.5861295    0.3872427  53.53  0.001747728    1.606    0.377
        67 -17.3920      5.0346    217.2006   7.3808740327e+01   2.5520786564e+01      3.66339     1.613534  80.00   0.01733857    2.299    0.565
        68  -9.7337    114.4963    108.5372   2.6368223066e+01   3.7756218952e+01    0.1518612    0.1465008 -75.27 0.0003297267    1.011    0.011
        69  -9.0634     74.4101    106.2705   3.8373680508e+01   4.6044168682e+01     0.215144    0.1487716 -72.42 0.0004782465    1.628    0.386
        70 -13.2583    133.4922    229.3720   4.3761227652e+01   8.9024388685e+00    0.7450847    0.4795654  10.24  0.004237609    1.531    0.347
        71  -9.7694     32.5119    101.0253   5.4031376047e+01   5.3595100732e+01    0.2277204    0.1442105 -72.04 0.0005996382    1.562    0.360
        72 -10.0406     60.0729    100.2215   4.2268651719e+01   5.0022905011e+01    0.2927119    0.2003133  53.32 0.0008361882    1.572    0.364
        73 -10.0664     59.1873    230.9272   6.1196910381e+01   1.7305265830e+01    0.2533191    0.1704924 -72.20  0.001234831    1.715    0.417
        74  -8.6844     85.9981     94.9392   3.1363466838e+01   4.6663205879e+01    0.1832973    0.1745949 -72.89 0.0003892414    1.032    0.031
        75  -9.9348     57.7490     94.5960   4.1786762572e+01   5.1847271450e+01    0.2680627    0.1823964  43.71 0.0006234861    1.476    0.322
        76 -10.0836     27.2788     93.9950   5.5041326160e+01   5.6071708762e+01    0.2709289    0.1842559  50.63 0.0006320714    1.573    0.364
        77  -8.7324    161.3194     88.2986   1.0691102869e+01   3.2034507634e+01     0.132196    0.1124607   4.90 0.0003546036    1.618    0.382
        78  -9.9564     56.3634     86.8390   4.0291958555e+01   5.4036833792e+01    0.2699877    0.1990446  47.42 0.0006784615    1.384    0.277
        79 -14.1367     42.9269    176.9168   6.0754219644e+01   3.1702386810e+01     3.003918     1.551107 -19.53   0.01022559    3.881    0.742
        80  -8.9925     71.7221    232.7628   5.8327015405e+01   1.5542747637e+01    0.1809169    0.1246808  46.01  0.001042983    1.329    0.247
        81  -9.3496    184.4985     77.0055   4.2766638478e+00   2.9208190770e+01    0.1719899    0.1152056 -14.84 0.0006664038    2.387    0.581
        82 -11.4389    192.0581     63.6449   1.3958691381e-01   2.9762766776e+01    0.3194974    0.3046841 -85.52 0.0006991964    1.235    0.191
        83 -11.1902      2.0638     62.8184   6.2376713421e+01   6.6286312470e+01    0.3045165    0.1942392 -54.69  0.001574363    1.403    0.287
        84 -10.5716     46.9853    229.2512   6.4048647512e+01   1.8956318713e+01    0.2487351    0.2032906  58.39 0.0009711001    1.162    0.139
        85 -12.9744    206.3144     54.2192   3.5644388797e+02   2.8326530034e+01    0.8053669    0.7043357 -60.41  0.003528926    1.139    0.122
        86 -12.9210    214.4731     48.1766   3.5436556380e+02   2.7602593030e+01    0.5705153    0.5313323 -67.47  0.001518643    1.275    0.216
        87 -11.1370     13.3278     60.0768   5.4865544492e+01   6.6201262421e+01    0.2509153    0.2086054 -30.21 0.0004917824    1.170    0.145
        88 -11.0802     41.7259    231.0905   6.5456224778e+01   1.9110636100e+01    0.3761048    0.2309524  72.50   0.00157956    1.774    0.436
        89 -10.0851     28.1771     49.9716   4.2632690467e+01   6.6992820468e+01    0.2272775    0.1908722  23.97 0.0003924822    1.172    0.147
        90  -8.8527     41.9736     46.7219   3.3535736206e+01   6.5625244299e+01    0.1782686    0.1196579  35.17 0.0006918234    1.446    0.309
        91 -10.6443    225.2656     40.0079   3.5177678611e+02   2.6679221589e+01    0.1697848    0.1177343 -49.15 0.0004565628    1.097    0.088
        92  -9.3209     37.4070     35.0119   3.0835672554e+01   6.8688103605e+01    0.2419763    0.1764879  51.14  0.000847769    1.494    0.331
        93 -11.1167    124.9399    244.0141   4.7381983800e+01   7.3801395350e+00    0.2909482    0.1700661 -52.19  0.001130517    1.992    0.498
        94 -10.5827      3.5400     25.7207   5.0702576616e+01   7.4877221145e+01    0.5256637    0.1513682  28.14  0.002070537    3.103    0.678
        95 -10.1356      2.3325     22.6833   5.0459626198e+01   7.5606349037e+01    0.2422757    0.1752246  37.93 0.0009982185    1.554    0.356
        96  -9.8467     60.7646     21.3393   1.2770604400e+01   6.6246550908e+01    0.2263061     0.195866  80.22  0.001023031    1.248    0.199
        97 -10.7340    125.3961    238.2377   4.6608164119e+01   8.3107181322e+00    0.2068822    0.1110835 -47.66 0.0008899464    2.044    0.511
