#   1 NUMBER                 Running object number                                     
#   2 MAG_AUTO               Kron-like elliptical aperture magnitude                    [mag]
#   3 X_IMAGE                Object position along x                                    [pixel]
#   4 Y_IMAGE                Object position along y                                    [pixel]
#   5 X_WORLD                Barycenter position along world x axis                     [deg]
#   6 Y_WORLD                Barycenter position along world y axis                     [deg]
#   7 A_WORLD                Profile RMS along major axis (world units)                 [deg]
#   8 B_WORLD                Profile RMS along minor axis (world units)                 [deg]
#   9 THETA_WORLD            Position angle (CCW/world-x)                               [deg]
#  10 FWHM_WORLD             FWHM assuming a gaussian core                              [deg]
#  11 ELONGATION             A_IMAGE/B_IMAGE                                           
#  12 ELLIPTICITY            1 - B_IMAGE/A_IMAGE                                       
         1 -18.6615    173.3999    182.2612   9.6274663328e+01   1.2545890703e+01     5.884233     3.622617 -64.78   0.02745208    2.807    0.644
         2 -16.7325    211.3687     82.8508   6.6801607119e+01   2.0607148727e+01     2.700326     1.583799 -48.96   0.01162309    1.905    0.475
         3 -15.9469      9.4923     56.4282   1.1662563694e+02   6.3290661212e+01     1.377459     0.867525 -57.16   0.00878312    1.238    0.192
         4 -15.7245    131.4271    183.4952   1.0483980127e+02   1.9855604799e+01     1.714975     1.381505 -28.54   0.01032875    1.667    0.400
         5 -13.8041    146.3536    248.8009   1.1019606796e+02   7.5828013331e+00    0.6961192    0.3830053  52.82  0.004174858    1.594    0.373
         6 -14.5857    141.1381    239.5381   1.1009542957e+02   9.5669919606e+00    0.5310515    0.3568625  71.32  0.002967501    1.903    0.474
         7 -14.4684    135.6571    238.2939   1.1090579077e+02   1.0561747538e+01    0.5311254    0.3472375  47.28  0.002604254    1.152    0.132
         8 -16.3736     89.5016    236.1615   1.1866823425e+02   1.7506617849e+01     1.859614     1.033818  53.39   0.01230984    1.361    0.265
         9 -15.8538    102.0144    227.2866   1.1570456269e+02   1.7139074423e+01     1.578113    0.6269027  54.34  0.008000532    2.289    0.563
        10 -19.2068     63.3219    128.7979   1.1224669685e+02   4.1755584596e+01     18.49009     2.715569 -64.73   0.04258064    8.301    0.880
        11 -14.6629    130.6646    203.6829   1.0777514371e+02   1.6541122266e+01    0.7389073    0.4972104  81.44  0.003879384    2.025    0.506
        12 -13.8281    122.1696    197.4868   1.0862898209e+02   1.8959602707e+01    0.7162377    0.3858456 -87.50  0.002806496    4.336    0.769
        13 -14.2714     10.4843    203.7038   1.3035012344e+02   3.2150863464e+01     1.210677    0.6973407  79.30  0.007075049    1.335    0.251
        14 -14.7172    243.9412    212.2872   8.8949317726e+01  -3.2443282986e+00     0.550029    0.4440561  24.23  0.004061512    1.180    0.153
        15 -16.4650    149.9107    183.1223   1.0104068064e+02   1.6671821237e+01     1.386264     1.106799 -70.99  0.008324165    1.545    0.353
        16 -17.3512    161.7481    201.8688   1.0160716346e+02   1.1607455726e+01     3.144948     2.040025  72.72   0.01587181    2.537    0.606
        17 -13.8244    128.0376    232.5006   1.1161983726e+02   1.2523279947e+01    0.2694137     0.246671  30.67  0.001230301    1.327    0.246
        18 -12.6658     78.3148    200.1294   1.1752575554e+02   2.5063403999e+01    0.2374234    0.1383185  50.77  0.001439625    1.400    0.286
        19 -11.8801     44.2094    197.6434   1.2386284236e+02   2.9793340964e+01    0.1321134   0.09352051  40.16  0.000731574    1.499    0.333
        20 -13.0416     80.8776    193.7425   1.1638852589e+02   2.5883609838e+01    0.4538938    0.1991967  48.94  0.002309523    1.900    0.474
        21 -12.0604     26.6984    195.1231   1.2698441835e+02   3.2148735313e+01    0.1773784   0.09781054  75.18 0.0008232594    1.502    0.334
        22 -13.5630     27.4207    177.6367   1.2572372900e+02   3.5432681071e+01    0.8763983    0.4110928  73.16  0.004918821    2.004    0.501
        23 -14.4649     25.1391    185.7360   1.2670595348e+02   3.4082679103e+01    0.5879819    0.3256321  87.38  0.003662483    1.537    0.349
        24 -13.5970     19.4821    181.9957   1.2757124922e+02   3.5354486921e+01    0.3465604    0.2297916  75.66  0.001363629    1.152    0.132
        25 -12.1412     13.1386    173.3265   1.2830409937e+02   3.7633779492e+01    0.1797193    0.1171318 -79.21 0.0008420066    1.361    0.265
        26 -15.3233      7.0009    159.8483   1.2875817653e+02   4.0858717912e+01    0.7785184    0.5453996  50.81  0.004624289    1.370    0.270
        27 -15.5051      4.5177    149.7831   1.2867236227e+02   4.3122500729e+01    0.6015174    0.4255916 -72.11  0.003166587    1.351    0.260
        28 -14.9277    128.3628    221.8751   1.1040062218e+02   1.4042661781e+01    0.8678925    0.5434846 -59.48   0.00547335    1.994    0.498
        29 -13.2958     34.2478    158.6390   1.2280142087e+02   3.8605767545e+01    0.3753825    0.1788477 -84.60  0.002006979    1.961    0.490
        30 -14.3669     28.3707    154.8841   1.2378128059e+02   3.9983178115e+01     0.446438    0.2706623  65.97  0.002314741    1.455    0.313
        31 -14.0418     19.3178    145.6659   1.2506071014e+02   4.2774963181e+01    0.2334429    0.1615668  71.74   0.00112839    1.221    0.181
        32 -12.0777     94.9475    144.0602   1.0675676412e+02   3.3774337374e+01    0.1966365    0.1647074 -23.53 0.0008267417    1.658    0.397
        33 -12.2382    105.8305    131.7327   1.0187282460e+02   3.4597735013e+01    0.2333338    0.1853997 -48.66 0.0005468774    1.332    0.249
        34 -13.4434    143.8757    216.0745   1.0687151286e+02   1.2459126187e+01     1.186547    0.7361601  62.74  0.006793607    1.858    0.462
        35 -13.5825      3.6911    118.2120   1.2657196360e+02   4.9926213622e+01    0.2602369    0.2164032  16.14  0.001949331    1.649    0.394
        36 -15.7301    220.8639     99.6145   6.9582795926e+01   1.5862945047e+01     1.568776    0.9715294  52.02  0.006894701    1.661    0.398
        37 -15.2202    110.9558    185.6306   1.0933875068e+02   2.2877010219e+01     1.335804    0.6863847  43.03  0.006219218    1.698    0.411
        38 -15.2593     19.2776     54.2871   1.1229025501e+02   6.3113439527e+01    0.8901531    0.4746888 -44.31  0.004504685    1.677    0.404
        39 -15.6613     22.7109     40.4875   1.0718225811e+02   6.5781842803e+01     2.214904    0.6467189  18.88  0.008215626    5.227    0.809
