#   1 NUMBER                 Running object number                                     
#   2 MAG_AUTO               Kron-like elliptical aperture magnitude                    [mag]
#   3 X_IMAGE                Object position along x                                    [pixel]
#   4 Y_IMAGE                Object position along y                                    [pixel]
#   5 X_WORLD                Barycenter position along world x axis                     [deg]
#   6 Y_WORLD                Barycenter position along world y axis                     [deg]
#   7 A_WORLD                Profile RMS along major axis (world units)                 [deg]
#   8 B_WORLD                Profile RMS along minor axis (world units)                 [deg]
#   9 THETA_WORLD            Position angle (CCW/world-x)                               [deg]
#  10 FWHM_WORLD             FWHM assuming a gaussian core                              [deg]
#  11 ELONGATION             A_IMAGE/B_IMAGE                                           
#  12 ELLIPTICITY            1 - B_IMAGE/A_IMAGE                                       
         1 -11.2232     15.3219     18.4333   1.0829835867e+02   7.4970795864e+01    0.3228363    0.2534311  76.15  0.001669996    2.161    0.537
         2 -12.1838     18.1409     24.0104   1.0895696470e+02   7.3586073770e+01    0.5120836    0.3319147 -60.38  0.002326736    1.813    0.448
         3 -11.8528      1.9145     25.4642   1.2272493132e+02   7.4594542147e+01    0.3524687    0.1743633 -69.25  0.001730161    2.127    0.530
         4 -11.8817      6.9882     18.0494   1.1524059134e+02   7.5817182196e+01    0.4101406    0.3074509  -3.08   0.00161736    1.242    0.195
         5 -11.2157    182.2379     19.1478   5.6012651423e+01   3.6469776914e+01     0.287507    0.2161438 -23.32  0.001046772    1.517    0.341
         6 -12.1054     79.8242     15.5519   7.1896464088e+01   6.3162401721e+01    0.5524955     0.394059  89.01  0.001371382    1.761    0.432
         7 -10.4904     43.8633     16.5917   8.7469824989e+01   7.0975276565e+01    0.3949679    0.2762844  84.07  0.001704122    3.246    0.692
         8 -10.6096     67.4094     13.8529   7.5164691465e+01   6.6322992675e+01       0.4186     0.216529 -24.14   0.00189841    2.182    0.542
         9 -12.3317    174.8346     11.6832   5.4613854881e+01   3.9028920185e+01    0.3462603    0.3018362 -83.00  0.001642962    1.063    0.059
        10 -11.1353    218.2935     12.1046   5.1601366964e+01   2.9077075460e+01    0.2022561    0.1499839  76.22  0.001067284    1.419    0.295
        11 -10.2148     97.8938     12.0418   6.5513343704e+01   5.8955162040e+01    0.2067145    0.1856562  69.93 0.0003953238    1.029    0.029
        12 -10.4527     21.8693     12.0619   9.9196439054e+01   7.5311694569e+01    0.2489481    0.1498059  52.47  0.001167567    2.634    0.620
        13 -11.4656     51.3782      7.9763   7.8296937927e+01   7.0579859227e+01     0.529057    0.2623427 -15.32   0.00178463    2.655    0.623
        14 -11.4350     45.5509      8.8444   8.1699259008e+01   7.1689206960e+01    0.3613513    0.3464116  59.96  0.002347208    1.257    0.205
        15 -11.2788     39.0211      4.1541   8.2059739570e+01   7.3555595108e+01    0.4023908    0.2582461 -52.14  0.002022765    2.385    0.581
        16  -9.9216     13.0128     11.0431   1.0597521088e+02   7.6588692635e+01    0.1477591    0.1236658 -17.20 0.0004047127    1.052    0.050
        17 -10.2586     38.5301      9.9768   8.6336277197e+01   7.2907056171e+01    0.2751892    0.1576346  59.27  0.001257968    2.441    0.590
        18 -12.3144    209.5538      5.1854   5.0500547135e+01   3.1627099369e+01    0.4806778    0.2422926 -60.72 0.0007841924    1.711    0.416
        19 -11.5255    194.4156      8.6060   5.2278510916e+01   3.4681402585e+01    0.2860745    0.1860543 -85.84  0.001070198    1.397    0.284
        20 -10.4338     74.4557      8.5675   6.9938531594e+01   6.5210077339e+01     0.274395    0.2133725  67.58  0.001533209    1.236    0.191
        21 -10.9649    159.2490      7.3445   5.4767736991e+01   4.3328950341e+01    0.2647751    0.1943971 -78.39 0.0006571134    1.215    0.177
        22 -11.6578    161.5436      3.0868   5.3280348910e+01   4.3131270813e+01     0.465726    0.2548688  87.73  0.001723677    1.669    0.401
        23 -10.9190    108.4530      7.4949   6.1448913929e+01   5.6613472333e+01    0.2971548    0.1228782  70.04  0.001118244    2.115    0.527
        24  -9.8465     87.4945      7.0092   6.5587817678e+01   6.2103132892e+01    0.1861946    0.1398802 -15.04  0.001010761    1.535    0.348
        25 -10.5880     24.7300      6.6689   9.3295746690e+01   7.5742287571e+01    0.2188383    0.1900032 -37.70  0.001413801    1.372    0.271
        26  -9.6675     19.7627      7.0132   9.7465992612e+01   7.6424450426e+01    0.1516575   0.09905104 -36.96 0.0004587025    1.540    0.351
        27 -11.4320    194.0644      3.7632   5.1076035429e+01   3.5223349302e+01    0.3174319    0.1946514  60.27 0.0006160663    1.797    0.444
        28 -10.5212     14.2434      5.0009   1.0080146521e+02   7.7479744187e+01    0.1661883    0.1387961 -15.93 0.0002095714    1.096    0.088
        29  -9.5654      7.7896      5.4306   1.0725292496e+02   7.8136658403e+01    0.1596133    0.1033891   5.57 0.0003487502    1.493    0.330
        30 -10.4799    184.6179      4.2182   5.1818056953e+01   3.7384721312e+01    0.1567323    0.1215474 -14.12 0.0003376588    1.618    0.382
        31 -10.6126    107.6035      3.2354   5.9818203865e+01   5.7196989680e+01    0.3027154    0.1435115  34.16  0.001209028    2.792    0.642
        32 -10.1623    248.9968      3.0045   4.8166229907e+01   2.3926624770e+01    0.1835027   0.08822416 -55.65 0.0004499342    1.587    0.370
        33 -10.4470    217.9081      2.3315   4.9399519559e+01   3.0113626554e+01    0.2182512    0.1587674 -35.01  0.001094047    1.351    0.260
        34 -10.7800     73.7380      1.9351   6.6574115849e+01   6.5992090223e+01    0.2839175    0.2056439  62.66  0.001348539    1.213    0.176
        35 -10.6802    199.2119      1.6716   5.0244758549e+01   3.4246047175e+01    0.2253658    0.1454248  75.51 0.0007350596    1.512    0.339
        36 -11.2334    180.7727      1.9297   5.1473643567e+01   3.8508360582e+01    0.3481674    0.1635585  75.45  0.001696082    1.933    0.483
        37  -9.9016    115.6016      2.1671   5.8126802370e+01   5.5170662230e+01    0.1623502    0.1317565  12.25 0.0003093966    1.512    0.339
        38  -9.6520     48.6421      2.6970   7.6128153061e+01   7.1742492912e+01     0.142864   0.08513439  30.01 0.0007038732    1.717    0.418
        39 -10.1188    143.5213      1.4328   5.4444298121e+01   4.7886009158e+01    0.1358968    0.1149286 -89.54 3.481665e-05    1.010    0.010
        40 -10.1973     90.5125      1.4385   6.2227180073e+01   6.1799456638e+01     0.255176    0.1186655  68.86 6.710811e-05    1.864    0.463
        41 -10.4584      8.6246      1.2377   1.0341298927e+02   7.8763367781e+01    0.3879958   0.07805853  32.88  0.001178899    4.462    0.776
        42 -10.4894    151.7133    227.3158   1.0858554095e+02   8.0818298035e+00    0.1962679    0.1500038  13.28 0.0002679754    1.127    0.112
        43 -10.1676    208.1991    250.1881   1.0096675291e+02  -1.9843711050e+00    0.1640023    0.1197275   7.64 0.0004845076    1.054    0.051
        44 -10.8833    210.4673    247.0244   1.0013842123e+02  -1.8703040815e+00    0.2284383    0.1702386  15.49 0.0006522743    1.195    0.163
        45 -12.5107    187.4867    248.4906   1.0443455566e+02   5.7384468024e-01    0.3386318    0.2202123 -34.81 0.0001363044    1.770    0.435
        46 -11.4757    115.9365    248.9301   1.1878353339e+02   9.4403910867e+00    0.3982368    0.2392828   3.60  0.001817082    2.264    0.558
        47 -10.2760    107.4855    250.3523   1.2072659161e+02   1.0286307562e+01    0.2515815    0.1022893  39.92  0.001071765    1.941    0.485
        48 -12.2743     46.6318    246.8312   1.3364906214e+02   1.8113442059e+01    0.3249238    0.1924037  83.37  0.001976917    1.970    0.492
        49 -12.2681     14.3683    219.2620   1.3954723542e+02   2.6646952998e+01    0.2939474    0.2019045 -68.83 0.0009323093    1.702    0.413
        50 -10.9275     45.8220    229.6177   1.3280171591e+02   2.1414505162e+01    0.5295659    0.2968006  76.33  0.002922045    2.013    0.503
        51 -11.4897     39.8648    229.7554   1.3418006794e+02   2.2032480278e+01    0.3159241    0.2481804  48.62  0.001089031    1.028    0.027
        52 -13.5820     17.5139    247.0208   1.3986829071e+02   2.1018202890e+01     1.014788    0.4236864  44.35  0.005829292    1.643    0.391
        53 -12.7509     11.3259    232.0974   1.4069081178e+02   2.4376071411e+01    0.6742624    0.4594071  57.88  0.002843227    1.166    0.143
        54 -12.2150     31.6271    231.4180   1.3614540114e+02   2.2566767486e+01    0.7495219    0.4250182  66.22  0.003443683    1.674    0.403
        55 -12.6479      9.7669    248.0703   1.4150782024e+02   2.1537907803e+01    0.4620057    0.3934065  61.38  0.003664868    1.216    0.178
        56 -12.5312      3.0560    246.6373   1.4284596108e+02   2.2385269524e+01    0.3110195    0.2535672  40.42  0.001036842    1.208    0.172
        57 -13.3252      3.5363    235.4583   1.4247006992e+02   2.4413900692e+01    0.8792761    0.3347838  78.81  0.004511497    2.639    0.621
        58 -12.8825     21.3659    236.1450   1.3864115152e+02   2.2671113917e+01    0.7438417    0.3381999  69.72  0.002378543    2.184    0.542
        59 -12.2767     34.0302    248.3149   1.3643311612e+02   1.9170191730e+01    0.5513732    0.1398334  34.14  0.001518234    2.466    0.594
        60 -13.7957     34.1428    243.7849   1.3619549409e+02   1.9979623713e+01    0.8502755    0.3718135  25.08  0.002416518    2.082    0.520
        61  -9.8670     74.5660    231.5156   1.2629890985e+02   1.7683377848e+01    0.2030488    0.1830035 -40.42 0.0005767817    1.414    0.293
        62 -11.7751     73.4801    226.6475   1.2612722108e+02   1.8737163401e+01    0.4061733     0.172103  47.90   0.00140673    2.123    0.529
        63 -10.0425     80.8938    231.2422   1.2481486870e+02   1.6942701204e+01    0.1906878    0.1324733  45.23 0.0006598463    1.217    0.178
        64 -10.1208     58.7340    230.1121   1.2984982854e+02   1.9854832109e+01    0.2241597    0.1123063  69.73  0.001075601    2.532    0.605
        65 -10.6027    243.4560    230.0036   9.2267079075e+01  -3.4822136096e+00    0.1503634   0.08388119 -26.13   0.00102348    1.574    0.365
        66  -9.8264    231.9540    229.9821   9.4078332800e+01  -2.2620956578e+00     0.167324    0.1113526  44.78  0.001043278    2.658    0.624
        67 -10.8479     96.2181    229.9585   1.2116434795e+02   1.5196800605e+01    0.3022934    0.1417926  45.38 0.0005345137    1.926    0.481
        68 -10.1319    173.6614    227.9372   1.0421251297e+02   5.0394113181e+00    0.2125077    0.1344579  19.15 0.0006879647    1.331    0.249
        69  -9.7620    125.7946    228.3991   1.1431276444e+02   1.1469990014e+01    0.1755011    0.1019852  21.43 0.0003548818    1.598    0.374
        70 -10.4380    111.2482    227.7696   1.1749564042e+02   1.3570286284e+01    0.2075798    0.1556099  40.68 0.0004879296    1.185    0.156
        71 -10.9681    107.1218    227.9128   1.1844998633e+02   1.4105240921e+01     0.211931    0.1633056  29.47 0.0003485627    1.055    0.052
        72  -9.8497     23.3412    226.9796   1.3781312424e+02   2.4257575173e+01     0.164332    0.1274733  62.77   0.00112386    1.139    0.122
        73  -9.7263    216.1953    226.1879   9.6121427576e+01  -3.6286711911e-02       0.1356    0.1142851   3.98 0.0004061535    1.297    0.229
        74 -11.1220      6.6583    223.5902   1.4145243412e+02   2.6454299367e+01    0.4761918    0.2248647 -80.77  0.002652415    2.221    0.550
        75 -11.1370    164.2727    224.3555   1.0557605816e+02   6.8213128234e+00    0.2242895    0.2184862  -9.46 0.0007119967    1.401    0.286
        76 -10.7967     79.0053    224.0747   1.2459034067e+02   1.8531574752e+01    0.2630892    0.2026736  79.23  0.001287364    1.518    0.341
        77 -10.6031     37.9044    224.1965   1.3431010706e+02   2.3336748528e+01    0.3861136    0.1680923  44.15  0.001549424    1.740    0.425
        78 -11.9618     38.7294    218.3026   1.3375950919e+02   2.4440923174e+01    0.3740498    0.2712189  -3.31 0.0008197176    1.937    0.484
        79 -10.6132    187.9177    222.7015   1.0068540495e+02   3.9125481715e+00    0.1885104    0.1461509 -10.92 0.0004563629    1.193    0.162
        80 -10.6270    176.3250    222.5569   1.0290127498e+02   5.4612562894e+00    0.1961192    0.1740403  13.83  0.001382601    1.242    0.195
        81 -10.1325    141.9046    223.0862   1.1009549205e+02   1.0113679701e+01     0.179539    0.1469121  36.70  0.001149658    1.223    0.183
        82 -10.1767    121.2582    222.0015   1.1452897839e+02   1.3198201704e+01    0.1674033    0.1470972  25.86 0.0003127785    1.085    0.079
        83  -9.8099    107.0295    222.4581   1.1784597941e+02   1.5097464600e+01    0.1985061      0.10661  31.26 0.0003744825    1.519    0.342
        84 -10.1870     63.6906    220.9326   1.2795958311e+02   2.1056385153e+01    0.3369297    0.1631716  64.12  0.001529517    2.576    0.612
        85  -9.6474     54.6654    221.9839   1.3020160632e+02   2.1918699091e+01    0.2661344    0.1672702  19.16  0.001462973    1.677    0.404
        86 -10.6743    228.9292    220.5054   9.3119673539e+01  -8.1480308614e-01    0.1845486     0.135447 -21.30 0.0005864498    1.303    0.233
        87 -10.8682     95.9940    219.2433   1.2006633124e+02   1.7207501232e+01    0.2798694    0.1948352 -83.63  0.001133465    1.957    0.489
        88 -10.5857     88.4267    217.9944   1.2173554908e+02   1.8469278743e+01    0.1636311    0.1302646 -71.12 0.0002953607    1.519    0.342
        89 -12.0039     85.2554    213.3920   1.2201183703e+02   1.9797580084e+01     0.448804    0.4056578 -24.75  0.001881577    1.339    0.253
        90 -11.2799     27.4111    219.6468   1.3652243188e+02   2.5331461184e+01    0.3354414    0.2422986  37.38  0.001510197    1.168    0.144
        91  -9.1332     21.4178    221.4208   1.3800641817e+02   2.5553878829e+01    0.1191983   0.09436055  50.01 0.0001800558    1.030    0.029
        92 -10.9104    135.0513    218.3984   1.1095878917e+02   1.1866793920e+01      0.24719    0.2035542 -21.02 0.0006433249    1.342    0.255
        93  -9.6898    131.2727    219.3425   1.1192850567e+02   1.2243957219e+01     0.126431    0.0912144  -4.85 0.0002939235    1.615    0.381
        94 -10.9809     47.5914    218.0385   1.3161169123e+02   2.3523828377e+01    0.2437463    0.2084002  -1.52 0.0008171524    1.484    0.326
        95 -10.4223    173.8617    217.0533   1.0256215584e+02   6.6060699505e+00    0.2857279    0.2298745  58.84  0.001744648    1.993    0.498
        96 -11.2363    101.6909    217.0833   1.1846876372e+02   1.6832308920e+01    0.3254083    0.2328909  10.83  0.001173822    1.542    0.352
        97 -10.9839     19.7905    217.6918   1.3821944898e+02   2.6467936355e+01     0.227585    0.1858092   9.96  0.001517975    1.502    0.334
        98  -9.9057    217.4026    217.1638   9.4519216305e+01   9.4818018832e-01    0.1655825    0.1173391   4.63   0.00113626    1.127    0.113
        99 -10.7392    117.1199    216.3433   1.1475835322e+02   1.4794366359e+01    0.1950343    0.1899704  70.00 0.0003542404    1.249    0.199
       100 -10.5444     73.0380    216.4497   1.2530129076e+02   2.0787678651e+01     0.218804     0.186621 -10.59 0.0003539338    1.468    0.319
       101 -11.0293     74.4308    213.2213   1.2464940388e+02   2.1259057703e+01    0.3410077    0.2349694  65.37  0.001527577    1.572    0.364
       102 -12.7635      8.7962    212.8119   1.4060441441e+02   2.8467114601e+01    0.4788478    0.3052322  68.85  0.001935965    1.367    0.268
       103  -9.6810    157.3038    215.3502   1.0570277803e+02   9.1895152111e+00    0.1312502   0.08754457  -2.30 0.0007040702    1.700    0.412
       104  -8.7956    147.6869    215.7146   1.0780982853e+02   1.0506343919e+01    0.1285201    0.0886093   3.13 0.0002662101    1.579    0.367
       105 -11.2042    112.0622    213.5760   1.1558743747e+02   1.6027437492e+01    0.3281548    0.2047838 -40.56  0.001357736    1.941    0.485
       106 -12.0922     31.5144    212.5882   1.3515806168e+02   2.6379413261e+01    0.4108745    0.3703271  48.92  0.001815367    1.149    0.130
       107  -9.7715     97.8104    214.0319   1.1903881494e+02   1.7954243931e+01    0.1789665    0.1526257  37.52 0.0004546839    1.042    0.041
       108  -9.1990    164.4361    213.4392   1.0392678207e+02   8.4782210631e+00    0.1257414    0.1043052  18.57  6.98834e-05    1.068    0.063
       109 -11.9423     40.4029    211.9875   1.3294695564e+02   2.5571042393e+01    0.4443632    0.1797637  37.06  0.002113296    1.877    0.467
       110  -9.6792    246.4887    212.4470   8.9089974361e+01  -1.8206291819e+00    0.1093053   0.07888264  -4.34 4.222875e-05    1.006    0.006
       111  -9.6577    231.2472    212.0061   9.1401831159e+01  -5.0061788376e-02    0.1348984   0.07976536 -27.32 0.0003245126    1.510    0.338
       112 -10.1312    117.9421    212.4810   1.1406494245e+02   1.5383656760e+01    0.2100924    0.1116657  31.95 0.0005926638    1.570    0.363
       113  -9.6596     62.0595    212.4790   1.2763531918e+02   2.2967872962e+01    0.1936137    0.1103639  30.52 0.0003806131    1.501    0.334
       114  -9.4125      1.2249    211.9874   1.4234503968e+02   2.9268391034e+01    0.1457411   0.08606021  87.67  0.000868755    1.636    0.389
       115 -11.7709     96.7001    209.1527   1.1873129850e+02   1.9062724599e+01    0.2883977    0.2682869 -68.58 0.0002294055    1.274    0.215
       116 -11.2811     99.5170    205.3074   1.1756820875e+02   1.9425676741e+01    0.4090495    0.1884339  37.34  0.001277993    1.788    0.441
       117 -10.7943     24.0582    208.9164   1.3677508726e+02   2.7896392187e+01    0.3548207    0.2711096  43.96  0.001124651    1.086    0.079
       118  -9.9782     14.1781    211.1968   1.3926855718e+02   2.8332967697e+01    0.1670185    0.1051621  58.39 0.0002444418    1.304    0.233
       119 -10.1462    214.6306    210.1824   9.3881053856e+01   2.1904603034e+00    0.1627622   0.09129918 -23.10 0.0007952385    1.683    0.406
       120 -11.9653    128.7590    207.9218   1.1092478171e+02   1.4631387882e+01    0.3572204    0.2745805   6.34 0.0007395527    1.357    0.263
       121 -10.7553     80.7333    209.4457   1.2270440053e+02   2.1198041851e+01    0.2906097    0.1795603  78.06  0.001426881    2.209    0.547
       122  -9.4756    237.2184    208.3823   8.9867857688e+01  -2.9948687017e-01    0.1310839   0.09273823  27.25 0.0003742902    1.481    0.325
       123  -9.8780    144.4161    208.2482   1.0742877330e+02   1.2245750457e+01    0.1536024    0.1303222 -62.33 0.0003919851    1.583    0.368
       124  -9.7632     89.9404    208.5047   1.2031762908e+02   2.0135792891e+01    0.2033671    0.1151938  30.14 0.0008939565    1.521    0.342
       125 -11.2089     66.9383    207.3418   1.2594691194e+02   2.3430281207e+01    0.3948492     0.175186  31.29 0.0008971431    1.886    0.470
       126 -10.6031     17.4422    207.7548   1.3833244624e+02   2.8766355803e+01    0.3086108     0.137838  48.67 0.0004168728    1.755    0.430
       127 -10.8575     11.6385    203.5686   1.3956796965e+02   3.0182597458e+01    0.2460124    0.1627989  62.30 0.0003033189    1.267    0.211
       128  -9.7834    157.1506    207.1263   1.0448712031e+02   1.0551451185e+01    0.1774886    0.1379396  39.07  0.001063902    1.326    0.246
       129 -11.4993     36.4175    205.4957   1.3350638509e+02   2.7380539233e+01    0.3975308    0.1430419  41.73  0.001778338    2.102    0.524
       130  -9.3410    110.3095    205.6513   1.1497615981e+02   1.7789457658e+01    0.1378056   0.09479053  58.04 0.0007044621    1.711    0.415
       131  -9.8512     90.5525    204.7647   1.1972872115e+02   2.0807945918e+01    0.1651242    0.1293458  86.80 0.0003196742    1.552    0.356
       132 -12.0497     52.0015    202.6229   1.2932623377e+02   2.6263533604e+01    0.4147047    0.3119015   3.12  0.001912694    1.686    0.407
       133 -11.3889     55.3429    198.8629   1.2813406455e+02   2.6686837940e+01    0.2676338    0.1873631  52.98 0.0006277253    1.268    0.211
       134 -10.3677      2.2984    205.1475   1.4188729035e+02   3.0621522183e+01     0.310756    0.1074687  37.74  0.001512369    2.080    0.519
       135 -10.9415    195.5668    204.1274   9.6311900075e+01   5.5256862715e+00    0.2142951    0.1500218  23.62 0.0007096707    1.259    0.206
       136 -10.1792    133.1064    203.6781   1.0930517508e+02   1.4752863815e+01    0.1992809    0.1884368  65.82  0.001266035    1.304    0.233
       137 -10.9996    121.3118    200.7148   1.1164329596e+02   1.7097078094e+01    0.4349854    0.2580622 -64.68   0.00204492    2.314    0.568
       138 -12.6488     19.3594    200.9735   1.3753320764e+02   3.0056190613e+01    0.2526667    0.2439044  79.95 0.0004868418    1.242    0.195
       139 -11.2894    239.8469    201.6652   8.8360554943e+01   2.1654702543e-01    0.1884989    0.1217523 -14.90 0.0006205058    1.273    0.214
       140 -11.2482    186.1954    201.0255   9.7579358372e+01   7.2949919477e+00    0.3190646    0.2052126  19.78  0.001307706    1.422    0.297
       141 -10.1934    166.7246    202.1977   1.0168586309e+02   9.9455615068e+00    0.2114408    0.1495034  34.37 0.0006249861    1.320    0.243
       142 -11.7008     70.6815    201.6439   1.2442713899e+02   2.4156097083e+01     0.347093    0.1834881  40.67 0.0008959261    1.568    0.362
       143 -11.0947    190.8837    200.7578   9.6634582392e+01   6.6707784018e+00    0.2056269    0.1654154 -26.57 0.0002404414    1.283    0.220
       144 -11.2945     96.4080    200.1412   1.1769016568e+02   2.0919458429e+01    0.3214499     0.299539  61.32  0.001074511    1.154    0.133
       145 -10.4833     95.4080    195.0729   1.1728845740e+02   2.2116567966e+01    0.2517759    0.1786689  27.54 0.0004242474    1.289    0.224
       146  -9.6718     39.9487    201.7009   1.3234781999e+02   2.7827467410e+01    0.1965086    0.1009967  -0.68 0.0004800768    4.233    0.764
       147 -12.2187      5.3469    200.0734   1.4097804583e+02   3.1468911514e+01    0.2153672    0.1773309  42.31   0.00040492    1.143    0.125
       148 -10.3363    155.1013    199.8548   1.0378056014e+02   1.2083888523e+01    0.1883236    0.1595342  34.26 0.0002728074    1.200    0.167
       149 -11.3987     89.9386    199.1967   1.1921134075e+02   2.2043864242e+01    0.2689427    0.2407696  63.90 0.0004432658    1.173    0.148
       150 -10.6331     86.5373    198.5475   1.2000228263e+02   2.2661525902e+01    0.2477158    0.2299305   3.97  0.001048344    1.204    0.169
       151 -11.0158    209.8785    198.4970   9.2776709822e+01   4.3871765617e+00    0.2031435    0.1383419  -5.77 0.0007436986    1.362    0.266
       152 -10.2247    169.1803    198.2621   1.0053078143e+02   1.0221512587e+01    0.2210682    0.1793823 -36.53 0.0006770767    1.370    0.270
       153  -9.6924    149.7769    199.4349   1.0488130028e+02   1.2969849891e+01    0.1776999    0.1132618  22.40 0.0002627198    1.472    0.321
       154 -10.2683     14.3463    198.3391   1.3866715381e+02   3.1087542314e+01    0.2698207    0.1477765  67.59  0.001238095    1.657    0.397
       155 -10.6679    224.0305    198.4692   9.0357257851e+01   2.5492040930e+00    0.2192797    0.1430696  19.93 0.0006097103    1.399    0.285
       156 -11.4752    227.9826    196.0176   8.9295417642e+01   2.3724877720e+00    0.3219044    0.1911987 -18.63  0.001197716    1.524    0.344
       157  -9.2837    161.7723    198.0060   1.0204477482e+02   1.1383032117e+01    0.1496469    0.1062732 -38.50            0    1.522    0.343
       158 -11.2591    137.0590    196.7676   1.0733924093e+02   1.5415865383e+01    0.3102213    0.2626629  75.51  0.001013904    1.629    0.386
       159  -9.8451    140.3421    195.2218   1.0633797708e+02   1.5188200549e+01    0.2045048    0.1712965 -48.10  0.001207902    1.393    0.282
       160 -11.2929    109.4392    197.5851   1.1409081775e+02   1.9510137112e+01    0.4983252    0.2772715 -66.67  0.002283018    2.423    0.587
       161 -10.2743    104.9500    195.6537   1.1494327153e+02   2.0577718057e+01    0.4337994    0.1325533  26.87  0.001305775    4.059    0.754
       162 -10.4633     24.9875    195.1524   1.3577819948e+02   3.0815445716e+01    0.4377114    0.1370641 -81.11   0.00169802    3.444    0.710
       163 -10.7957     62.8732    196.4446   1.2593086278e+02   2.6288421934e+01    0.2300124    0.1946293  67.60 0.0003065134    1.163    0.140
       164  -9.2673     36.3183    197.3024   1.3297178199e+02   2.9188356903e+01    0.1195982   0.09825485 -26.92 0.0003166184    1.624    0.384
       165  -9.8179     82.4740    195.9138   1.2073625602e+02   2.3791359081e+01    0.1856856    0.1360863 -62.88 0.0006671188    1.550    0.355
       166 -11.1544    217.4247    194.3679   9.0768178181e+01   3.9547880955e+00    0.2050416    0.1747729  -2.16  0.000680954    1.166    0.142
       167 -10.3876     44.7784    194.7749   1.3055910768e+02   2.8828807996e+01     0.180005     0.165631  47.44 0.0004976121    1.116    0.104
       168 -11.9439    122.8604    192.7968   1.1009303390e+02   1.8394410662e+01    0.4444049     0.305688  60.43 0.0006026521    1.891    0.471
       169  -9.9116     71.1564    193.8406   1.2346989511e+02   2.5786457152e+01     0.222252    0.1609205  52.98  0.001214289    1.282    0.220
       170  -9.8458     20.8769    194.3069   1.3679572027e+02   3.1394299889e+01    0.1657579    0.1366782  41.55 0.0002516597    1.121    0.108
       171 -10.1874    163.1205    193.1265   1.0094493254e+02   1.2002449266e+01    0.1949459    0.1552265   4.76            0    1.182    0.154
       172  -9.6777    146.7946    193.3634   1.0456777535e+02   1.4513639218e+01    0.1942057    0.1139487  24.90 0.0004711205    1.639    0.390
       173 -12.2388     52.8036    192.4491   1.2822101880e+02   2.8419412610e+01    0.2800306    0.2353134 -54.98 0.0004256187    1.395    0.283
       174 -10.4468     57.6885    188.6899   1.2654132478e+02   2.8675759659e+01    0.2441653      0.19992  -6.57 0.0005959641    1.547    0.353
       175 -10.8287    249.8658    190.8533   8.5047779868e+01   3.7306635374e-01    0.2017645    0.1487317 -18.37 0.0005822777    1.125    0.111
       176 -11.6151    245.3619    191.2005   8.5771440175e+01   8.6034179973e-01    0.2384038    0.1485847  11.58 0.0009024033    1.556    0.357
       177 -11.3436     65.7869    191.6283   1.2466009356e+02   2.6983380434e+01    0.4126036    0.2304364  12.77  0.001787901    2.384    0.581
       178 -10.4710    188.7879    190.7614   9.5329783547e+01   8.4933327401e+00    0.2521983    0.1499334 -16.32  0.001285454    1.936    0.483
       179 -12.4905     91.6426    189.1339   1.1747821531e+02   2.3935200316e+01    0.2731587    0.2655536 -77.62  0.000434576    1.161    0.138
       180 -10.3356     16.7545    190.9484   1.3768888142e+02   3.2526988463e+01    0.1834214    0.1596742  28.51            0    1.239    0.193
       181 -10.8135    227.0266    189.2691   8.8293553287e+01   3.3881417873e+00    0.1930867    0.1462388 -26.66 0.0003528518    1.267    0.211
       182 -10.6776     75.4347    186.2631   1.2144471808e+02   2.6891867834e+01    0.2950149    0.2148674  89.89 0.0009947831    1.596    0.374
       183 -13.3951     79.8484    182.4556   1.1976273216e+02   2.7129124453e+01    0.5804965    0.3627638 -55.45 0.0006343413    1.766    0.434
       184 -11.7600     79.8535    174.1075   1.1864148112e+02   2.9041801137e+01    0.4309631    0.2634579  30.71 0.0008191045    1.516    0.340
       185 -11.9916    131.7052    186.6435   1.0698047288e+02   1.8188853625e+01    0.2582348    0.2372828  15.17 0.0003034019    1.056    0.053
       186 -10.5868      3.0042    187.7631   1.4112003816e+02   3.4387166737e+01    0.3250428    0.1971238   5.81  0.001756661    2.128    0.530
       187 -11.6090    205.2626    186.8346   9.1577408273e+01   6.6934412908e+00    0.2097858    0.1690786   2.24 0.0002353142    1.041    0.039
       188  -9.8829    221.1113    186.1174   8.8714395027e+01   4.5988466674e+00    0.1796446    0.1322818  -3.35  0.000368592    1.175    0.149
       189 -11.5946    105.1982    184.2099   1.1323135603e+02   2.2927850433e+01    0.4672813    0.3537185 -15.76  0.002120831    1.680    0.405
       190 -11.8103     29.7871    181.0292   1.3356057857e+02   3.3593015124e+01    0.7790141    0.3704929  71.29  0.003450247    2.303    0.566
       191 -12.3461     31.9904    176.4068   1.3259086947e+02   3.4468364641e+01    0.2781063    0.2434959  39.64 0.0003402997    1.121    0.108
       192 -10.4960    173.5149    183.2163   9.7038470703e+01   1.2053648016e+01    0.3176602    0.1717465  33.71  0.001016069    1.723    0.420
       193 -10.7874     15.6678    183.5526   1.3758717284e+02   3.4318923487e+01    0.2665833    0.2075067  47.12  0.001060665    1.108    0.097
       194 -10.0445    226.3879    183.2348   8.7339700181e+01   4.2880436982e+00     0.158562   0.09885296 -38.36 0.0009440662    1.650    0.394
       195 -10.9789     88.1144    182.2405   1.1748267366e+02   2.5971022982e+01    0.2477243    0.2047864 -81.14 0.0007159462    1.373    0.272
       196 -11.0276     55.5001    181.4980   1.2640979568e+02   3.0606731400e+01    0.3176251     0.206908  57.11 0.0005733311    1.475    0.322
       197 -10.8840     48.2528    181.8564   1.2847488476e+02   3.1395292410e+01    0.3234422    0.2253189   5.96  0.001194247    1.819    0.450
       198 -10.5342     43.0265    181.0917   1.2986815880e+02   3.2174469147e+01    0.3145962    0.1829043 -72.04  0.001571679    1.788    0.441
       199 -10.3826     46.4340    176.9846   1.2852118095e+02   3.2759162424e+01    0.3296514    0.1988223  22.36 0.0006478388    1.708    0.414
       200  -9.6915      3.1741    183.2119   1.4090349709e+02   3.5411645266e+01    0.1690255    0.1129549  56.41 0.0003634642    1.237    0.191
       201 -11.3283    229.7856    180.7694   8.6357707538e+01   4.1715889530e+00    0.2543369    0.2193966 -66.76  0.001069624    2.117    0.528
       202  -9.7121    122.8238    182.3996   1.0845748626e+02   2.0479231491e+01    0.2094153    0.1254393  24.65 0.0006693829    1.690    0.408
       203 -11.1086     60.9353    180.2092   1.2474536553e+02   3.0222047129e+01    0.4038942     0.268075  85.10  0.000489057    1.719    0.418
       204  -9.8630    157.8632    181.1058   9.9997186669e+01   1.4948940475e+01    0.1865927     0.176685  42.64 0.0002728493    1.244    0.196
       205 -10.1414    136.4928    179.9873   1.0471206946e+02   1.8703002332e+01    0.1918539    0.1408736 -48.93 0.0005274845    1.518    0.341
       206  -9.5711      4.4079    179.4246   1.4042303136e+02   3.6193415485e+01    0.1229976    0.1048982  64.81 6.989578e-05    1.045    0.043
       207  -9.9783    221.6703    178.3106   8.7229328296e+01   5.6117784124e+00    0.1039367   0.09721803 -59.31 0.0007041884    1.667    0.400
       208 -11.2234     91.9051    177.4196   1.1576619149e+02   2.6477065778e+01    0.2378206    0.2292386 -86.46 0.0001364163    1.135    0.119
       209 -11.4678    108.3573    176.4558   1.1119919541e+02   2.4087198901e+01    0.3669441    0.2182117  47.74 0.0009206596    1.680    0.405
       210 -10.4657     74.1637    177.1134   1.2064849222e+02   2.9160662377e+01    0.2327865    0.1873797  36.97 0.0004507043    1.120    0.107
       211 -12.8343     22.2849    175.5818   1.3528260103e+02   3.5604909230e+01    0.3996731    0.2449483  63.18 0.0005174305    1.498    0.332
       212 -10.8806     15.4414    175.6371   1.3720933548e+02   3.6197676661e+01    0.3152183    0.2380071 -31.70   0.00149535    1.752    0.429
       213 -11.0149    131.3996    179.4240   1.0584533894e+02   1.9663322287e+01    0.2573616    0.2268147  55.35 0.0001482592    1.267    0.211
       214  -9.2292    191.6966    174.3259   9.1803457464e+01   1.0645360017e+01    0.1154234    0.1064358 -85.01 0.0004252786    1.643    0.391
       215 -10.3880    168.0359    174.2914   9.6552003872e+01   1.4483515319e+01    0.1880394    0.1576127  22.10  0.000269062    1.093    0.085
       216 -10.4319    159.8254    173.8349   9.8240354709e+01   1.5941795952e+01    0.2488548    0.1817203  35.77 0.0002828796    1.295    0.228
       217  -9.6184    156.3283    173.7512   9.8999750285e+01   1.6548955318e+01    0.1900872    0.1472371   8.25 0.0001498905    1.331    0.249
       218  -9.2740    153.4634    188.5867   1.0227594985e+02   1.4315932480e+01    0.1366125    0.1163883  15.19 -4.706301e-05    1.034    0.033
       219  -9.2562    199.6521    171.7387   8.9835946799e+01   9.8152642727e+00    0.1303877   0.08859277   4.81 0.0002566151    1.604    0.377
       220  -9.7106    113.9782    168.4915   1.0838092330e+02   2.4880491654e+01    0.2248997    0.1332728  36.25 0.0003747268    1.532    0.347
       221 -10.1558    110.3771    171.1377   1.0978890266e+02   2.4909841612e+01    0.1892446    0.1406279 -75.09 0.0003917694    1.705    0.414
       222  -9.4629     98.2894    171.6865   1.1314325857e+02   2.6764944209e+01    0.1468599     0.106333  62.79 0.0003757321    1.587    0.370
       223 -10.2578     63.4649    171.0311   1.2294224384e+02   3.2063785672e+01     0.272711    0.1633402  43.77  0.000492407    1.497    0.332
       224  -9.2907     41.4402    171.4808   1.2943597916e+02   3.4650363631e+01    0.1365791     0.121797  58.61 8.748969e-05    1.019    0.018
       225 -10.0615      2.0069    169.0503   1.4064736898e+02   3.8813527851e+01    0.1830451    0.1369074 -50.77 0.0005791128    1.593    0.372
       226 -10.7052     59.5459    166.3272   1.2351474450e+02   3.3717993726e+01    0.3174094    0.2951957 -19.08 0.0009987887    1.260    0.206
       227 -10.8284     46.9041    166.5850   1.2732402061e+02   3.5221875472e+01    0.3856592     0.220857  47.37  0.001758748    1.592    0.372
       228  -9.7389    121.7929    167.3654   1.0613881468e+02   2.3782794438e+01    0.2067212     0.129982  26.17  0.000407722    1.622    0.384
       229 -13.0599     23.8634    163.8075   1.3398266074e+02   3.8320322770e+01    0.3301675    0.2649758  42.79 0.0005719187    1.151    0.131
       230  -9.7832     18.9323    160.5384   1.3522480150e+02   3.9568338835e+01    0.1885216    0.1238368  27.25 0.0007177705    1.505    0.335
       231  -9.3394     73.5459    165.4629   1.1924757202e+02   3.2001578538e+01     0.145243    0.1319642  49.02 0.0001135311    1.002    0.002
       232  -9.3866    236.7172    162.3416   8.1936607841e+01   5.7478930718e+00    0.1084523   0.08723453 -48.11 0.0004147993    1.633    0.388
       233 -11.3452    141.0485    161.1848   1.0015859567e+02   2.1655023682e+01    0.2730079    0.2165556  37.53 0.0003533685    1.193    0.162
       234 -10.3135     97.0439    162.0000   1.1190079744e+02   2.9176688887e+01    0.3168696    0.1851908  30.59  0.001388575    1.647    0.393
       235 -10.3065     99.3242    159.6814   1.1085563014e+02   2.9333342628e+01    0.2340541    0.1560671 -61.75  0.001086454    1.663    0.399
       236  -9.9435     75.6200    162.2082   1.1816198244e+02   3.2482615610e+01    0.2002077    0.1319978 -52.29 0.0006356046    1.641    0.391
       237  -9.6836     68.1445    162.1789   1.2039273498e+02   3.3565798138e+01    0.2001744    0.1535773  57.60 0.0002991167    1.275    0.215
       238  -9.6070    126.7399    161.6457   1.0380961945e+02   2.4128331983e+01     0.213898    0.1259739  43.65 0.0009424514    1.633    0.388
       239 -10.7626     44.8335    159.3894   1.2716841617e+02   3.7247508359e+01     0.432138    0.2520994  -5.86  0.001739896    2.868    0.651
       240  -9.2580    149.2498    159.3075   9.7841756396e+01   2.0545328832e+01       0.1396    0.1070683  -7.56 0.0001887915    1.508    0.337
       241 -10.9649    107.7558    158.4509   1.0827418291e+02   2.8176354550e+01     0.369838    0.2432202  34.63  0.001338075    1.417    0.294
       242 -11.1835     34.9038    158.2581   1.3013002309e+02   3.8622143633e+01    0.6629578    0.1785428  46.14  0.002204382    3.400    0.706
       243 -10.8670    248.0392    157.7041   7.9450392307e+01   4.8344543598e+00    0.1603967    0.1304075  -6.84 0.0006077376    1.094    0.086
       244  -9.7267    158.5719    157.6950   9.5391388635e+01   1.9167169677e+01     0.175634    0.1371088 -50.48 0.0005647072    1.436    0.304
       245  -9.9178     27.2433    157.9829   1.3247997379e+02   3.9454044894e+01    0.1836964    0.1626922  74.85  0.001102935    1.041    0.039
       246 -12.2356     95.8956    154.5076   1.1092523730e+02   3.1115523544e+01    0.3381062    0.2700678 -51.48  0.001726644    1.338    0.253
       247 -10.8908     12.3631    156.4049   1.3694233525e+02   4.1133660516e+01    0.2452319    0.2049076 -66.30 0.0009959394    1.266    0.210
       248  -9.1386    124.6181    156.2554   1.0332242814e+02   2.5662406371e+01    0.1520586    0.1102212  60.39 0.0006965874    1.666    0.400
       249  -9.8462    164.1357    155.2933   9.3678635204e+01   1.8610430610e+01    0.1943403    0.1692558  27.82 0.0004780795    1.103    0.093
       250  -9.3765    143.2821    155.2921   9.8449484869e+01   2.2436735468e+01    0.1434229    0.1106416  -2.31 0.0001873021    1.532    0.347
       251 -10.6021     71.0653    154.5603   1.1839037975e+02   3.5019301900e+01    0.2765556     0.201483 -61.38 0.0002984226    1.435    0.303
       252  -9.8137     71.1605    150.5970   1.1774439183e+02   3.5988329836e+01    0.2171784     0.140365  32.57 0.0003600449    1.468    0.319
       253 -10.1352     52.1421    155.1554   1.2438224016e+02   3.7433296788e+01    0.2065465    0.1930493 -35.08 0.0004259312    1.225    0.184
       254  -9.8458    113.4976    154.0264   1.0586373315e+02   2.8160976078e+01    0.2133244    0.1511053 -56.05 0.0007316624    1.537    0.349
       255  -9.7683      4.4157    153.8364   1.3921958128e+02   4.2351342307e+01    0.1688978     0.109039 -69.96 0.0005040349    1.516    0.340
       256  -9.3551    137.4971    151.4545   9.9080101386e+01   2.4298952393e+01    0.1478112    0.1377363  20.19 6.015267e-05    1.014    0.014
       257  -9.1004     15.5118    150.4928   1.3555632619e+02   4.2369526272e+01    0.1326626    0.1197952  75.12 -0.000138386    1.038    0.036
       258  -9.5968      7.9961    149.5290   1.3786461516e+02   4.3178719996e+01    0.1732652    0.1264372  23.07 0.0003706868    1.443    0.307
       259  -9.3757     81.7335    147.3642   1.1390848433e+02   3.5163008817e+01    0.1551009     0.111575  70.76 0.0006695014    1.649    0.394
       260 -11.3092      4.7967    143.3126   1.3850749763e+02   4.4964543953e+01    0.2565459    0.1796608 -71.23 0.0002011959    1.370    0.270
       261  -9.4459     36.1929    144.6418   1.2827667399e+02   4.1956939064e+01    0.1812648    0.1333554  11.22 0.0004221785    1.560    0.359
       262 -10.4708     17.0437    142.8285   1.3446500490e+02   4.4200426710e+01    0.2894901    0.1954736 -16.81  0.001074065    1.954    0.488
       263  -9.2059     21.3196    142.3351   1.3300118445e+02   4.3973176408e+01     0.200185    0.1148654  35.35 0.0008122891    1.639    0.390
       264 -10.8160    132.2494    140.3503   9.8053646240e+01   2.7643300456e+01    0.2479534    0.2408804  84.72  0.000318973    1.121    0.108
       265  -9.2306     65.7992    138.9886   1.1757700342e+02   3.9700221732e+01    0.1829848    0.1173876 -64.79 -0.000430966    1.597    0.374
       266 -10.4138     94.9384    136.3840   1.0773651633e+02   3.5604556346e+01    0.3237089    0.1952753 -37.57  0.001326152    2.017    0.504
       267 -10.4790     50.2091    135.7113   1.2233997544e+02   4.2659079586e+01    0.3774256    0.2458722 -37.10  0.001714952    1.877    0.467
       268  -9.5311     55.2606    136.3225   1.2069653220e+02   4.1849610646e+01    0.1451604    0.1096777 -35.87 0.0001337893    1.553    0.356
       269 -10.3367     23.9386    136.2936   1.3153270480e+02   4.5311478218e+01     0.191106    0.1683675  43.03 0.0005162252    1.126    0.112
       270 -10.5897     40.6946    133.6186   1.2535879846e+02   4.4335448097e+01    0.3489515    0.2121106  79.33  0.001019342    1.899    0.474
       271 -10.6802     37.5600    130.4377   1.2603976494e+02   4.5514144500e+01    0.2416583    0.1997775  44.35  2.50447e-05    1.174    0.148
       272 -11.8792     27.5148    131.5101   1.2976292485e+02   4.6238592912e+01    0.5112039    0.2653944  50.27   0.00226294    1.928    0.481
       273 -10.6711      9.7389    131.3381   1.3602559473e+02   4.7706001373e+01     0.292646    0.1815822 -52.76 0.0008209663    1.674    0.403
       274  -9.6964     61.5543    131.4293   1.1771728376e+02   4.2250490155e+01    0.1449675    0.1432529  53.50            0    1.058    0.055
       275 -10.1120     47.8008    131.4175   1.2253282663e+02   4.4077559296e+01    0.2609622    0.1512996  16.87 0.0008652874    1.999    0.500
       276 -10.5397     91.4501    127.0139   1.0684303239e+02   3.8502595314e+01     0.358802    0.2370593  15.22  0.001475253    2.016    0.504
       277  -9.5854     30.1430    125.8310   1.2812803536e+02   4.7484169413e+01    0.1829794    0.1592549 -36.41 0.0002902349    1.273    0.215
       278  -9.7833      3.5416    124.9873   1.3774431784e+02   4.9737303908e+01    0.1957172    0.1182858 -81.14 -8.710358e-06    1.495    0.331
       279  -9.6033    106.3037    124.3064   1.0162906664e+02   3.6343747066e+01    0.1550725    0.1237152  -7.27 0.0001878862    1.601    0.376
       280  -9.2132     98.4736    124.4088   1.0404481396e+02   3.7829170119e+01    0.1548847    0.1469674  42.33 0.0001226322    1.017    0.017
       281  -9.4067     81.4940    124.4508   1.0954510967e+02   4.0891379593e+01    0.1551663    0.1453148  58.40 -0.0003362824    1.045    0.043
       282 -10.1870     39.1670    121.7191   1.2420041105e+02   4.7636076415e+01    0.2527759    0.1854395 -85.96  0.001265547    1.391    0.281
       283  -9.2685    123.4442    121.4153   9.6023142179e+01   3.3531528037e+01    0.1532057    0.1470524  49.73 0.0001046858    1.029    0.028
       284 -11.1303     20.1515    119.1667   1.3106197916e+02   5.0126146931e+01    0.5213868    0.2735122  45.43  0.002369915    1.897    0.473
       285  -9.9748     82.6574    119.6595   1.0810416610e+02   4.1881240652e+01    0.4000874    0.2174933  62.95  0.001362444    2.937    0.659
       286 -10.3218     92.3289    118.3113   1.0458423255e+02   4.0453306751e+01    0.3654408    0.2558075 -77.99  0.001566153    1.857    0.462
       287 -10.2506    100.8767    116.6394   1.0145790710e+02   3.9207361290e+01    0.2506891    0.2086505 -40.27 0.0003236167    1.273    0.214
       288  -9.9662     10.4984    117.1164   1.3452706536e+02   5.1365387359e+01    0.2022321    0.1229865 -78.18 0.0005447737    1.505    0.335
       289  -9.9589    139.4215    115.7458   9.0453555277e+01   3.1350562398e+01     0.274268    0.1753408  53.95 0.0009753993    1.659    0.397
       290 -10.8469      3.0279    107.6853   1.3659088190e+02   5.4264294255e+01    0.2518169    0.1744603 -70.98 0.0003862435    1.299    0.230
       291  -9.7863      5.9959    114.0780   1.3597803368e+02   5.2435380902e+01    0.2020159     0.165135  67.86 0.0003632433    1.174    0.148
       292 -10.8851      3.6691    111.7088   1.3667838385e+02   5.3181867610e+01    0.2758292    0.1801272 -36.05 0.0008151117    1.710    0.415
       293 -11.5653     60.3182    113.1515   1.1467289083e+02   4.7155904060e+01    0.4255956    0.3099834  44.03 0.0005416341    1.357    0.263
       294 -11.8732    149.8369    111.2381   8.6829746614e+01   2.9994946610e+01    0.2511204     0.245539 -38.47 0.0002450374    1.024    0.024
       295 -10.0400     37.5919    111.5796   1.2319198854e+02   5.0488076424e+01     0.213069    0.1972098  88.85            0    1.048    0.045
       296 -10.6654     37.4864    108.5081   1.2271172851e+02   5.1310368019e+01    0.2900236    0.2191107 -48.19 0.0007444695    1.341    0.254
       297  -9.5113     47.9569    112.0000   1.1918293012e+02   4.9152354145e+01    0.2441767    0.0834955  26.87 0.0008058184    2.966    0.663
       298 -10.8424     20.1611    109.6982   1.2991016758e+02   5.2626948606e+01    0.3472688    0.2347711 -33.90  0.001230542    1.674    0.403
       299  -9.9786     85.2299    109.7812   1.0489869559e+02   4.3848392787e+01    0.2376511    0.2039239  65.64 0.0007056032    1.241    0.194
       300  -9.8770     65.3577    108.8739   1.1184793155e+02   4.7486309455e+01      0.29664    0.1487168 -69.74  0.001080882    2.459    0.593
       301  -9.6691    112.5558    105.0019   9.4909872084e+01   3.9464492120e+01    0.2217449    0.1552611 -47.48 4.336834e-05    1.469    0.319
       302  -9.2192    181.7690    103.7075   7.8438154639e+01   2.4480801782e+01    0.1319676    0.1070286  -4.95 0.0001785224    1.457    0.314
       303 -10.0239     75.4901    103.5124   1.0679477251e+02   4.7145556606e+01    0.1524687    0.1501903  43.87 5.104627e-05    1.015    0.014
       304 -11.1391     50.6727    102.1214   1.1610460540e+02   5.1371147167e+01    0.4044162    0.2443196  30.51  0.001196179    1.654    0.395
       305 -11.1214     43.5612    102.4356   1.1909129730e+02   5.2202787808e+01     0.339144    0.2299601 -51.56  0.001624218    1.449    0.310
       306  -9.9477     18.6753    103.0510   1.2964527812e+02   5.4497297867e+01    0.2351338    0.1803899  36.47 0.0005399613    1.343    0.255
       307 -11.0940    134.9841    100.9599   8.7690493778e+01   3.5353351628e+01    0.3124452    0.2205522 -35.12 0.0007024505    1.507    0.336
       308 -10.4183     70.4407    101.7105   1.0822474086e+02   4.8463018273e+01    0.2120152    0.1418138 -45.40 0.0007740356    1.553    0.356
       309  -9.9754     84.4892    100.5379   1.0278018305e+02   4.6221979162e+01    0.2834489    0.1515836  26.25  0.001025609    2.367    0.577
       310 -10.3676     86.5113     97.4614   1.0123277445e+02   4.6564119681e+01    0.2733908    0.1902681 -10.79 4.165816e-05    2.252    0.556
       311 -10.9328     55.5093     98.3010   1.1326914604e+02   5.1674894844e+01    0.4955322    0.2854097  76.86  0.001740221    3.125    0.680
       312  -9.4488     29.4408    103.4430   1.2517283156e+02   5.3471895011e+01    0.1403363    0.1322512  87.36 0.0001457209    1.035    0.034
       313 -10.1218      9.0302     99.8763   1.3333857804e+02   5.5979943121e+01    0.2932175    0.1408137  38.03  0.001315711    2.113    0.527
       314 -11.9718    106.2971     97.7850   9.4804702609e+01   4.2412977562e+01    0.3228467    0.2899628  46.47 0.0004758352    1.081    0.075
       315  -9.7228     16.1527     98.6207   1.3011982177e+02   5.5849046360e+01    0.1906346    0.1598515  89.26 0.0005123016    1.156    0.135
       316  -9.9210     79.5527     96.2124   1.0338551917e+02   4.8188637499e+01    0.2226117    0.1431937 -40.54 0.0009440524    1.693    0.409
       317 -10.7091     62.9694     96.0844   1.0971167750e+02   5.1096502302e+01    0.2211128    0.2150509  70.65 0.0003625574    1.037    0.036
       318  -9.4525     23.6813     96.2981   1.2648050931e+02   5.5872707910e+01    0.1456826   0.09910902  58.93   0.00070198    1.616    0.381
       319  -9.9801     48.0376     92.9942   1.1515025442e+02   5.4072654286e+01    0.2321246    0.2273553 -38.75  0.001316793    1.023    0.023
       320 -10.5277      1.4081     92.5441   1.3586652227e+02   5.8280006059e+01    0.2926655    0.1184305 -82.43 0.0008358615    2.321    0.569
       321 -11.7069      6.5211     90.1026   1.3329895346e+02   5.8669562813e+01    0.5297579    0.2533592  46.56   0.00188176    2.279    0.561
       322  -9.8773     54.1732     92.2449   1.1235598578e+02   5.3405840800e+01    0.2060938    0.1726951  74.91 0.0006672487    1.344    0.256
       323  -9.9002     17.7536     91.7547   1.2841012556e+02   5.7533360834e+01    0.1886268    0.1487423  53.99 0.0005706773    1.342    0.255
       324 -10.3732    115.3698     90.4904   8.9990076914e+01   4.1975077246e+01    0.3460769     0.224221  35.28  0.001461652    1.693    0.409
       325  -9.8675    105.7448     91.2583   9.3089772595e+01   4.3966224261e+01     0.281321    0.1836874  48.61  0.001090229    1.500    0.333
       326 -10.2824     88.1579     89.1140   9.8262379295e+01   4.8175407967e+01    0.2446812    0.2173844  -1.00 0.0005204713    1.276    0.216
       327 -10.1555     66.9423     88.9354   1.0621168151e+02   5.2202011685e+01    0.2234019    0.2160416  38.53  0.000297477    1.024    0.024
       328 -11.1331     27.3056     87.6976   1.2330224691e+02   5.7794601982e+01     0.354188    0.2520416  65.86  0.001192565    1.620    0.383
       329 -11.2373     21.2379     88.0741   1.2619899288e+02   5.8224225481e+01    0.2841278    0.2183657  -6.62  0.001527698    1.450    0.310
       330  -9.9496     63.2703     86.9598   1.0715394572e+02   5.3300140551e+01    0.2059244     0.193829 -46.41 0.0003570841    1.067    0.062
       331 -10.3158    120.9457     85.9956   8.7085348883e+01   4.1612319622e+01    0.1871831    0.1798445  59.55 0.0003687701    1.010    0.010
       332  -9.7029    155.0101     85.3171   7.8775982160e+01   3.3686423815e+01    0.2028386    0.1879695  62.65 0.0003834267    1.080    0.074
       333  -9.7622    128.7810     85.6334   8.4903108106e+01   3.9842752449e+01    0.2290926    0.1438462  61.03 0.0009520196    1.733    0.423
       334 -10.1833      9.5389     85.3177   1.3127001541e+02   5.9746099139e+01    0.2249134    0.1495833  29.29 0.0005558906    1.591    0.371
       335  -9.8923     98.3322     83.9967   9.3246962971e+01   4.7164587515e+01    0.2112622    0.1980244 -41.78 0.0004688585    1.105    0.095
       336 -11.0275     49.9256     83.5985   1.1196764281e+02   5.6181583227e+01    0.2973915    0.2662199 -17.29 0.0008154032    1.173    0.148
       337  -9.8516     53.5097     82.4927   1.1007388764e+02   5.5932366902e+01    0.2140427    0.1464032  16.13 0.0006875152    1.672    0.402
       338 -10.4923     14.4925     83.8963   1.2868939176e+02   5.9806280575e+01    0.2438353    0.1730486  40.75 0.0004683204    1.501    0.334
       339 -11.2422     20.1930     82.1838   1.2563325448e+02   5.9831978347e+01    0.2333336    0.2139802  78.34 0.0002588434    1.140    0.123
       340  -9.5384    132.5263     82.4768   8.3021010638e+01   3.9559906090e+01    0.1531224     0.148218  77.15 7.924085e-05    1.007    0.007
       341 -11.7974     77.3942     80.4248   9.9561313062e+01   5.2296081403e+01     0.351554    0.2853165  30.14 0.0003407859    1.253    0.202
       342 -11.0968     43.1289     77.4795   1.1344575909e+02   5.8623214481e+01    0.4842673    0.2153993 -71.40  0.001664191    3.157    0.683
       343  -9.6225     67.7386     78.9586   1.0294481960e+02   5.4436674194e+01    0.2108727    0.1908464 -46.83 0.0004255415    1.118    0.106
       344 -10.6931     53.5228     76.6620   1.0839017097e+02   5.7346072653e+01     0.470566    0.2610083  60.36  0.001720103    2.913    0.657
       345 -10.6233     73.4053     79.2097   1.0073436600e+02   5.3336763921e+01    0.5067255    0.2070863 -42.39  0.001737801    2.708    0.631
       346 -10.3090      3.6009     75.6081   1.3282263806e+02   6.2542597046e+01    0.3479334    0.1994292  80.36  0.001666968    1.951    0.488
       347 -10.1872     28.8194     74.6024   1.1973117382e+02   6.0991905000e+01    0.3538683    0.1391969 -49.74  0.001375398    2.327    0.570
       348 -10.2293    141.5564     73.5672   7.8231044065e+01   3.8998181111e+01    0.3374982    0.2398497  -4.99  0.001030052    2.127    0.530
       349  -9.6015     80.7930     74.1221   9.6220641127e+01   5.3022243907e+01    0.2010386     0.178111  -0.25 0.0004850283    1.258    0.205
       350 -11.1354     60.3401     74.2661   1.0461386960e+02   5.6815864306e+01    0.4174912    0.1825935  42.12  0.001560817    2.300    0.565
       351 -10.1325     17.2335     74.3820   1.2561675140e+02   6.2053095072e+01    0.1774575    0.1227681  30.69 0.0002830439    1.521    0.343
       352 -10.2014     36.9605     71.6715   1.1486207557e+02   6.0824574466e+01    0.3041308    0.2095862  -5.34  0.001403964    1.752    0.429
       353 -10.4267    117.9594     69.7958   8.2793120929e+01   4.5461602158e+01    0.2348399    0.2193472 -40.13 0.0003026401    1.121    0.108
       354 -10.7341     58.5644     69.5620   1.0387564596e+02   5.8200807216e+01    0.2602795    0.2482001 -82.04 0.0006304322    1.144    0.126
       355 -12.1277     52.6119     67.9396   1.0608079025e+02   5.9543241221e+01    0.4981562    0.3873824 -34.70  0.001968854    1.326    0.246
       356  -9.4773     42.2041     70.2366   1.1183462812e+02   6.0510765161e+01    0.2091721    0.1381414 -69.02  0.000968463    1.704    0.413
       357 -10.3108     45.0153     69.0264   1.1008279817e+02   6.0417115322e+01    0.1772987    0.1568493 -49.29 0.0009709323    1.113    0.101
       358  -9.1392     79.6820     69.7103   9.5138806673e+01   5.4198940999e+01    0.1527063    0.1204865   3.64 0.0003489677    1.597    0.374
       359 -10.6242      7.2044     68.3593   1.2980387456e+02   6.4205309368e+01    0.2383603    0.1962753   0.85 0.0007393793    1.298    0.230
       360 -10.1087     88.6077     68.2215   9.1339701836e+01   5.2610771929e+01     0.217102    0.1460533 -31.35 0.0009045703    1.710    0.415
       361 -10.2721     22.3043     67.8533   1.2151055526e+02   6.3285659641e+01     0.227094    0.1803949  32.96 0.0004910548    1.334    0.250
       362 -10.7786     21.4012     62.9661   1.2079284656e+02   6.4567862953e+01    0.3758022    0.1744094 -62.70  0.001588109    1.986    0.497
       363 -10.6850      1.6413     67.1851   1.3263531303e+02   6.4754460983e+01     0.333241    0.1597591 -86.87  0.001392021    2.218    0.549
       364  -9.6600     75.4263     66.4922   9.5662772728e+01   5.5748356024e+01    0.1495206    0.1448096  16.67 5.786562e-05    1.021    0.021
       365 -10.5550     15.2285     65.0228   1.2473321573e+02   6.4547618544e+01    0.2781299    0.1369601 -21.80  0.001151741    2.542    0.607
       366  -9.7778    101.4946     63.9972   8.5573524669e+01   5.0499651556e+01    0.2166589    0.1541504 -38.03  0.000348046    1.485    0.327
       367  -9.6051     31.3445     64.6716   1.1580205863e+02   6.3173122230e+01    0.1450436    0.1050033  61.46 -6.716127e-06    1.749    0.428
       368 -10.9571      9.8676     62.8482   1.2728816687e+02   6.5434389433e+01    0.3016864    0.2288272  27.25  0.001097653    1.421    0.296
       369 -11.1271      1.9470     60.7085   1.3142797326e+02   6.6355399034e+01    0.3116684    0.2067243 -60.55 0.0005634563    1.307    0.235
       370 -12.0254      6.6360     58.0988   1.2819587373e+02   6.6783022261e+01    0.4338027    0.3359827   5.50  0.002557934    1.367    0.269
       371  -9.1611    193.2638     62.3550   6.6217616632e+01   2.8479228517e+01    0.1289447    0.1059069   8.69 0.0004867998    1.624    0.384
       372 -10.1791     73.9715     61.0444   9.4255375493e+01   5.7177052105e+01    0.2724172    0.2019974  20.83 0.0005660508    1.560    0.359
       373 -10.1886     70.3917     60.6434   9.5571201852e+01   5.7978106139e+01    0.2662719    0.2544085  -0.85 0.0009660886    1.050    0.048
       374 -10.3596     39.2362     60.6097   1.1033752444e+02   6.3178553128e+01    0.2431292     0.231024 -47.77 0.0006970324    1.081    0.075
       375 -11.2330     47.1694     58.6763   1.0556016749e+02   6.2490611864e+01    0.3180708     0.243921  25.15 0.0008395277    1.303    0.233
       376 -10.5250     31.1734     58.8891   1.1416071462e+02   6.4570381646e+01    0.1960627    0.1850158  76.73 0.0003406102    1.211    0.174
       377 -11.1858     29.0547     54.2375   1.1387238041e+02   6.5893340340e+01     0.455147    0.2931563 -39.93  0.001861189    1.503    0.335
       378 -10.1139     55.4956     58.4508   1.0138722935e+02   6.1194324906e+01    0.1445524    0.1379612   7.47  1.17699e-05    1.007    0.007
       379  -9.9284    110.1880     56.8790   8.0476148587e+01   4.9680941244e+01    0.2362471     0.201429  87.78  0.000707434    1.283    0.220
       380 -10.9606     22.3591     57.3441   1.1872392390e+02   6.5841209243e+01    0.3816979    0.2189114  30.01  0.001044193    1.784    0.440
       381 -10.6310     79.2563     54.3692   8.9614153964e+01   5.7381520768e+01     0.229599    0.2085218  14.39 0.0007929667    1.144    0.126
       382  -9.8022     76.5610     52.4687   8.9896791804e+01   5.8322882477e+01    0.2106344    0.1415473  55.73 1.039764e-05    1.579    0.367
       383 -10.3047    118.7119     54.6508   7.7435238593e+01   4.7925762982e+01    0.1528447     0.118115  20.15 0.0003402211    1.662    0.398
       384  -9.5380    151.0102     53.4942   7.0188081685e+01   3.9894400007e+01    0.2198171    0.1392038  63.98 0.0005682835    1.530    0.346
       385 -11.6476     42.0106     51.9007   1.0575821453e+02   6.4754013258e+01    0.4534792    0.2398145 -44.63  0.001843376    1.858    0.462
       386  -9.9095     60.7006     51.9655   9.6426053645e+01   6.1616802510e+01    0.1973798    0.1855677 -24.63 0.0004980435    1.077    0.071
       387 -10.8560     20.4935     40.8778   1.1452852320e+02   6.9809388659e+01    0.4255374    0.1805259  20.51  0.001490714    2.433    0.589
       388 -10.4187      5.1419     33.1154   1.2276072333e+02   7.2732904724e+01    0.4393336    0.1651014 -47.52    0.0016043    2.177    0.541
       389 -11.0879     17.0297     46.9807   1.1888642700e+02   6.8742907062e+01    0.3886563    0.2086289 -25.05  0.001288699    2.121    0.529
       390 -10.8717      5.7202     37.9474   1.2383293281e+02   7.1609521297e+01    0.3054196    0.2647371 -31.07  0.001640887    1.030    0.029
       391 -12.3028     12.0441     45.6823   1.2174677316e+02   6.9427258198e+01    0.5463351    0.2872476 -63.77 0.0003383101    1.793    0.442
       392 -11.9905     13.0858     39.6733   1.1915258345e+02   7.0726386223e+01    0.5667448    0.4039299 -19.19  0.001907931    1.377    0.274
       393 -11.0471    225.8745     55.7603   6.0983606784e+01   2.2491500277e+01    0.2102902    0.1608636 -46.48 0.0002865334    1.090    0.083
       394 -10.9021     66.1718     50.3721   9.3326896047e+01   6.0874692812e+01    0.3704185    0.2544703 -63.08  0.001682874    1.959    0.489
       395 -10.1784    173.9863     50.0633   6.5533739504e+01   3.4694177129e+01    0.2062775    0.1857477 -74.21 0.0003163938    1.017    0.017
       396  -9.8619    128.9613     50.0284   7.3426335369e+01   4.6045975851e+01    0.2249109    0.1756256  27.28 0.0003641413    1.573    0.364
       397 -10.9494     94.7233     48.9958   8.2093040978e+01   5.4799121862e+01    0.3918525    0.3186654  19.00 0.0009493795    1.435    0.303
       398 -11.0473     73.9527     49.2142   8.9599052399e+01   5.9488825025e+01    0.3519363    0.2190948 -29.61  0.001545645    1.860    0.462
       399  -9.9241     22.3082     48.3981   1.1599792209e+02   6.7940100942e+01    0.2556602    0.1425022 -47.74 0.0009831785    1.634    0.388
       400  -9.5769    152.8903     48.3472   6.8272298953e+01   4.0166704318e+01     0.209447    0.1195633  53.55 0.0005314504    1.745    0.427
       401  -9.6640     46.6584     48.3200   1.0185838570e+02   6.4806474368e+01    0.1409438    0.1126164  70.03 0.0007049887    1.719    0.418
       402 -10.4909    122.9006     46.0786   7.3398829963e+01   4.8201438063e+01    0.2425249    0.2171073 -38.93  0.000596749    1.188    0.158
       403  -9.8268    114.4427     47.0430   7.5769587183e+01   5.0221529093e+01    0.2104167    0.1497573 -33.80 0.0003581576    1.506    0.336
       404  -9.9294    164.9775     45.9774   6.5654005088e+01   3.7461462380e+01    0.2043431    0.1899638 -73.48 0.0003276708    1.037    0.036
       405 -10.8833     61.7281     44.9996   9.3026930789e+01   6.2776771896e+01    0.2954901    0.2403522 -14.39 0.0005546143    1.351    0.260
       406 -10.3309     42.6804     44.7038   1.0250525117e+02   6.6179829365e+01    0.2362227    0.1973947  -8.56  0.000510507    1.213    0.176
       407 -11.7552     69.4208     42.2682   8.8471399822e+01   6.1705593692e+01    0.4213516    0.2862948 -24.93  0.001152269    1.704    0.413
       408 -10.1719     33.9108     44.2111   1.0734534011e+02   6.7538784301e+01    0.2698064      0.17018  42.28  0.001323209    1.748    0.428
       409 -10.7815    141.4859     42.3945   6.8365812101e+01   4.3921227083e+01    0.2433084    0.2235251  81.67  0.000157495    1.019    0.018
       410 -10.0083     81.0720     43.1244   8.4312819537e+01   5.8990089452e+01    0.2206278     0.188638  24.47 0.0003482905    1.216    0.177
       411 -11.8348    103.6115     39.0503   7.5528596232e+01   5.4174967485e+01    0.2670422     0.244911 -88.77 0.0003360718    1.130    0.115
       412 -11.9397     41.5363     38.1294   1.0025250598e+02   6.7678233084e+01    0.3453054    0.2453503  -8.02 0.0003749707    1.676    0.403
       413 -10.3422    116.7809     38.5279   7.2040982475e+01   5.0875332084e+01     0.346313    0.1922508  70.83  0.001438888    1.904    0.475
       414 -10.6347     85.9885     37.4645   8.0158562731e+01   5.8752143928e+01    0.2104459    0.1963354 -29.07 0.0003188853    1.152    0.132
       415 -12.2813    193.9973     35.3133   5.9165417396e+01   3.1868355434e+01    0.2531604    0.2154242 -59.42 0.0003474949    1.032    0.031
       416 -10.2349    131.0682     36.2357   6.8210193023e+01   4.7462490995e+01    0.3382855    0.1693402  59.59 0.0008212844    1.813    0.448
       417 -10.6921    119.4628     34.2964   6.9860612233e+01   5.0753220377e+01    0.3127589    0.2105172 -82.52  0.001268541    1.808    0.447
       418 -11.6417     77.1740     33.4600   8.1438512589e+01   6.1431691826e+01    0.3807725    0.2931632 -72.39  0.001886941    1.763    0.433
       419 -10.4184    112.8329     33.3675   7.0983246221e+01   5.2602696775e+01    0.2307954     0.193355 -54.16  0.000508565    1.268    0.211
       420 -11.6554    107.4168     29.4275   7.0693555387e+01   5.4519787561e+01     0.465775    0.2970785 -23.62 0.0004813999    1.808    0.447
       421 -10.2795     29.1755     34.0734   1.0594694537e+02   7.0264595852e+01    0.1934705    0.1787819  -5.11 0.0005022394    1.061    0.058
       422 -11.3654    142.5805     31.0317   6.4419976250e+01   4.5113653233e+01     0.462232    0.3552715  17.60  0.002357309    1.747    0.428
       423  -9.7140     91.2755     37.6297   7.8525659316e+01   5.7452059486e+01    0.1487791    0.1126312 -70.06 0.0007005619    1.682    0.406
       424  -9.8926     66.0034     32.9829   8.5611393826e+01   6.3994250295e+01    0.2035578    0.1714772 -74.53 0.0004084548    1.562    0.360
       425  -9.8459     45.3692     31.7603   9.5025992198e+01   6.8233743218e+01    0.2517106    0.1560998  20.72  0.001172504    1.871    0.465
       426  -9.7907    206.4791     31.5161   5.7048469315e+01   2.9513573682e+01    0.1280212    0.1078012 -61.37 2.144537e-05    1.009    0.009
       427 -10.5969     34.3798     30.2608   1.0076617168e+02   7.0285815889e+01    0.2948843    0.2573138  88.49  0.001707176    1.652    0.395
       428 -10.4159    159.0279     30.0272   6.1710752459e+01   4.0994145901e+01    0.2065545    0.1854259 -80.70  0.001214424    1.014    0.014
       429 -10.7259     70.5275     28.6289   8.1648241330e+01   6.3667664879e+01    0.2660695    0.2054477  17.71  0.001385513    1.445    0.308
       430  -9.9385     50.4362     28.3447   9.0559860702e+01   6.7899467252e+01    0.2754445    0.2057345  80.03  0.001314403    2.297    0.565
       431 -11.6122    146.0458    243.0323   1.1180685711e+02   6.4584534305e+00    0.2703203    0.2173421  14.59 0.0005139044    1.080    0.074
       432 -11.9081    142.4733    238.8509   1.1202815762e+02   7.5503393353e+00    0.3275168    0.1968523  32.79 0.0004793411    1.336    0.251
       433 -11.0045     10.0199     23.2376   1.1507166004e+02   7.4517759783e+01    0.2724574    0.2174117 -18.69  0.001067847    1.111    0.100
       434 -10.2763    149.6932    248.3057   1.1171004405e+02   5.2299483244e+00    0.1725867     0.153839  25.42 0.0005645966    1.284    0.221
       435 -12.0452    152.0011    244.7065   1.1080112979e+02   5.4493473529e+00    0.2130559    0.1837011   8.86 0.0002765561    1.176    0.149
       436 -10.3844     99.6854     26.9237   7.1570093777e+01   5.6826920353e+01    0.2880985    0.2014073  69.85 0.0008584645    1.393    0.282
       437 -10.7690     60.7552     33.8274   8.8324915951e+01   6.4955216753e+01    0.2900572    0.2082588 -27.06  0.001120671    1.504    0.335
       438 -11.3306    242.9286     25.3552   5.3038145854e+01   2.2778069273e+01    0.2010547    0.1497276 -47.02 0.0003322358    1.080    0.074
       439 -10.3587     61.2830     23.3734   8.2770599319e+01   6.6465636287e+01    0.3435252    0.1989808  48.76  0.001632162    1.582    0.368
       440  -9.8823     45.8087     24.5637   9.0993910427e+01   6.9383229304e+01    0.1894642    0.1242578  51.57 0.0009417693    1.698    0.411
       441 -11.1728    221.6055     21.9884   5.3647586292e+01   2.7352294586e+01    0.3058166    0.1292868 -50.84 0.0009350123    1.962    0.490
       442 -10.8264    175.2618     22.8792   5.7718271147e+01   3.7756181680e+01    0.2681251    0.1506377  47.51  0.001258256    2.172    0.540
       443 -12.0316    117.1177     22.6977   6.5927473591e+01   5.2793200135e+01    0.2885762    0.2231146  71.87 0.0002654386    1.175    0.149
       444  -9.9423    131.8317     21.8875   6.3005279780e+01   4.8998639477e+01    0.1970645    0.1546394 -70.00 0.0005893308    1.280    0.219
       445 -10.0452    101.7196     22.0723   6.9001546819e+01   5.6890618837e+01    0.1860707    0.1787239  46.91 0.0003616565    1.094    0.086
       446  -9.3070     78.7292     22.2752   7.5570282005e+01   6.2625774392e+01    0.1313429    0.1085287 -78.01            0    1.484    0.326
       447 -10.4712     37.2377     21.0674   9.4012711607e+01   7.1463239839e+01    0.3312343     0.206531  30.87  0.001711112    1.529    0.346
       448 -10.6070     33.0243     18.1919   9.5006966813e+01   7.2628966952e+01    0.2793671    0.2078988  57.17 0.0009529532    1.859    0.462
       449  -9.6776     26.9930     21.7783   1.0121622194e+02   7.2913362930e+01    0.2603606    0.1309433 -16.98 0.0009189768    3.909    0.744
       450 -10.5380    190.2959     20.3626   5.5624277320e+01   3.4432423170e+01    0.2062782    0.1814461 -55.43 0.0002395296    1.110    0.099
       451 -11.1020    128.1037    248.3900   1.1615909303e+02   7.9693956279e+00     0.397381    0.2252809  14.18  0.002161569    1.880    0.468
       452 -11.3513     90.1332     19.0818   7.0622911001e+01   6.0197291648e+01    0.3818263    0.2121083  53.34 0.0008504447    1.578    0.366
       453 -10.4947    199.3407     17.9262   5.4269241485e+01   3.2612072216e+01     0.250741     0.146218  56.89   0.00132925    1.948    0.487
       454 -10.8186     77.8089    247.6922   1.2690937982e+02   1.4392678456e+01     0.248932    0.1665809  81.85  0.001530141    1.955    0.489
       455 -12.1398     76.1860    241.4646   1.2676580739e+02   1.5675114387e+01    0.4223672    0.2551114  71.34  0.002333879    2.124    0.529
       456 -10.3077     24.6988     16.3062   9.9697849866e+01   7.4199161847e+01    0.1970359    0.1905764 -12.46 0.0005161549    1.257    0.204
       457 -10.9360    113.8565     15.4307   6.3695017944e+01   5.4434734897e+01    0.5797205    0.2160067  63.08   0.00224613    2.236    0.553
       458 -11.4534    136.5364    246.2653   1.1415905978e+02   7.2066710490e+00    0.2064719    0.1675988  37.33 0.0004258678    1.260    0.206
       459 -10.0506    185.7580     13.9330   5.4308906007e+01   3.6172791417e+01     0.180552    0.1449358 -57.87 0.0002924503    1.095    0.087
       460 -11.0014    179.9572     13.9367   5.4794491640e+01   3.7559306689e+01    0.2094617    0.1694125 -69.84 0.0006956995    1.058    0.055
       461 -10.7558     97.2174    244.1750   1.2235122940e+02   1.2592965104e+01    0.2449897    0.1844982 -87.86  0.001576259    1.827    0.453
       462 -10.8037    148.5088     12.9693   5.7666856869e+01   4.5551985231e+01    0.2554969    0.1651545  60.29 0.0006435055    1.485    0.327
       463 -10.0752    133.1941     12.8320   5.9586974386e+01   4.9575944715e+01    0.1908451    0.1504983  50.46 0.0003923487    1.324    0.245
       464 -10.5396     31.9791     12.7043   9.2268622449e+01   7.3668954690e+01    0.1927437    0.1540884  26.72  0.001166133    1.133    0.117
       465 -10.7817    100.2617    246.1596   1.2187621932e+02   1.1877334986e+01    0.2565165    0.1703922  15.67 0.0007494784    1.523    0.343
       466 -10.8676     63.3418    243.1294   1.2974923116e+02   1.6904279063e+01    0.3793668    0.1674954  43.27  0.001647836    1.725    0.420
       467 -11.1456     91.7341    242.7443   1.2342389850e+02   1.3527581088e+01    0.3181829    0.1813902  34.18 0.0009277998    1.333    0.250
       468 -10.2201    200.3914    244.8978   1.0160748484e+02  -4.8604269091e-01    0.1820199    0.1200658  24.96 0.0005807847    1.292    0.226
       469 -11.0823    191.7049    241.6157   1.0272089746e+02   9.3558126543e-01    0.2468089    0.2087398 -32.40 0.0009959815    1.594    0.373
       470 -10.9453    129.9135    241.9693   1.1504833024e+02   8.7217715068e+00    0.3416216    0.1624128  46.79  0.001665938    2.359    0.576
       471 -11.0965    114.3747    239.9287   1.1816289708e+02   1.1086368994e+01    0.2581684    0.1956143   6.37 0.0004468785    1.401    0.286
       472 -11.1885    123.6194    241.4229   1.1632841379e+02   9.6324283537e+00    0.2701312    0.1931191  25.59 0.0009566326    1.107    0.097
       473 -10.8046    119.2968    240.9999   1.1721179371e+02   1.0266762192e+01    0.2203901    0.1354684  30.52 0.0003364551    1.262    0.207
       474 -10.8797    109.9111    240.4643   1.1919612410e+02   1.1581357945e+01    0.3650173    0.2168515 -63.50  0.001332188    2.295    0.564
       475 -10.2138    246.1700    241.6008   9.3558028377e+01  -4.9963068975e+00    0.1706645    0.1097008 -15.87 8.679558e-05    1.267    0.210
       476 -10.5029     55.6756    242.2799   1.3138974210e+02   1.7935505058e+01    0.1716665     0.130344  58.23 0.0002801528    1.224    0.183
       477 -10.7426     54.6206    239.1868   1.3142126107e+02   1.8620803693e+01    0.1773293    0.1486359  59.81 0.0005568554    1.176    0.150
       478 -11.7939    198.6460    240.2881   1.0127416761e+02   2.7992890811e-01    0.3494446    0.1691153  30.89 0.0006806845    1.750    0.428
       479 -11.6632    101.6454    239.1972   1.2088673367e+02   1.2868194354e+01    0.4173499    0.2442434  56.02 0.0009739851    2.021    0.505
       480 -10.2222     96.0862    238.6946   1.2207320716e+02   1.3671235414e+01    0.4160576    0.1343008  41.78  0.001774914    2.505    0.601
       481 -13.1593    217.5764    236.6335   9.7441995883e+01  -1.4502606790e+00    0.3036952    0.2296062  -5.35 0.0005967421    1.141    0.124
       482 -10.9408    197.2207    234.4128   1.0069140466e+02   1.1883541067e+00     0.315213    0.1906065  -8.45  0.001940997    1.667    0.400
       483 -10.2375    178.0947    238.8203   1.0488434528e+02   2.9616628136e+00    0.1646072    0.1298809  23.91 0.0004556013    1.219    0.179
       484 -10.8874    167.9077    238.5278   1.0682243438e+02   4.2886116154e+00    0.2036055    0.1722603 -30.01 0.0004472083    1.439    0.305
       485  -9.8287     84.0342    238.0142   1.2471148126e+02   1.5319922996e+01    0.1992392    0.1152231  50.54 0.0006338838    1.629    0.386
       486 -10.4663     43.9674    236.2541   1.3362785508e+02   2.0346491950e+01     0.422552    0.1527091  49.19  0.002008592    2.234    0.552
       487  -9.6304    206.9983    237.4167   9.9380020826e+01  -3.4117556647e-01    0.1558812   0.08712405  25.24            0    1.475    0.322
       488 -10.4692    134.4094    235.4509   1.1331061570e+02   9.1498050224e+00    0.3116414     0.186687  60.21  0.001316177    2.987    0.665
       489 -11.7794    105.8041    235.1445   1.1953996950e+02   1.3018394186e+01     0.265544    0.1746147  41.63 0.0002720136    1.304    0.233
       490 -10.2228    172.9364    233.8978   1.0519998207e+02   4.2903678630e+00    0.1911925    0.1324033   4.75  0.001215569    1.318    0.241
       491  -9.7650    183.2600    232.9783   1.0307920451e+02   3.1005832248e+00    0.1577776     0.124137   2.77 0.0003272309    1.088    0.080
       492  -9.7502    186.7453    231.0335   1.0213967643e+02   2.9235501084e+00    0.2195271    0.1225817  10.47  0.001214279    1.836    0.455
       493 -11.2829    143.5275    232.3787   1.1098349930e+02   8.4060412751e+00     0.353186    0.1704489  29.74  0.001116691    1.676    0.403
       494 -10.7711     87.7398    231.6065   1.2327407069e+02   1.6002811745e+01    0.3368608     0.137271  42.77  0.001009796    2.018    0.505
       495 -11.1169    152.2737    230.9197   1.0895822796e+02   7.4513375921e+00    0.2216401    0.1977679 -23.52 0.0004208486    1.320    0.242
