#   1 NUMBER                 Running object number                                     
#   2 MAG_AUTO               Kron-like elliptical aperture magnitude                    [mag]
#   3 X_IMAGE                Object position along x                                    [pixel]
#   4 Y_IMAGE                Object position along y                                    [pixel]
#   5 X_WORLD                Barycenter position along world x axis                     [deg]
#   6 Y_WORLD                Barycenter position along world y axis                     [deg]
#   7 A_WORLD                Profile RMS along major axis (world units)                 [deg]
#   8 B_WORLD                Profile RMS along minor axis (world units)                 [deg]
#   9 THETA_WORLD            Position angle (CCW/world-x)                               [deg]
#  10 FWHM_WORLD             FWHM assuming a gaussian core                              [deg]
#  11 ELONGATION             A_IMAGE/B_IMAGE                                           
#  12 ELLIPTICITY            1 - B_IMAGE/A_IMAGE                                       
         1 -10.0514     13.0531     21.0105   6.0668360813e+01   7.6369540170e+01    0.2854159    0.2229355   7.92 0.0007273885    1.254    0.202
         2 -10.3467     41.1264     13.7308   3.3807224032e+01   7.3297386892e+01    0.2661728     0.204354  38.61 0.0001972464    1.217    0.178
         3  -9.7392     97.6836     12.0968   1.2680319173e+01   5.9765987614e+01    0.2769158    0.2186792   4.27  0.001037121    1.652    0.395
         4  -8.2094     80.3678     12.1690   1.6768188324e+01   6.4287741452e+01    0.1915342    0.1214029 -42.84 0.0006589899    1.679    0.404
         5  -8.4435     65.1339      4.8341   1.7096799995e+01   6.8903825550e+01    0.1834299    0.1427217  41.68  0.000249005    1.286    0.222
         6  -7.9471     52.2640      3.2827   2.0795871870e+01   7.2165809110e+01    0.1306238   0.09224417  33.49 0.0006882552    1.486    0.327
         7  -8.4765      2.8405      3.1319   6.1216460118e+01   8.0933995328e+01    0.1673542    0.1240458 -20.02   0.00103577    1.272    0.214
         8  -9.5270     67.4881      1.3718   1.4253496058e+01   6.8641870520e+01     0.245996    0.1156477  67.39  0.001084146    1.869    0.465
         9 -10.7001      8.0149    241.3846   8.8814944054e+01   2.1633144278e+01     0.353766    0.2813829  85.84  0.002549944    1.418    0.295
        10 -10.4013    247.0715    248.3541   4.1801381797e+01  -4.9209986372e+00    0.2534518    0.1668234   8.52 0.0008990097    1.211    0.174
        11  -9.2403    214.1389    250.1927   4.7025651727e+01  -2.2105269345e+00    0.1622005    0.1036141   0.65  0.001174958    1.233    0.189
        12  -9.8737    204.9676    249.9353   4.8486800243e+01  -1.3048123480e+00    0.2774227     0.113076  31.65  0.001543423    2.223    0.550
        13  -9.3591    157.5661    221.4942   5.3348487308e+01   7.8355068763e+00    0.2300294    0.1796762  14.30 0.0008428632    1.070    0.065
        14 -10.7459    161.3912    248.1850   5.6019400270e+01   3.4761265845e+00    0.5019838    0.2523354 -49.69  0.002257793    2.580    0.612
        15 -10.5417    166.4333    248.1924   5.5068703570e+01   2.9167529310e+00     0.406412    0.2326166  24.50  0.001502775    1.393    0.282
        16 -11.5100    173.5528    245.1236   5.3366670063e+01   2.5443362405e+00    0.5868471    0.5115796 -44.46  0.004557269    1.637    0.389
        17 -11.2197    167.1734    242.0399   5.4169571387e+01   3.6704928142e+00    0.4311281    0.3010173  22.65  0.001820408    1.173    0.147
        18 -10.2602    169.8849    224.9962   5.1411726604e+01   5.7819623244e+00     0.374885    0.2541752  45.37  0.001735076    1.886    0.470
        19 -11.1901    170.1322    233.4226   5.2500454008e+01   4.5355367133e+00    0.4973092    0.4201678   2.24  0.003715942    1.122    0.109
        20 -10.8860    161.5214    231.3446   5.3883264632e+01   5.8525779229e+00    0.5286698    0.2628313  33.38  0.002116105    1.749    0.428
        21 -11.4533    162.3593    225.7597   5.2976194404e+01   6.5842180427e+00    0.5407586    0.3187064  20.11  0.002574768    1.511    0.338
        22 -10.1152     13.0442    250.1867   8.7918584548e+01   1.9526403296e+01    0.3098354    0.1316269  32.42  0.001718272    1.662    0.398
        23 -11.4310     19.0714    247.5786   8.6528331827e+01   1.9457423593e+01    0.6333625    0.2447396  47.91  0.003381566    1.810    0.448
        24  -8.9896      2.3763    243.6422   9.0104911468e+01   2.1688663608e+01    0.2242909    0.1306746  30.89  0.001120011    1.376    0.273
        25  -9.7929      4.0886    249.0932   8.9830597806e+01   2.0518279305e+01    0.3123268    0.1306556  48.47 0.0009624677    1.622    0.383
        26  -9.2446     36.3213    247.9556   8.2713259555e+01   1.7712175291e+01    0.1622704    0.1295433  51.61  0.001143521    1.130    0.115
        27 -11.6668     98.6676    225.4875   6.6675579753e+01   1.4742004193e+01    0.5071934    0.4579602 -61.87  0.001818595    1.352    0.260
        28 -10.7364     73.5786    244.5534   7.4127519861e+01   1.4302622301e+01    0.2754817    0.2096585  27.35 0.0005666652    1.132    0.117
        29  -9.0326    148.1786    248.6014   5.8624380351e+01   4.9084485869e+00    0.2062847    0.1601466  40.20  0.001459169    1.451    0.311
        30  -9.8022    250.4998    241.5087   4.0401872800e+01  -4.5057935628e+00    0.2157633    0.1195323 -24.47 0.0009771036    1.449    0.310
        31 -10.1074    249.1811    237.6077   4.0056649168e+01  -3.9882054355e+00    0.2212793    0.1468439  -3.20  0.001608496    1.084    0.077
        32 -11.1596    237.6364    240.7563   4.2151776325e+01  -3.3176888825e+00    0.3639773    0.2433442   5.71  0.001964793    1.157    0.136
        33 -10.6098     98.0099    241.5910   6.8411473419e+01   1.1949352649e+01    0.3833729    0.2266229  19.85  0.001045711    1.561    0.359
        34  -9.2574    221.3040    240.1394   4.4554961101e+01  -1.7468950473e+00    0.1723391    0.1321915   0.15 0.0007153152    1.143    0.125
        35  -7.7231    199.6878    240.6891   4.8161447620e+01   3.3071828943e-01    0.1103214   0.06525886  -3.34 0.0003971486    1.629    0.386
        36  -9.1817     16.5062    238.3498   8.6824260120e+01   2.1455987322e+01    0.3857875    0.1131373  55.40  0.001721049    2.659    0.624
        37  -8.0262    133.6663    239.7137   6.0539137514e+01   7.9398550444e+00    0.1193107   0.07996853   1.20 0.0002674609    1.623    0.384
        38 -10.7297     54.0029    248.9206   7.8811484034e+01   1.5692876325e+01    0.4444923    0.2923391   3.28  0.001908185    2.006    0.502
        39 -10.3460    231.1367    234.5397   4.2270319003e+01  -2.0381126430e+00    0.2501484    0.1732325 -15.10 0.0007503084    1.149    0.130
        40 -11.3010    238.9398    230.0604   4.0480923170e+01  -2.2592875847e+00    0.4672374    0.2414111   4.43  0.002387269    1.993    0.498
        41  -9.4552    242.7372    223.9817   3.9063537875e+01  -1.9272142113e+00    0.1873595    0.1162018 -17.40 0.0006790504    1.252    0.201
        42 -11.8267    126.5414    221.3820   5.9880332407e+01   1.1862914234e+01    0.6729455    0.4855474 -69.79  0.002981738    1.945    0.486
        43  -9.9760    117.9335    227.7683   6.2548506305e+01   1.1866741095e+01    0.3857189    0.2234418  43.55  0.001155118    1.648    0.393
        44  -8.9074    145.0061    227.5348   5.6710059389e+01   8.4641073078e+00    0.2061689    0.1517482 -18.59 0.0005534836    1.459    0.314
        45  -9.8334    249.7341    226.7693   3.8467288825e+01  -2.8747998416e+00    0.2039695    0.1263173 -18.22   0.00159092    1.221    0.181
        46  -9.0830    185.2258    226.9694   4.8827002606e+01   3.6934143233e+00    0.1634053    0.1409456  13.90 0.0006473799    1.247    0.198
        47  -9.7328    181.1618    226.1469   4.9453827412e+01   4.2777574869e+00    0.2464189    0.2027285 -18.27  0.001103078    1.216    0.177
        48  -7.8134     80.2862    227.3297   7.1171120900e+01   1.6696742729e+01    0.1189632   0.09356192 -11.15 0.0007011282    1.614    0.381
        49  -9.1453     27.9961    226.0090   8.3679582574e+01   2.2829519456e+01    0.1704509    0.1383213 -22.43   0.00107207    1.747    0.428
        50  -7.9556     73.4630    224.4803   7.2553212012e+01   1.8084024743e+01    0.1295695    0.1057518  36.26 0.0004535093    1.032    0.031
        51  -8.9473     66.7866    223.6624   7.4101645578e+01   1.9050392840e+01    0.1851228     0.171385 -66.06 0.0006283458    1.325    0.245
        52  -8.5451    174.5181    222.4750   5.0179014543e+01   5.5922110895e+00    0.1178617    0.0936318   5.72 -4.231012e-05    1.028    0.027
        53  -9.4337    219.1512    219.2518   4.1946913592e+01   9.7203891958e-01    0.2979204    0.1808544  -5.77  0.001983234    1.551    0.355
        54  -8.6833    213.4600    220.5569   4.3053550037e+01   1.4104318297e+00    0.2220285    0.1170432  32.68  0.001389582    1.910    0.476
        55 -10.8918    131.0362    214.5260   5.8009965930e+01   1.2469268598e+01     0.708013    0.4641771 -72.56  0.003724792    2.409    0.585
        56  -9.4245    128.0397    211.7194   5.8307377278e+01   1.3378555117e+01    0.2253719    0.1614855  47.44 0.0003415964    1.480    0.324
        57  -9.6482    115.0636    220.7923   6.2381299229e+01   1.3476556374e+01    0.1934379    0.1806767   6.09 0.0005913828    1.149    0.130
        58  -8.5740    149.3949    219.7685   5.4779932403e+01   9.1537574027e+00    0.1735072    0.1519359  15.17  0.001069345    1.089    0.082
        59  -9.3527    151.6181    216.1046   5.3817810452e+01   9.4617493584e+00    0.3377366    0.2012519   6.87  0.001310834    2.007    0.502
        60  -9.6291     75.1904    219.3771   7.1685044168e+01   1.8888599264e+01    0.2810466     0.175088  40.56  0.001155141    1.302    0.232
        61  -8.4749    226.8391    219.2305   4.0741204087e+01   1.7930826331e-01    0.1457496     0.117302 -12.12 0.0008331273    1.209    0.173
        62  -9.9545    190.3241    216.3695   4.6389466134e+01   4.5785747636e+00    0.4098434    0.2306109 -34.00  0.002481885    1.730    0.422
        63  -9.6125    175.6686    216.5164   4.9111150431e+01   6.3318744144e+00    0.3576334    0.1890737 -22.04  0.001848834    2.308    0.567
        64 -10.3408     84.4722    215.4464   6.9034142292e+01   1.8505993201e+01    0.5648511    0.2765603 -62.62   0.00273124    2.378    0.579
        65  -9.9798     23.6444    216.7732   8.4346114930e+01   2.5198826589e+01    0.5041313    0.1228298  25.56  0.001862526    3.280    0.695
        66 -10.2344    170.7464    215.3249   4.9880595998e+01   7.1262429145e+00    0.2608156    0.1936244  13.73 0.0006912039    1.162    0.139
        67 -10.2271    121.5147    222.6626   6.1151831644e+01   1.2296720706e+01    0.3023221    0.2345934  38.84  0.001535972    1.201    0.167
        68  -9.8799    112.9937    212.6881   6.1880173617e+01   1.5253105735e+01    0.5820302    0.3376818  -6.44   0.00244639    3.109    0.678
        69  -9.7842     64.2130    213.4998   7.3902911151e+01   2.1448446739e+01    0.4649308     0.160273  41.75  0.001933618    2.245    0.555
        70  -9.4889    228.6963    213.1712   3.9557160852e+01   7.3189672555e-01    0.3309118    0.1220443 -27.10  0.001642961    2.851    0.649
        71 -10.5067    211.8796    208.1730   4.1457071611e+01   3.2028154601e+00    0.3756163     0.316229  -6.46  0.002542448    1.164    0.141
        72  -9.4351    212.0282    203.4727   4.0704618290e+01   3.8206988124e+00    0.3624284    0.1449297  37.97  0.001863052    2.717    0.632
        73  -9.4187    202.5638    211.1429   4.3468322580e+01   3.8705790413e+00     0.276583     0.150535 -29.57  0.001660167    1.719    0.418
        74  -8.2024    143.6035    216.8185   5.5593604689e+01   1.0396460680e+01    0.1502683    0.1223898 -61.91 0.0009475937    1.635    0.388
        75 -10.2360     77.8782    210.7736   7.0206218864e+01   2.0311596659e+01    0.3667705    0.3300292  65.61  0.002074021    1.169    0.144
        76  -9.6072    237.8707    210.2086   3.7741240725e+01   1.5464113225e-01    0.1517525    0.1252004 -12.85 0.0007573082    1.269    0.212
        77  -8.4377    135.7914    208.7724   5.6181023531e+01   1.2843536574e+01    0.1661974    0.1339408  44.16 0.0002862623    1.307    0.235
        78 -10.4194     11.9079    205.7456   8.6896656448e+01   2.8712445660e+01     0.456983     0.249788 -84.38   0.00243456    1.892    0.471
        79 -11.4863     15.4753    196.0454   8.5594562648e+01   3.0613947902e+01    0.8106592    0.3535433 -46.48  0.003229493    3.671    0.728
        80 -11.1531     20.5558    180.6285   8.3444429698e+01   3.3850958826e+01    0.7079049    0.3613781 -78.05  0.003348492    1.976    0.494
        81  -9.9461     11.1536    187.3999   8.6435734615e+01   3.3042378387e+01    0.2981471    0.2796479 -18.16 0.0005855602    1.383    0.277
        82 -11.8423     11.7843    180.6817   8.5986348565e+01   3.4621612133e+01    0.8507621    0.7323813  -7.31  0.005028339    1.488    0.328
        83 -11.3930      5.7182    176.3784   8.7578537582e+01   3.6180719487e+01    0.5625426    0.4063902 -81.06  0.001151559    1.410    0.291
        84 -11.1789      3.6402    169.4361   8.7952189978e+01   3.8077637149e+01    0.4652386    0.2850258 -67.98 0.0001384131    1.744    0.427
        85  -9.2946    124.0727    205.9363   5.8435342423e+01   1.4995037826e+01    0.1877761    0.1619942  22.51            0    1.020    0.020
        86  -8.1016    132.3253    204.6733   5.6381504655e+01   1.4069068460e+01    0.1984333   0.09503014  48.84  0.000838756    2.592    0.614
        87  -9.0072    129.7832    201.1895   5.6465362725e+01   1.5077678568e+01    0.2280025    0.2170225   3.01  0.001489336    1.112    0.100
        88  -9.6117    166.6822    199.4324   4.8290588477e+01   1.0185796703e+01     0.327323    0.2336033   7.56  0.001168013    1.402    0.287
        89 -10.9689    175.9852    185.0267   4.4118013244e+01   1.1275114855e+01    0.5178213    0.3938387 -58.47  0.002175866    1.763    0.433
        90  -9.3668    171.4359    201.4585   4.7667022130e+01   9.2111648322e+00    0.2120419     0.184147   2.87 5.687601e-05    1.042    0.040
        91 -11.4102    178.5665    196.5338   4.5514981832e+01   9.0406089732e+00    0.7828897     0.453649 -26.28  0.003091245    1.837    0.456
        92 -11.3229    172.8723    195.5993   4.6462445681e+01   9.9656648784e+00    0.6779184    0.2798385 -40.89  0.002511441    2.434    0.589
        93  -9.7837     58.8845    199.7308   7.4098950753e+01   2.5103297491e+01     0.443175    0.2214245  44.54  0.002077863    1.670    0.401
        94  -9.7284    104.5717    197.9447   6.2038540344e+01   1.9344020091e+01    0.4864671    0.2730831  10.66  0.002037196    2.572    0.611
        95  -9.7992    126.6598    196.6940   5.6540788426e+01   1.6387128108e+01    0.3097428    0.2259365   6.90  0.001080766    1.526    0.345
        96  -9.3435    124.7028    192.7060   5.6417219210e+01   1.7455841210e+01    0.2642052    0.2191412 -13.72  0.001537382    1.330    0.248
        97  -8.6830    113.0615    194.3006   5.9451347078e+01   1.8859227538e+01    0.2037591    0.1775366  -5.59 0.0003387092    1.251    0.201
        98  -8.6691    212.7163    199.0340   3.9892246102e+01   4.3481601479e+00    0.1583333    0.1184128 -17.52  0.000345989    1.115    0.103
        99  -9.3686    249.0314    194.7803   3.3781836665e+01   8.8915859716e-01    0.2655223    0.1307045 -15.57  0.001533035    2.227    0.551
       100  -8.8535    131.5120    194.9803   5.5164708688e+01   1.6004801245e+01    0.1812301    0.1333637 -52.76  0.000557626    1.534    0.348
       101  -8.3176     66.4667    194.9318   7.1608144896e+01   2.5237026613e+01    0.1976839    0.1029004  71.49 0.0008085402    2.555    0.609
       102  -8.8246     40.1440    194.6600   7.8781469272e+01   2.8459973216e+01    0.2806626    0.1121873 -51.22  0.001080431    3.329    0.700
       103 -10.5967     93.8758    181.6411   6.2608863502e+01   2.4437430731e+01    0.4175433    0.3317055 -42.04  0.001094799    1.448    0.309
       104 -11.8593     97.9746    188.7518   6.2496592251e+01   2.2251636665e+01    0.6639158    0.4107302  57.71  0.001424618    1.851    0.460
       105 -10.0146    104.1985    189.3677   6.0979655543e+01   2.1199370001e+01    0.2926779     0.220689  45.42 0.0007295098    1.237    0.192
       106  -8.3791    135.0014    192.5231   5.3994276602e+01   1.5958268064e+01    0.1942126   0.09874802  50.95 0.0008096647    2.553    0.608
       107  -9.0135    185.3579    190.2015   4.3210031973e+01   9.1265977995e+00     0.211903    0.1462136  19.30  0.001276587    1.401    0.286
       108  -8.4956     91.1886    190.1221   6.4449878532e+01   2.2937759806e+01    0.1952368    0.1505538  58.87 0.0007737982    1.326    0.246
       109  -9.8427    203.8719    187.8362   3.9538190008e+01   7.0376081230e+00    0.2935707    0.2438175  64.28  0.001892181    2.068    0.516
       110  -8.3237    138.4325    189.2384   5.2704809260e+01   1.6071571621e+01    0.1725155    0.1320636 -65.47 0.0009067509    1.661    0.398
       111  -8.7804    154.9273    187.5093   4.8805136210e+01   1.3921730058e+01    0.3004434    0.1870885 -11.97  0.001424223    2.247    0.555
       112  -9.1240    112.5110    198.0057   6.0095563368e+01   1.8188146540e+01    0.3913704    0.1802482  54.02  0.001475714    3.160    0.684
       113  -8.8677    250.1505    185.8784   3.2213436121e+01   1.8666934657e+00    0.1550031    0.1234778 -26.87  0.001228884    1.273    0.215
       114  -9.5591    228.5613    183.7360   3.4922919138e+01   4.5663944984e+00    0.2399446    0.1715032 -11.71  0.001542107    1.209    0.173
       115  -9.8159    183.1854    185.5472   4.2836345636e+01   1.0170613097e+01     0.208596    0.1976489 -66.28 0.0008859698    1.452    0.311
       116 -10.0539    109.6081    184.7704   5.8948365402e+01   2.1367583368e+01    0.5114443    0.2954627  29.81  0.002344948    1.616    0.381
       117  -9.5228    209.6433    184.8875   3.8081377129e+01   6.7308056137e+00    0.2315715    0.1595096  -3.16  0.001101607    1.460    0.315
       118 -10.2458     46.3632    180.7738   7.5918684625e+01   3.1084368357e+01    0.6902234    0.2205083 -65.34  0.002547943    3.086    0.676
       119  -8.7029    217.4145    182.8035   3.6478525776e+01   6.0503451232e+00    0.1554027    0.0912347 -26.07 0.0003944547    1.526    0.345
       120 -10.2149    181.8901    180.5495   4.2225896130e+01   1.1171269297e+01    0.2519806    0.1620153 -36.58  0.001428261    1.488    0.328
       121  -9.4833    111.8255    179.3186   5.7564157447e+01   2.2196736045e+01    0.3642917    0.2120094  28.07  0.001672711    1.683    0.406
       122  -9.1945    105.4340    175.1176   5.8575403931e+01   2.4126153826e+01    0.3290717    0.2230235  64.19  0.001243996    1.812    0.448
       123  -8.7452    103.9780    179.8116   5.9668049565e+01   2.3309987060e+01    0.3569607    0.1971222 -50.16  0.001408729    1.976    0.494
       124  -9.3627    100.7874    177.6260   6.0186241803e+01   2.4290420417e+01    0.3511662    0.1759178  29.62  0.001433251    1.924    0.480
       125  -8.6618    219.0675    178.2318   3.5442935677e+01   6.4938463160e+00    0.1904814    0.1317679 -42.19 0.0007960199    1.520    0.342
       126  -9.6725    157.9616    176.9925   4.6386570562e+01   1.5375732068e+01    0.3681564    0.2941007 -52.10  0.001554528    1.408    0.290
       127 -10.5774    152.1776    174.8228   4.7249278954e+01   1.6688423756e+01     0.414181    0.2871644 -27.30  0.001362799    1.584    0.369
       128 -10.0040    148.6913    174.6702   4.7987905820e+01   1.7271924936e+01     0.310639    0.2531217 -37.72   0.00127039    1.252    0.201
       129  -8.7635    240.5924    177.7512   3.2188202699e+01   3.9612256692e+00    0.1847109    0.1124725 -35.70 0.0008352663    1.424    0.298
       130  -8.8483     89.1385    177.2555   6.3288893454e+01   2.6151627560e+01    0.2740202    0.1747039  72.04   0.00103155    2.042    0.510
       131 -10.8155    206.6557    168.2900   3.5688399656e+01   9.6153886815e+00    0.4451661    0.2585193 -23.41  0.002432216    1.768    0.434
       132 -10.7921    204.6676    175.4176   3.7282079211e+01   8.7974263057e+00    0.3443804    0.2683799 -16.92  0.001600025    1.122    0.108
       133  -9.6565     31.4900    166.4399   7.9211872044e+01   3.6361445034e+01    0.5321464    0.2053085 -84.95  0.001974508    2.824    0.646
       134 -10.0735     28.8057    174.3770   8.0620077730e+01   3.4608781497e+01    0.4242757    0.2148589 -73.16  0.001931971    1.999    0.500
       135  -9.7977     28.5232    169.9982   8.0398344478e+01   3.5750555581e+01    0.3917231    0.2448694  37.79  0.001114037    1.391    0.281
       136  -9.5635    138.8731    180.4376   5.1183549378e+01   1.7706032428e+01    0.2391571    0.2082998 -49.96  0.001417664    1.256    0.204
       137 -10.0390     24.2189    174.0187   8.1976361954e+01   3.5153864698e+01    0.4820443    0.2233139  78.13  0.001449822    2.255    0.557
       138 -10.1445     20.1214    168.7394   8.2899908938e+01   3.6884267700e+01    0.4322798    0.1678464  71.00  0.001617089    2.770    0.639
       139  -8.5475     77.6775    175.9030   6.6319509255e+01   2.8156752127e+01    0.2411339     0.144325  66.04  0.001044175    2.003    0.501
       140  -9.5026     90.4759    172.6209   6.2259469184e+01   2.7030737254e+01    0.6141778    0.2414192  29.08  0.002219993    2.551    0.608
       141  -8.6512    223.9685    172.2630   3.3662599108e+01   6.7226894204e+00    0.1579655    0.1323968  -3.97 0.0004668343    1.109    0.098
       142  -8.5221    193.2751    172.5562   3.8739715862e+01   1.0837840484e+01    0.1607862     0.109896  18.85 0.0006367014    1.550    0.355
       143  -8.2466    176.6853    171.3418   4.1593853475e+01   1.3498148690e+01     0.186497    0.1183112 -64.97 0.0008463765    2.765    0.638
       144  -7.8076    179.5226    169.5508   4.0725605560e+01   1.3374099687e+01    0.2047277    0.1216976  38.04 9.256499e-05    1.721    0.419
       145  -8.8469    176.6289    167.7641   4.0954450481e+01   1.4128159510e+01    0.2362415    0.1757049 -35.48 0.0006162095    1.281    0.219
       146  -8.1768    135.2101    171.4109   5.0503277385e+01   2.0099985653e+01    0.1994215    0.1227395  44.51 0.0009458078    1.624    0.384
       147  -9.7052    199.8811    167.2876   3.6642646990e+01   1.0730126098e+01    0.3491356    0.2121676 -10.78  0.001119291    2.147    0.534
       148  -8.8425    121.5239    169.7518   5.3554070293e+01   2.2702535773e+01    0.2710445    0.2082665  76.69 0.0009946892    1.702    0.412
       149  -8.4130     55.0329    169.5029   7.2225084359e+01   3.2830893763e+01    0.3142919    0.1303166  63.81  0.001023552    3.415    0.707
       150  -9.2836    160.1985    166.2982   4.3999123154e+01   1.7006033178e+01    0.4359589    0.2179225 -57.45  0.001788881    2.784    0.641
       151 -11.5927    248.7270    154.8329   2.7171149355e+01   6.0359319194e+00     1.082555    0.2599306 -34.61  0.004375125    3.522    0.716
       152 -10.6563    149.9922    163.6489   4.5714916006e+01   1.9201145804e+01    0.4245657    0.3531571   3.94  0.001434443    1.284    0.221
       153  -8.9549     97.8889    165.1978   5.9058558422e+01   2.7607996114e+01    0.4599775    0.2629898  72.05  0.001694578    2.955    0.662
       154  -8.6528     92.6559    160.2892   5.9746678562e+01   2.9625514763e+01    0.2447005     0.161083  64.97  0.001077651    1.806    0.446
       155  -8.9103    139.1705    165.3179   4.8488384092e+01   2.0686226124e+01    0.2953456    0.2048133  81.97  0.001266564    2.547    0.607
       156  -8.6763     37.2203    164.2241   7.7225036795e+01   3.6320141910e+01    0.2214355    0.1441063  58.23  0.001077447    1.403    0.287
       157  -9.3253      9.4707    163.0075   8.5904811931e+01   3.9273090414e+01    0.3540935     0.125271 -83.96  0.001039917    2.715    0.632
       158 -10.3163     23.0557    160.4684   8.1443241900e+01   3.8756978642e+01    0.5437744    0.2783718   9.57  0.001977036    2.485    0.598
       159  -8.5188    224.5121    205.6550   3.9055872227e+01   2.1258914327e+00    0.1349359   0.09185381 -36.57 0.0009336317    1.518    0.341
       160  -9.8554     99.8771    159.1653   5.7506666843e+01   2.8706790706e+01    0.3665486    0.3014973 -58.38 0.0009211082    1.287    0.223
       161  -9.0669    100.0228    154.0573   5.6580790365e+01   2.9900948851e+01     0.244972     0.216492 -62.59 0.0003701355    1.187    0.158
       162  -9.2952    220.1803    159.2269   3.1915200852e+01   9.1150368565e+00    0.1501732    0.1331691 -44.43  0.001059014    1.340    0.254
       163 -10.3362    143.1150    158.3826   4.6281233386e+01   2.1429076420e+01    0.6331475    0.2468521  46.07  0.002332999    2.764    0.638
       164  -9.2152    166.6577    157.2910   4.0961561022e+01   1.7621746158e+01    0.3418278    0.2478461  71.39  0.001680489    2.209    0.547
       165  -9.2699    105.1867    157.6252   5.5761321271e+01   2.8175716084e+01    0.3006304    0.2190146  78.22 0.0009276587    1.748    0.428
       166  -9.4745    224.9202    157.1666   3.0836302993e+01   8.7727390723e+00    0.1712978    0.1487115 -40.49  0.001073282    1.291    0.226
       167 -10.1417    208.9827    156.5220   3.3155043783e+01   1.1106773920e+01    0.6307648    0.2200821  34.87  0.002566855    3.634    0.725
       168 -10.8774    205.8861    150.2330   3.2461918832e+01   1.2557601441e+01    0.5092145    0.3604432 -40.70  0.003081189    1.301    0.231
       169  -9.3923    206.4053    142.4010   3.0857309062e+01   1.3730802556e+01    0.3328647    0.2285415  -9.55   0.00135981    1.772    0.436
       170  -8.4383    127.4903    156.9601   4.9767871208e+01   2.4458098156e+01    0.2117356    0.1437427 -52.43 0.0004855457    1.537    0.349
       171 -10.1522    134.6103    153.8156   4.7414903989e+01   2.3876081777e+01    0.5233455    0.3408522  64.07  0.001664196    2.155    0.536
       172  -9.3469     81.9122    154.4468   6.1981035908e+01   3.2790280494e+01    0.2843004    0.2048154  82.76  0.000725774    1.609    0.379
       173  -9.6518     68.6848    154.0845   6.6028616884e+01   3.4904976465e+01    0.4721325      0.24709  62.26  0.001523796    2.357    0.576
       174  -8.7406     49.5459    155.0181   7.2314078037e+01   3.7278528914e+01    0.3253544    0.1162607  54.59  0.001022707    3.296    0.697
       175  -8.9852    233.8872    154.1340   2.9012003430e+01   8.0122885480e+00    0.1735074    0.1446029 -37.42  0.001252954    1.242    0.195
       176  -9.6136      4.8099    152.3273   8.6924883008e+01   4.2414228113e+01    0.4290352    0.1601486  65.62  0.001654224    2.522    0.604
       177 -10.6338    223.3111    148.4593   2.9462360817e+01   1.0278362423e+01    0.3857748    0.3386239  -4.96  0.001849042    1.143    0.125
       178  -8.9067    189.8141    150.8241   3.5294434917e+01   1.4968902675e+01    0.2124577     0.191753  51.62  0.001164316    1.323    0.244
       179  -8.7160     88.2908    151.1272   5.9503627885e+01   3.2588812006e+01    0.2662873    0.2079541  23.74  0.001300405    1.372    0.271
       180  -8.0017    177.3269    160.6471   3.9494033338e+01   1.5267554684e+01    0.1265444    0.1056849 -84.69 0.0007047225    1.767    0.434
       181  -9.1287     28.0228    148.7399   7.8876875941e+01   4.1400116758e+01      0.45508    0.1840392  72.42  0.001565604    3.022    0.669
       182  -9.1263    121.6656    111.7660   4.1443211445e+01   3.5739195322e+01    0.3885275    0.2671884  77.38  0.001591432    1.983    0.496
       183  -9.5248    107.9685    138.9897   5.1452122243e+01   3.2101362669e+01    0.9604284    0.5498974  87.15  0.002881535    4.302    0.768
       184 -10.3175    124.6920    144.8060   4.8108263187e+01   2.7647245538e+01      0.81778    0.5140197 -33.14  0.003535448    1.980    0.495
       185 -10.0292    118.2484    118.1681   4.3943826414e+01   3.4993155508e+01    0.7416136     0.264828 -46.44  0.002078664    2.866    0.651
       186 -10.8974    107.5867    113.7796   4.5910428170e+01   3.8223155351e+01     1.135005    0.9319875 -43.01  0.005536334    1.304    0.233
       187  -9.9317    109.9641    131.0747   4.9218792207e+01   3.3615013808e+01    0.5965142    0.4249668  45.25  0.001725874    1.363    0.267
       188 -10.2775    116.9634    125.2168   4.5950909426e+01   3.3620691368e+01    0.6402261    0.5488459  25.32  0.002333114    1.301    0.231
       189  -9.2314    105.1598    123.6055   4.8954442141e+01   3.6346891829e+01    0.3487495    0.2700433  11.55  0.001205068    1.733    0.423
       190  -9.7749    110.0841    124.9816   4.7831089062e+01   3.5045172117e+01    0.4306029    0.2991509  43.85  0.001058284    1.407    0.289
       191  -9.7947    108.8829    121.0932   4.7282798651e+01   3.6212779240e+01    0.3882279    0.3157181 -70.10 0.0009153761    1.289    0.224
       192  -8.4116     82.5241    149.4908   6.0982388385e+01   3.3943460131e+01    0.1512873    0.1438539  52.84 4.897609e-05    1.051    0.048
       193  -9.5642     39.3464    146.9777   7.4817946133e+01   4.0661629191e+01    0.6170464    0.2329456  63.50  0.001887168    3.703    0.730
       194  -9.5270    158.4412    146.0417   4.0435722511e+01   2.1192183631e+01    0.3794622    0.2199069  -9.21  0.001216403    4.535    0.779
       195  -9.0737    143.0111    146.3445   4.3932108497e+01   2.3932236775e+01    0.2640431    0.1980859 -17.18 0.0009126876    1.666    0.400
       196  -9.6389    117.0731    144.4338   5.0037829228e+01   2.9139338932e+01    0.6859874    0.2663871  53.44  0.002006333    3.959    0.747
       197  -8.3966     77.8183    147.1523   6.2061617750e+01   3.5296003460e+01    0.2084567    0.1863248 -14.48  0.001074573    1.350    0.259
       198  -9.9909     57.0328    145.3985   6.8589373044e+01   3.8851978350e+01    0.7031984    0.2758234  36.29  0.002587045    2.227    0.551
       199 -11.3449    218.0747    165.2640   3.3326641214e+01   8.5077071824e+00    0.4412587    0.3298939  14.97  0.002082773    1.401    0.286
       200 -11.0727    245.3872    137.4589   2.4461720706e+01   8.8218835637e+00    0.3809422    0.2805604 -47.10  0.002642334    1.410    0.291
       201  -9.0759    195.3676    145.4932   3.3279910967e+01   1.4975991235e+01    0.3136086     0.107535 -44.59  0.001232221    2.785    0.641
       202  -9.8587    148.9153    145.0484   4.2315698682e+01   2.3117601388e+01    0.4373619    0.2999141  86.41  0.001788604    2.658    0.624
       203  -9.4204    107.0223    144.9038   5.2897255632e+01   3.0862743040e+01     0.501865    0.2856576  72.39  0.001665544    3.421    0.708
       204  -8.4383     13.6139    146.2901   8.3641976790e+01   4.3360542061e+01    0.2419746    0.1274393  56.17 0.0006962524    1.711    0.416
       205  -8.5898    190.2903    145.5800   3.4174931693e+01   1.5787075557e+01    0.1739007    0.1204329  27.24  0.000874348    1.638    0.389
       206 -10.1127     72.0269    143.2388   6.3275355775e+01   3.7223699449e+01    0.6212684    0.3827719   8.69  0.002410131    2.470    0.595
       207  -9.4306     69.3460    140.0350   6.3630022691e+01   3.8482517085e+01    0.3423248    0.2093665  70.97  0.001276521    2.011    0.503
       208  -8.7943     88.1463    143.9010   5.8274577589e+01   3.4425031624e+01    0.3446172    0.1997876  65.23  0.001311837    2.316    0.568
       209  -8.1102    165.3129    143.6975   3.8522577098e+01   2.0414808563e+01    0.1331165    0.1102754 -87.26 0.0003031072    1.613    0.380
       210  -8.5440      3.3305    142.6900   8.7000634554e+01   4.5080909690e+01    0.1554725   0.08177832  54.16 0.0007041704    1.668    0.400
       211 -10.0331     41.3243    135.5563   7.2765393484e+01   4.3550936526e+01    0.4065038    0.3589311   3.60  0.001851269    1.332    0.249
       212 -10.9011     44.1978    131.2219   7.1131719500e+01   4.4397337276e+01     0.911043    0.4674026  67.49   0.00343336    2.359    0.576
       213 -10.0152    192.8426    134.0904   3.1396994504e+01   1.7325844183e+01    0.2545769    0.1882495  57.90  0.001313934    1.669    0.401
       214 -10.8784    197.6496    136.2732   3.1043194934e+01   1.6146789575e+01    0.5019254    0.3519824  -4.56  0.002674933    1.881    0.468
       215  -9.5767    202.9573    136.2312   3.0174296621e+01   1.5280950583e+01     0.237365    0.1951451  37.06 0.0008430732    1.365    0.267
       216  -9.4209     23.5324    138.2485   7.9528929208e+01   4.4693521130e+01    0.6004477    0.2167699  65.00  0.001926512    3.411    0.707
       217  -9.4818     22.0014    132.0047   7.9526374862e+01   4.6556977556e+01    0.6021758     0.228208 -39.66  0.001816218    4.456    0.776
       218  -9.7081    234.4048    136.7007   2.5715135052e+01   1.0433596301e+01    0.2774772    0.2009892 -17.82  0.001200082    1.338    0.253
       219  -8.4765    162.0137    136.8029   3.7752954191e+01   2.2342406906e+01    0.2316307    0.1639167  10.94  0.001087488    1.986    0.497
       220  -9.0455     82.0160    136.4712   5.8835404162e+01   3.7362953329e+01     0.237485    0.1495155  34.27 0.0008462652    1.558    0.358
       221  -8.4345      3.9735    134.5119   8.6382067335e+01   4.7249319860e+01    0.1965828    0.1048401 -25.49 0.0008103212    2.663    0.624
       222  -9.6558     83.8489    132.0345   5.7389545464e+01   3.8194176593e+01    0.4967692    0.2587438  58.56  0.001368153    2.440    0.590
       223  -9.3680    209.3257    131.9012   2.8309061362e+01   1.4949640945e+01    0.2540379    0.2086681  49.88  0.001014558    1.450    0.310
       224  -9.3386    132.0617    131.2323   4.3351734869e+01   2.9255161029e+01    0.3750633    0.2371602 -68.00  0.001233865    2.082    0.520
       225  -8.1687    143.2842    131.6289   4.0735596435e+01   2.6964554880e+01    0.1501141    0.1155892 -84.05 0.0007017079    1.704    0.413
       226 -10.8627    246.5515    128.5352   2.2661913021e+01   9.8978155857e+00     0.423186    0.1582016 -44.92    0.0020221    2.493    0.599
       227  -9.7500     99.5126    128.2504   5.1679513812e+01   3.6299527572e+01    0.5438311    0.3419289  81.28  0.002017255    2.540    0.606
       228  -8.7299     73.6259    129.6350   6.0333997362e+01   4.0554825984e+01    0.3315579    0.1994335  65.50  0.001002802    2.045    0.511
       229  -9.3412     13.1960    129.3779   8.2631091541e+01   4.8014668135e+01    0.4702554    0.1839815  56.28  0.001758603    2.512    0.602
       230  -8.1851    168.5162    129.5049   3.4858307087e+01   2.2527249762e+01    0.1387454    0.1303001 -49.87 0.0004833168    1.056    0.053
       231  -9.7132    227.7108    125.9108   2.4510305695e+01   1.2994060200e+01    0.2871638    0.1694737 -41.84  0.001040471    1.432    0.302
       232  -9.8972     60.2386    124.6077   6.4148161141e+01   4.4016123708e+01    0.6974411    0.3208075  63.86  0.002134352    3.496    0.714
       233  -8.9499     24.3306    125.9822   7.8043279335e+01   4.8018672168e+01    0.2339264    0.2035426 -30.25   0.00072152    1.356    0.263
       234  -9.8846     28.5776    122.7075   7.6010273021e+01   4.8523750462e+01    0.6108594    0.3158021  61.95  0.002471983    2.053    0.513
       235  -8.9607     28.5332    116.9391   7.5316671198e+01   5.0144342032e+01    0.7032801    0.2903349 -32.53  0.001981457    4.961    0.798
       236  -8.9176    153.0500    129.0661   3.7965159165e+01   2.5583357640e+01    0.3217211     0.188978 -65.60  0.001095596    2.532    0.605
       237  -9.4545    135.9951    123.9757   4.0732261978e+01   3.0051494692e+01     0.284459    0.2177441  20.44 0.0005737513    1.647    0.393
       238 -10.0449     44.3152    122.9155   6.9870904286e+01   4.6684617161e+01    0.7407191    0.3411883  68.27  0.002369511    3.155    0.683
       239  -9.4932    181.1318    120.1710   3.0431269977e+01   2.1870282234e+01    0.4989485    0.2704355 -19.10  0.001808548    3.532    0.717
       240  -9.7972    141.9697    120.4958   3.8493354852e+01   2.9574394122e+01    0.4897781    0.3042478 -44.55    0.0022018    1.586    0.369
       241  -8.4043     84.3768    121.8320   5.5109336841e+01   4.0735411031e+01    0.2239989    0.1420438 -48.71 0.0009393276    1.675    0.403
       242  -8.0179    158.5427    121.5017   3.5075671748e+01   2.6009974706e+01    0.1441029    0.1346637 -63.17 0.0003675985    1.069    0.065
       243  -8.7531     71.2879    120.0951   5.9271336766e+01   4.3478333642e+01    0.3254572    0.1786373  57.49  0.001223419    2.121    0.529
       244 -10.5987     22.4818     92.4727   7.4552872778e+01   5.7562217946e+01    0.5888436    0.3613277 -43.40   0.00183793    1.764    0.433
       245 -10.9322     15.4960    113.2902   8.0324483819e+01   5.2319184654e+01    0.7990319    0.4213947 -76.44  0.003468095    1.755    0.430
       246 -10.6889     23.7434    102.4957   7.5446746494e+01   5.4654086788e+01     1.087854    0.3301581  56.00  0.002844683    5.138    0.805
       247 -10.0670     22.5603    109.5551   7.6898028112e+01   5.2781875829e+01     0.426668    0.2753215  87.80 0.0009984338    1.528    0.346
       248 -11.0636     16.7386    104.6529   7.8867886710e+01   5.4641463239e+01    0.6367481    0.4329824 -46.22  0.002248717    1.578    0.366
       249 -10.4063    248.4083    116.5478   2.0179680809e+01   1.1293852762e+01    0.3025024     0.214645 -44.67  0.002070736    1.242    0.195
       250  -8.5428    172.5536    117.9111   3.1482717055e+01   2.3929151893e+01      0.19909     0.119428 -20.22 0.0008069341    2.540    0.606
       251  -9.5154      2.5383    116.6688   8.5955398228e+01   5.2229875478e+01    0.4968534    0.1849958  63.34  0.001825354    2.718    0.632
       252  -9.5081     79.4422    112.6491   5.4751648197e+01   4.4013599101e+01    0.4581604    0.2905869  81.01  0.001749996    2.255    0.557
       253  -9.3454     66.6606    110.4733   5.8935261496e+01   4.6822194955e+01    0.4151618    0.2021342  59.05  0.001373217    2.827    0.646
       254  -9.6236    133.7371    108.2518   3.7458743950e+01   3.3919091516e+01    0.5345052     0.226332 -48.52  0.001925772    2.343    0.573
       255 -10.1019    185.0052    113.9369   2.8359402798e+01   2.2244374032e+01    0.3697267    0.2876915  76.33  0.001811436    1.614    0.380
       256  -9.5850    130.8979    118.0418   4.0589762377e+01   3.2394787310e+01    0.5573591    0.2655057 -61.66  0.001856617    3.049    0.672
       257 -10.2249    249.8256    102.4235   1.7302984296e+01   1.3025158212e+01    0.5972712    0.1595577 -30.21  0.001988951    4.872    0.795
       258  -9.6329     92.8687    112.6055   5.0190907304e+01   4.1476994825e+01    0.4556047    0.3067941 -89.76  0.001338667    2.039    0.510
       259  -9.7365     61.7918    106.0109   5.9833444222e+01   4.8818857129e+01    0.2753655     0.222557  40.66 0.0007142713    1.216    0.178
       260  -8.0941    159.6525    112.3397   3.2690989562e+01   2.7580988164e+01    0.1524621    0.1119556 -79.35 0.0007046513    1.788    0.441
       261  -8.5137    140.4252    104.9336   3.5017419507e+01   3.3163868378e+01    0.3045441     0.185054  87.36  0.001026738    3.357    0.702
       262 -10.1385     45.8389    102.1451   6.5599445344e+01   5.2245704605e+01    0.9130396    0.3695554  60.35  0.002481412    4.536    0.780
       263 -10.7181     31.2165    101.6820   7.1955687931e+01   5.4142641698e+01    0.9711673    0.2188636  41.80  0.002771937    4.006    0.750
       264  -8.8928    150.4284    103.6799   3.2472790242e+01   3.1239572764e+01    0.3411529    0.1891018 -60.07    0.0013442    2.231    0.552
       265  -8.7312     93.2172    103.8858   4.7888563921e+01   4.3571868446e+01    0.3002795    0.2197439   8.95  0.001230095    2.123    0.529
       266 -10.8719    130.8624    101.6183   3.6443380678e+01   3.5971046722e+01    0.7487692     0.452933  28.97   0.00286947    2.507    0.601
       267  -9.1923      6.8126    102.8291   8.3136578853e+01   5.5824526860e+01    0.2081145    0.1472206  60.28 0.0005398358    1.358    0.264
       268 -10.0408    108.8040     98.3630   4.1533829161e+01   4.1583732286e+01    0.6324868    0.3958327  77.04  0.001779255    2.486    0.598
       269  -8.4542     82.4453     99.9402   5.0553666609e+01   4.6706509519e+01    0.2254141    0.1387889 -84.35 0.0008071759    2.463    0.594
       270  -8.3742    129.4062     96.7986   3.5508286184e+01   3.7324349010e+01     0.211307    0.1467995 -36.55 0.0007757589    1.585    0.369
       271  -8.4952     95.0335     96.8117   4.5390177095e+01   4.4916896978e+01    0.2616152    0.1735641  70.68 0.0006322582    1.925    0.480
       272  -9.7640     63.9683     95.8311   5.6545162461e+01   5.1165910166e+01    0.5253609    0.3051287  74.47  0.001758231    2.742    0.635
       273  -8.9426    108.6725     91.4474   3.9620322617e+01   4.3187721086e+01    0.4313179     0.257239  28.79  0.001581018    2.542    0.607
       274  -9.4631     44.5278     91.8116   6.3984423690e+01   5.5248785375e+01    0.4447297    0.2362802  17.37  0.001696678    2.368    0.578
       275  -8.1755    138.6855     91.3726   3.1803803080e+01   3.6330914396e+01    0.1643314    0.1150249 -76.77 0.0007033166    1.787    0.440
       276  -8.9636    124.7751     90.9058   3.5036198314e+01   3.9631190474e+01    0.3437921    0.2416555  87.83  0.001247087    1.864    0.463
       277  -9.6729     34.8350     89.2727   6.7989430258e+01   5.7172057103e+01    0.5531989    0.2925014  85.53  0.002049939    2.570    0.611
       278  -9.4932     36.6922     81.2848   6.5309741319e+01   5.9111327853e+01    0.5862267    0.2999935 -17.09  0.001772585    4.360    0.771
       279  -9.3346     86.6855     86.5790   4.5287111397e+01   4.9130818231e+01    0.3970276    0.2442152  75.36  0.001283276    2.576    0.612
       280  -9.5804      5.4310     91.9164   8.2798199587e+01   5.8923990965e+01    0.3358538    0.1552884  52.50  0.001107116    2.222    0.550
       281  -9.2442     48.4455     83.9699   6.0270018202e+01   5.6788126409e+01    0.4283657    0.2456221  68.15  0.001468447    2.513    0.602
       282  -8.6907     12.1786     83.5905   7.8427030563e+01   6.0816059785e+01    0.2763958    0.2247847 -21.01  0.001500892    1.364    0.267
       283  -9.6226      7.8110     84.1838   8.0779306603e+01   6.0921184973e+01    0.3055166    0.1862045 -68.29  0.001042598    1.493    0.330
       284  -8.9833    116.8952     82.9997   3.4792965961e+01   4.3138133229e+01    0.2304525    0.2215908 -80.16 0.0003244324    1.066    0.062
       285  -8.9969    104.5238     82.7206   3.8252219312e+01   4.6075988624e+01    0.3472691    0.2389623 -82.46 0.0009891612    1.954    0.488
       286  -8.7289     86.5262     80.4691   4.3463337651e+01   5.0604062567e+01    0.2878377    0.1504539  33.70  0.001025036    2.412    0.585
       287  -8.2466     74.7164     80.3872   4.7863209834e+01   5.3079419951e+01    0.1659228    0.1207969  85.24 0.0006018847    1.743    0.426
       288  -9.5961     24.7335     80.6066   7.1326723414e+01   6.0613909666e+01    0.4633844    0.2405296  68.32  0.001540531    2.547    0.607
       289  -8.1617    184.4876     77.5184   1.9719307148e+01   2.8561283135e+01    0.1398913    0.1208917 -56.65 9.093178e-05    1.005    0.005
       290  -8.9846     49.5671     76.7883   5.7770760387e+01   5.8487012446e+01    0.2997965    0.2072837   9.45 0.0009292212    1.911    0.477
       291  -8.5101    176.4846     75.9892   2.0516827044e+01   3.0553658339e+01    0.2197344   0.09555317 -54.87 0.0008104642    2.637    0.621
       292  -8.6952    128.0090     75.4935   2.9673394994e+01   4.2008208693e+01    0.3232103    0.1724272 -70.26 0.0008647639    3.424    0.708
       293  -9.8919    186.7694     81.1422   2.0294345751e+01   2.7486560512e+01    0.3851502    0.1916869  43.41  0.001224821    2.756    0.637
       294 -11.0968      9.5365     73.1607   7.8367122007e+01   6.3817295108e+01    0.7968296    0.4066286  53.31  0.001784832    2.164    0.538
       295  -9.0666     82.4825     72.4739   4.2314561003e+01   5.3311897449e+01    0.3439158     0.228091  87.34 0.0009412354    2.309    0.567
       296  -9.7478     27.1021     71.4868   6.8063963209e+01   6.2820832617e+01    0.6575443    0.3003498 -18.72  0.001874547    5.063    0.802
       297  -8.4105     95.4046     71.1930   3.7386080483e+01   5.0688088713e+01    0.2315296    0.1430406 -59.91 0.0009409324    1.814    0.449
       298  -9.1049     51.6257     69.3317   5.4493135679e+01   6.0034824259e+01    0.4023584    0.2307729 -83.48  0.001425867    2.951    0.661
       299  -8.7070     16.3575     69.1754   7.3721901943e+01   6.4416562941e+01    0.4230842    0.1388282 -79.31  0.001344042    3.588    0.721
       300  -8.5202    128.6732     69.6517   2.7701905309e+01   4.2966761066e+01    0.1523955    0.1245583  16.19 0.0005940844    1.754    0.430
       301  -9.0824      1.4432     68.9846   8.2505526633e+01   6.5336958290e+01     0.213465    0.1229238 -76.82  0.001022057    1.584    0.369
       302  -8.9015     84.2863     63.7151   3.8567575600e+01   5.4831605770e+01    0.3228348    0.1878923  29.26  0.001173306    2.623    0.619
       303  -8.5225     37.6391     64.2994   6.0202806284e+01   6.3407269487e+01     0.235685    0.1667201  68.05  0.001092696    1.729    0.422
       304  -8.1626    110.3158     63.6622   3.0340032051e+01   4.8641376250e+01    0.1646853    0.1167938 -78.98 0.0007047959    1.699    0.412
       305  -8.4692     95.3266     63.3674   3.4676020715e+01   5.2338320300e+01    0.1575955    0.1268208   8.93 0.0007035885    1.807    0.447
       306  -9.3108     18.1376     61.7121   7.1031409083e+01   6.6233651898e+01    0.3154547    0.1929218 -49.90 0.0006465988    1.562    0.360
       307  -8.4739    164.5329     60.1009   1.8038144805e+01   3.5884126198e+01    0.2935759    0.1276895 -38.61  0.001181909    2.102    0.524
       308  -8.2203     51.3376     61.3117   5.1906197419e+01   6.2023322849e+01    0.1523897    0.1177693 -14.28 0.0007045431    1.689    0.408
       309  -9.1885     73.4759     59.6727   4.1197758900e+01   5.8082854490e+01    0.3197483    0.2313018 -81.09 0.0008654093    1.812    0.448
       310  -8.3065    111.4470     58.4264   2.8209779258e+01   4.9347527990e+01    0.1531973    0.1429689  81.01 0.0001114723    1.047    0.045
       311  -9.1264     39.1563     57.5390   5.7124662763e+01   6.4860432327e+01    0.2987324    0.1747221 -42.40  0.001173133    1.834    0.455
       312  -9.8135      7.1995     56.8054   7.7042268849e+01   6.8270306262e+01    0.3153495    0.1776223  62.67  0.001428959    2.114    0.527
       313  -9.8919      2.2298     56.1936   8.0262488801e+01   6.8665831942e+01    0.3622842    0.2224512 -76.44  0.001608505    1.523    0.343
       314  -8.6928     62.9871     54.9312   4.3851864929e+01   6.1290734786e+01    0.2402934    0.1828224  85.50 0.0006844422    1.692    0.409
       315  -8.3643    100.5181     54.4826   2.9809674025e+01   5.2802057958e+01    0.1539623    0.1442356  77.23 -4.229509e-05    1.040    0.038
       316  -8.5671     54.4570     53.9617   4.7545101399e+01   6.3154013158e+01    0.2117847    0.1322984 -78.44 0.0008090875    2.617    0.618
       317  -9.0300     26.2723     54.4490   6.3887573830e+01   6.7279195397e+01     0.259978    0.1415242  16.46  0.001120736    2.057    0.514
       318  -8.7914     92.5201     50.5782   3.0742978457e+01   5.5493326418e+01    0.2682304    0.1350249 -51.75 0.0007852694    2.204    0.546
       319  -9.2491     74.0296     51.8051   3.7849090095e+01   5.9595928546e+01    0.4831475    0.2946477  -8.35  0.001360221    5.373    0.814
       320 -11.2578     45.5957     48.8897   5.0168110651e+01   6.5855065754e+01    0.3006296    0.2730457 -48.83  0.000554912    1.118    0.106
       321  -8.4379     81.9867     46.9531   3.2808889163e+01   5.8700965779e+01    0.1801915    0.1722641 -82.61 0.0005371774    1.052    0.050
       322  -9.2038     22.6620     46.6687   6.3724039818e+01   6.9573040862e+01    0.2848222    0.1656307   4.52   0.00126043    2.135    0.532
       323  -8.4871     64.7974     46.4052   3.9448275639e+01   6.2684607109e+01    0.2182305    0.1354745  36.77 0.0009496518    1.731    0.422
       324  -8.7505      1.6015     45.9416   7.8924109288e+01   7.1303225356e+01    0.1825143    0.1514526 -68.39 0.0004014032    1.129    0.114
       325  -8.7566    150.1588     44.3348   1.5562091572e+01   4.1827358283e+01    0.2693076    0.1047396 -31.49 0.0009762832    2.737    0.635
       326  -7.9084    130.4930     45.5546   1.9367756528e+01   4.6666668018e+01    0.1485581    0.1360465  88.51 0.0002236713    1.066    0.062
       327  -9.0043     55.1785     45.5960   4.3650612704e+01   6.4811410855e+01    0.2128461    0.1356196  31.84 0.0006713741    1.725    0.420
       328  -9.8105     16.4836     42.9259   6.6902794862e+01   7.1082738985e+01    0.4902075    0.1850351 -72.18  0.001775868    3.166    0.684
       329  -9.8818      5.2385     41.4459   7.5131101561e+01   7.2250457216e+01    0.4752451    0.2094629  80.98  0.001734452    3.598    0.722
       330  -8.9964    113.9560     41.1111   2.1245556562e+01   5.1652956956e+01    0.2219573    0.2032165  72.18 0.0003575246    1.094    0.086
       331  -8.3993     69.2022     41.2105   3.5209379363e+01   6.2715387041e+01     0.203908    0.1708039 -88.17 0.0006083917    1.356    0.263
       332  -8.9637    123.4570     40.0830   1.8831261655e+01   4.9331527107e+01     0.238438    0.1892999  61.85 0.0003669743    1.245    0.197
       333  -8.5583     84.1620     39.6149   2.8889527415e+01   5.9476341464e+01    0.2972963    0.1656377  44.18  0.001236706    1.897    0.473
       334  -8.3620     36.7849     40.6186   5.1836605268e+01   6.9103650336e+01    0.1997753    0.1238705  44.13  0.000475311    1.651    0.394
       335  -8.5775    106.4099     36.7889   2.1336300164e+01   5.4280793240e+01    0.1901959    0.1486557 -19.93 0.0004381571    1.590    0.371
       336  -8.8043     25.9640     36.3249   5.7294638169e+01   7.1579609671e+01    0.2300991    0.1896364 -73.59  0.001291431    1.385    0.278
       337  -8.7060     38.0193     35.4785   4.8618982682e+01   6.9991648604e+01    0.1929033    0.1212123   9.94 0.0005247853    2.404    0.584
       338  -9.1588     20.7029     34.4418   6.0448752191e+01   7.2631204214e+01    0.2486964     0.143594 -38.53  0.001180989    1.805    0.446
       339  -8.6153    119.4714     33.4735   1.7186960164e+01   5.1338397410e+01    0.2574284    0.1172432 -45.06 0.0007793001    2.154    0.536
       340  -9.5963      6.4571     33.5654   7.1911203013e+01   7.4080616085e+01    0.2553685    0.2054452 -33.99 0.0008686092    1.166    0.142
       341  -8.9522    222.2142     32.4047   4.8888172732e+00   2.7090267738e+01    0.1644245   0.09908662 -79.03 0.0009515415    1.660    0.398
       342  -8.1893     60.5023     32.4994   3.4782086077e+01   6.6201121205e+01    0.1438252    0.1343287  69.88 0.0008094302    1.080    0.074
       343  -8.9498     12.5368     31.0042   6.5726608320e+01   7.4223433629e+01    0.1954603     0.125753 -64.16 0.0005676036    1.565    0.361
       344  -8.9732    147.9528     28.7436   1.0912805050e+01   4.4536999213e+01    0.1898914      0.11276  73.39 0.0008956203    1.589    0.371
       345  -8.1904    101.3060     28.6541   1.9207733802e+01   5.6790346167e+01    0.1567567    0.1043125 -68.90 0.0007042405    1.695    0.410
       346  -8.7379      1.5724     27.7160   7.4510850128e+01   7.5721338938e+01    0.2070952    0.1196985 -36.15 0.0005232125    1.632    0.387
       347  -8.0777     81.6083     27.3060   2.4040040836e+01   6.2040465687e+01    0.1558765    0.1076728 -79.17 0.0007010812    1.817    0.450
       348  -9.7191     44.4463     25.1529   3.9079266498e+01   7.0798656512e+01    0.2424984    0.2002191  38.76 0.0003364062    1.145    0.127
       349  -8.7051    110.5096     24.4735   1.5445330169e+01   5.4915797495e+01    0.2140302    0.1484312 -11.97 0.0005128919    1.954    0.488
       350  -7.8963    118.6702     24.6436   1.3965876678e+01   5.2727550341e+01    0.1487242    0.1062906  37.50 0.0007044429    1.785    0.440
       351  -9.1767     66.9851     23.5007   2.7258503590e+01   6.6159161998e+01    0.2118556    0.1315727  57.29 -0.000813903    1.490    0.329
       352  -8.0815    137.7047     22.6764   1.0259618365e+01   4.7944495382e+01    0.1360237    0.1065688  40.63 0.0002883365    1.620    0.383
       353  -8.0895     58.8230     22.1073   2.9904904105e+01   6.8254893811e+01     0.185892    0.1562894  25.19            0    1.297    0.229
       354 -10.2209    196.0687    248.7093   4.9825525197e+01  -2.7869660322e-01    0.2378394    0.1535305  25.98  0.001092401    1.399    0.285
       355  -8.2547     63.4663     20.9496   2.7259222175e+01   6.7355460094e+01    0.1953498    0.1115732 -57.89  0.000808055    2.434    0.589
       356  -8.2240     48.3016     21.6614   3.4830453698e+01   7.0607188869e+01    0.1359358    0.1090153 -83.89 0.0004243989    1.667    0.400
       357  -8.7504     40.9934     21.0114   3.8659763829e+01   7.2172872865e+01    0.2006372     0.184822  29.77            0    1.014    0.014
       358  -8.1058     73.5036     19.0354   2.2487092548e+01   6.5195572791e+01    0.2058107    0.1052493 -54.51 0.0008097255    2.571    0.611
       359  -9.4517     29.9631     18.6485   4.4691666628e+01   7.4555136650e+01    0.3157666    0.1928917  53.97  0.001519545    2.022    0.505
       360  -9.2991    188.9513     20.3229   4.3160876026e+00   3.5593091246e+01     0.200649    0.1844699   8.74  0.001038013    1.546    0.353
       361  -8.7391     50.6205     15.2656   2.9634225353e+01   7.1073400930e+01    0.2372997    0.1467176  36.68 0.0007105147    1.703    0.413
       362 -11.4237    106.2821    224.3403   6.4793982679e+01   1.3975905970e+01    0.7192895     0.456384 -12.88  0.003632197    2.334    0.572
       363  -9.9955    107.3798    247.2556   6.6901271450e+01   9.8855931256e+00    0.3551801     0.251461 -86.73  0.002138695    2.162    0.537
       364 -10.4845    107.6243    237.9814   6.5934129505e+01   1.1399910762e+01    0.7289887    0.3582578  46.51  0.003722353    2.051    0.512
       365  -8.7940     84.8602     21.1470   2.0067448167e+01   6.2059001388e+01    0.2188501    0.1815472 -76.79 0.0005334729    1.248    0.198
       366  -8.4970     31.8061     11.5691   3.8420104331e+01   7.5420086743e+01    0.1766105    0.1195204  52.65 0.0006118552    1.567    0.362
       367 -11.5764     90.0512    230.4933   6.9172753103e+01   1.4897412263e+01     1.274681    0.6056248 -66.58  0.006327522    2.682    0.627
       368  -8.9436     27.4968     13.4506   4.3065548422e+01   7.5866486749e+01    0.1311141    0.1170694  12.85 5.336085e-05    1.049    0.047
       369 -11.5488     95.7321    217.9818   6.6572670786e+01   1.6543316476e+01    0.5329112    0.3284088  42.40  0.001604711    1.410    0.291
       370 -10.3623     99.9933    217.4710   6.5502690838e+01   1.6082748955e+01     0.312758    0.1948427  45.72 0.0006922117    1.491    0.329
