#   1 NUMBER                 Running object number                                     
#   2 MAG_AUTO               Kron-like elliptical aperture magnitude                    [mag]
#   3 X_IMAGE                Object position along x                                    [pixel]
#   4 Y_IMAGE                Object position along y                                    [pixel]
#   5 X_WORLD                Barycenter position along world x axis                     [deg]
#   6 Y_WORLD                Barycenter position along world y axis                     [deg]
#   7 A_WORLD                Profile RMS along major axis (world units)                 [deg]
#   8 B_WORLD                Profile RMS along minor axis (world units)                 [deg]
#   9 THETA_WORLD            Position angle (CCW/world-x)                               [deg]
#  10 FWHM_WORLD             FWHM assuming a gaussian core                              [deg]
#  11 ELONGATION             A_IMAGE/B_IMAGE                                           
#  12 ELLIPTICITY            1 - B_IMAGE/A_IMAGE                                       
         1  -9.9956    214.2145      2.9717   9.4211047018e+01   3.9252570260e+01   0.00047881 0.0002791531 -87.99 0.0006225085    1.693    0.409
         2 -10.7788    242.2820    247.6879   9.4228581494e+01   3.9421045135e+01  0.001004835 0.0007561772 -88.49  0.001293528    1.314    0.239
         3 -10.9385    217.6000    184.6111   9.4208701418e+01   3.9377713636e+01   0.00394985  0.001088199 -74.74  0.005151727    3.384    0.704
         4 -11.6778    224.9632    176.8455   9.4215407708e+01   3.9372323405e+01  0.005484036 0.0006854929 -74.90  0.005165486    6.490    0.846
         5 -10.9545    238.6891    166.0709   9.4227798506e+01   3.9364825014e+01  0.002219795 0.0006050144 -63.74  0.002905471    3.328    0.699
         6 -11.4681    227.2309    153.8967   9.4218074107e+01   3.9356498085e+01  0.008172299 0.0003400246 -75.58  0.006005831   10.671    0.906
         7 -11.3935    230.2247    235.7271   9.4218315395e+01   3.9412868517e+01  0.001914391 0.0008441896  50.27  0.003046126    2.407    0.585
         8 -11.5067    231.0082    180.0219   9.4220633635e+01   3.9374479754e+01  0.005105195 0.0009480637 -76.87  0.005568577    4.849    0.794
         9 -12.0237    227.9992    222.3322   9.4216748244e+01   3.9403650523e+01  0.004361664 0.0009596118  80.51  0.004815474    4.866    0.794
        10 -12.1790    226.9175    195.9301   9.4216568928e+01   3.9385463514e+01   0.00371962  0.002482223 -78.15  0.007411493    1.456    0.313
        11 -11.9139    247.2415    241.7363   9.4233121399e+01   3.9416916965e+01  0.003366882 0.0009497661  60.36   0.00418217    3.929    0.745
        12 -11.4636    236.0972    229.0555   9.4223680153e+01   3.9408239692e+01  0.001547955  0.001011039  69.49  0.001895169    1.571    0.363
        13 -13.1399    247.7410    166.6557   9.4235744993e+01   3.9365178498e+01  0.009628957  0.001479092 -88.83  0.009150954    6.481    0.846
        14 -14.5869    247.5023     71.0422   9.4238311637e+01   3.9299295284e+01   0.01941234  0.004240185 -76.21   0.02276565    4.197    0.762
        15 -11.7940    247.5082    226.0995   9.4233811351e+01   3.9406140704e+01  0.001469147  0.001067886  39.57  0.001719355    1.438    0.305
        16 -12.6066    247.7221    216.0349   9.4234292485e+01   3.9399204291e+01  0.002775608  0.001099509  88.22  0.004237683    2.518    0.603
        17 -12.5342    245.5569    191.1967   9.4233109627e+01   3.9382100942e+01  0.003840762  0.001057008  64.63  0.004711958    4.014    0.751
        18 -11.6512    241.3296    179.3435   9.4229735008e+01   3.9373956371e+01  0.002074958 0.0008408117  88.77   0.00320329    2.457    0.593
        19 -10.4504    224.5238    249.5431   9.4212891561e+01   3.9422419074e+01 0.0008669189 0.0006137936  70.16  0.001111143    1.446    0.308
        20 -11.0742    225.1839    242.8415   9.4213669180e+01   3.9417797781e+01  0.001145714 0.0007845612 -82.41  0.001353186    1.429    0.300
        21 -11.0359    209.8062    248.9641   9.4199949994e+01   3.9422097764e+01  0.001053526  0.001018323 -79.85  0.001833304    1.036    0.035
        22 -10.8952    191.5754    247.4858   9.4183941924e+01   3.9421173362e+01  0.001345438 0.0009651886  84.24  0.002230176    1.396    0.283
        23 -10.0995    140.0734    248.6906   9.4138559555e+01   3.9422257853e+01  0.001167954 0.0004956556 -60.21  0.001867627    2.212    0.548
        24 -10.3327    239.8454    240.4381   9.4226647665e+01   3.9416062732e+01  0.001073611 0.0005813465  64.28  0.001247952    1.919    0.479
        25  -9.1859     60.9978    249.5094   9.4068909085e+01   3.9423178126e+01 0.0005454724 0.0002095024 -33.05 0.0008098898    2.490    0.598
        26 -10.9317    233.2465    246.5514   9.4220659248e+01   3.9420310906e+01   0.00100989 0.0009080507 -77.71  0.001202764    1.088    0.081
        27 -10.3318    176.1417    246.2858   9.4170388690e+01   3.9420424576e+01  0.001085334 0.0006837688 -70.97  0.001415434    1.526    0.345
        28  -9.4255    156.4863    247.4703   9.4153047409e+01   3.9421337866e+01  0.000704217 0.0003388691 -86.39 0.0008935424    2.043    0.510
        29  -9.5684    163.4802    246.4775   9.4159234984e+01   3.9420619505e+01 0.0007200633 0.0003399202 -89.37  0.001022308    2.097    0.523
        30  -9.3933    132.4955    246.5324   9.4131952345e+01   3.9420806636e+01 0.0006658077 0.0002717434 -69.36  0.001029844    2.315    0.568
        31  -9.5221    113.0876    245.7959   9.4114886588e+01   3.9420389439e+01 0.0008720657 0.0003914129 -71.04  0.001422197    2.120    0.528
        32  -9.4706     92.5161    246.4938   9.4096752852e+01   3.9420963310e+01 0.0003516724 0.0003327758 -51.62 0.0008104091    1.013    0.013
        33  -8.7924    151.4523    245.5291   9.4148673226e+01   3.9420024731e+01 0.0003472438 0.0003352808 -58.06 9.171275e-05    1.010    0.010
        34  -9.1798     80.4710    245.4903   9.4086178071e+01   3.9420324971e+01 0.0003515918 0.0003324189 -52.07  0.000809857    1.013    0.013
        35  -9.6989    104.0248    243.3405   9.4106981615e+01   3.9418738884e+01 0.0008900826 0.0004114081 -64.20  0.001476124    2.045    0.511
        36 -10.2549    201.7384    241.7884   9.4193058246e+01   3.9417195303e+01 0.0008827114 0.0005893826  78.08  0.001221562    1.516    0.340
        37  -9.9418    169.3101    241.9642   9.4164502418e+01   3.9417480839e+01  0.000797781  0.000582634 -72.18  0.001142674    1.322    0.243
        38  -9.4243    125.1295    241.3437   9.4125623318e+01   3.9417266003e+01 0.0006585756 0.0004484873 -68.86  0.001313165    1.411    0.291
        39 -10.0373    219.8012    239.9650   9.4209014539e+01   3.9415844248e+01 0.0008210434 0.0004841957  83.08  0.000915924    1.703    0.413
        40  -9.9062    214.0562    240.6488   9.4203936547e+01   3.9416345777e+01 0.0006936521 0.0005121359  86.45 0.0009172757    1.351    0.260
        41 -10.2463    183.5171    239.2614   9.4177090782e+01   3.9415547288e+01  0.001040846 0.0006756064  89.08   0.00170405    1.529    0.346
        42  -9.6912    134.6438    240.4945   9.4134025489e+01   3.9416636150e+01  0.000712038 0.0004202653 -81.71   0.00105918    1.653    0.395
        43  -9.3090    117.6707    240.5059   9.4119081823e+01   3.9416723335e+01 0.0006371945 0.0003192533 -87.20  0.001081323    1.966    0.491
        44 -10.3444    158.9756    237.9485   9.4155523682e+01   3.9414764746e+01  0.001124709 0.0006578066  89.42  0.002083991    1.696    0.410
        45  -9.5183    148.2256    239.5491   9.4146011494e+01   3.9415919827e+01 0.0006739771 0.0004842927 -87.29  0.001377673    1.373    0.272
        46 -11.0139    190.8780    234.5014   9.4183712229e+01   3.9412229950e+01  0.001533271 0.0008752751  78.40  0.002290015    1.776    0.437
        47 -10.4190    176.7000    235.1092   9.4171212418e+01   3.9412720525e+01  0.001348434 0.0005056841 -77.00  0.001930835    2.549    0.608
        48  -8.6835    111.6439    238.7123   9.4113830009e+01   3.9415515219e+01 0.0003937111  0.000224565 -42.20 0.0007024209    1.677    0.404
        49  -9.6611     90.8303    237.2545   9.4095550078e+01   3.9414604613e+01 0.0007645861 0.0003439205 -54.65  0.001248949    2.091    0.522
        50 -10.3902    198.8614    226.3616   9.4190980811e+01   3.9406580196e+01 0.0009485204 0.0006032205 -88.03  0.001142046    1.553    0.356
        51  -9.5775    139.0490    236.1517   9.4138034443e+01   3.9413622834e+01 0.0006403346 0.0005002377 -78.56  0.001115844    1.247    0.198
        52  -9.2778     68.0000    241.9644   9.4075305972e+01   3.9417949528e+01 0.0005886683 0.0001961682 -87.74  0.000804605    2.957    0.662
        53 -11.0448    216.0418    232.9754   9.4205910107e+01   3.9411047847e+01  0.001257975 0.0009982862  74.44  0.001705347    1.281    0.219
        54 -10.2786    211.7189    226.9233   9.4202282516e+01   3.9406900353e+01  0.001049283 0.0005709787 -77.36  0.001256093    1.777    0.437
        55  -9.6851    170.4832    234.4316   9.4165759535e+01   3.9412284634e+01 0.0007252073 0.0003389159 -86.60  0.001187678    2.104    0.525
        56  -9.0891    152.5096    233.9607   9.4149950376e+01   3.9412048434e+01 0.0005446685  0.000337538 -83.50  0.001026981    1.580    0.367
        57  -8.7816    165.4772    233.4628   9.4161381387e+01   3.9411641920e+01 0.0003494021 0.0003339577 -51.83 0.0004094405    1.003    0.003
        58  -9.6403    145.0458    232.3492   9.4143427935e+01   3.9410974107e+01 0.0007077628 0.0005152524  83.40  0.001455757    1.377    0.274
        59  -9.6402    122.8826    232.1010   9.4123924183e+01   3.9410907893e+01 0.0008637634 0.0004293505 -65.35  0.001482814    1.909    0.476
        60  -9.6517     99.9826    232.2764   9.4103758908e+01   3.9411133594e+01 0.0008333918 0.0004399185 -72.62  0.001469859    1.817    0.450
        61  -8.9586    185.4445    232.2459   9.4178995662e+01   3.9410703483e+01 0.0005009506 0.0003152458  72.71 0.0009437425    1.624    0.384
        62  -9.3869    133.5400    231.7072   9.4133318224e+01   3.9410586531e+01 0.0006868481 0.0003170951 -77.66   0.00112601    2.088    0.521
        63 -10.0291    113.5938    230.4640   9.4115796399e+01   3.9409822867e+01 0.0009841057  0.000333968 -88.01  0.001382464    2.907    0.656
        64  -9.4417    158.0880    230.4309   9.4154966880e+01   3.9409589083e+01 0.0006441577 0.0004452691 -69.74 0.0009737823    1.391    0.281
        65  -9.3692    174.0599    228.3346   9.4169089720e+01   3.9408065667e+01 0.0006333695 0.0004546847 -66.00  0.001102243    1.336    0.252
        66  -9.1938    152.2906    228.9560   9.4149907426e+01   3.9408601012e+01 0.0005146842 0.0004370019 -75.35  0.000614796    1.145    0.127
        67  -9.4557    184.5000    227.4228   9.4178307180e+01   3.9407384857e+01 0.0007124911 0.0003389084 -86.34 0.0008743189    2.066    0.516
        68  -9.7099    163.0198    226.8285   9.4159415935e+01   3.9407082640e+01 0.0007959704 0.0004858489 -74.09  0.001506979    1.580    0.367
        69  -9.0244    138.5744    228.2465   9.4137854122e+01   3.9408178078e+01 0.0005136639 0.0003042958 -68.79 0.0009475446    1.616    0.381
        70 -10.0450    223.1876    226.4207   9.4212393057e+01   3.9406493417e+01  0.000774689 0.0006497235 -84.64 0.0009614896    1.174    0.149
        71  -9.1036    204.4613    212.5145   9.4196318406e+01   3.9397009683e+01 0.0005557454 0.0003631093 -48.64 0.0001142207    1.461    0.316
        72 -10.3973    205.8559    224.9002   9.4197181018e+01   3.9405536936e+01  0.001014599 0.0005506434 -87.58  0.001244884    1.817    0.450
        73 -10.6456    202.2423    218.3223   9.4194194086e+01   3.9401023193e+01  0.001413897 0.0006763898  84.55  0.002347014    2.099    0.524
        74  -9.9435    190.4802    225.5444   9.4183627154e+01   3.9406060109e+01 0.0009373875 0.0005028804 -79.15  0.001298715    1.808    0.447
        75  -8.9341    143.5069    227.0376   9.4142232571e+01   3.9407321519e+01 0.0005370625 0.0003393336 -85.93 0.0008313473    1.557    0.358
        76 -10.7580    216.8046    223.0039   9.4206874512e+01   3.9404172841e+01  0.001255799 0.0006619892  72.50  0.001558337    1.949    0.487
        77  -9.2932    120.3853    225.7795   9.4121916600e+01   3.9406563729e+01 0.0005307655 0.0002959956 -69.37 0.0008839308    1.715    0.417
        78  -9.1428    170.3811    224.7892   9.4165956789e+01   3.9405641022e+01 0.0005155791 0.0002977534 -69.17 0.0006463829    1.658    0.397
        79  -9.4852    129.0129    224.6926   9.4129544147e+01   3.9405774534e+01 0.0005049722 0.0004562307 -24.26 0.0006332372    1.091    0.084
        80  -9.9707    180.2677    222.5352   9.4174726632e+01   3.9404038415e+01 0.0008657112 0.0004213504 -86.58  0.001007405    2.021    0.505
        81 -10.0055    148.1944    222.4292   9.4146497081e+01   3.9404123551e+01  0.001019763 0.0005553448 -80.56  0.001763859    1.786    0.440
        82  -9.3356     97.4961    223.4528   9.4101838258e+01   3.9405064990e+01 0.0006843931 0.0002674782 -69.54  0.001037378    2.412    0.585
        83  -9.9710    185.8677    220.9908   9.4179701766e+01   3.9402945906e+01  0.000958205 0.0004839062 -85.22  0.001428595    1.942    0.485
        84  -9.3940    174.5636    222.2768   9.4169713244e+01   3.9403888985e+01  0.000652272 0.0003342727  86.26 0.0009852615    1.950    0.487
        85  -8.8159    135.4825    223.4814   9.4135275642e+01   3.9404909417e+01 0.0003517994 0.0003324033 -51.19 2.086822e-05    1.014    0.014
        86 -11.1099    204.5848    234.4877   9.4195779457e+01   3.9412149942e+01  0.001568243 0.0009222979  58.72  0.002901962    1.772    0.436
        87  -9.3091    140.5009    221.4826   9.4139753222e+01   3.9403508264e+01 0.0006426527 0.0002791379 -69.41  0.001023608    2.183    0.542
        88 -10.7306    193.3889    218.3504   9.4186400291e+01   3.9401088192e+01  0.001307566 0.0007498172  89.88  0.001991953    1.728    0.421
        89  -9.2672    165.5764    221.2559   9.4161832604e+01   3.9403230205e+01  0.000502431 0.0003057752 -68.56 0.0007013177    1.574    0.365
        90 -10.4083    210.7104    217.9029   9.4201660090e+01   3.9400689994e+01   0.00102147 0.0006113946 -84.24  0.001170135    1.638    0.389
        91  -9.3129    158.9059    218.6070   9.4156040066e+01   3.9401437804e+01 0.0007324702 0.0004268751 -61.92  0.001355971    1.634    0.388
        92  -8.9218    128.6685    219.6626   9.4129392599e+01   3.9402310265e+01 0.0004027071  0.000220757 -45.53 0.0007052034    1.738    0.424
        93  -9.6185    119.5947    218.2652   9.4121447685e+01   3.9401389691e+01  0.000681114 0.0003303252  86.19  0.001135101    2.063    0.515
        94  -9.0338    220.5222    218.4787   9.4210279728e+01   3.9401035063e+01 0.0005036221 0.0003178247  18.79 0.0009520252    1.641    0.391
        95 -11.4136    217.2933    212.0897   9.4207625159e+01   3.9396649707e+01  0.001779954 0.0008423114  87.21  0.002103844    2.109    0.526
        96 -10.2897    217.2931    204.3182   9.4207853044e+01   3.9391294665e+01 0.0009945558 0.0005779242 -86.36  0.001394893    1.693    0.409
        97  -8.9494    135.6727    218.6929   9.4135587080e+01   3.9401609000e+01 0.0003920524 0.0002263087 -44.39 0.0007037392    1.654    0.395
        98  -9.6302    179.2428    216.5285   9.4174002727e+01   3.9399904629e+01  0.000666248 0.0004805531 -83.12 0.0009837493    1.359    0.264
        99 -10.0841    170.8891    215.6268   9.4166676659e+01   3.9399325106e+01  0.001016895 0.0004767584 -77.49  0.001421039    2.056    0.514
       100  -9.1473    165.4105    215.3110   9.4161863828e+01   3.9399134691e+01 0.0006693622 0.0003167662 -78.48  0.001109733    2.041    0.510
       101  -9.8412    143.1588    215.3328   9.4142277343e+01   3.9399258035e+01 0.0008267197 0.0004350459 -50.95  0.001459902    1.802    0.445
       102  -9.2462     82.5015    216.4839   9.4088851640e+01   3.9400329815e+01 0.0003577543 0.0003265211 -48.52 0.0001987382    1.051    0.048
       103  -9.1852    185.5103    214.9845   9.4179565153e+01   3.9398809087e+01 0.0006746228 0.0003248934 -79.48 0.0008862373    2.011    0.503
       104  -9.3808    186.1897    210.3569   9.4180300245e+01   3.9395616912e+01 0.0006352328 0.0004363589 -64.17 0.0008745366    1.393    0.282
       105  -9.8737    131.8645    214.4418   9.4132362928e+01   3.9398697816e+01 0.0005950471 0.0004099407 -72.34 0.0009601702    1.400    0.286
       106  -9.5733    154.3631    213.4839   9.4152194574e+01   3.9397929951e+01 0.0007123821 0.0004153952 -80.37  0.001261808    1.669    0.401
       107  -9.8679    209.8689    211.8533   9.4201097446e+01   3.9396525902e+01 0.0007624637 0.0004172566 -57.70  0.001179949    1.734    0.423
       108  -9.0612    117.3042    213.3371   9.4119580465e+01   3.9398004670e+01  0.000394322 0.0002249608 -46.85 0.0005645441    1.670    0.401
       109 -10.1017    176.9520    210.1902   9.4172174660e+01   3.9395548733e+01  0.000978154 0.0005136736 -86.65  0.001696271    1.874    0.466
       110  -9.8132    124.5406    211.9918   9.4125990393e+01   3.9397044074e+01 0.0005496914 0.0003371618 -84.37  0.001031079    1.599    0.375
       111  -9.4531    200.1505    210.3197   9.4192588974e+01   3.9395519761e+01 0.0006245587 0.0004389144 -69.20 0.0006396261    1.368    0.269
       112 -10.0400    192.9470    209.5025   9.4186272930e+01   3.9394993761e+01 0.0008411276  0.000501957 -87.70  0.001090611    1.653    0.395
       113  -9.8234    161.0108    210.1628   9.4158144832e+01   3.9395609043e+01 0.0008790729 0.0005034963 -78.06  0.001390937    1.692    0.409
       114  -8.8064    149.2794    211.3602   9.4147783655e+01   3.9396491246e+01 0.0003928858 0.0002241713 -49.11 0.0006040012    1.668    0.400
       115  -9.2837    106.4993    210.9947   9.4110141244e+01   3.9396440237e+01 0.0005483619 0.0002058429 -56.84 0.0008098473    2.478    0.597
       116  -8.9515    140.4674    210.5069   9.4140053257e+01   3.9395945667e+01 0.0003507353 0.0003331697 -53.11 0.0001425408    1.009    0.008
       117  -9.1760    131.0000    209.9612   9.4131736894e+01   3.9395614559e+01 0.0005827638 0.0001961682 -87.77 0.0008003228    2.928    0.658
       118 -10.1106    205.9249    207.3551   9.4197758579e+01   3.9393446991e+01 0.0008729306 0.0005777295 -66.65   0.00110408    1.448    0.309
       119  -9.1828    206.0000    202.8819   9.4197956393e+01   3.9390364261e+01 0.0006454161 0.0003979458 -87.53 0.0006293049    1.600    0.375
       120  -9.3025    183.0993    206.7605   9.4177686914e+01   3.9393154516e+01 0.0007137278 0.0003415453 -54.99  0.001199305    1.972    0.493
       121  -9.2658    173.1781    203.3586   9.4169056228e+01   3.9390860308e+01 0.0006859172 0.0003817626 -70.24  0.001237554    1.721    0.419
       122  -9.2943    156.3922    206.2719   9.4154196029e+01   3.9392950580e+01 0.0006841848 0.0003165485 -79.48  0.001121687    2.091    0.522
       123  -9.8333    149.8287    206.4728   9.4148413378e+01   3.9393120956e+01 0.0006017528 0.0004124223 -75.65  0.001199952    1.413    0.292
       124 -10.0128    139.5047    205.0009   9.4139371252e+01   3.9392156362e+01 0.0007818145 0.0003083928 -77.50  0.001145032    2.430    0.589
       125 -10.1404    197.7176    203.2877   9.4190655204e+01   3.9390686850e+01  0.001066185  0.000521889 -73.59  0.001592407    1.958    0.489
       126  -9.9189    186.8740    202.8869   9.4181123777e+01   3.9390466208e+01 0.0008472669 0.0005645643  85.46   0.00135652    1.500    0.333
       127  -9.5350    178.9035    203.3843   9.4174094296e+01   3.9390849285e+01 0.0007140797 0.0004851874 -72.75  0.001281143    1.420    0.296
       128  -9.7372    109.6067    204.1614   9.4113083212e+01   3.9391717619e+01 0.0005396092 0.0002922842 -68.64 0.0009533656    1.763    0.433
       129 -10.9026    131.6457    201.4017   9.4132562805e+01   3.9389713654e+01  0.001148783 0.0004804042 -53.54  0.001824731    2.242    0.554
       130 -10.4947    210.3990    200.5672   9.4201895978e+01   3.9388746310e+01  0.001022976 0.0006733585  72.20  0.001505145    1.552    0.356
       131  -9.1551    192.8388    201.8860   9.4186402867e+01   3.9389746044e+01 0.0004971556 0.0003850959  62.47  0.001044704    1.332    0.249
       132 -10.0662    164.6863    201.6036   9.4161635015e+01   3.9389693187e+01 0.0008544133 0.0003871617 -55.64    0.0014039    2.077    0.519
       133  -9.0684    144.4451    201.5392   9.4143823088e+01   3.9389747448e+01 0.0006577044 0.0002742644 -69.72  0.001027462    2.270    0.559
       134  -9.9594    149.1049    197.9945   9.4148030204e+01   3.9387282535e+01 0.0007587317 0.0004874064 -72.10  0.001472867    1.499    0.333
       135 -10.0011    215.2487    197.1692   9.4206263796e+01   3.9386379378e+01 0.0008082495 0.0004749604 -89.41  0.001071578    1.684    0.406
       136 -10.0055    202.1590    196.8828   9.4194752808e+01   3.9386250500e+01 0.0008273115 0.0005611331  85.31  0.001114513    1.473    0.321
       137  -9.5921    176.2633    196.9744   9.4171961077e+01   3.9386445790e+01 0.0008495368 0.0004533502  89.28  0.001373008    1.860    0.462
       138 -10.1493    124.6836    197.6581   9.4126548490e+01   3.9387166889e+01 0.0006155536 0.0003406267 -45.43  0.001093462    1.722    0.419
       139  -9.7934     88.4120    197.8014   9.4094623430e+01   3.9387430853e+01 0.0005208561  0.000300621 -68.75 0.0009488042    1.658    0.397
       140  -9.4635    185.4133    190.2490   9.4180212631e+01   3.9381765381e+01 0.0006571679 0.0004504614 -64.92 0.0009383947    1.397    0.284
       141  -9.1522    170.2695    197.0004   9.4166685577e+01   3.9386493623e+01  0.000525107  0.000441987 -76.45  0.001127625    1.156    0.135
       142  -9.5169    156.5938    197.2410   9.4154643299e+01   3.9386726928e+01 0.0005176725 0.0003016048 -69.08 0.0009471604    1.643    0.392
       143 -10.0102    140.3988    196.7849   9.4140404767e+01   3.9386490930e+01 0.0005262019 0.0002985882 -69.12  0.000950641    1.686    0.407
       144 -10.6743    112.9953    195.2713   9.4116334462e+01   3.9385576482e+01 0.0007014861 0.0004007137 -65.21  0.001284068    1.669    0.401
       145  -9.8174    209.2661    194.0683   9.4201090091e+01   3.9384274082e+01 0.0008124179 0.0004857509 -83.47 0.0009498061    1.637    0.389
       146  -9.8916    210.2126    188.5438   9.4202085421e+01   3.9380462389e+01 0.0007544319 0.0004631416 -84.61 0.0007986684    1.598    0.374
       147  -9.4577    194.1417    194.1624   9.4187777808e+01   3.9384417395e+01 0.0006300461 0.0005023876  71.94 0.0009950902    1.280    0.218
       148 -10.1749    132.8794    194.6506   9.4133851633e+01   3.9385056012e+01 0.0007440549 0.0003719985 -56.96  0.001159229    1.891    0.471
       149  -9.7877    161.8351    191.9012   9.4159415102e+01   3.9383021821e+01 0.0007521154   0.00044365 -80.91  0.001396007    1.652    0.394
       150 -10.4338    146.2566    192.3291   9.4145693372e+01   3.9383392533e+01 0.0006503923 0.0004242598 -80.55  0.001233414    1.494    0.331
       151  -9.5478    124.3963    192.8367   9.4126441004e+01   3.9383846078e+01 0.0005348188 0.0002928217 -68.36 0.0009497324    1.744    0.427
       152  -8.6217    167.6768    192.6774   9.4164532706e+01   3.9383527732e+01 0.0003957435 0.0002246028 -45.32 0.0007046774    1.680    0.405
       153  -9.2590    205.0978    190.4236   9.4197529299e+01   3.9381784461e+01 0.0006442385  0.000426046 -71.87 0.0008237445    1.457    0.313
       154  -9.7640    198.9503    190.3940   9.4192120587e+01   3.9381795931e+01 0.0007897934  0.000503692 -83.29  0.001084284    1.535    0.349
       155  -9.7017    178.8304    189.5592   9.4174440288e+01   3.9381323416e+01 0.0008091143 0.0004701681 -81.69  0.001254641    1.678    0.404
       156  -9.8745    172.1693    190.0933   9.4168562921e+01   3.9381724816e+01 0.0008388667 0.0004951349 -84.34  0.001328184    1.661    0.398
       157  -9.6948    139.3039    190.5685   9.4139627861e+01   3.9382212744e+01 0.0006634832  0.000353882 -58.58  0.001057926    1.778    0.437
       158  -9.9067    184.2233    195.8847   9.4178998511e+01   3.9385654744e+01  0.001046054 0.0004281641 -67.00  0.001606982    2.302    0.566
       159  -9.4956    193.1322    187.7558   9.4187078757e+01   3.9380008015e+01 0.0006621553 0.0004733057 -60.51 0.0008682639    1.338    0.252
       160 -10.2069    156.6164    187.4112   9.4154956820e+01   3.9379953586e+01 0.0007578232  0.000475168 -59.35  0.001118884    1.520    0.342
       161 -10.4294    120.7546    187.2477   9.4123404963e+01   3.9380012011e+01 0.0006437499 0.0004356212  88.83  0.001273937    1.468    0.319
       162  -9.9363    150.4584    186.2636   9.4149572378e+01   3.9379192818e+01 0.0006781978 0.0003206822 -78.44  0.001124396    2.043    0.510
       163 -10.4727    128.5567    186.7301   9.4130286063e+01   3.9379618885e+01 0.0006849117 0.0003201716 -78.73  0.001129205    2.067    0.516
       164 -10.2488    203.4600    183.1365   9.4196302761e+01   3.9376771688e+01 0.0008657417  0.000598875 -88.38   0.00112654    1.429    0.300
       165  -9.3034    189.5300    184.4820   9.4184005856e+01   3.9377770639e+01 0.0006271729 0.0002818167 -69.30 0.0007717198    2.113    0.527
       166  -9.0919    173.3724    184.7480   9.4169780473e+01   3.9378035626e+01 0.0005143826 0.0003024039 -70.96 0.0008020109    1.633    0.387
       167 -10.4897    139.9766    184.5683   9.4140399890e+01   3.9378075090e+01   0.00074171 0.0004325727 -61.13  0.001374049    1.632    0.387
       168  -9.4218    109.3048    185.3385   9.4113387504e+01   3.9378749288e+01 0.0003949188 0.0002246588 -46.86 0.0007040215    1.675    0.403
       169 -10.0817    183.5811    182.3987   9.4178832981e+01   3.9376365421e+01  0.001008194 0.0005645467 -73.48  0.001446682    1.718    0.418
       170 -10.3119    211.0707    181.5183   9.4203047071e+01   3.9375616882e+01  0.001069652 0.0005573431 -71.83  0.001507683    1.838    0.456
       171  -9.6877    212.0396    168.6866   9.4204276598e+01   3.9366769947e+01 0.0006892695 0.0004808301 -71.06  0.000871423    1.381    0.276
       172 -10.0243    215.2404    174.3698   9.4206925831e+01   3.9370669164e+01   0.00146047 0.0003433969 -77.20  0.001756131    3.947    0.747
       173 -10.6268    212.8728    162.2234   9.4205199378e+01   3.9362312029e+01   0.00135584 0.0007666775 -69.23  0.002354441    1.692    0.409
       174 -10.1907    216.1683    155.6179   9.4208292285e+01   3.9357743036e+01 0.0009098034 0.0005724893 -65.80 0.0009240006    1.520    0.342
       175 -10.7206    218.8272    167.4391   9.4210284796e+01   3.9365874465e+01  0.001073125 0.0006685448 -55.72  0.001317803    1.529    0.346
       176 -10.0451    221.0927    161.3988   9.4212454810e+01   3.9361700306e+01 0.0009952785 0.0005448969 -70.14  0.001104789    1.748    0.428
       177  -9.1929    221.6616    155.8039   9.4213119177e+01   3.9357842031e+01 0.0007001818 0.0004456085 -84.16 0.0008163966    1.541    0.351
       178 -10.0939    221.3532    151.5131   9.4212973555e+01   3.9354887009e+01 0.0008827674 0.0005464735 -50.05 0.0009251681    1.540    0.351
       179  -9.6566    197.1918    181.9303   9.4190822898e+01   3.9375973016e+01 0.0007773727   0.00043047 -74.64 0.0007920092    1.739    0.425
       180  -9.2389    154.5213    183.0409   9.4153243875e+01   3.9376952409e+01 0.0005453094 0.0003382783 -84.72  0.001028446    1.582    0.368
       181  -9.8028     96.3235    183.3200   9.4102026018e+01   3.9377417367e+01  0.000395023 0.0002249648 -45.17 0.0007045466    1.675    0.403
       182  -9.9857    112.4918    181.9628   9.4116293970e+01   3.9376408713e+01 0.0005483466 0.0003392081 -85.80  0.001032591    1.589    0.371
       183  -9.6691    176.8776    180.6140   9.4172987522e+01   3.9375169494e+01 0.0007372059 0.0004226666 -63.38  0.001263508    1.661    0.398
       184 -10.1965    120.7083    180.7276   9.4123561040e+01   3.9375519623e+01 0.0006443606 0.0004305523 -78.70  0.001270051    1.455    0.313
       185 -10.1737    190.8244    178.9298   9.4185308978e+01   3.9373938260e+01 0.0009911204 0.0005388922 -76.56  0.001214801    1.776    0.437
       186  -9.6656    192.6940    172.5819   9.4187141539e+01   3.9369554574e+01 0.0008872937 0.0004065266 -71.07  0.001441674    2.079    0.519
       187 -10.0092    145.1976    179.7955   9.4145137011e+01   3.9374761356e+01 0.0005241555 0.0003726557 -48.93 0.0007274459    1.345    0.256
       188 -10.3472    169.1111    177.3445   9.4166251058e+01   3.9372955490e+01 0.0006455471 0.0004429921 -66.17 0.0008521206    1.397    0.284
       189 -10.7860    150.1548    177.0704   9.4149580321e+01   3.9372859725e+01 0.0008471925 0.0004989784 -84.88  0.001331774    1.666    0.400
       190 -10.2532    166.4206    185.3647   9.4163644993e+01   3.9378495130e+01 0.0008307594 0.0003979292 -77.76  0.001393578    2.014    0.504
       191 -10.0299    205.0827    176.0990   9.4197937843e+01   3.9371914004e+01 0.0009665096  0.000486711 -76.26  0.001667161    1.913    0.477
       192  -9.8894    197.7280    175.9635   9.4191470737e+01   3.9371858825e+01 0.0008214617 0.0005158188 -69.43 0.0009553413    1.528    0.346
       193  -9.2095    200.6279    171.2218   9.4194161993e+01   3.9368576482e+01 0.0006558559 0.0002730936 -69.01  0.001023937    2.271    0.560
       194  -9.8936    210.3152    175.0271   9.4202573113e+01   3.9371148057e+01 0.0008098308 0.0004497196  89.37  0.000940254    1.787    0.440
       195  -9.9562    182.0960    175.5314   9.4177729776e+01   3.9371640956e+01 0.0007244595 0.0005263811 -83.97  0.001229955    1.351    0.260
       196 -10.1424    139.6674    175.8444   9.4140389600e+01   3.9372065436e+01 0.0005968764 0.0003963514 -60.12  0.001037276    1.437    0.304
       197  -9.6135    161.6696    174.8779   9.4159777148e+01   3.9371292702e+01 0.0006414712 0.0004596063 -26.60  0.001243037    1.364    0.267
       198  -9.1438    124.3221    174.3197   9.4126933895e+01   3.9371087450e+01 0.0003945182 0.0002252108 -45.23 0.0005911977    1.671    0.402
       199  -9.1819    129.4475    173.5031   9.4131468018e+01   3.9370500693e+01 0.0003529292 0.0003297978 -52.54 0.0001530999    1.025    0.025
       200  -9.3109    187.5403    171.7751   9.4182631106e+01   3.9369025045e+01 0.0006617939 0.0003184277 -77.47 0.0009611195    2.005    0.501
       201  -8.8880    107.3335    172.3455   9.4112046454e+01   3.9369805619e+01 0.0004057494 0.0002188327 -45.72 0.0004059859    1.765    0.433
       202  -8.9546    119.3187    171.3261   9.4122622089e+01   3.9369047998e+01 0.0003954633 0.0002247145 -45.66 0.0005205097    1.678    0.404
       203 -10.0783    205.2281    168.4751   9.4198290175e+01   3.9366659913e+01 0.0009135974 0.0005893688 -86.00  0.001211957    1.525    0.344
       204  -9.4214    158.4041    169.7944   9.4157055687e+01   3.9367805969e+01 0.0005218524 0.0002970954 -68.27 0.0006649746    1.679    0.405
       205  -9.0077    143.3143    170.3483   9.4143763068e+01   3.9368260855e+01 0.0004007115 0.0002215982 -46.70 0.0004715832    1.721    0.419
       206  -9.2173    196.9680    169.1214   9.4191004018e+01   3.9367148100e+01 0.0005949668 0.0003469356 -47.97 0.0005720387    1.634    0.388
       207  -9.9933    178.8684    168.2035   9.4175107366e+01   3.9366607947e+01 0.0007829333 0.0004736578 -78.92  0.001023056    1.605    0.377
       208  -9.5391    134.7668    169.2262   9.4136276653e+01   3.9367528527e+01 0.0005319809 0.0003697592 -44.86  0.001066577    1.378    0.274
       209  -9.4229    169.8727    167.8708   9.4167202947e+01   3.9366423824e+01 0.0005822042 0.0004400731 -47.48  0.000918932    1.267    0.211
       210  -9.9409    150.4886    168.0124   9.4150144917e+01   3.9366616693e+01 0.0006929059 0.0003892861 -47.07  0.001034847    1.695    0.410
       211  -9.4889    127.5402    166.9591   9.4129986962e+01   3.9366000550e+01 0.0005449226 0.0002065387 -56.82 0.0008082584    2.456    0.593
       212 -10.2264    191.6833    164.6879   9.4186485605e+01   3.9364120366e+01  0.001034768 0.0005342937 -68.06  0.001214945    1.846    0.458
       213  -9.6727    184.6197    164.8351   9.4180267051e+01   3.9364257827e+01  0.000830747 0.0004612637 -54.53 0.0009923046    1.710    0.415
       214  -8.9249    165.2869    166.3765   9.4163213007e+01   3.9365416893e+01 0.0003996625 0.0002203721 -48.97 0.0006317366    1.724    0.420
       215  -9.8484    199.4259    164.0090   9.4193317204e+01   3.9363612681e+01 0.0007857321 0.0005603433 -76.11 0.0008760737    1.360    0.265
       216  -9.2039    159.5064    164.0218   9.4158197696e+01   3.9363822925e+01 0.0005332266 0.0003386839 -84.75  0.001017136    1.545    0.353
       217  -9.1935    120.4993    164.4691   9.4123867653e+01   3.9364317807e+01 0.0003546767 0.0003292417 -48.89 4.135495e-05    1.033    0.032
       218  -9.0149    172.4617    163.0602   9.4169623738e+01   3.9363096068e+01 0.0005371426 0.0003369783 -83.83 0.0008698957    1.562    0.360
       219  -9.5247    139.0109    162.4766   9.4140213177e+01   3.9362857537e+01 0.0007015117 0.0003946531 -43.89  0.001275328    1.697    0.411
       220 -10.4183    205.4558    160.7866   9.4198716786e+01   3.9361360844e+01  0.001088989  0.000635953 -55.41  0.001290308    1.628    0.386
       221  -9.1904    146.5383    161.9760   9.4146850256e+01   3.9362476403e+01 0.0005313056 0.0002114539 -56.09 0.0006231758    2.347    0.574
       222  -8.8343    163.5034    161.0058   9.4161803929e+01   3.9361725035e+01 0.0005434859 0.0002076978 -56.62 0.0008092238    2.438    0.590
       223  -9.0763    153.0299    160.9739   9.4152591085e+01   3.9361754460e+01 0.0006240559 0.0003463098 -46.14  0.001123528    1.716    0.417
       224  -8.7638    183.5341    159.5120   9.4179469653e+01   3.9360595391e+01 0.0003574599 0.0003261042 -49.35 0.0001277534    1.051    0.048
       225  -9.7357    176.9102    158.5378   9.4173671405e+01   3.9359957631e+01 0.0007336734  0.000425316 -61.72  0.001292062    1.642    0.391
       226  -9.0176    158.5959    159.2242   9.4157539831e+01   3.9360521588e+01 0.0005207238 0.0002973571 -68.26 0.0009434992    1.674    0.403
       227 -10.0794    197.3027    156.1765   9.4191680366e+01   3.9358226537e+01  0.001020476 0.0004980892 -62.02  0.001322186    1.939    0.484
       228  -8.7420    168.2635    158.3915   9.4166069324e+01   3.9359900077e+01 0.0003955195 0.0002203808 -50.87 0.0003987331    1.705    0.414
       229  -9.8039    187.7809    154.8420   9.4183343679e+01   3.9357355923e+01   0.00090561 0.0004444978 -74.48   0.00131412    1.956    0.489
       230  -8.8567    128.3309    156.3078   9.4131003202e+01   3.9358657605e+01 0.0003933307 0.0002256909 -44.26 0.0003197412    1.664    0.399
       231  -9.2126    211.4934    154.9181   9.4204200492e+01   3.9357285445e+01 0.0005219189 0.0003379817 -83.63 0.0005343918    1.513    0.339
       232  -9.2394    218.6709    143.5013   9.4210848890e+01   3.9349380644e+01 0.0008385332 0.0003613216 -60.66 0.0007025951    2.182    0.542
       233  -9.4641    211.6216    151.1487   9.4204423995e+01   3.9354687464e+01 0.0006511776 0.0002742388 -69.14 0.0007555682    2.248    0.555
       234 -10.1938    215.2769    147.8127   9.4207737145e+01   3.9352369442e+01  0.001000892 0.0006994584 -50.25  0.001324947    1.367    0.269
       235  -9.5868    205.9561    153.5227   9.4199370629e+01   3.9356352997e+01 0.0007281753 0.0004094052 -59.76  0.001034813    1.690    0.408
       236  -9.0039    192.5072    153.4847   9.4187541397e+01   3.9356396481e+01  0.000350303 0.0003341668 -52.40 0.0008104502    1.005    0.005
       237  -8.5810    171.3427    153.3214   9.4168928712e+01   3.9356391156e+01  0.000401069 0.0002216511 -44.46 0.0004253209    1.725    0.420
       238  -9.2854    157.4112    151.8009   9.4156719171e+01   3.9355412402e+01 0.0005183973  0.000297249 -67.81 0.0009411447    1.667    0.400
       239  -9.1943    145.0337    152.1884   9.4145819812e+01   3.9355739543e+01 0.0006411391 0.0003039248 -38.21  0.001067119    2.016    0.504
       240  -9.4286    202.4679    150.5298   9.4196390319e+01   3.9354308839e+01 0.0006207933 0.0002826319 -69.17 0.0007160803    2.086    0.521
       241  -9.5615    196.8161    149.1044   9.4191460917e+01   3.9353356016e+01 0.0006874031 0.0004068674 -57.86 0.0009291081    1.607    0.378
       242  -9.3347    182.0059    148.9787   9.4178437364e+01   3.9353345153e+01  0.000608959 0.0003510565 -46.91 0.0008478269    1.653    0.395
       243  -9.2457    191.2958    147.2258   9.4186660691e+01   3.9352089954e+01 0.0006173174 0.0004198182 -77.10  0.001181546    1.427    0.299
       244  -8.8350    162.2955    148.3476   9.4161118570e+01   3.9353008848e+01 0.0003946334 0.0002243669 -47.72 0.0006927494    1.675    0.403
       245 -10.4203    223.5240    145.5665   9.4215057076e+01   3.9350777823e+01  0.001127939 0.0005538926 -47.54  0.001776054    1.930    0.482
       246  -9.8816    208.0259    144.3641   9.4201460531e+01   3.9350031308e+01  0.001327751 0.0004555102 -52.82  0.001924946    2.696    0.629
       247  -9.5539    200.4854    144.1361   9.4194834866e+01   3.9349913521e+01 0.0007196441 0.0004692915 -44.40 0.0008430631    1.468    0.319
       248  -9.2192    176.5489    145.2226   9.4173748715e+01   3.9350784533e+01 0.0005196307  0.000295225 -66.27 0.0009393503    1.680    0.405
       249  -9.1531    194.4386    142.7021   9.4189558598e+01   3.9348956649e+01 0.0004889872 0.0003072745 -67.52 0.0007556219    1.524    0.344
       250  -8.6495    171.6972    143.6197   9.4169528853e+01   3.9349704353e+01 0.0004058619 0.0002171766 -48.10 0.0007024211    1.776    0.437
       251  -9.7151    214.0904    141.4218   9.4206881068e+01   3.9347971959e+01 0.0006854762 0.0004317473 -61.33 0.0007650932    1.514    0.340
       252  -9.1685    155.8022    141.9935   9.4155596614e+01   3.9348662449e+01 0.0006352179  0.000307671 -53.37 0.0009281103    1.950    0.487
       253  -9.3197    139.0185    142.0050   9.4140834020e+01   3.9348751616e+01 0.0006235907 0.0003505371 -46.05 0.0009421114    1.695    0.410
       254  -9.9856    224.5164    138.9898   9.4216122338e+01   3.9346240721e+01 0.0008773801 0.0004393551 -55.20 0.0008659961    1.889    0.470
       255  -8.8886    203.4982    140.4735   9.4197592665e+01   3.9347374125e+01 0.0003623255 0.0003213281 -47.42 8.630678e-05    1.082    0.076
       256  -9.2775    181.9505    140.3100   9.4178645408e+01   3.9347372214e+01 0.0005070344 0.0004421621 -24.83 0.0009312481    1.127    0.113
       257  -8.8541    166.5244    139.4862   9.4165101972e+01   3.9346881964e+01 0.0003593021 0.0003245227 -48.53 0.0007456128    1.062    0.058
       258 -10.0258    218.8244    137.1286   9.4211170662e+01   3.9344988641e+01 0.0008955431 0.0004981737 -46.18  0.001062918    1.712    0.416
       259  -9.7920    208.8183    136.6304   9.4202384797e+01   3.9344698121e+01 0.0007125562 0.0004671839 -51.29 0.0009046479    1.455    0.313
       260  -9.5751    199.0523    135.6277   9.4193825068e+01   3.9344058162e+01 0.0008924503 0.0004171579 -55.89   0.00135288    2.017    0.504
       261  -9.0760    192.9666    135.9129   9.4188464288e+01   3.9344286088e+01 0.0006085337 0.0003430707 -48.30  0.001038262    1.688    0.408
       262  -9.0174    172.6064    136.2339   9.4170547895e+01   3.9344610592e+01 0.0005172064 0.0002963425 -68.27 0.0009384401    1.669    0.401
       263  -9.0047    215.5207    134.5186   9.4208341522e+01   3.9343207656e+01 0.0006100209   0.00028452 -68.86 0.0006475923    2.038    0.509
       264  -8.9868    218.2985    132.3082   9.4210849353e+01   3.9341669857e+01 0.0005867239 0.0002974877 -18.48  0.000470121    1.945    0.486
       265  -9.0494    187.8070    134.2518   9.4183975573e+01   3.9343167958e+01 0.0005248677 0.0003638904 -49.27  0.001050554    1.378    0.275
       266  -8.7316    163.3425    134.3350   9.4162456797e+01   3.9343348257e+01  0.000405231 0.0002192077 -45.02  0.000705049    1.761    0.432
       267 -10.0221    225.9305    132.3381   9.4217560570e+01   3.9341649710e+01 0.0007717485 0.0004855223 -49.66 0.0009227137    1.516    0.340
       268  -8.5476    212.2966    133.2712   9.4205542628e+01   3.9342365130e+01 0.0003709302 0.0002332629 -43.72  0.000251325    1.522    0.343
       269  -9.4912    179.8779    130.8504   9.4177102800e+01   3.9340864502e+01 0.0005887586 0.0004348568 -46.32 0.0009837081    1.297    0.229
       270  -9.3293    205.9080    129.8143   9.4200025602e+01   3.9340016647e+01 0.0005753315 0.0004296128 -43.85 0.0008120469    1.285    0.222
       271  -9.5086    212.2251    127.6430   9.4205644899e+01   3.9338487368e+01 0.0006952225 0.0005135147 -53.61 0.0007873253    1.294    0.227
       272  -9.5844    192.9452    127.7031   9.4188687814e+01   3.9338629148e+01 0.0006969968 0.0004066669 -51.88  0.001194029    1.630    0.387
       273  -8.8721    186.5317    127.9435   9.4183040527e+01   3.9338827651e+01 0.0005382318 0.0002090273 -56.43 0.0008072871    2.402    0.584
       274 -14.7085    244.9430     15.7206   9.4237667538e+01   3.9261188850e+01   0.01075891  0.005938008 -85.49   0.01948299    1.779    0.438
       275  -8.9937    199.8740    125.3935   9.4194849257e+01   3.9337001874e+01 0.0005067263 0.0002968619 -22.94 0.0005895372    1.674    0.403
       276  -9.4634    180.1996    122.5785   9.4177630758e+01   3.9335163071e+01 0.0007493711 0.0004333748 -42.06  0.001382834    1.654    0.395
       277  -9.1111    188.2267    121.7540   9.4184714130e+01   3.9334554071e+01 0.0005246772 0.0003653212 -46.78 0.0007621603    1.374    0.272
       278  -9.3723    212.9182    121.1171   9.4206445886e+01   3.9333986946e+01 0.0005995546 0.0003529625 -46.53 0.0009075626    1.620    0.383
       279  -8.9682    203.5633    120.1762   9.4198247217e+01   3.9333387637e+01 0.0005098992 0.0002916784 -65.15 0.0007792659    1.667    0.400
       280  -8.7947    220.3160    119.3133   9.4213004145e+01   3.9332704804e+01 0.0003906926 0.0002269743 -45.26 0.0007034996    1.643    0.391
       281  -8.8505    194.5063    119.5390   9.4190301618e+01   3.9332995552e+01 0.0003625872 0.0003204256 -46.97  0.000226515    1.086    0.079
       282  -9.4792    225.3774    114.8200   9.4217586237e+01   3.9329581560e+01 0.0008716719  0.000288166 -66.53 0.0006613396    2.809    0.644
       283  -9.1898    220.0285    113.7091   9.4212915390e+01   3.9328844624e+01 0.0004985943 0.0004487116 -33.65 0.0007894693    1.081    0.075
       284  -8.3637    212.2944    114.3563   9.4206095754e+01   3.9329331618e+01  0.000396704  0.000223042 -48.06 0.0007031802    1.693    0.409
       285  -8.8487    186.4540    113.4873   9.4183399678e+01   3.9328866912e+01 0.0003626004 0.0003199271 -48.52 0.0001221307    1.087    0.080
       286 -11.4137    240.3539    208.2266   9.4228034723e+01   3.9393864121e+01   0.00188341  0.000727503  72.37  0.002577679    2.700    0.630
       287  -8.8135    195.2834    112.3151   9.4191197935e+01   3.9328013852e+01 0.0003810833 0.0002302332 -47.29 0.0003015245    1.579    0.367
       288  -8.5396    223.3288    111.3224   9.4215887193e+01   3.9327182446e+01 0.0003973589  0.000223774 -45.08 0.0007049057    1.693    0.409
       289  -8.5308    213.2941    110.3471   9.4207092449e+01   3.9326563720e+01 0.0003940296 0.0002246325 -47.80  0.000703121    1.670    0.401
       290  -8.4641    219.2653    108.3532   9.4212401110e+01   3.9325158152e+01 0.0003862934 0.0002265509 -50.03 0.0004376472    1.623    0.384
       291  -9.1023    222.5919    103.2222   9.4215476164e+01   3.9321604789e+01 0.0005038001 0.0003040333 -68.82 0.0005763666    1.588    0.370
       292 -10.4049    230.4217    101.8643   9.4222399807e+01   3.9320627023e+01 0.0006997634 0.0004885035 -21.28 0.0008863978    1.410    0.291
       293 -12.0378    235.7590    144.2206   9.4225857956e+01   3.9349784561e+01  0.003829232 0.0008047334 -67.38   0.00447934    4.184    0.761
       294 -11.7912    238.4210    219.5392   9.4226003471e+01   3.9401669776e+01  0.001691353  0.001029872  81.66  0.001939722    1.653    0.395
       295  -9.8335    235.8842     94.3605   9.4227421091e+01   3.9315426824e+01 0.0006868335 0.0004795768 -67.31  0.000739016    1.375    0.273
       296 -13.4594    245.9320    131.7587   9.4235167993e+01   3.9341141914e+01    0.0053676  0.003503033 -78.33   0.01057968    1.489    0.328
       297 -11.3533    242.7684    200.2695   9.4230391517e+01   3.9388367960e+01  0.001529532 0.0008620902 -82.32  0.001722007    1.732    0.423
       298 -11.4902    248.4984    233.4111   9.4234470259e+01   3.9411173474e+01   0.00173083 0.0008737859  41.19  0.002961199    2.088    0.521
       299  -9.3772    215.4787     79.0268   9.4209931070e+01   3.9304970479e+01 0.0005503327 0.0002050048 -57.02 0.0008096898    2.497    0.600
       300  -9.2201    211.6173     75.6487   9.4206635993e+01   3.9302663130e+01 0.0005912552 0.0003449046 -46.81   0.00108949    1.634    0.388
       301  -8.6328    214.3071     69.3580   9.4209184505e+01   3.9298314236e+01 0.0004012169  0.000220924 -47.38 0.0007041059    1.728    0.421
       302 -11.2509    233.0488    212.2691   9.4221487231e+01   3.9396689252e+01  0.001593557 0.0008158344 -71.48  0.002081365    1.869    0.465
       303  -8.6448    203.4885     65.4910   9.4199789489e+01   3.9295706559e+01 0.0003540695 0.0003303896 -50.09 0.0002118977    1.027    0.027
       304 -11.9812    236.7382    195.1272   9.4225234716e+01   3.9384857339e+01  0.005552451 0.0009809616 -87.18  0.005704406    5.530    0.819
       305 -12.5671    243.1748    149.6631   9.4232222342e+01   3.9353494461e+01  0.006558654 0.0007312658 -53.13  0.006239102    6.326    0.842
