#   1 NUMBER                 Running object number                                     
#   2 MAG_AUTO               Kron-like elliptical aperture magnitude                    [mag]
#   3 X_IMAGE                Object position along x                                    [pixel]
#   4 Y_IMAGE                Object position along y                                    [pixel]
#   5 X_WORLD                Barycenter position along world x axis                     [deg]
#   6 Y_WORLD                Barycenter position along world y axis                     [deg]
#   7 A_WORLD                Profile RMS along major axis (world units)                 [deg]
#   8 B_WORLD                Profile RMS along minor axis (world units)                 [deg]
#   9 THETA_WORLD            Position angle (CCW/world-x)                               [deg]
#  10 FWHM_WORLD             FWHM assuming a gaussian core                              [deg]
#  11 ELONGATION             A_IMAGE/B_IMAGE                                           
#  12 ELLIPTICITY            1 - B_IMAGE/A_IMAGE                                       
         1  -8.6005     80.4485     12.4699   4.6013582270e+01   6.0750853390e+01    0.1240025    0.1017771  39.11 0.0002155264    1.018    0.018
         2  -9.1200    107.6701    221.9939   9.2066021508e+01   1.2271870335e+01    0.2333008    0.0894661 -39.16 0.0007052074    4.381    0.772
         3  -9.4491     59.4845    210.9896   1.0238855701e+02   2.1672035730e+01    0.1963142    0.1071192  78.96 0.0008091957    2.445    0.591
         4  -9.8884    101.2448    199.9867   9.0364225394e+01   1.8356241975e+01    0.1982268    0.1248303 -59.18 0.0008954243    1.634    0.388
         5  -9.3420     91.3490    200.3140   9.2958803754e+01   1.9804470230e+01    0.1497132    0.1128643 -19.83 0.0007046792    1.723    0.420
         6  -9.4438     97.0000    192.0007   9.0191187610e+01   2.0965717951e+01    0.2465398   0.08422387 -58.60 0.0008049977    2.960    0.662
         7 -10.7868     90.2299    185.5877   9.0949878753e+01   2.3615583398e+01    0.2621413    0.1999089  30.85  0.001292458    1.335    0.251
         8 -10.4807     95.6480    186.6929   8.9677910736e+01   2.2493487321e+01    0.3221825    0.1875742   5.64  0.001133519    3.099    0.677
         9  -9.5535     77.3114    188.3489   9.4853349511e+01   2.4844200148e+01     0.152205    0.1102572 -30.22 0.0007045597    1.716    0.417
        10  -8.6164     58.3415    183.6766   9.9289870572e+01   2.8603836103e+01    0.1546827    0.1012751  65.46 0.0002723176    1.727    0.421
        11 -10.9128    115.2968    180.2988   8.3305192678e+01   2.0832528020e+01    0.3282519    0.2251903  71.74  0.001360864    2.113    0.527
        12 -10.5584    104.1999    178.3145   8.5915748725e+01   2.3200288337e+01    0.3604307    0.1326516  36.40  0.001216564    2.630    0.620
        13 -10.1793    122.2088    170.8213   7.9639395568e+01   2.1939612011e+01    0.2234393    0.1866796 -15.19  0.001048985    1.343    0.255
        14  -9.9619    127.8165    171.7672   7.8348531378e+01   2.0699576019e+01    0.2743441    0.1689699 -14.55 0.0009609609    2.846    0.649
        15 -12.7475     95.0822    167.0986   8.6369904477e+01   2.7540265056e+01    0.7379845     0.490647   5.53  0.003033624    2.148    0.534
        16  -9.7876    153.0125    166.5067   7.0883164878e+01   1.7267953382e+01    0.2239206    0.1311757  59.87 0.0008106033    2.646    0.622
        17 -12.6627     79.8554    168.6269   9.0974506579e+01   2.9525705259e+01    0.5515568    0.5067689  17.02  0.002980991    1.168    0.144
        18 -11.3169     77.1821    157.0312   8.9679513783e+01   3.2937565891e+01    0.3103687    0.2530294 -19.33  0.001102732    1.421    0.296
        19 -12.5981    103.5987    155.4752   8.1652429627e+01   2.9063733761e+01    0.9085799    0.3024332 -53.50  0.002854661    2.892    0.654
        20 -12.5821     87.5542    142.8892   8.3748698860e+01   3.4980048418e+01    0.5673746    0.4874157 -69.52  0.002866895    1.213    0.176
        21 -10.3235     84.5006    155.9234   8.7302901620e+01   3.2110129539e+01    0.2423332    0.1476246 -57.88  0.001031456    1.585    0.369
        22  -9.6363     89.3117    154.3434   8.5573881012e+01   3.1753430509e+01    0.1635746    0.1171473 -25.43 0.0007046115    1.703    0.413
        23  -9.8455    129.4971    148.4837   7.2941850000e+01   2.6014487472e+01    0.1581782    0.1528564 -22.73 0.0008104101    1.016    0.016
        24 -12.5250     95.8293    149.7279   8.2711351194e+01   3.1858177094e+01    0.7626396    0.4006849 -63.70  0.002859804    2.181    0.542
        25 -10.6916    117.8227    140.2867   7.4271954366e+01   3.0243253480e+01     0.314829    0.2249105 -78.51  0.001189978    1.954    0.488
        26 -11.2485    101.3300    140.4005   7.9062088378e+01   3.3260819064e+01    0.3373424    0.2506276 -38.36   0.00154845    1.372    0.271
        27  -9.7806    121.7324    154.9869   7.6476958239e+01   2.5909614834e+01     0.209602    0.1361466 -50.51 0.0006778444    1.513    0.339
        28  -8.9624    145.6611    142.3266   6.7336196563e+01   2.4269537268e+01    0.1609813    0.1268615  85.85 0.0006409751    1.729    0.422
        29 -10.3841    127.6686    135.1329   7.0338585145e+01   2.9558271988e+01    0.3298379     0.146365 -55.39  0.001100078    2.573    0.611
        30 -12.3770     94.7091    133.0304   7.9378401842e+01   3.6265095166e+01    0.6099778    0.3999146 -63.55  0.002609417    1.696    0.410
        31 -12.2590     84.1451    133.5433   8.2770779932e+01   3.7910090977e+01    0.6275937    0.3592948  46.15  0.002568461    1.944    0.486
        32 -11.3874     91.7003    122.8983   7.7912412487e+01   3.9284943386e+01    0.4985857    0.1830403 -43.91  0.001614327    2.783    0.641
        33 -10.9449    102.6261    117.9917   7.3307027193e+01   3.8482601070e+01    0.3892256    0.2716978  85.44  0.001522637    2.467    0.595
        34 -11.0891     88.7423    114.3862   7.6737644397e+01   4.1846676038e+01    0.3817379    0.2173141  56.89  0.001414774    2.606    0.616
        35  -9.3572     73.6900    112.3630   8.1210451864e+01   4.4801976156e+01    0.1520509     0.119885  78.69 0.0005435869    1.749    0.428
        36  -9.0969    105.3169    109.3350   7.0236330059e+01   3.9967581777e+01    0.1615929    0.1208764  -9.73 0.0007048048    1.695    0.410
        37 -10.0542    100.8334    108.1640   7.1293482888e+01   4.1092830058e+01      0.22057    0.1833702  -9.13 0.0009995428    1.335    0.251
        38 -11.1559    118.4141     99.8988   6.3845097969e+01   3.9387946736e+01    0.3943733    0.2453577 -24.55  0.001582323    2.134    0.531
        39  -9.4106    102.6737     99.0153   6.8226010661e+01   4.2763445825e+01    0.2479538    0.1267739 -65.59 0.0007051219    4.385    0.772
        40  -9.6646     81.5386    100.0000   7.5323101790e+01   4.6414511208e+01    0.3316395   0.08462509  35.93 0.0009408407    3.984    0.749
        41  -9.0753     88.6907     93.3526   7.1070046521e+01   4.6620462185e+01    0.1481756    0.1216799  85.50 0.0007043813    1.720    0.419
        42  -9.6131     57.0072     93.0000   8.2161688498e+01   5.1743628352e+01    0.2298506   0.08049075  29.67 0.0006090087    2.968    0.663
        43  -8.4685     79.3527     77.3231   6.9451363029e+01   5.1584383827e+01    0.1533937    0.1077288  -2.84 0.0004893438    1.756    0.431
        44  -9.5804    102.5233     70.4822   5.9799374157e+01   4.8417589199e+01     0.144578    0.1344618  21.37 5.034042e-05    1.008    0.008
        45 -10.4242     94.9500     52.6183   5.6263469774e+01   5.2912524523e+01    0.2961188    0.2685353  75.21  0.001308718    1.350    0.259
        46  -8.6461     84.3572     21.3186   4.8255152093e+01   5.9089783846e+01    0.1379714   0.08177723  28.58 0.0007044973    1.756    0.431
        47 -10.0091     74.9212     17.6232   4.9663447093e+01   6.1351994224e+01    0.2273398     0.213264   6.18 0.0004408705    1.216    0.178
