#   1 NUMBER                 Running object number                                     
#   2 MAG_AUTO               Kron-like elliptical aperture magnitude                    [mag]
#   3 X_IMAGE                Object position along x                                    [pixel]
#   4 Y_IMAGE                Object position along y                                    [pixel]
#   5 X_WORLD                Barycenter position along world x axis                     [deg]
#   6 Y_WORLD                Barycenter position along world y axis                     [deg]
#   7 A_WORLD                Profile RMS along major axis (world units)                 [deg]
#   8 B_WORLD                Profile RMS along minor axis (world units)                 [deg]
#   9 THETA_WORLD            Position angle (CCW/world-x)                               [deg]
#  10 FWHM_WORLD             FWHM assuming a gaussian core                              [deg]
#  11 ELONGATION             A_IMAGE/B_IMAGE                                           
#  12 ELLIPTICITY            1 - B_IMAGE/A_IMAGE                                       
         1 -13.0133    186.6486     30.4646   6.6835935771e+01   3.5127044027e+01    0.7886412    0.6749811 -83.95  0.003278405    1.076    0.070
         2 -13.3278    194.6891     18.7635   6.2924049237e+01   3.4590985004e+01    0.6718588    0.6111529  72.19  0.001942698    1.172    0.147
         3 -11.2114    189.7057    188.5704   1.0440814679e+02   5.2105718387e+00    0.6855055    0.3344581 -59.44  0.002361972    3.412    0.707
         4 -19.4212     16.6183    139.5754   1.3784278840e+02   4.4586791514e+01     19.29779     3.478252 -70.72   0.05480923    5.516    0.819
         5 -11.8874    108.0305    236.4393   1.2956984206e+02   1.0488134415e+01    0.2722506    0.2318812  23.53  0.001663756    1.499    0.333
         6 -11.7846     80.3195    182.2515   1.2820363619e+02   2.6839390055e+01    0.4683801    0.3099673 -40.17  0.002255311    1.976    0.494
         7 -11.6207     83.9623    176.6185   1.2647015482e+02   2.7625620891e+01    0.4588057    0.3581128  -9.75     0.001704    2.025    0.506
         8  -9.8288    198.9768    178.5822   1.0045407899e+02   5.3740952452e+00    0.2755951    0.2044595 -59.10 0.0009849322    1.593    0.372
         9 -11.8928    102.6612    236.2647   1.3062167655e+02   1.1390955415e+01    0.3977729    0.2416239 -67.29  0.001504192    1.771    0.435
        10 -14.3052     58.0309    129.9816   1.2510716823e+02   4.2641346293e+01     1.627313     0.533697 -64.09   0.00555796    3.177    0.685
        11 -12.0685     91.0374    166.8285   1.2310718651e+02   2.8861821472e+01    0.6147584    0.3089072  53.21 0.0004824661    2.237    0.553
        12 -12.9307     79.6701    162.3201   1.2517544000e+02   3.1751960109e+01    0.5459982    0.4470361 -60.16  0.001232188    1.161    0.139
        13 -13.9688     68.4192    144.4804   1.2495575811e+02   3.7752599038e+01     1.285272    0.7145232 -86.59   0.00500999    2.781    0.640
        14 -11.6056     59.2561    154.1217   1.2901218876e+02   3.6629152284e+01    0.2578722    0.2126762  86.09  0.001158586    1.178    0.151
        15  -9.5119    134.3017    148.6472   1.0859397978e+02   2.5240723001e+01    0.1625262    0.1224861  89.32 0.0007038789    1.701    0.412
        16 -11.9750     96.5962    159.0648   1.2029592158e+02   2.9823628307e+01    0.6528667    0.3789199 -34.67  0.002598687    2.485    0.598
        17 -11.2662    107.9491    142.3108   1.1394734097e+02   3.1879344117e+01    0.4899118    0.2842959 -28.90  0.001791029    2.780    0.640
        18 -11.4437     96.0101    143.3813   1.1734307157e+02   3.3738874832e+01    0.2760492    0.2628253 -18.82 0.0003971268    1.190    0.160
        19 -12.6300     72.6619    136.9438   1.2237647185e+02   3.8986494033e+01    0.6531026    0.3081149 -62.74  0.002678032    2.054    0.513
        20  -9.7764    190.3442    229.0126   1.1175145113e+02  -2.3432855876e+00    0.2003641    0.1117885 -66.51 0.0007050519    4.461    0.776
        21 -10.7235    114.9944    132.4036   1.0984598827e+02   3.2912460328e+01    0.3050057    0.2093014 -35.77  0.001069456    1.625    0.385
        22 -11.0059    103.8073    129.3430   1.1214852298e+02   3.5733712784e+01    0.5289457    0.3495032  62.27  0.001356228    1.918    0.479
        23  -9.4776    110.2587    120.5698   1.0828084134e+02   3.6582454538e+01    0.1937049    0.1495328  27.94 0.0002839759    1.465    0.318
        24  -9.4950    168.2296    112.8401   9.1835038801e+01   2.5769844050e+01     0.273367    0.1738015 -82.34 0.0009541699    2.869    0.651
        25 -11.1607    164.6698    223.8325   1.1610138098e+02   3.1029969102e+00    0.2690212    0.1202856 -40.60  0.001101586    2.659    0.624
        26 -11.4416    198.4926    198.9071   1.0463097252e+02   1.5640137306e+00    0.4702002     0.265596  36.53  0.002153359    1.750    0.428
        27 -11.8309    176.7784     39.1486   7.0544667597e+01   3.6402492681e+01    0.3314199    0.2882098  60.74 0.0009254223    1.121    0.108
        28 -12.7900    162.8406    243.0502   1.1948669980e+02  -5.5995176883e-03    0.4670484    0.2885956  29.59  0.002428842    1.644    0.392
        29 -11.8583    170.0175    241.0095   1.1775035140e+02  -8.8380438687e-01    0.3214148    0.1733432  33.37  0.001230022    1.764    0.433
