#   1 NUMBER                 Running object number                                     
#   2 MAG_AUTO               Kron-like elliptical aperture magnitude                    [mag]
#   3 X_IMAGE                Object position along x                                    [pixel]
#   4 Y_IMAGE                Object position along y                                    [pixel]
#   5 X_WORLD                Barycenter position along world x axis                     [deg]
#   6 Y_WORLD                Barycenter position along world y axis                     [deg]
#   7 A_WORLD                Profile RMS along major axis (world units)                 [deg]
#   8 B_WORLD                Profile RMS along minor axis (world units)                 [deg]
#   9 THETA_WORLD            Position angle (CCW/world-x)                               [deg]
#  10 FWHM_WORLD             FWHM assuming a gaussian core                              [deg]
#  11 ELONGATION             A_IMAGE/B_IMAGE                                           
#  12 ELLIPTICITY            1 - B_IMAGE/A_IMAGE                                       
         1 -13.8763    233.4442     16.3892   3.3722622254e+01   2.5924956135e+01     1.310152    0.9352315  43.54  0.007886872    2.000    0.500
         2 -13.5715    205.3721     40.4176   4.2000028498e+01   2.9207810090e+01     1.257378     1.126003  16.95  0.005046322    1.467    0.318
         3 -13.3205    214.1041     35.8524   3.9892795747e+01   2.7807476333e+01    0.9699981    0.6814145 -84.31  0.003754462    1.400    0.286
         4 -12.7610    220.5906     28.5641   3.7530588827e+01   2.7270766364e+01    0.6371348     0.433611  51.60  0.001471188    1.747    0.428
         5 -10.5744      2.7405      2.3894   8.6718575520e+01   7.4223444727e+01    0.2062826    0.1195909  12.34  0.001367625    1.604    0.377
         6  -9.9340    250.1815      1.7666   2.9615090583e+01   2.4097783403e+01    0.1789778    0.1215564 -67.36   0.00121021    1.158    0.136
         7 -15.7798     56.5904    247.3616   1.1641996768e+02   1.5569887651e+01     9.403493     2.743897  27.71   0.01452074    8.409    0.881
         8 -13.4488     86.9908    224.3873   1.0810628806e+02   1.6025916272e+01    0.9805025    0.7326165  61.65 0.0004595314    1.235    0.190
         9  -9.3430    143.9903    179.5158   8.8212052488e+01   1.6220259651e+01    0.2132996    0.1297996  14.52 0.0008103896    2.578    0.612
        10  -8.9278    149.5076    177.4796   8.6521866035e+01   1.5633679570e+01    0.1465965    0.1419945  27.50 0.0001385422    1.025    0.024
        11 -12.9522     56.6646    126.6546   1.0163622395e+02   4.3381680455e+01     3.234599    0.9436074 -70.50   0.00605691   10.533    0.905
        12 -12.4554     80.5123    157.1984   1.0027713660e+02   3.2422531991e+01    0.8749558    0.7136953 -77.49 0.0009416686    1.208    0.172
        13 -14.0301     68.5778    145.0195   1.0147121030e+02   3.7194083152e+01     3.789257     1.750671  66.80  0.009617628    6.558    0.848
        14 -13.4630     60.1532    159.6581   1.0618309169e+02   3.4650610066e+01    0.5450048     0.309403 -43.32  0.001354544    2.056    0.514
        15 -14.4738     10.2826    207.0249   1.2266301282e+02   2.8918391940e+01     0.960552    0.8728997 -21.88  0.003365322    1.662    0.398
        16 -10.1797    123.2899    151.8737   8.7764798394e+01   2.6395910515e+01    0.2637913    0.2359567  73.83 0.0005126985    1.214    0.177
        17  -9.5030    175.0082    149.0237   7.4625179519e+01   1.6680111458e+01     0.235559    0.1927752 -84.24  0.000689668    1.653    0.395
        18 -10.4117    133.7592    144.6819   8.3476204709e+01   2.6042839037e+01    0.9500365    0.2165214 -54.03  0.001919595    7.369    0.864
        19 -15.3588      7.8454    239.3438   1.2488008839e+02   2.2527278390e+01     3.981576     1.541208 -79.58   0.02189858    2.309    0.567
        20 -10.6984     96.9317    141.8689   9.2792087887e+01   3.3587219738e+01    0.6187697    0.4004198 -15.89  0.002387939    2.657    0.624
        21  -9.6396    109.8461    201.3442   9.9989386350e+01   1.7402897996e+01    0.1883649      0.16567  88.05 0.0004419905    1.185    0.156
        22 -12.4062     83.9221    141.3498   9.6384762987e+01   3.5848577445e+01     0.319982    0.2593387 -53.20      0.00045    1.177    0.150
        23  -9.9878     77.7794    138.1438   9.7527794916e+01   3.7592861207e+01    0.2190291    0.1903329  87.95 0.0004239196    1.206    0.171
        24 -11.4889     69.7100    130.5712   9.8418844641e+01   4.0666096650e+01    0.8495337    0.4669739  86.08  0.002024518    4.056    0.753
        25  -9.9213    209.8415    199.8178   7.7947503571e+01   6.5966851443e-01      0.16502    0.1623658 -12.11 0.0004798943    1.324    0.245
        26  -9.8106    156.8158    132.1425   7.4807278783e+01   2.4086600296e+01    0.2326513    0.2133802 -80.35 0.0005020925    1.218    0.179
        27 -10.7786    106.9434    131.2476   8.7618285313e+01   3.4399565158e+01    0.4246956    0.3400606  37.86  0.001370652    1.292    0.226
        28 -11.5853     73.3266    163.5478   1.0325972866e+02   3.1900510276e+01    0.3033386    0.2773902 -63.43 0.0007519041    1.098    0.089
        29 -10.7643     95.1300    127.7599   9.0219476326e+01   3.7360739890e+01    0.2678831    0.2304081 -34.94 0.0003683164    1.194    0.163
        30  -9.7051    115.3122    125.3500   8.3856446023e+01   3.4218434015e+01    0.2464792    0.1873239 -11.61  0.001091763    1.726    0.421
        31  -9.6063    105.7300    119.9244   8.5245940091e+01   3.7335248874e+01    0.2206499    0.1957279 -29.12 0.0003583436    1.158    0.136
        32 -11.1525    193.8024    196.1224   8.0439434924e+01   3.9630742212e+00    0.7591988    0.4195226 -64.95  0.002308166    5.826    0.828
        33  -9.5388    168.0492    113.0390   6.7415357461e+01   2.5651676452e+01    0.2550346    0.1926298 -76.44  0.001128528    1.767    0.434
        34  -9.4903    135.0000    112.0269   7.5098551514e+01   3.3203478720e+01    0.2626278   0.08853742 -44.54 0.0007974132    2.908    0.656
        35  -9.8878    205.2748    110.5622   5.9389680347e+01   1.7903355510e+01    0.2904228    0.2520284  33.57 0.0009599692    1.280    0.219
        36  -9.3918     60.0292    100.2867   9.4834716559e+01   4.9418608024e+01    0.1928393    0.1835977  -1.78  0.000552514    1.121    0.108
        37 -11.4572     53.7277     93.4093   9.5328880336e+01   5.1846209154e+01    0.6289173    0.2995811 -67.97  0.002369575    2.850    0.649
        38  -9.7647     41.7535     92.1362   9.9317435352e+01   5.3518229022e+01    0.1945841    0.1728719 -61.94 0.0005153516    1.131    0.116
        39  -9.6858    161.5045     82.5026   6.0562253881e+01   3.3097666786e+01    0.1499138     0.147785 -66.88 -0.0001124475    1.005    0.005
        40 -13.3334     28.0980    205.9853   1.1892616780e+02   2.7393747929e+01    0.6443825    0.4662489 -56.23  0.001060715    1.618    0.382
        41 -13.2121     15.0035    214.2723   1.2217256915e+02   2.6920236433e+01    0.5272697    0.4578983  64.26  0.001916979    1.217    0.179
        42 -11.1235     13.3292     60.1161   1.0262032901e+02   6.3106698799e+01    0.2343332    0.2053318 -49.67 0.0004448141    1.164    0.141
        43  -9.7103     32.2855     54.6073   9.2696196831e+01   6.2669210156e+01    0.1921059    0.1813173 -42.79 0.0006641891    1.275    0.216
        44 -10.9251    140.2527    249.2515   1.0004520003e+02   3.3999207706e+00     0.230914    0.1586519  37.10  0.001380566    1.209    0.173
        45 -16.2332     31.1826    184.0857   1.1637884928e+02   3.2057691584e+01     9.414909     3.693216  82.63   0.03155691    4.089    0.755
        46 -11.8336     62.9377    173.1467   1.0737461610e+02   3.0965220732e+01    0.3206289     0.255007 -44.90 0.0005791297    1.429    0.300
        47  -9.0435     82.0613    182.4342   1.0387722151e+02   2.6051141700e+01    0.2022536    0.1343235  35.58 0.0003822782    1.533    0.348
        48 -11.1083     12.3585     52.9972   1.0111075731e+02   6.4653629953e+01     0.284076    0.1742281  24.27  0.001681304    1.883    0.469
        49 -10.1276    131.8764     39.2477   5.3692379012e+01   4.7086993124e+01    0.3417096    0.2278892 -88.75  0.001385014    2.192    0.544
        50 -10.0232    132.0862     31.3948   5.1031820955e+01   4.8028304183e+01    0.2880336    0.2048803 -85.59 0.0007318595    1.835    0.455
        51 -10.1783    189.6108     15.1025   3.7497334224e+01   3.5921980822e+01    0.2213215      0.16056 -87.79 0.0006803019    1.272    0.214
        52 -11.9550     57.2953    178.7543   1.0952351718e+02   3.0334857078e+01    0.4196411    0.2917181 -32.83  0.001939994    2.024    0.506
