#   1 NUMBER                 Running object number                                     
#   2 MAG_AUTO               Kron-like elliptical aperture magnitude                    [mag]
#   3 X_IMAGE                Object position along x                                    [pixel]
#   4 Y_IMAGE                Object position along y                                    [pixel]
#   5 X_WORLD                Barycenter position along world x axis                     [deg]
#   6 Y_WORLD                Barycenter position along world y axis                     [deg]
#   7 A_WORLD                Profile RMS along major axis (world units)                 [deg]
#   8 B_WORLD                Profile RMS along minor axis (world units)                 [deg]
#   9 THETA_WORLD            Position angle (CCW/world-x)                               [deg]
#  10 FWHM_WORLD             FWHM assuming a gaussian core                              [deg]
#  11 ELONGATION             A_IMAGE/B_IMAGE                                           
#  12 ELLIPTICITY            1 - B_IMAGE/A_IMAGE                                       
         1 -13.3332    223.2659      6.5359   3.5591605615e+01   2.8555729791e+01     1.190334    0.9543115  52.17  0.005420515    1.498    0.332
         2 -14.3259    196.1648     37.3827   4.6495983554e+01   3.1485522140e+01     2.719776     1.696089  17.95   0.01169547    2.534    0.605
         3  -9.8569    189.8016     15.0012   4.0595689454e+01   3.5633258243e+01    0.2623373    0.2112722 -35.44 0.0007646317    1.186    0.157
         4 -10.5961     74.5916     13.1076   6.2053221136e+01   6.5254450367e+01    0.4078472    0.2381885  65.84  0.001817687    2.136    0.532
         5  -8.9462    167.9275    233.3568   9.4047297394e+01   6.4557311397e+00    0.2663326    0.1445538  50.60  0.001444483    2.484    0.597
         6 -11.1912    139.7132    247.5625   1.0087461190e+02   8.3033556388e+00    0.5333324    0.2393337 -54.31  0.003044304    3.131    0.681
         7 -19.5777     12.2146    158.0403   1.2142129327e+02   4.0100020830e+01     18.02172     3.914392 -85.03   0.05974946    4.771    0.790
         8 -11.2399    183.3603    211.8806   8.8276868498e+01   7.1472603284e+00     0.423988    0.3987681  63.34  0.003112447    1.589    0.371
         9  -9.3755    103.0221    213.7541   1.0459584545e+02   1.8291029483e+01    0.1720385    0.1359968  42.98 0.0006095965    1.027    0.026
        10  -9.7571     87.2883    205.2659   1.0712017729e+02   2.1910346212e+01    0.3117438     0.120762  43.00  0.001467327    2.062    0.515
        11  -8.0524     87.3108    202.6900   1.0685840685e+02   2.2385133372e+01    0.2096703    0.1256919  45.71 0.0006442536    1.383    0.277
        12  -9.5446    133.7831    196.0080   9.5868959549e+01   1.6919523656e+01    0.1890332    0.1590918  56.06  0.001204934    1.280    0.218
        13  -9.7788    120.0459    194.1743   9.8605161580e+01   1.9315058806e+01    0.1844709    0.1826158  54.91 0.0003424131    1.161    0.139
        14 -10.7474    173.9698    211.9530   9.0041962356e+01   8.4754740403e+00    0.3631625    0.1448656  33.86  0.001755159    2.112    0.527
        15 -10.0393    149.2900    187.7012   9.1343535995e+01   1.5923169373e+01    0.2938734     0.202273  50.99  0.001574667    1.574    0.365
        16 -11.5646    107.6321    203.8338   1.0251998729e+02   1.9389313328e+01    0.4986491    0.2306061  48.09 0.0004848199    2.016    0.504
        17  -9.9357    107.3525    250.1880   1.0714842810e+02   1.2024328226e+01    0.1831634    0.1170714  30.72 0.0006478256    1.278    0.218
        18 -11.0193     98.7951    181.1739   1.0176332664e+02   2.4944956468e+01    0.3861877    0.2761694   4.45  0.001887421    2.016    0.504
        19 -10.2484    189.2578    177.4144   8.1577207916e+01   1.1147204470e+01    0.4114669     0.310488 -53.02   0.00240403    1.838    0.456
        20 -11.7535    193.5851    200.5319   8.4662259894e+01   7.2019205619e+00     1.278473    0.7021258 -36.08  0.007277871    1.979    0.495
        21 -11.6421    203.3656    199.6284   8.2759727833e+01   5.9117418914e+00    0.4203902    0.2426392  28.94  0.002476761    1.494    0.331
        22 -10.6893    144.2011    178.0128   9.0895775466e+01   1.8421956132e+01    0.3410004    0.2333518 -48.48  0.001154946    1.652    0.394
        23 -10.2750    139.0963    170.3629   9.0761997221e+01   2.0661954665e+01    0.3282925    0.2308965  30.35  0.000970341    1.341    0.254
        24 -10.9850    108.2571    211.0025   1.0319315512e+02   1.8047626838e+01    0.3185897    0.2096233  38.10  0.001116125    1.235    0.190
        25  -9.4313    149.6385    177.2773   8.9593520614e+01   1.7657390474e+01    0.2119871    0.1874626  53.02 0.0003723359    1.245    0.196
        26  -9.3530    240.2013    169.3634   7.1333899927e+01   4.4624075702e+00    0.1478952    0.1054154  41.35 0.0005197545    1.660    0.398
        27  -9.1160    229.6712    166.3087   7.2426132112e+01   6.3928450975e+00    0.1047154   0.09817773 -55.57 0.0005403101    1.661    0.398
        28  -9.2220    187.6273    162.7603   7.9180952971e+01   1.3668215625e+01    0.2248017    0.1618687 -43.43 0.0009977046    1.566    0.362
        29  -8.2887     77.2399    207.9617   1.0957009220e+02   2.2709020163e+01    0.1371449   0.09891205 -77.76 0.0008697516    1.569    0.363
        30 -10.0283     57.4924    159.0121   1.0951742163e+02   3.5341132267e+01    0.1892395    0.1223262 -72.41 0.0004822887    1.540    0.351
        31 -11.5901     93.5645    151.8945   9.8895475554e+01   3.1941812390e+01    0.6420697    0.5056761 -24.06   0.00341042    1.679    0.404
        32 -10.8235    133.8957    145.6764   8.7479071905e+01   2.6386551583e+01        1.166    0.3296644 -55.61  0.003032775    5.939    0.832
        33  -9.4351    187.2353    151.5827   7.7052525453e+01   1.5526035953e+01    0.1901872    0.1186515  30.52 0.0009510372    1.598    0.374
        34  -8.8022    112.5210    150.4914   9.3712022842e+01   2.9158270032e+01     0.141541    0.1302309  54.63 2.732975e-05    1.039    0.037
        35  -8.8114    109.6248    147.8379   9.3987875206e+01   3.0222114113e+01    0.2280707    0.1847091  72.84 0.0002897171    1.375    0.273
        36  -9.2285    174.8785    149.1260   7.9015073960e+01   1.8168293901e+01    0.1987218    0.1891591  65.85 0.0005873095    1.281    0.219
        37  -9.7511    143.5068    145.4908   8.5153711982e+01   2.4651588330e+01    0.2929462    0.1413523 -47.68  0.001216902    2.196    0.545
        38 -10.7953    105.4694    138.0456   9.3292497943e+01   3.3095332421e+01    0.5114042    0.3463987 -34.58  0.002400785    1.842    0.457
        39 -11.6127     93.6237    137.8616   9.6520638529e+01   3.5118762224e+01    0.2717733    0.2631277   7.06 0.0005345558    1.156    0.135
        40 -10.4298    105.9167    130.7208   9.1739452227e+01   3.4670265101e+01    0.3642843    0.3186447 -76.71  0.001193795    1.200    0.166
        41 -10.1918    135.9296    129.0410   8.3499687390e+01   2.9418502495e+01    0.4394165    0.2079542 -53.16  0.001540382    2.391    0.582
        42 -10.6274    114.0763    128.9477   8.9141794448e+01   3.3597221858e+01    0.3829342    0.3310975  14.14  0.001198209    1.311    0.237
        43 -11.2385    120.1596    122.5585   8.6111014371e+01   3.3864995680e+01    0.5546298     0.383216 -13.64  0.002341334    2.282    0.562
        44  -9.3665    160.6191    127.8700   7.7451841339e+01   2.4743842662e+01    0.2909457    0.1865326 -55.30  0.001309806    1.893    0.472
        45 -10.3897    101.2311    124.9425   9.1875672466e+01   3.6819733373e+01    0.2965264    0.2410983 -24.33 0.0006827543    1.510    0.338
        46  -9.7968    134.7835    119.7767   8.1664881463e+01   3.1575391730e+01    0.2669493    0.1802749 -42.96 0.0007970043    1.510    0.338
        47  -9.3894    109.2767    118.3956   8.8167152112e+01   3.6860892181e+01    0.2425059    0.2239836 -46.45 0.0002906372    1.114    0.102
        48 -10.0431    231.2633    113.6662   6.1288678148e+01   1.3338081596e+01    0.2483928    0.2254777  -7.00 0.0007239975    1.085    0.079
        49  -9.1993    134.7036    112.8590   8.0012671584e+01   3.3039397448e+01    0.4247662    0.1359663 -43.81  0.001338142    3.174    0.685
        50  -9.2615    134.5015    106.9728   7.8578276229e+01   3.4311851150e+01    0.3802392    0.1489467 -43.07  0.001314301    2.578    0.612
        51  -9.2820    134.5269    102.9435   7.7520505920e+01   3.5145356949e+01    0.3278897    0.1922046 -43.36  0.001384535    1.706    0.414
        52  -9.0429    167.5816    112.5212   7.2281132325e+01   2.6172211286e+01    0.3218741    0.2264571 -77.85  0.001361379    2.401    0.584
        53 -11.5778    117.7490    109.5303   8.3690501129e+01   3.7213038163e+01     0.749041    0.4795372  64.68  0.003104178    2.089    0.521
        54  -9.2432    205.6104    110.0979   6.4485174550e+01   1.8728490263e+01     0.247879    0.1952486  33.32 0.0006288789    1.330    0.248
        55  -8.4821    224.2677    206.6633   8.0321213840e+01   2.1802758617e+00   0.09249904   0.08786045  -2.28 0.0002444985    1.593    0.372
        56  -9.8207     64.1964     99.4831   9.8248177746e+01   4.8961689997e+01    0.2323818    0.2221784   3.68    0.0010163    1.182    0.154
        57 -15.4890     72.0483    149.5139   1.0438432895e+02   3.5647341649e+01     9.240252      4.32655  77.41   0.01072081    4.718    0.788
        58 -11.3958     51.4038     89.3346   1.0077554776e+02   5.3226364138e+01    0.3920377    0.2564691  50.12  0.001121903    1.651    0.394
        59  -9.3994     64.9245     70.0838   9.0451480327e+01   5.6061499078e+01    0.2143885    0.2051919 -61.88 0.0003825626    1.028    0.028
        60  -8.5423    168.1776    248.1357   9.5782545323e+01   4.5975804110e+00    0.1316059    0.1029406  35.36   0.00023252    1.257    0.204
        61 -12.9116    180.7237     51.3309   5.2732203599e+01   3.3387442138e+01    0.8589872    0.7243401  44.94 0.0008230835    1.282    0.220
        62 -12.8179    112.9375    205.8157   1.0160473860e+02   1.8289485296e+01      1.29283    0.2953206 -51.62  0.004702532    4.882    0.795
        63 -11.7154    109.6266    200.8649   1.0173691495e+02   1.9636789623e+01    0.4394872    0.2703904 -44.66  0.001883041    2.020    0.505
        64  -9.1266    158.3142    235.2984   9.6059233003e+01   7.4850921846e+00    0.1959506    0.1470734  14.93  0.001225354    1.228    0.186
