#   1 NUMBER                 Running object number                                     
#   2 MAG_AUTO               Kron-like elliptical aperture magnitude                    [mag]
#   3 X_IMAGE                Object position along x                                    [pixel]
#   4 Y_IMAGE                Object position along y                                    [pixel]
#   5 X_WORLD                Barycenter position along world x axis                     [deg]
#   6 Y_WORLD                Barycenter position along world y axis                     [deg]
#   7 A_WORLD                Profile RMS along major axis (world units)                 [deg]
#   8 B_WORLD                Profile RMS along minor axis (world units)                 [deg]
#   9 THETA_WORLD            Position angle (CCW/world-x)                               [deg]
#  10 FWHM_WORLD             FWHM assuming a gaussian core                              [deg]
#  11 ELONGATION             A_IMAGE/B_IMAGE                                           
#  12 ELLIPTICITY            1 - B_IMAGE/A_IMAGE                                       
         1 -12.3292     12.0575     48.8434   9.2814773621e+01   6.6266003366e+01     1.909666    0.9774511 -61.74  0.009568781    2.301    0.565
         2 -11.5935      8.5838      9.2757   7.8672170486e+01   7.3126462203e+01    0.4918485     0.267193  18.47  0.001904804    1.646    0.392
         3 -10.2816     15.0158     13.8087   7.7136529235e+01   7.1837149204e+01    0.1826792    0.1343473 -18.29 0.0004394479    1.172    0.147
         4 -11.2215     13.6215      3.4510   7.2606724397e+01   7.3320058317e+01    0.4409971    0.4332155 -89.79  0.003385494    2.056    0.514
         5 -11.7156     21.9517      5.7485   6.9172237848e+01   7.2019030806e+01    0.5135957    0.3158247 -36.56  0.002004721    1.924    0.480
         6 -12.2942     28.1229      3.1591   6.4614227242e+01   7.1452052225e+01    0.4197556    0.2122006  34.02 0.0008927201    1.671    0.401
         7 -11.3488     20.3680     15.7916   7.5113137260e+01   7.0959506766e+01    0.6286725    0.3399555  -1.97  0.003326848    2.199    0.545
         8 -10.8841      9.5338     15.9557   8.1359309030e+01   7.2094453577e+01      0.29391    0.1612902 -17.12  0.001185189    1.737    0.424
         9 -11.8648      3.6352     16.8953   8.5344683903e+01   7.2476996802e+01      0.33208    0.2320365  23.97  0.001718236    1.578    0.366
        10 -11.8752    128.5140     24.4413   4.2689124632e+01   4.9330070714e+01    0.4383201    0.3077168 -30.32  0.002493862    1.615    0.381
        11 -12.2588    164.9661     22.9152   3.6613166270e+01   4.0965950102e+01    0.4518708    0.2718809 -86.98            0    1.760    0.432
        12 -10.7445     43.6272      8.6015   6.0292937919e+01   6.8489714520e+01    0.2657923    0.2123819  49.41  0.001409014    1.525    0.344
        13 -11.4063     46.2556     13.8740   6.1715665963e+01   6.7496584810e+01    0.6105998    0.5058423  33.98  0.003194953    1.238    0.193
        14 -10.5851     39.6903     11.0323   6.3184798342e+01   6.8867543089e+01    0.2089385     0.181191  17.97 0.0005149993    1.215    0.177
        15 -11.4857     40.0684     15.6002   6.5217324920e+01   6.8289706032e+01    0.2643807     0.244216   1.13 0.0005778596    1.344    0.256
        16 -10.3827     73.4984      6.4627   4.8842484117e+01   6.3153773875e+01    0.2618077    0.1996581 -50.85  0.001632722    1.819    0.450
        17 -10.3625     74.4339      2.4430   4.6894594240e+01   6.3286118802e+01      0.23202    0.1796104  84.30 0.0008269005    1.718    0.418
        18 -10.9159     74.0189     16.8559   5.3017172165e+01   6.2089978186e+01    0.4364491    0.2265442  41.53     0.002213    1.649    0.394
        19 -10.5868     70.6922     13.7059   5.2740465534e+01   6.3061474465e+01    0.2702568    0.1910195  11.57   0.00113666    1.485    0.327
        20 -11.3377     77.9132     10.9904   4.9454117220e+01   6.1861237780e+01    0.4998492     0.180404  54.18 0.0004377149    2.275    0.560
        21 -11.0057     32.8438     16.5219   6.9036332860e+01   6.9245443837e+01    0.5195224    0.2177118  23.90  0.002303781    2.850    0.649
        22  -9.6709    118.5228     12.4807   4.0723920245e+01   5.2817185915e+01    0.1629175    0.1234544   1.23 0.0002899161    1.664    0.399
        23  -9.8294    118.0000      8.9854   3.9683934412e+01   5.3242237299e+01    0.2141265    0.1761181 -25.18  0.001386445    1.436    0.304
        24 -10.7111     60.9669     14.1718   5.6188673426e+01   6.4878120612e+01    0.3956823    0.2572945  69.69  0.002034704    2.535    0.606
        25 -12.2988    128.6128     11.2220   3.8587292479e+01   5.0600586408e+01    0.4211605    0.2885319 -79.75 0.0005380578    1.662    0.398
        26 -10.5888    156.9976     12.0979   3.4792114117e+01   4.3923018522e+01    0.2525218    0.1574613 -49.23  0.001270138    1.666    0.400
        27 -10.4519    175.9984     11.2754   3.2413952162e+01   3.9653370271e+01    0.1792514    0.1365532  83.97 0.0004908836    1.101    0.092
        28 -10.6262    164.0001      9.2470   3.3218347959e+01   4.2581593332e+01    0.1962004    0.1695033 -60.53 0.0005344817    1.201    0.167
        29 -10.2939    164.5473      5.4921   3.2207237313e+01   4.2804557785e+01    0.2287019    0.1675501 -63.50 0.0007056181    1.326    0.246
        30 -11.1960    146.4036      6.8034   3.4707995495e+01   4.6862378524e+01    0.3454656    0.2621436  19.67  0.002118701    1.794    0.443
        31 -11.5795    148.6386      2.1523   3.3153318693e+01   4.6743249112e+01    0.3836546    0.2967045 -77.55  0.001657374    1.241    0.194
        32 -10.0241    240.9663      9.5140   2.6798181848e+01   2.6243046609e+01     0.155131   0.09090528  85.14 0.0004493832    1.524    0.344
        33 -12.9019    212.7549      5.5264   2.7930257080e+01   3.2261430029e+01    0.9863434    0.4342196 -86.41  0.004996135    2.300    0.565
        34 -11.4402    191.1344      6.7601   2.9918681770e+01   3.6736309064e+01    0.4123777    0.2623978 -37.59   0.00224153    1.670    0.401
        35 -10.6175    155.7161      6.8907   3.3571644809e+01   4.4703045443e+01    0.2943694    0.1871612  28.97  0.001137256    2.341    0.573
        36 -10.9344     90.6358      6.6804   4.4466558807e+01   5.9545080378e+01     0.471132    0.1683184  50.76  0.002138181    2.158    0.537
        37 -11.4527    234.4707      5.4968   2.6464039563e+01   2.7920059778e+01    0.1715335    0.1457806  54.95  0.001175155    1.707    0.414
        38  -9.6402     81.7625      6.0278   4.6404339914e+01   6.1486843392e+01    0.1442092    0.1018594 -17.16 0.0008816054    1.620    0.383
        39 -10.9313    179.1633      4.1849   3.0415875028e+01   3.9626932308e+01    0.2115584    0.1588761 -81.30 0.0002623311    1.123    0.109
        40 -10.6183     68.0882      3.7697   4.9285097809e+01   6.4457795290e+01    0.2005653    0.1716129  19.60 0.0005201132    1.137    0.121
        41  -9.7584     61.7116      5.0957   5.1880372798e+01   6.5587154708e+01    0.1611726    0.1277898  25.40 0.0003879046    1.086    0.079
        42 -11.1118    194.5414      1.8340   2.8550127741e+01   3.6475306989e+01    0.3238608     0.145673  87.02  0.001400564    2.088    0.521
        43 -10.0744    118.2964      3.7737   3.7949906378e+01   5.3599533528e+01    0.2106979    0.1391521  74.46 0.0005729685    1.366    0.268
        44 -10.2952    243.1246      2.8877   2.5476653648e+01   2.6549710921e+01    0.1771286    0.1077478 -65.35 0.0006532645    1.246    0.197
        45 -10.2118    126.4837      2.6971   3.6308452443e+01   5.1806519156e+01    0.1966426      0.15406  35.95 0.0004658075    1.412    0.292
        46  -9.7575    230.7596      1.4107   2.5933580563e+01   2.9067408820e+01    0.1399006   0.08694775  73.11 0.0003471537    1.566    0.362
        47 -10.9293     98.8520      4.0632   4.1679482006e+01   5.7955373994e+01    0.3446277    0.2465006 -51.69  0.001006275    1.763    0.433
        48 -11.3743     16.9318     31.6003   8.4014072272e+01   6.8947850801e+01    0.5256693    0.2511624  12.07  0.002647081    2.282    0.562
        49 -10.5142    247.3046    250.0068   7.1723507811e+01  -1.1798456213e+01    0.1631149    0.1175442 -12.67 0.0007454975    1.057    0.054
        50 -10.1635     72.4855    250.1605   1.0748672279e+02   1.1550478310e+01    0.2168082    0.1706325  12.45   0.00100613    1.598    0.374
        51 -12.6833     19.0138    237.2246   1.1770518097e+02   2.0606618758e+01    0.7019097    0.3716784  43.18  0.003996359    1.619    0.382
        52 -11.6534      4.7880    235.9729   1.2049491135e+02   2.2274822344e+01     0.439905    0.3347099  47.31   0.00245557    1.259    0.206
        53 -12.0376     28.9870    247.8350   1.1635592491e+02   1.7309821599e+01    0.5462357    0.3037075  80.68  0.003078252    1.753    0.430
        54 -13.2571      6.5260    245.0555   1.2061735319e+02   2.0204201851e+01    0.9284763    0.5926885  37.02  0.004934034    1.534    0.348
        55 -12.0538     22.0100    248.9323   1.1781262820e+02   1.7836854695e+01    0.4692294    0.2593209  42.79   0.00175777    1.527    0.345
        56 -11.0841     17.2417    247.3846   1.1866017473e+02   1.8653622304e+01    0.2851591    0.1648654  46.85 0.0009389523    1.431    0.301
        57 -10.1538    244.8196    188.4103   6.1402738165e+01  -2.2107642096e+00     0.209414    0.1255064 -32.24 0.0004896835    1.377    0.274
        58  -9.6065    212.2085    188.3777   6.7166505662e+01   2.4870948106e+00    0.1749853    0.1265703  44.10  0.000614605    1.660    0.398
        59  -9.4395      2.1834    187.6137   1.1814090486e+02   3.3583498555e+01    0.1508422    0.1221284  -3.01 0.0007361586    1.709    0.415
        60 -10.8728     16.5312    183.9872   1.1434500167e+02   3.3268496494e+01    0.3735931    0.2264394 -83.09  0.001424514    1.454    0.312
        61 -10.1182     15.2960    180.6537   1.1436222191e+02   3.4211266508e+01    0.2219375    0.1734124  24.03 0.0008477404    1.514    0.340
        62 -10.3539    167.7619    183.5873   7.5432469723e+01   1.0823656347e+01    0.2050346    0.1376732  45.99 0.0009527914    1.632    0.387
        63  -9.7801     58.7109    182.0361   1.0308483134e+02   2.9143874155e+01    0.2068852    0.1790389 -74.54 0.0008343976    1.090    0.083
        64  -9.3305      1.5571    180.5244   1.1778068186e+02   3.5365768906e+01    0.1282215    0.1039993 -89.41 0.0001391002    1.014    0.013
        65  -9.8778    244.4848    178.4461   5.9582140934e+01  -4.9402829182e-01    0.2391604   0.09851766 -32.27  0.001027049    2.329    0.571
        66 -10.7937     46.5387    177.7701   1.0582053818e+02   3.1744539525e+01    0.3314332    0.2590026 -77.09  0.001104283    1.178    0.151
        67 -10.7998     34.0414    174.0041   1.0875691496e+02   3.4102836654e+01    0.2201909    0.1761464 -77.39 0.0003612606    1.113    0.102
        68 -10.7786     17.9610    173.3526   1.1299318679e+02   3.5818689995e+01    0.3398218    0.2159821  57.48  0.001610618    1.584    0.369
        69 -12.2996     36.9141    164.5813   1.0681100115e+02   3.6243135210e+01    0.8046364    0.5293748 -65.00  0.003848001    1.358    0.263
        70 -13.0721     49.8750    161.6140   1.0267559816e+02   3.5554514200e+01    0.4811987    0.3622182  75.43 0.0007480748    1.421    0.296
        71 -11.4859     44.3975    162.7594   1.0442624002e+02   3.5895832264e+01    0.3801986    0.2399495 -68.29  0.001205394    1.440    0.306
        72  -9.8399      4.5200    168.5683   1.1608422906e+02   3.8118824760e+01    0.1298736    0.1077642 -86.41 0.0001245696    1.010    0.009
        73  -9.2969    111.5466    164.5028   8.5574995216e+01   2.5443738122e+01    0.1534728     0.151002 -56.93 0.0001814969    1.004    0.004
        74  -9.3429     99.4206    164.5672   8.8931747247e+01   2.7534934916e+01    0.1513766    0.1478534 -66.06 9.676418e-05    1.008    0.008
        75  -9.1211    200.5300    162.4950   6.4199589620e+01   9.3592720991e+00    0.1432746    0.1288506 -33.51 0.0007100321    1.043    0.041
        76 -12.2580     19.0798    158.0929   1.1109317362e+02   3.9635486841e+01    0.4067583     0.241491 -59.53 0.0003966723    1.494    0.331
        77 -12.0611     23.8416    157.1683   1.0962671702e+02   3.9457278764e+01    0.5390592    0.4344839 -72.61   0.00221682    1.078    0.072
        78 -10.2917     11.0617    153.2253   1.1284289697e+02   4.1533229188e+01    0.2743424    0.1674055  33.64  0.001449383    1.797    0.443
        79 -10.0537    177.3206    150.8214   6.6420895025e+01   1.6051015248e+01    0.2766063    0.2067404  71.66   0.00127132    1.878    0.468
        80 -10.3174    207.0673    146.6748   5.9612094516e+01   1.1297517064e+01    0.1895626    0.1816095  -6.97 0.0005679553    1.113    0.101
        81  -9.4504     41.1561    146.1587   1.0294865613e+02   4.0621004746e+01    0.1878992    0.1557582  69.94 0.0002459894    1.279    0.218
        82  -9.6872    216.2114    155.1507   5.9751802400e+01   8.0620819708e+00     0.181634    0.1523034 -56.85 0.0003528211    1.307    0.235
        83  -9.8310      9.7132    144.7142   1.1230799159e+02   4.3818092067e+01    0.3237802    0.1479623 -13.19  0.001204151    4.070    0.754
        84  -9.7856    220.4534    143.9889   5.6688536123e+01   9.4312815971e+00    0.2143241    0.1195324 -41.89 0.0006977604    1.546    0.353
        85  -9.3436     49.3025    142.2885   9.9773824579e+01   4.0709799567e+01    0.1473808    0.1044768 -34.98 0.0003089604    1.564    0.361
        86 -10.4191     59.3334    140.4169   9.6269299465e+01   3.9939787990e+01    0.4415657    0.2343216  59.12 0.0006683127    2.760    0.638
        87 -10.4978     17.3580    137.2547   1.0907199943e+02   4.5171197931e+01    0.2179759    0.1997954 -51.44 0.0005291839    1.133    0.117
        88  -9.8489     20.8530    134.8568   1.0764328536e+02   4.5512106149e+01    0.2182602    0.1678211 -88.95 0.0006870676    1.285    0.222
        89 -10.9540      9.2078    136.7731   1.1154044955e+02   4.5890995026e+01    0.2548944    0.1768384 -64.49 0.0003683875    1.203    0.168
        90 -10.5116      2.4831    136.7877   1.1359605037e+02   4.6320655142e+01    0.3284526    0.1022073 -70.84  0.001285568    2.502    0.600
        91  -9.3291    143.7035    137.3399   7.1099610977e+01   2.5787191737e+01    0.1592459    0.1257852 -86.25 0.0007032035    1.659    0.397
        92  -9.3680    122.7037    135.3088   7.6108150302e+01   3.0515011636e+01    0.1577695    0.1266512  85.44 0.0002482846    1.592    0.372
        93  -9.9973    249.2624    134.0655   5.0230854660e+01   6.4217637652e+00    0.1842204     0.141037 -41.81  0.000502042    1.052    0.050
        94 -11.1500     54.2325    132.7071   9.6448317875e+01   4.2612250932e+01    0.3276165    0.2574073  50.23 0.0009858734    1.403    0.287
        95 -10.0029    112.3701    131.8578   7.8173571877e+01   3.3371985332e+01    0.2388096    0.1403929 -40.56 0.0009479935    1.764    0.433
        96 -11.3477     36.3551    130.5767   1.0194479120e+02   4.5203671886e+01    0.5222322    0.2804571 -41.74  0.002115682    1.922    0.480
        97 -11.0111     73.7624    129.1955   8.9360337851e+01   4.0789660485e+01    0.3388099    0.3041267 -57.54 0.0008882076    1.066    0.062
        98  -9.1652      9.2973    129.3139   1.1058632015e+02   4.7792605228e+01    0.1396442   0.08292396 -45.82 0.0002700232    1.604    0.377
        99 -11.2230     24.1449    126.0461   1.0525677877e+02   4.7512418688e+01    0.2783609    0.2112364  23.89 0.0007623614    1.501    0.334
       100 -11.0909     10.8837    123.1317   1.0924114655e+02   4.9260861427e+01    0.3258268    0.2555836 -62.74  0.001125173    1.065    0.061
       101 -11.5683     17.7577    125.6687   1.0732497284e+02   4.8122673900e+01    0.6220297    0.2326003 -44.34  0.002439469    2.660    0.624
       102  -9.6497    220.1409    124.1863   5.2538718801e+01   1.3161958128e+01    0.1902701    0.1467924 -58.85 0.0004833343    1.302    0.232
       103  -9.0917     32.4537    121.5649   1.0168591213e+02   4.7913890106e+01    0.1421917    0.1221737 -51.34 4.013508e-05    1.051    0.049
       104  -9.9364     83.4582    119.5573   8.3985898778e+01   4.1650625482e+01    0.1537842     0.145031 -32.06   4.0204e-05    1.033    0.032
       105 -11.0375     16.0250    115.7117   1.0638479627e+02   5.0782083871e+01    0.3535696     0.198184 -32.28  0.001208952    1.964    0.491
       106  -9.8540      1.4300    118.9520   1.1182194937e+02   5.0886109983e+01    0.1981661    0.1068933 -70.63 0.0003229014    1.520    0.342
       107  -9.7725     13.6923    125.6916   1.0867153499e+02   4.8415718186e+01    0.2209889     0.139653 -55.04  0.000618788    1.350    0.259
       108  -9.6244    179.4476    116.4834   5.8033641191e+01   2.2746641440e+01    0.1493349    0.1386571 -51.49 0.0001801749    1.005    0.005
       109 -10.3598     73.2161    118.4279   8.7075816790e+01   4.3588951047e+01    0.3524519    0.2236691  85.09  0.001193321    2.962    0.662
       110  -9.8106    214.0329    115.3373   5.1592593725e+01   1.5937883809e+01    0.1815304    0.1753546 -69.97 0.0004661533    1.118    0.106
       111 -10.1757     95.0086    112.2342   7.8448508001e+01   4.1374278838e+01    0.2726924    0.2267344 -46.54 0.0009132599    1.169    0.145
       112 -11.7076     55.2633    109.3371   9.1119770319e+01   4.8417161772e+01    0.4709141    0.2695108 -48.17  0.001376923    1.588    0.370
       113 -11.0151    249.3933    112.3691   4.5916666040e+01   1.0080428564e+01    0.2414082    0.1826974 -54.57 0.0006685738    1.167    0.143
       114 -10.4115      1.3202    108.3365   1.1042632178e+02   5.3529464306e+01    0.3282158    0.1571267 -80.80    0.0014987    2.111    0.526
       115  -9.6274      2.4661    105.4807   1.0960200650e+02   5.4171913193e+01    0.1871172    0.1128248 -81.99 0.0005018282    1.655    0.396
       116 -11.7939     37.1596    110.5336   9.7905529884e+01   5.0240144637e+01    0.4496942     0.330709  62.98  0.002298372    1.735    0.424
       117  -9.2651     99.6582    107.2773   7.5680701217e+01   4.1649382762e+01    0.1536951    0.1231171  75.87 0.0007003931    1.622    0.384
       118 -12.1283     13.9838    109.4086   1.0608087247e+02   5.2504848634e+01    0.5002883    0.3311748   2.00  0.002468195    1.796    0.443
       119 -11.3181     23.5268    106.1089   1.0201509459e+02   5.2604415130e+01     0.330156    0.2891015  76.75  0.001354097    1.326    0.246
       120 -10.0563      5.7294    106.4209   1.0857095201e+02   5.3762561570e+01    0.2481348    0.1122835 -51.16 0.0009443286    1.782    0.439
       121 -10.0186    243.5427    104.5120   4.5087983266e+01   1.2394688428e+01    0.1299175    0.1056609 -49.28 0.0001074068    1.013    0.013
       122  -9.8996     51.8010    104.1445   9.1135527696e+01   5.0133374597e+01      0.21259    0.1549737 -33.30 0.0006006375    1.360    0.265
       123 -10.3378     37.8923    103.7145   9.6181447015e+01   5.1851014900e+01    0.2600759    0.1705879 -49.39 0.0008935457    1.333    0.250
       124 -10.7402    120.2726    101.0432   6.7928038109e+01   3.8839371167e+01     0.613305     0.282108 -29.39  0.001847493    3.699    0.730
       125  -9.5472     25.9648    102.4574   1.0038972211e+02   5.3298161712e+01    0.1799806    0.1343684  18.66 0.0003458117    1.495    0.331
       126 -11.1509     19.3992    101.0347   1.0258678382e+02   5.4178913354e+01     0.286964    0.1898773 -23.38 0.0001343059    1.630    0.387
       127  -9.9424     24.0234     98.9992   1.0042228386e+02   5.4305656344e+01    0.3604999    0.1919488  37.69  0.001638753    2.186    0.542
       128 -11.4999    143.5394     98.3764   6.1221607018e+01   3.4287398316e+01    0.6851407      0.43424  50.14  0.003034344    1.596    0.373
       129 -11.0201     62.1469     98.8383   8.6019511499e+01   4.9993494365e+01    0.3467961    0.3043956  -5.25 0.0009298284    1.159    0.137
       130 -10.4979     66.5262     98.4298   8.4331049479e+01   4.9439044626e+01    0.2678559    0.2173796  12.52 0.0006966964    1.308    0.235
       131 -10.7766     50.6961     99.3295   9.0363633579e+01   5.1431369322e+01    0.3054418    0.2244236  -3.42  0.001055412    1.559    0.359
       132  -9.6997    173.4648     83.4958   5.1004203705e+01   3.0301895819e+01     0.229847    0.1876587  71.51 0.0007711757    1.248    0.199
       133 -12.2276    164.8727     88.3314   5.3892826750e+01   3.1384551044e+01     1.191297    0.6019385 -22.57  0.003811799    3.935    0.746
       134 -12.1230    166.7067     83.8404   5.2363253750e+01   3.1778168764e+01    0.9599702    0.7421862 -32.97  0.004935044    1.384    0.277
       135 -11.6040     14.4370     97.4579   1.0379547349e+02   5.5406813648e+01     0.410045    0.2189256 -60.22  0.002045436    1.543    0.352
       136 -11.4891     10.9949     90.5508   1.0381214355e+02   5.7286147020e+01    0.3823445    0.3255187  36.76  0.001206971    1.418    0.295
       137 -10.0667      4.9443     98.1050   1.0752445317e+02   5.5835107197e+01    0.2205248    0.1703608 -13.40 0.0009703193    1.419    0.295
       138  -9.5520      1.1677     95.6458   1.0854762791e+02   5.6623135363e+01    0.2418022   0.08471446 -71.70 0.0007993471    2.601    0.616
       139  -9.2056    250.3150     95.6925   4.2503120458e+01   1.2661769728e+01    0.1284357   0.08177193 -64.21 0.0004971125    1.628    0.386
       140 -10.9274     37.3011     94.6931   9.4332529799e+01   5.4087822009e+01    0.2526345    0.2404199 -54.04 0.0005464749    1.132    0.117
       141 -12.1247    157.0935     83.1452   5.4095010414e+01   3.4106806795e+01    0.7734598    0.6534176   9.72  0.004008842    1.523    0.344
       142 -11.2714     57.6547     90.4331   8.5406347041e+01   5.2573294339e+01    0.4770722    0.3447815   0.64  0.002119428    1.596    0.373
       143 -10.1310     20.9120     93.0465   1.0039009492e+02   5.5988630161e+01    0.4272585   0.06330746 -55.52  0.001345034    3.722    0.731
       144 -10.7437     25.5192     91.3144   9.8184414147e+01   5.6018461595e+01    0.2835075    0.2061605 -55.93  0.001057376    1.216    0.178
       145  -9.2108    113.4343     93.4937   6.7709279536e+01   4.1880280062e+01    0.1520892    0.1456888  -4.25 0.0001385588    1.056    0.053
       146 -11.2392     22.3816     86.9991   9.8468338135e+01   5.7294386920e+01    0.3115036    0.2413727 -50.33 0.0007606071    1.110    0.099
       147  -9.4746     46.5413     92.5326   9.0213277522e+01   5.3547309848e+01    0.1399972    0.1281623 -37.08 6.771022e-05    1.048    0.046
       148  -9.6864     66.5951     94.2410   8.3161206251e+01   5.0392777037e+01    0.2115156     0.126949 -41.04 0.0009431608    1.605    0.377
       149 -12.2877    158.1472     89.6930   5.5624802962e+01   3.2664180769e+01    0.5363135    0.3224505 -36.15  0.002359753    1.733    0.423
       150 -10.3569     96.9694     89.4809   7.1465939779e+01   4.6081641875e+01    0.2334613    0.1466738  40.79 0.0008440857    1.591    0.372
       151 -10.0180     83.0503     88.7182   7.5786578985e+01   4.8868102541e+01    0.2039933    0.1865377   8.83 0.0005086531    1.077    0.072
       152 -12.1544      4.7458     84.4766   1.0514816001e+02   5.9076736137e+01    0.5797009    0.2688204 -47.35  0.001416685    1.709    0.415
       153 -10.4480     78.7940     87.9351   7.7013738197e+01   4.9789785055e+01    0.2706554    0.2142959 -65.71  0.001351458    1.537    0.349
       154 -10.3916     65.1688     87.6450   8.1809406780e+01   5.2090354468e+01    0.2406763    0.2373849   8.88 0.0009956679    1.135    0.119
       155 -10.9195     66.3186     83.6525   8.0206068206e+01   5.2780144775e+01     0.366949    0.2410531  34.36  0.001781851    1.554    0.357
       156 -10.9191     62.3987     82.8275   8.1424024926e+01   5.3562509877e+01    0.2474575    0.2222263  11.92 0.0002560325    1.105    0.095
       157  -9.6456    120.9822     86.9638   6.3717267698e+01   4.1575810746e+01    0.1812404    0.1768268 -33.59 0.0009905221    1.035    0.034
       158  -9.6830     46.7846     87.6034   8.8814021085e+01   5.4650948038e+01     0.191026    0.1267108  37.56  0.000880416    1.672    0.402
       159  -9.4571    116.5742     83.8158   6.3988750386e+01   4.3152089153e+01    0.2896784    0.1107431  44.50 0.0009955737    2.594    0.615
       160 -10.2558     73.7843     82.8180   7.7235742932e+01   5.1738542932e+01    0.1898198    0.1775176  78.98 0.0005132495    1.316    0.240
       161 -11.2836     30.7015     81.6481   9.3735376425e+01   5.7775844234e+01    0.3860593    0.2508695  -7.64  0.001521652    1.736    0.424
       162  -9.4148     79.5303     82.5211   7.5119940424e+01   5.0804053126e+01    0.1474051    0.1354383  -7.71 3.381277e-05    1.036    0.034
       163  -9.4844     41.8749     82.5799   8.9398547517e+01   5.6371071171e+01    0.1823418     0.124479  37.71 0.0004985363    1.658    0.397
       164 -10.6171     15.0472     59.9239   9.4727798274e+01   6.3824387691e+01    0.2193573    0.1602118 -12.89 0.0003626096    1.285    0.222
       165 -12.3821    226.4106    245.3641   7.4666706515e+01  -8.8246496669e+00    0.6869771    0.3380285 -10.89  0.003163525    2.816    0.645
       166 -14.1538     16.5419     67.6824   9.6194306286e+01   6.2079026446e+01    0.6213057    0.5163815 -65.85  0.001590605    1.366    0.268
       167 -11.9077     12.8841     77.3568   1.0022067219e+02   6.0213523368e+01    0.5789794    0.3763451  20.09  0.003021205    1.708    0.414
       168 -12.4423      8.4284     73.7772   1.0132734435e+02   6.1301773546e+01    0.8244505    0.4531251  -4.03  0.004279359    2.060    0.515
       169 -11.6723      9.9685     63.5750   9.8120089982e+01   6.3422954508e+01    0.4412658    0.3386579  85.74  0.002139464    1.930    0.482
       170 -11.5099      6.3801     67.8002   1.0083442411e+02   6.2739080143e+01    0.2837942    0.1441812 -43.62 0.0008848417    1.569    0.363
       171 -12.8568      3.1712     63.0788   1.0116178593e+02   6.3936552996e+01    0.6793218    0.3281333 -61.26  0.002472581    1.833    0.454
       172 -10.7845     60.9947     78.1658   8.0542699447e+01   5.4765284209e+01    0.2043097     0.194519  63.52 0.0006790921    1.296    0.229
       173 -10.8316     43.0926     68.3846   8.4699566384e+01   5.9261291499e+01    0.2757188    0.2065746   8.09 0.0009831622    1.341    0.254
       174 -12.8145     44.6796     75.1778   8.6124378855e+01   5.7646844283e+01    0.2955764     0.275277  33.56 0.0004589785    1.262    0.208
       175 -11.0849     36.1485     68.6222   8.7748714252e+01   6.0033939680e+01    0.5391256     0.291183  49.36  0.002302887    3.014    0.668
       176 -10.9062     93.1999     74.0820   6.7902783554e+01   4.9900059647e+01    0.4042699    0.3310394  -0.06  0.001002382    1.352    0.260
       177 -10.7623     74.5253     75.2862   7.4612322113e+01   5.3154480435e+01    0.2758574    0.1976845 -15.25  0.000800792    1.610    0.379
       178  -9.3511     70.1944     76.5701   7.6592172189e+01   5.3632890752e+01    0.1830367    0.1326329  19.52 0.0009117308    1.451    0.311
       179 -11.1756     51.2684     62.4645   7.9328986552e+01   5.9341945602e+01    0.3717487    0.3528059  75.82  0.002300157    1.438    0.305
       180 -11.0833     53.9985     74.3177   8.2082587927e+01   5.6590033926e+01    0.3853763    0.2706292  41.89  0.001106711    1.620    0.383
       181 -10.5137    207.4909     73.4299   4.3182268420e+01   2.4504900151e+01    0.2174094    0.1944863 -68.83 0.0002367911    1.050    0.048
       182  -9.7587    145.5203     74.0156   5.4021738371e+01   3.8393626605e+01    0.2252468    0.1437495 -38.45  0.001037868    1.609    0.379
       183  -9.4786    137.4715     74.0074   5.5814073665e+01   4.0258192814e+01    0.2112764    0.1446083 -38.98 -5.484612e-05    1.503    0.334
       184 -11.2119    104.8289     73.6880   6.4222125554e+01   4.7586039427e+01    0.5895694    0.2591072  56.44  0.001811207    2.973    0.664
       185 -12.0913     50.1949     68.5414   8.1787398814e+01   5.8299185947e+01    0.4041548    0.2680995 -48.34 0.0007506047    1.504    0.335
       186  -9.5862    152.1823     71.8514   5.2018794165e+01   3.7212229011e+01     0.191935     0.169836  27.43 0.0005272469    1.310    0.237
       187  -9.2930    129.2966     71.3270   5.6954725678e+01   4.2600939252e+01    0.1465875    0.1148573  14.19 0.0007024936    1.630    0.387
       188 -11.7238     78.4405     69.9339   7.1479703456e+01   5.3498604370e+01    0.3287681    0.2521068  39.99  0.001735984    1.308    0.236
       189 -10.5927    167.8206     69.8756   4.8503279092e+01   3.3904854836e+01    0.2173681    0.1899313  68.19 0.0003135012    1.120    0.107
       190 -12.3049    122.5079     64.0948   5.6421079734e+01   4.5367657415e+01    0.5261778    0.3311368 -51.88 0.0003517598    1.827    0.453
       191 -11.9225     44.7086     38.5671   7.3252314178e+01   6.4444620829e+01    0.5853131    0.3065161  48.56 0.0005332588    2.746    0.636
       192 -12.1334     30.4203     63.9726   8.8846994205e+01   6.1609188156e+01    0.7619305    0.5231951 -38.96  0.002048734    1.266    0.210
       193 -11.4984     52.6560     40.6352   7.0673593144e+01   6.2918640298e+01    0.4059675     0.260271  41.54  0.001135146    1.627    0.385
       194 -12.9837     57.4723     34.5559   6.6249258620e+01   6.3028254803e+01    0.3391533    0.2814158  -1.28 0.0004753871    1.102    0.093
       195 -10.9840     26.8243     55.8988   8.7921785740e+01   6.3589009999e+01    0.3403836      0.19891 -26.74 0.0003871719    1.654    0.396
       196 -11.9049     26.9481     49.7026   8.5756761014e+01   6.4757712974e+01    0.4792423    0.3836439 -53.57  0.002047294    1.483    0.326
       197 -13.2979     37.5655     49.7637   8.0801271727e+01   6.3528094815e+01    0.7760543    0.6568372   3.93  0.003203867    1.097    0.088
       198 -11.3507     94.3938     66.1256   6.4931709444e+01   5.1114656196e+01    0.4338593     0.297377  13.98 0.0008725335    1.905    0.475
       199 -10.2143    103.9395     67.8474   6.2617734703e+01   4.8824644371e+01    0.2123688    0.2030062  33.59 0.0004419389    1.029    0.028
       200 -10.3564    153.0600     63.6749   4.9574754666e+01   3.8340472250e+01    0.2045211    0.1676267  60.45 0.0004832167    1.173    0.148
       201  -9.5665    143.9700     64.5009   5.1640080557e+01   4.0338526926e+01    0.2095948    0.1356165  57.02 0.0003859425    1.481    0.325
       202 -10.5804     76.5352     63.5924   7.0012525602e+01   5.5016979370e+01    0.3045396    0.2648054  19.37  0.001748433    1.080    0.074
       203 -10.8397     84.3330     62.0488   6.6802801802e+01   5.3826271202e+01    0.4064614    0.1698909  33.71  0.001473604    2.838    0.648
       204  -9.3532    202.5217     61.4598   4.1114785641e+01   2.7419038289e+01    0.1325246    0.1152619 -71.35 6.953136e-05    1.015    0.015
       205 -10.3749     55.5403     53.7507   7.4496244522e+01   6.0305798374e+01    0.2906471    0.2252518   8.76  0.001614773    1.236    0.191
       206 -11.7085     59.2642     58.2829   7.4630881246e+01   5.8917707085e+01    0.6936825    0.4122187  -2.39  0.002953454    2.577    0.612
       207 -10.7246     69.2797     59.0279   7.1050374695e+01   5.7121533109e+01    0.4094735     0.234782 -46.44    0.0019286    1.909    0.476
       208  -9.9642    124.4967     58.0784   5.4069123252e+01   4.5874371748e+01    0.1960685    0.1415782 -35.40 0.0003283667    1.472    0.320
       209  -9.8653    146.9381     56.9007   4.8858816328e+01   4.0822058937e+01    0.2172603    0.1595498 -73.64  0.000436964    1.594    0.373
       210 -12.9153    105.3801     52.5423   5.7160902800e+01   5.1014514465e+01    0.4119695    0.3770837  52.33 0.0004759578    1.081    0.075
       211  -9.8424    231.1245     55.1870   3.6454015227e+01   2.2417948012e+01    0.1832976    0.1206684 -67.00  0.001075991    1.378    0.274
       212 -10.7905     75.0905     55.9965   6.7862977580e+01   5.6605309050e+01    0.2115955      0.18738 -18.64  0.000352592    1.119    0.106
       213  -9.9070    133.0000     52.9969   5.0578149379e+01   4.4670551185e+01    0.2801229    0.1440249 -41.54  0.001229776    2.039    0.510
       214  -9.5992    120.0013     52.7193   5.3459359876e+01   4.7715703926e+01     0.198221    0.1670447  46.29 0.0002878692    1.117    0.105
       215 -10.8136     87.5940     51.7255   6.2130837570e+01   5.4885011190e+01    0.2963636    0.1900021 -32.71  0.001386221    1.641    0.390
       216  -9.7360    168.7522     51.8107   4.3608992649e+01   3.6447541666e+01    0.1937219    0.1468617 -76.58 0.0007750286    1.355    0.262
       217  -9.8909    237.4688     51.5037   3.5089106908e+01   2.1699530486e+01    0.1232193   0.09654899 -64.39    4.685e-05    1.008    0.008
       218 -11.6024    128.9171     49.2571   5.0321398045e+01   4.6160623302e+01    0.4719577    0.3781369   8.17  0.001861343    1.575    0.365
       219 -10.5109    131.2292     42.0993   4.7623961879e+01   4.6597025956e+01    0.2750947    0.2111617 -63.37 0.0003683828    1.487    0.327
       220 -10.0278     77.9568     51.1360   6.5106374746e+01   5.6865118163e+01     0.283979    0.2043648  55.18  0.001204587    1.617    0.382
       221 -10.8092     78.8221     47.1139   6.3334524643e+01   5.7323785930e+01    0.2312436    0.1969162  11.15  0.000468536    1.118    0.105
       222 -11.6081     35.4742     42.3566   7.8976369345e+01   6.5081450202e+01    0.6042702     0.288857  14.76  0.002630414    2.725    0.633
       223 -10.7931    200.0471     49.6147   3.8708352004e+01   2.9671536580e+01    0.2212673    0.1708962 -51.83 0.0003020528    1.200    0.166
       224 -10.5367     52.9666     50.0275   7.4177857138e+01   6.1344045537e+01     0.206994    0.1775673   1.72 0.0006713266    1.013    0.013
       225  -9.2330    205.9552     48.7591   3.7811283135e+01   2.8510203906e+01    0.1506024    0.1001454  71.04 0.0002146934    1.471    0.320
       226  -9.8599    151.3331     46.0004   4.4946596720e+01   4.1343685567e+01    0.1851886    0.1678096 -57.22 0.0004265682    1.138    0.121
       227 -10.2349    142.9106     45.4125   4.6315969996e+01   4.3410278737e+01    0.2592279    0.1985275 -85.18 0.0006661174    1.441    0.306
       228 -10.3828    139.1501     43.1494   4.6367192299e+01   4.4599071725e+01    0.2372385    0.2205065 -39.75 0.0006727581    1.178    0.151
       229  -9.1110     62.6676     46.7540   6.9047390948e+01   6.0317635128e+01    0.1338631   0.09296376  11.26 0.0002556916    1.548    0.354
       230 -10.8323     91.1779     42.0531   5.7551399883e+01   5.5570292918e+01    0.4449535    0.2368119 -47.26  0.001992353    2.400    0.583
       231 -10.1141     83.1533     44.8679   6.1071821813e+01   5.6808783385e+01    0.1847544    0.1797905  73.65 0.0004665951    1.246    0.198
       232 -11.2686     80.8149     35.2822   5.8217040762e+01   5.8599753931e+01     0.418619    0.2158642 -33.13  0.001292792    2.084    0.520
       233 -11.3689     70.0973     36.5653   6.2323370228e+01   6.0501920943e+01    0.8662598    0.4580966  22.89  0.003769439    2.502    0.600
       234 -11.9750     74.8559     35.9264   6.0423479557e+01   5.9686098240e+01    0.6026537    0.3412886  15.47  0.002066684    2.623    0.619
       235 -11.3570     72.7484     43.0821   6.3917094039e+01   5.9079477678e+01    0.3550583     0.294201  89.77  0.001055566    1.933    0.483
       236  -9.5583    187.1846     43.1777   3.8805716385e+01   3.3406479214e+01    0.1849858    0.1349776 -71.34 0.0006262181    1.306    0.234
       237 -10.1572    107.7583     42.3612   5.3087624135e+01   5.1942317782e+01    0.3713497    0.1659949  41.38  0.001131091    2.305    0.566
       238  -9.9197     95.5288     42.9749   5.6611842179e+01   5.4525405629e+01    0.1862339    0.1343241 -25.62 4.623237e-05    1.507    0.337
       239 -10.2327     18.5197     42.3326   8.7301143698e+01   6.6940218107e+01    0.4019459    0.1512825 -38.42  0.001615072    2.348    0.574
       240 -11.0656     23.8039     41.3014   8.4242447516e+01   6.6604424618e+01    0.5997177    0.4447003  80.42  0.002910409    3.565    0.720
       241 -12.8388     27.6276     38.0970   8.1094047084e+01   6.6738201800e+01    0.5779362    0.3341388 -19.44 0.0003624649    1.780    0.438
       242 -11.7492     24.4797     34.9832   8.1433180933e+01   6.7607738079e+01    0.2623204    0.1912538  -4.59 0.0008967143    1.191    0.160
       243 -10.6312      6.6212     41.4590   9.3207698978e+01   6.8065520083e+01    0.2888674    0.1697898 -34.24 0.0009972439    1.377    0.274
       244  -9.8237    148.4068     40.6850   4.3955453865e+01   4.2737880045e+01    0.2600864    0.1214774 -38.41    0.0011284    2.206    0.547
       245 -10.3766    152.7193     39.1113   4.2779255107e+01   4.1922313516e+01    0.2191932    0.1959291  87.77 0.0004854342    1.035    0.034
       246 -10.2513    112.1055     46.0271   5.3221031528e+01   5.0467246809e+01     0.280051    0.1755248  52.77 0.0008880054    1.458    0.314
       247 -11.3517     67.5260     41.5525   6.5209066741e+01   6.0263418699e+01    0.4759985    0.2341245  39.20  0.002228473    1.882    0.469
       248 -10.9778    225.3069     38.2302   3.3550252436e+01   2.5884454537e+01    0.2144575    0.1674888 -72.11 0.0003203634    1.040    0.038
       249 -10.1511     97.7239     39.2592   5.4671440771e+01   5.4556551458e+01    0.3157873    0.1706231  51.02   0.00150115    1.666    0.400
       250 -10.1257    101.0108     36.4174   5.2778405030e+01   5.4208171836e+01    0.2266279    0.1790848 -60.71  0.001265699    1.611    0.379
       251  -9.6142     85.9699     38.7798   5.7924411234e+01   5.7093265628e+01    0.1777261    0.1502044  37.93  0.001059153    1.065    0.061
       252  -9.9871      1.5625     37.8548   9.4730414367e+01   6.9066955523e+01     0.187525    0.1065707 -37.77 0.0005961004    1.381    0.276
       253  -9.7360    171.9751     36.0559   3.9058496824e+01   3.7802910292e+01    0.2031685    0.1455771  42.49 0.0008175214    1.706    0.414
       254  -9.8195    134.4881     35.9510   4.5101702696e+01   4.6612742938e+01    0.1934316    0.1345372 -31.40  0.001036464    1.602    0.376
       255 -12.4924    232.6435    245.0666   7.3490303821e+01  -9.5062498518e+00    0.5183605    0.2238807 -31.87  0.002689318    2.103    0.524
       256 -10.8243      8.1966     33.5919   8.9559919274e+01   6.9373283424e+01    0.4230362    0.2735424 -50.96  0.002622563    1.612    0.380
       257 -10.0080     25.7529     14.2726   7.1505763678e+01   7.0490957316e+01    0.1562219    0.1049319   3.84 0.0003646463    1.317    0.241
       258 -12.0318     37.0366    243.7970   1.1443641786e+02   1.7249337882e+01      0.68857    0.3181792 -89.02  0.002860544    2.426    0.588
       259 -11.7893     30.4298    234.3692   1.1514087475e+02   2.0009358356e+01      0.54247     0.215165  82.02  0.002134383    3.441    0.709
       260 -11.3676     11.3361     23.9689   8.3917953601e+01   7.0709057853e+01    0.7640142    0.2636798  15.68  0.002756271    3.740    0.733
       261 -11.6383     88.9278    249.4760   1.0387029232e+02   9.4652195544e+00    0.3431226    0.2485888  35.22 0.0008217978    1.234    0.190
       262 -10.0718     72.7439    245.4239   1.0697454635e+02   1.2482204685e+01    0.2457128    0.1772345  34.00 0.0008656008    1.309    0.236
       263 -13.1354     74.8028    237.6066   1.0573046490e+02   1.3843967325e+01    0.7993432    0.6583704  73.21    0.0049364    1.180    0.152
       264 -11.4718     22.5395     25.5385   7.8451623764e+01   6.9314709836e+01    0.3053141     0.211055 -14.02  0.001016316    1.250    0.200
       265 -10.3822     24.3864     21.1905   7.5515449927e+01   6.9732671816e+01    0.2258545    0.1925592 -42.36  0.001518311    1.645    0.392
       266 -10.0190    109.5462    242.7071   9.8540671804e+01   7.8798387408e+00    0.2276329    0.1344983  50.25 0.0006633518    1.702    0.412
       267 -11.2544      6.0187     20.7358   8.5609182157e+01   7.1684274033e+01    0.2803147    0.1860717  -3.90  0.000693631    1.281    0.219
       268 -10.4959     88.6675    241.4837   1.0305405400e+02   1.1120073126e+01     0.215231    0.1500621 -40.34  0.001164526    1.816    0.449
       269 -10.4066    108.7379     34.4391   5.0143534484e+01   5.2737642635e+01    0.2724061    0.2083256  71.92  0.001257446    1.402    0.287
       270 -11.2549    221.7211     32.1860   3.2638350429e+01   2.7382078627e+01    0.2167422    0.1675271 -60.89 0.0002717585    1.098    0.089
       271  -9.1841    201.6772     34.2961   3.5049019790e+01   3.1344508484e+01    0.1323767   0.08014556 -69.74 0.0002478062    1.620    0.383
       272  -9.8680    205.7674     32.2368   3.4168911426e+01   3.0718303499e+01    0.1482777     0.139207  73.73 0.0003108407    1.310    0.237
       273 -10.3762    189.7630     32.3435   3.5917136668e+01   3.4212616694e+01     0.172152    0.1032043  63.75 0.0007111693    1.589    0.371
       274 -10.1105    166.6043     32.2225   3.8811668253e+01   3.9518099133e+01    0.1654802    0.1284599 -16.99  0.000669979    1.682    0.406
       275 -10.2807    106.2840     23.0231   4.6780254671e+01   5.4580871997e+01    0.2598976    0.1864975 -82.74 0.0005973591    1.889    0.471
       276 -10.1674     90.2551     20.5556   4.9826524749e+01   5.8353627183e+01    0.2899559    0.1571216  46.91 0.0009383775    1.565    0.361
       277 -10.4884    102.5138     18.8590   4.6177978710e+01   5.5846568622e+01    0.2620558    0.1891268 -87.44  0.001439066    1.826    0.452
       278 -11.3917     99.6747     22.9070   4.8297974305e+01   5.6063701223e+01    0.4259755    0.2563441  46.90  0.001058516    1.442    0.306
       279 -10.5751     94.0024     22.3052   4.9501487709e+01   5.7365934665e+01    0.2485351    0.2210416  41.66 0.0008421622    1.037    0.036
       280 -11.0505     97.9849     30.9852   5.1637209854e+01   5.5533132870e+01    0.3247364    0.2233358  56.59  0.001251865    1.347    0.258
       281 -11.7221    102.1794     28.6438   4.9730728416e+01   5.4883156316e+01    0.4534131    0.2909932  72.89 0.0007186581    1.861    0.463
       282 -10.5467     44.5455     30.5636   6.9983678294e+01   6.5662329028e+01     0.236685    0.1737354  -7.16 0.0006596096    1.276    0.217
       283 -10.6490     48.3159     31.6743   6.8817516246e+01   6.4925909915e+01    0.2425054     0.176563  10.04  0.001458213    1.274    0.215
       284 -10.1484     50.2899     27.7405   6.6295163357e+01   6.5150958501e+01    0.2917458    0.1669344  15.75  0.001455421    2.052    0.513
       285 -10.0501    237.3625     29.3620   3.0766777261e+01   2.4622314094e+01    0.1524237    0.1377013  44.84  0.001100157    1.680    0.405
       286 -10.6961    111.6585     27.3041   4.7038210462e+01   5.2906467420e+01    0.3563263    0.2092219 -15.97  0.001118604    2.190    0.543
       287 -10.5313     60.1120     27.2234   6.2162346527e+01   6.3547758811e+01    0.2249945    0.1777689 -37.41  0.001390914    1.514    0.339
       288  -9.8505    175.0181     27.0064   3.6381528816e+01   3.8188221608e+01    0.1959679    0.1283134 -67.02 0.0003239851    1.532    0.347
       289 -10.4790    132.5492     25.8326   4.2384117680e+01   4.8237364283e+01    0.2402556    0.1916337 -15.89  0.001178946    1.521    0.343
       290 -10.5087     59.9715    241.4863   1.0937781557e+02   1.4966297342e+01    0.1948992    0.1122731  35.60  0.001029313    1.580    0.367
       291 -11.9793    128.7709     18.9366   4.0936595573e+01   4.9836810583e+01    0.2685251    0.1987993  47.40  0.000315771    1.304    0.233
       292 -10.7038     69.8342     26.3971   5.8315674858e+01   6.1856763890e+01    0.4273122    0.1781905  37.50  0.001867942    2.310    0.567
       293  -9.9013    214.3274     25.8573   3.1988261312e+01   2.9681640770e+01    0.1620952    0.1351066 -64.09 0.0007189169    1.125    0.111
       294 -10.2377    204.0283     26.0326   3.2982852947e+01   3.1843103206e+01    0.2103836    0.1169349 -65.01 0.0008435778    1.729    0.422
       295 -11.2836    193.2134     25.1598   3.3874559017e+01   3.4303036227e+01    0.3719157    0.1489211 -54.47    0.0016523    2.557    0.609
       296  -9.4999    143.8232     26.2179   4.0579181972e+01   4.5548886289e+01    0.2239363    0.1195241 -69.88 0.0009404104    2.778    0.640
       297 -10.1310      1.4649     25.6006   9.0327015733e+01   7.1240689374e+01     0.210161   0.09286267 -47.49 0.0005206547    1.962    0.490
       298 -10.0373    195.4712    238.8406   7.9510295789e+01  -3.9029116895e+00    0.2201247    0.1544816   3.38  0.001283556    1.354    0.261
       299 -10.6892    185.7251     22.8040   3.4124785486e+01   3.6239177160e+01     0.232228    0.1660598 -81.51 0.0006691249    1.258    0.205
       300  -9.5752    226.0884     22.4348   3.0301770659e+01   2.7678987164e+01    0.1641881   0.09941954  77.05  0.001004738    1.546    0.353
       301 -10.3226     67.4531     21.4149   5.7058643368e+01   6.2886126081e+01    0.3161448    0.1691655  52.28  0.001121128    1.824    0.452
       302 -10.8405     59.2569     21.0480   5.9831278619e+01   6.4444766856e+01    0.3264898     0.193548  -9.64  0.001203327    1.994    0.499
       303  -9.4181    120.4865     20.9536   4.3099639703e+01   5.1555859725e+01    0.1648897    0.1297296 -27.42  0.000361851    1.462    0.316
       304 -11.1421    159.7620     23.2537   3.7392765175e+01   4.2138496569e+01    0.3184057    0.2439324 -84.44  0.001446044    1.233    0.189
       305 -11.0264    244.1968    237.2140   7.0157466323e+01  -9.6973196133e+00    0.2160268    0.1580545 -13.54  0.001026857    1.045    0.043
       306 -10.3875    159.7180    236.0201   8.6499731698e+01   1.6859087151e+00    0.1820644    0.1630354  -8.21 0.0004205028    1.097    0.089
       307 -10.0092    221.0682    234.7902   7.3897385489e+01  -6.6010910127e+00    0.2068277    0.1194686   1.92  0.001007756    1.966    0.491
       308  -9.6745    177.3176    235.3309   8.2646996993e+01  -7.7150704647e-01    0.1373845   0.09187491  -5.90 0.0005803095    1.687    0.407
       309 -11.7529    238.0015     17.8120   2.8526794194e+01   2.5876000550e+01     0.259148    0.1640857 -81.39 0.0003196075    1.347    0.257
       310  -9.6686    139.2737     19.5964   3.9383870718e+01   4.7317271237e+01    0.1865409    0.1008317  57.28  0.000942097    1.604    0.377
       311 -11.3532    107.9634     17.7472   4.4580094619e+01   5.4733393240e+01    0.3252197    0.2097637  39.12  0.001794914    1.527    0.345
       312  -9.2809     54.4901     18.9536   6.0724412934e+01   6.5528760408e+01    0.1478295    0.1040932 -52.87 0.0008061579    2.350    0.575
       313  -9.3910     82.4051     17.7604   5.0898057063e+01   6.0291153244e+01    0.1554319    0.1163203  -0.24 0.0004493925    1.480    0.324
       314 -10.6285    152.9046    231.0437   8.7209300899e+01   3.6379944758e+00    0.4297398     0.256313 -78.57   0.00148305    4.887    0.795
       315 -10.5501     86.7175    233.4194   1.0257494050e+02   1.3089891534e+01     0.263587    0.1077767  38.58    0.0011185    2.101    0.524
       316 -10.1047     38.2180    232.8121   1.1335762204e+02   1.9475659743e+01    0.1852753    0.1411962  67.98 0.0004913306    1.123    0.110
       317 -10.1663     23.9687    232.5182   1.1637461595e+02   2.1109350333e+01    0.2101978    0.1520235 -64.96 0.0007028853    1.499    0.333
       318  -9.3969    227.6567    231.6816   7.2157677144e+01  -6.9423374464e+00    0.1304659   0.07883442  -7.08 0.0007049243    1.719    0.418
       319  -9.9580    194.9618     16.9735   3.1848966501e+01   3.4839128582e+01     0.177444     0.144353 -82.91 0.0003027431    1.016    0.016
       320  -9.4082    169.9939    229.0281   8.3168314930e+01   1.4292690697e+00    0.1621011    0.1426574   2.07 0.0004161062    1.025    0.024
       321 -10.1086    116.0623     15.4758   4.2166028335e+01   5.3107199093e+01    0.2655557    0.1865402  72.21  0.001531765    1.343    0.255
       322 -11.0889      4.4771    226.5544   1.2005574799e+02   2.4342393622e+01    0.3008683    0.1883938  59.31  0.001860539    1.330    0.248
       323 -11.2285    120.9481    226.4666   9.3758270729e+01   9.4792561221e+00    0.2497907    0.1989008 -84.27 0.0008896377    1.574    0.365
       324  -9.8486     65.9800    226.3240   1.0655144164e+02   1.7491256448e+01    0.1902178    0.1568308  44.70 0.0009102654    1.128    0.114
       325 -10.5094     21.1829    221.7519   1.1622763008e+02   2.3797118228e+01    0.2493436    0.1215631  83.92  0.001047156    2.084    0.520
       326  -9.4211    190.4830    226.4620   7.8448714404e+01  -1.1235179671e+00    0.1341482    0.1110707  -1.71 0.0003221816    1.048    0.046
       327  -9.8803     31.0880     12.6874   6.8027981978e+01   6.9963003910e+01    0.1606723    0.1202266  16.55  0.000550003    1.085    0.078
       328  -9.2127    176.3268    219.3193   8.0176627912e+01   2.2638601816e+00    0.1428414   0.09776022  -6.43 0.0007046684    1.681    0.405
       329  -9.3201     65.6494     11.7141   5.3510989693e+01   6.4235011879e+01    0.1313683   0.07644632  28.86 0.0007021259    1.660    0.398
       330  -9.9876     38.0417    217.6755   1.1214389471e+02   2.2914201928e+01    0.1828807    0.1526733  51.87 0.0009511541    1.137    0.121
       331 -11.1305      9.7729    217.2921   1.1839930268e+02   2.5925343096e+01    0.3349546    0.1898601  47.98  0.001384941    1.564    0.361
       332 -10.9774     29.4457    215.9627   1.1395704661e+02   2.4261200502e+01     0.300782    0.2707684  -4.99   0.00120278    1.506    0.336
       333  -9.7730    136.6512    215.6883   8.8448155932e+01   9.2617143845e+00     0.222838    0.1615033  -8.96  0.001083924    1.743    0.426
       334  -9.1347    107.5016     10.5231   4.2184413313e+01   5.5497889483e+01    0.1267957    0.1061823  55.98 7.621264e-05    1.007    0.007
       335  -9.7300     73.9898    216.0081   1.0350861057e+02   1.8761300263e+01    0.1667375    0.1500157  60.37 0.0005012524    1.012    0.012
       336 -11.5331    235.9371    214.3421   6.7652202702e+01  -5.2744804387e+00    0.2880876    0.1811304 -16.98 0.0007205406    1.495    0.331
       337 -11.5449    238.2123    210.5282   6.6573053112e+01  -4.9557337449e+00    0.4164649    0.2914655  46.49  0.002427895    2.106    0.525
       338 -10.3939     24.0580    216.3097   1.1519648803e+02   2.4747808686e+01    0.1793046    0.1636944  -0.87 0.0009056419    1.482    0.325
       339 -10.5877     21.2506    212.6835   1.1555334046e+02   2.5876271860e+01    0.2642929    0.1495418  57.58  0.001266597    1.611    0.379
       340  -9.5459    208.5304    211.9741   7.2295565313e+01  -1.1907041112e+00    0.1952061    0.1158535 -36.07  0.001010919    1.547    0.354
       341 -10.3470     10.9191    208.3042   1.1755946516e+02   2.7894015187e+01    0.2387242    0.1739666 -50.96 0.0003998547    1.651    0.394
       342 -12.2719      5.6832    208.7357   1.1874976038e+02   2.8264328807e+01    0.4571497    0.2891424 -80.68  0.002198932    1.368    0.269
       343  -9.2182    188.2766    205.3074   7.5148890245e+01   3.0481250749e+00    0.1392346   0.09796397 -10.74 0.0002945329    1.551    0.355
       344 -10.5787     19.9952    204.3092   1.1519729880e+02   2.7977655200e+01     0.284705    0.1578404  84.99   0.00105155    1.730    0.422
       345 -10.9436     20.3953    199.7825   1.1474080740e+02   2.9025926053e+01    0.3496767    0.1661832 -78.17  0.001663242    1.902    0.474
       346 -10.4734    246.8059    203.2142   6.3792480262e+01  -4.8735395815e+00    0.2648565      0.17897 -57.63   0.00142097    2.434    0.589
       347 -10.4592    175.4034    202.5779   7.7380963002e+01   5.6295161847e+00    0.2389536    0.2168105   3.48 0.0004824014    1.033    0.032
       348  -9.3005    238.6597    200.6972   6.4712833712e+01  -3.4228988631e+00    0.1309773   0.08371272  -9.83 0.0007038836    1.674    0.403
       349  -9.4621      7.6418    196.3348   1.1747381223e+02   3.1025316854e+01    0.1414482   0.07463112  63.00 -3.409391e-05    1.805    0.446
       350 -11.0402     16.8042    193.0866   1.1505123320e+02   3.0995518232e+01     0.337411     0.262039  24.61  0.002044846    1.524    0.344
       351 -10.8863     41.6793     19.3124   6.6237841853e+01   6.7593428362e+01    0.2802814    0.1912219  38.71   0.00133256    1.444    0.308
