#   1 NUMBER                 Running object number                                     
#   2 MAG_AUTO               Kron-like elliptical aperture magnitude                    [mag]
#   3 X_IMAGE                Object position along x                                    [pixel]
#   4 Y_IMAGE                Object position along y                                    [pixel]
#   5 X_WORLD                Barycenter position along world x axis                     [deg]
#   6 Y_WORLD                Barycenter position along world y axis                     [deg]
#   7 A_WORLD                Profile RMS along major axis (world units)                 [deg]
#   8 B_WORLD                Profile RMS along minor axis (world units)                 [deg]
#   9 THETA_WORLD            Position angle (CCW/world-x)                               [deg]
#  10 FWHM_WORLD             FWHM assuming a gaussian core                              [deg]
#  11 ELONGATION             A_IMAGE/B_IMAGE                                           
#  12 ELLIPTICITY            1 - B_IMAGE/A_IMAGE                                       
         1 -12.8370    210.0706      1.7011   2.8934410019e+02   6.5631552308e+00   0.08332989   0.03331162  26.97  0.005496372    2.267    0.559
         2 -14.1476    187.0636     24.7520   2.8975696058e+02   6.4279220686e+00   0.09399781   0.06019145 -50.92  0.005845454    1.621    0.383
         3 -14.1101    194.6415     17.9173   2.8962511117e+02   6.4637170386e+00   0.07437772   0.06456076 -77.39  0.005691158    1.263    0.208
         4 -13.0973    200.4718     10.5933   2.8951239679e+02   6.5151916655e+00   0.04366218   0.03143212  -4.72   0.00134203    1.590    0.371
         5 -11.6169     32.6587     13.3249   2.9162500243e+02   7.4430345889e+00   0.02456746  0.005603408 -62.44  0.001548764    4.145    0.759
         6 -11.6392     32.5748      2.8662   2.9156923878e+02   7.5649416881e+00   0.01745591   0.01454345  80.33  0.001978826    1.371    0.271
         7 -10.8049     21.0355     36.5123   2.9189633162e+02   7.2397722309e+00   0.01095076  0.006368663  25.26  0.001036681    1.603    0.376
         8 -11.5361    247.3745    249.5301   2.9022812032e+02   3.4707899991e+00   0.02555863   0.01429344  26.77  0.002410423    1.651    0.394
         9 -10.8475    163.4282    249.8766   2.9127460068e+02   3.9468147663e+00   0.01833005  0.007031647  39.99  0.001424018    2.466    0.594
        10 -12.5172    140.1839    248.2990   2.9155556130e+02   4.0978795694e+00   0.03041536    0.0229531  50.04   0.00329925    1.372    0.271
        11 -11.6934    109.9956    247.9198   2.9192960971e+02   4.2744903501e+00   0.02543903   0.01671613   1.71  0.001760459    1.769    0.435
        12 -12.1691    104.6673    244.5546   2.9197783303e+02   4.3440123813e+00     0.028219   0.01866992 -75.62 0.0006487929    1.744    0.427
        13 -12.9171    100.3370    244.8818   2.9203356360e+02   4.3648851495e+00   0.04050678   0.03126214 -32.66   0.00260496    1.410    0.291
        14 -11.8407     80.2037    238.8781   2.9225209285e+02   4.5494240471e+00   0.02292793   0.01439036 -42.95  0.001943079    1.722    0.419
        15 -11.3672     66.4599    232.1859   2.9238732550e+02   4.7055266133e+00   0.02253887   0.01327658 -32.37  0.001687473    2.079    0.519
        16 -11.5230     62.0595    249.4809   2.9253542411e+02   4.5293103367e+00   0.03031875   0.01573682  40.84  0.002744242    1.857    0.461
        17 -12.0733     80.5076    247.0728   2.9229251176e+02   4.4523425742e+00   0.03651948   0.01752294  38.30   0.00320668    1.941    0.485
        18 -11.6670     83.1109    243.6680   2.9224169963e+02   4.4771361106e+00   0.03419586   0.01602263  58.90  0.002471707    3.393    0.705
        19 -11.7236     69.5641    244.7661   2.9241647048e+02   4.5414751617e+00   0.02975215   0.01495586 -41.87  0.002562514    2.272    0.560
        20 -11.9758     73.0463    240.0123   2.9234742940e+02   4.5769725373e+00   0.03528305   0.01669134  53.78  0.002760041    2.780    0.640
        21 -12.6147     73.7129    227.0804   2.9226935151e+02   4.7236561999e+00   0.04279681   0.01906794  52.48  0.002869664    2.966    0.663
        22 -15.7031      2.9332     89.1668   2.9240800204e+02   6.7305070774e+00    0.8866775   0.07507377 -65.13   0.03300941   12.224    0.918
        23 -13.3980     50.1585    226.2228   2.9255842720e+02   4.8676446966e+00   0.04062274   0.03012407 -24.83   0.00196426    1.526    0.345
        24 -15.5671     58.9345    212.8206   2.9237669376e+02   4.9736961946e+00    0.4774066   0.04670181  33.53   0.02581493    5.005    0.800
        25 -10.7481     90.3252    245.7387   2.9216295754e+02   4.4119565293e+00   0.01204013  0.009552308  20.67 0.0009294124    1.198    0.165
        26 -15.5599     11.1676    238.6794   2.9311168859e+02   4.9441299811e+00    0.3628184   0.04007134 -53.72   0.01941982    5.721    0.825
        27 -10.3475     36.2093    230.6318   2.9275613093e+02   4.8956180431e+00   0.01383683    0.0118745 -49.38 0.0005122047    1.220    0.181
        28  -9.9698    228.9757    205.9444   2.9022049412e+02   4.0826254292e+00   0.01284065  0.009812418  77.32 0.0006458019    1.565    0.361
        29 -10.2155     37.8420    225.7077   2.9270924133e+02   4.9436457875e+00   0.01525903   0.01303705 -87.91  0.001239444    1.310    0.237
        30 -10.8123    193.0375    194.6860   2.9060683530e+02   4.4192700714e+00   0.04269031   0.01991291  85.09  0.002435108    5.947    0.832
        31  -8.5075     93.2977    198.6400   2.9187150160e+02   4.9430242393e+00  0.007256972  0.004921324  58.94 0.0007034141    1.710    0.415
        32 -10.8080     66.7458    195.8124   2.9218743222e+02   5.1271664765e+00   0.02026736   0.01120111  46.69  0.001851171    1.896    0.473
        33 -11.9557     73.5173    192.7354   2.9208632989e+02   5.1244191273e+00   0.02280475   0.01354353 -40.23  0.001797828    1.882    0.469
        34 -11.9037     77.9372    186.0605   2.9199511057e+02   5.1769151023e+00   0.01668311   0.01227663 -39.79 0.0007908045    1.458    0.314
        35  -8.8869    181.5205    192.4279   2.9073805355e+02   4.5114292417e+00  0.006822274  0.006354756  15.00 1.527446e-05    1.031    0.030
        36 -11.4713     86.4901    174.5610   2.9182620530e+02   5.2619825026e+00   0.02454459   0.01183412  36.92 0.0005612903    1.906    0.475
        37 -12.7615     58.1060    130.8845   2.9194421212e+02   5.9317816606e+00    0.1032114   0.03850682 -80.60  0.005319568    7.020    0.858
        38 -12.9590     91.2518    166.1064   2.9172103569e+02   5.3332034400e+00    0.1856877          nan  35.08  0.001674098    6.257    0.840
        39 -13.7334     10.9534    206.5927   2.9294165543e+02   5.3187839459e+00   0.05454156   0.03293794  12.68  0.002684678    1.769    0.435
        40 -10.0697     23.1995    156.3051   2.9251760256e+02   5.8344926115e+00   0.01083242  0.008362217  -2.44 0.0006335052    1.404    0.288
        41 -13.4892     68.2314    145.1518   2.9189498246e+02   5.7081585137e+00   0.07523306   0.03876296  69.66  0.005519061    3.504    0.715
        42 -10.3799    103.7991    149.1567   2.9147265552e+02   5.4588149746e+00   0.01420579   0.01385303 -17.38 0.0009342339    1.064    0.060
        43  -9.5772    106.2086    145.1790   2.9142102717e+02   5.4913326208e+00   0.01807163  0.009427789 -37.96   0.00154735    2.309    0.567
        44 -12.2859     92.4660    148.9013   2.9161272772e+02   5.5264330092e+00   0.01423498   0.01208183 -10.25 0.0004887431    1.245    0.196
        45  -9.1305     22.5602    150.5003   2.9249423943e+02   5.9056662175e+00  0.006774139  0.006414352  15.84 0.0001967505    1.020    0.019
        46 -10.0358    133.9404    145.5229   2.9107683409e+02   5.3289617421e+00   0.03319185  0.009667373 -72.86  0.001732026    6.459    0.845
        47 -13.3716     73.8343    171.6696   2.9196849958e+02   5.3677295791e+00    0.0251737   0.01342153 -40.21  0.001345641    2.160    0.537
        48 -10.0581    113.1352    135.2964   2.9128099889e+02   5.5667366398e+00    0.0158354   0.01055225 -28.06  0.001004604    1.776    0.437
        49 -10.6875     69.8122    134.5187   2.9181768382e+02   5.8228501684e+00   0.01521661   0.00889149  28.49 0.0009306065    1.570    0.363
        50 -10.8358    100.7197    132.4443   2.9142051913e+02   5.6707724832e+00    0.0146977    0.0106823 -27.53  0.001119136    1.559    0.359
        51 -11.3065     44.2641    129.4707   2.9210946581e+02   6.0269847456e+00   0.01613002   0.01150708  44.16  0.001700162    1.390    0.281
        52  -9.6314    109.0757    122.9080   2.9126448599e+02   5.7339851268e+00  0.009878538  0.009124404  12.72 0.0003497606    1.045    0.044
        53 -10.8852    168.2725    113.0768   2.9047234028e+02   5.5097891172e+00   0.01754928   0.01189469  51.62 0.0009178391    1.584    0.369
        54  -9.5363    205.3275    110.3622   2.8999553282e+02   5.3289631663e+00   0.01569525  0.008596355   6.06  0.001323076    2.313    0.568
        55 -10.5579    138.1989    171.4670   2.9116439600e+02   5.0028922192e+00   0.01298016   0.01187286 -12.98  0.001171146    1.125    0.111
        56 -14.2806     32.9850    246.2482   2.9288042202e+02   4.7321948213e+00    0.1388485   0.06343508  16.98   0.01123697    2.388    0.581
        57  -9.3493    154.5045     76.4610   2.9044501980e+02   6.0141429814e+00  0.006837808   0.00638604  24.32 5.958141e-05    1.004    0.004
        58 -11.7983    201.1524    249.5448   2.9080318458e+02   3.7350731396e+00   0.03001427  0.009439792  25.31  0.002126706    2.929    0.659
        59 -11.8500    126.6588    245.0831   2.9170666982e+02   4.2124623705e+00   0.02017789   0.01321886  57.28  0.001980025    1.767    0.434
        60  -9.1882    185.7050    238.3151   2.9093464329e+02   3.9539488850e+00  0.007066363  0.004936179  56.52 0.0003064424    1.602    0.376
        61 -11.5664    174.4044    220.7121   2.9098001559e+02   4.2232366517e+00   0.02069647   0.01336272  27.89  0.002092181    1.431    0.301
        62 -10.8188    183.8436    214.8754   2.9083082416e+02   4.2371318359e+00   0.01858412  0.007731045 -52.89  0.001524041    2.404    0.584
        63 -10.5175     86.6539    240.8879   2.9218253800e+02   4.4893069425e+00   0.01302319  0.009459307  62.51 0.0007143558    1.591    0.371
