#   1 NUMBER                 Running object number                                     
#   2 MAG_AUTO               Kron-like elliptical aperture magnitude                    [mag]
#   3 X_IMAGE                Object position along x                                    [pixel]
#   4 Y_IMAGE                Object position along y                                    [pixel]
#   5 X_WORLD                Barycenter position along world x axis                     [deg]
#   6 Y_WORLD                Barycenter position along world y axis                     [deg]
#   7 A_WORLD                Profile RMS along major axis (world units)                 [deg]
#   8 B_WORLD                Profile RMS along minor axis (world units)                 [deg]
#   9 THETA_WORLD            Position angle (CCW/world-x)                               [deg]
#  10 FWHM_WORLD             FWHM assuming a gaussian core                              [deg]
#  11 ELONGATION             A_IMAGE/B_IMAGE                                           
#  12 ELLIPTICITY            1 - B_IMAGE/A_IMAGE                                       
         1 -14.3556    149.1264     61.7849   8.7717581517e+01   3.9753051202e+01     1.542227     1.090251  -7.27  0.004696302    1.657    0.397
         2 -14.7281    160.3540     46.6113   8.0121190467e+01   3.9388517786e+01     1.380667     1.024853 -23.17  0.003721459    1.318    0.241
         3 -14.8019    173.1390     15.5620   6.6928322557e+01   3.9934760830e+01     1.333511      1.06491  16.64  0.004009803    1.298    0.229
         4 -13.7664    189.6555     14.2923   6.4185819432e+01   3.5693012655e+01    0.9090601    0.5176491 -68.11  0.003161469    2.440    0.590
         5 -13.1573    200.9756      8.9951   6.1119090319e+01   3.3237054903e+01    0.4440539    0.2827047  62.71  0.002136826    1.538    0.350
         6 -11.1912     28.1683    235.0067   1.4214996949e+02   2.5526671038e+01    0.1264521   0.09214903  76.24  0.001145421    1.186    0.157
         7 -19.7933     87.2385    220.7667   1.3168375871e+02   2.1182333805e+01     7.101218     5.126418  51.72   0.04444549    1.075    0.070
         8 -10.4346     19.4427    203.4863   1.4218933910e+02   3.1314384883e+01   0.08960421   0.07645773  84.05 0.0001597621    1.313    0.238
         9 -12.6736    138.6184    199.5021   1.2019016221e+02   1.7244033200e+01    0.7034532    0.3124753  37.25  0.003575594    2.002    0.500
        10 -19.1899     72.5840     98.6238   1.1905167622e+02   4.6744343190e+01     17.84212    0.8070942 -57.77   0.02580978   19.068    0.948
        11 -10.9809     19.7379    196.8180   1.4182841147e+02   3.2420764053e+01    0.1263199    0.1028774  86.95 0.0005822241    1.251    0.201
        12 -12.5838    146.0218    189.9069   1.1749184395e+02   1.7541121544e+01    0.3616414    0.2613021 -24.40  0.001941957    1.881    0.468
        13 -11.0174     21.6378    232.5823   1.4304583236e+02   2.6499778993e+01   0.08800423   0.06346798  66.37 0.0003205001    1.083    0.076
        14 -13.0937    204.4396    175.4960   1.0422592275e+02   9.6859671553e+00    0.4956563    0.3931285  27.45  0.001076102    1.054    0.052
        15 -12.4670    202.1853    166.6347   1.0298919464e+02   1.1267643275e+01    0.5855232    0.4123377   9.05  0.003311492    1.496    0.331
        16 -12.2196    196.9816    176.6003   1.0577279347e+02   1.0842310752e+01    0.3339772    0.2498685  32.58  0.001018893    1.129    0.114
        17 -13.7777    192.3588    163.4338   1.0420173996e+02   1.3499053751e+01     1.196222    0.4989697 -47.18  0.002287048    3.452    0.710
        18 -12.9353    230.2610    168.1452   9.8345366321e+01   6.1124733653e+00    0.4102364    0.2390831 -25.08  0.002261322    1.740    0.425
        19 -10.0571      5.2079    232.2625   1.4549181322e+02   2.7999867555e+01   0.06924079   0.05561523  85.33 0.0002704391    1.386    0.278
        20 -11.2204    114.4950    250.6925   1.2963926225e+02   1.3570690504e+01   0.09989014   0.06778113  43.99 -0.0002526203    1.109    0.098
        21 -11.5000     29.2067    156.8021   1.3759445272e+02   3.8984369812e+01    0.2492121    0.1662963 -86.02 0.0005944852    1.260    0.207
        22 -12.6232    143.1310    156.2727   1.1272922292e+02   2.3586813949e+01    0.3507728    0.2165073  52.25  0.001493634    1.641    0.391
        23  -9.7418      4.4355    157.2455   1.4270792467e+02   4.0927816389e+01   0.09006757   0.07180186 -47.09 0.0003234464    1.769    0.435
        24 -11.8169    218.1767    220.0216   1.0916515071e+02   2.3242432692e+00     0.277134    0.1441844 -39.90  0.001633186    2.676    0.626
        25 -11.3493     17.7810    153.7685   1.3977415937e+02   4.0574952234e+01    0.2996021    0.1749517 -42.93  0.001526129    2.667    0.625
        26 -11.2156     18.3037    148.7476   1.3932076591e+02   4.1536498714e+01    0.2237253    0.1867103  83.17  0.001248821    1.115    0.103
        27 -12.9346    160.9319    153.0772   1.0841898632e+02   2.0920198778e+01    0.3437831    0.2834431  35.11  0.001118338    1.104    0.094
        28 -12.3148    174.2130    148.7938   1.0486830292e+02   1.9130441593e+01    0.3233511    0.3027686 -52.39  0.001261129    1.272    0.214
        29 -12.2590     27.2863    145.5988   1.3712403630e+02   4.1416488147e+01    0.3005602    0.2776737  56.26 0.0008513822    1.297    0.229
        30 -11.8155     35.5768    141.5849   1.3490357263e+02   4.1491120365e+01    0.2135056    0.1980653  33.61  0.001315227    1.379    0.275
        31 -10.4785     25.6387    139.3201   1.3696912202e+02   4.2855684698e+01    0.1887041    0.1329906  76.49 0.0005670579    1.209    0.173
        32 -10.8774    171.0554    137.5117   1.0316912760e+02   2.1607185850e+01    0.2108115    0.1301645  45.06 0.0006827959    1.539    0.350
        33 -11.3001     13.1691    239.8668   1.4455859736e+02   2.6192024323e+01     0.138387    0.1016158  85.35   0.00131915    1.337    0.252
        34  -9.7922      1.6278    135.7542   1.4210577600e+02   4.5403929236e+01     0.094442   0.07171988 -52.33 0.0005957555    1.627    0.385
        35 -12.8899    160.6106    128.0393   1.0330777663e+02   2.5327294860e+01     0.437456    0.3476573 -53.97  0.001836818    1.452    0.311
        36 -11.1899     30.1616    127.0488   1.3475535083e+02   4.5061326603e+01    0.2769881    0.1685099  11.46  0.001580297    2.571    0.611
        37 -11.0184    152.2094    237.2141   1.2226122832e+02   1.0131511854e+01    0.2476937    0.1280207  37.23  0.000519708    1.515    0.340
        38 -11.0760    167.4320    112.5767   9.8179907854e+01   2.6662175474e+01    0.3088751    0.2390311  89.96  0.001345742    1.998    0.499
        39 -10.8344    205.3526    110.2175   8.9998588528e+01   1.8854732446e+01     0.301513    0.1922884  40.46 0.0009644853    1.523    0.343
        40 -11.7886     24.3947    106.8495   1.3403408139e+02   4.9958432803e+01    0.2969083    0.2044952  11.01  0.001287763    2.046    0.511
        41 -10.4605     29.2110     97.2970   1.3145982213e+02   5.1709418517e+01    0.2622335    0.1340558 -71.94  0.001414586    1.620    0.383
        42 -10.6443     35.4747     96.3232   1.2949130788e+02   5.1393764260e+01    0.2795878    0.1572492 -79.33  0.001082642    1.668    0.401
        43 -10.8590    139.8670    249.6280   1.2552015478e+02   1.0359122995e+01    0.1800627    0.1428648 -85.53   0.00147334    1.756    0.431
        44 -13.1486     11.3911    206.0331   1.4363783390e+02   3.1595533790e+01    0.3300385    0.2014871  32.74  0.001999008    1.875    0.467
        45 -12.6919     46.3416     92.9773   1.2571052914e+02   5.1116009144e+01    0.4703765    0.3036725  14.01  0.002084111    2.153    0.536
        46 -10.5872    143.2277     81.4349   9.5290702293e+01   3.7616997734e+01    0.2413552    0.1804559 -42.02 0.0007935052    1.337    0.252
        47 -11.6870      5.7748     89.2612   1.3730711232e+02   5.5121366831e+01    0.3522014    0.1902173 -11.91  0.001920246    3.105    0.678
        48 -10.8523    155.8747    247.4063   1.2274234608e+02   8.4276018313e+00    0.1415439     0.114575  45.78 0.0003046803    1.166    0.143
        49 -11.6814    127.8208    246.9803   1.2720146868e+02   1.2291985285e+01    0.1364344    0.1182635  49.16 0.0005202024    1.196    0.164
        50 -13.2670    164.4955     37.8550   7.6257854878e+01   3.9560217673e+01    0.4898946    0.4614245   5.79  0.000867177    1.007    0.007
        51 -10.9158     13.4229     59.8902   1.3065954817e+02   6.1273822603e+01    0.1688751    0.1519757  84.11  0.000414583    1.247    0.198
        52 -11.9558    162.8925    245.3971   1.2140395521e+02   7.6765272845e+00     0.262525    0.1453982  41.49 0.0003177389    1.314    0.239
        53 -14.1849    134.9375    239.0331   1.2529748682e+02   1.2320284736e+01    0.3715158     0.320757  80.69  0.002560943    1.407    0.290
