#   1 NUMBER                 Running object number                                     
#   2 MAG_AUTO               Kron-like elliptical aperture magnitude                    [mag]
#   3 X_IMAGE                Object position along x                                    [pixel]
#   4 Y_IMAGE                Object position along y                                    [pixel]
#   5 X_WORLD                Barycenter position along world x axis                     [deg]
#   6 Y_WORLD                Barycenter position along world y axis                     [deg]
#   7 A_WORLD                Profile RMS along major axis (world units)                 [deg]
#   8 B_WORLD                Profile RMS along minor axis (world units)                 [deg]
#   9 THETA_WORLD            Position angle (CCW/world-x)                               [deg]
#  10 FWHM_WORLD             FWHM assuming a gaussian core                              [deg]
#  11 ELONGATION             A_IMAGE/B_IMAGE                                           
#  12 ELLIPTICITY            1 - B_IMAGE/A_IMAGE                                       
         1 -13.6738    203.9918     34.8346   2.8968090078e+02   6.1495852508e+00    0.0419958   0.01213373 -58.72  0.002989203    3.170    0.685
         2 -14.7227    210.4854     68.3763   2.8981383770e+02   5.7250617008e+00    0.1716275   0.07448184  57.59   0.01081483    4.731    0.789
         3 -16.3109    133.5038     22.6074   2.9041999820e+02   6.7143923458e+00     0.645635    0.3495525  86.46   0.04747178    3.669    0.727
         4 -13.1518    231.6280      3.2275   2.8916564261e+02   6.3457372980e+00   0.02708563   0.01695164  -4.24  0.002482201    2.268    0.559
         5 -11.5693    201.6660     15.7586   2.8958943283e+02   6.3826818592e+00   0.01092434  0.009218342 -52.78 0.0006072007    1.168    0.144
         6 -10.4557     79.3253     12.4663   2.9098443849e+02   7.1561483646e+00   0.02808487  0.008047219 -57.55  0.002003968    3.129    0.680
         7 -10.2740    163.9235     11.5164   2.8999935903e+02   6.6588021077e+00   0.01187475  0.008922061 -56.78 0.0005377484    1.308    0.235
         8 -18.1909    237.4005     42.0381   2.8933988601e+02   5.8653530427e+00    0.4124172    0.1404732 -59.10   0.03152568    2.766    0.638
         9 -10.8384    239.9284      5.4079   2.8908337775e+02   6.2705937188e+00  0.008512026  0.006100303  -2.67 0.0008654575    1.707    0.414
        10  -9.9933    200.5428    178.9235   2.9061234532e+02   4.5134724469e+00   0.01766606  0.007285291  43.71  0.001404041    2.618    0.618
        11 -12.1823    247.1059    247.7594   2.9050036529e+02   3.4417207571e+00   0.04246125   0.03326946  10.77  0.004764091    1.380    0.275
        12 -10.8068    237.3190    249.6983   2.9062504107e+02   3.4782140059e+00   0.01325927   0.01189117  49.02 0.0009537073    1.149    0.129
        13  -9.6691    187.4788    178.4576   2.9076019200e+02   4.5973464848e+00   0.01425133  0.006410056 -60.86  0.001214095    2.184    0.542
        14 -11.1338    220.3591    175.8652   2.9036490402e+02   4.4295098058e+00    0.0289867   0.01357146 -62.43  0.002525861    2.147    0.534
        15 -11.1167    217.2299    170.2353   2.9036621292e+02   4.5130997365e+00   0.02452081   0.01498706  46.92  0.001844933    1.760    0.432
        16 -10.1849    213.6362    168.3191   2.9039582305e+02   4.5567590953e+00   0.01447487   0.01129623  43.74  0.001400424    1.311    0.237
        17 -10.4228    180.5262    174.5398   2.9081624274e+02   4.6842087660e+00   0.01580773  0.009219523  61.81   0.00138509    2.404    0.584
        18 -10.0584    229.0032    172.8382   2.9024653269e+02   4.4123361863e+00   0.02377882  0.009075596  32.66  0.001917009    2.476    0.596
        19 -11.9306    190.2977    170.7117   2.9067984744e+02   4.6695468179e+00   0.04163358    0.0116188  43.37  0.002642398    4.158    0.760
        20 -11.5786    180.5926    165.4009   2.9075905975e+02   4.7889867832e+00   0.02783788   0.01353942  48.23  0.002023507    2.397    0.583
        21 -11.1272    195.3869    167.8538   2.9060347782e+02   4.6718433737e+00    0.0203408  0.009670111  40.65   0.00119015    2.123    0.529
        22 -10.8998    202.4236    166.3142   2.9051278161e+02   4.6472539682e+00   0.01840399  0.009851616  54.21  0.001316908    2.405    0.584
        23 -11.3351    203.4660    160.9411   2.9046756382e+02   4.7028068835e+00   0.01453816   0.01255896  85.49   0.00079023    1.276    0.216
        24 -12.2035     55.2637    159.0894   2.9216814166e+02   5.6130279459e+00   0.02099652   0.01761067  -6.60 0.0009102321    1.307    0.235
        25 -14.2755     66.1588    150.7778   2.9199098727e+02   5.6435927779e+00   0.09481099   0.06451546 -24.45  0.008173648    1.795    0.443
        26  -9.5420    153.8201    158.1286   2.9102326320e+02   5.0335019969e+00   0.00973653   0.00882619  66.61 0.0004256605    1.175    0.149
        27  -9.8001     67.1302    245.1765   2.9256011332e+02   4.5504297331e+00  0.009876329  0.008697972 -24.66 0.0003598371    1.189    0.159
        28 -11.4023    191.1858    191.9595   2.9080074534e+02   4.4196886167e+00   0.05397717   0.02609791  88.77  0.002837353    7.166    0.860
        29  -9.9127    187.4431    191.6854   2.9084223266e+02   4.4453274794e+00    0.0110839   0.01062181 -10.89 0.0004252351    1.057    0.054
        30 -10.1718    133.9884    147.6179   2.9118747500e+02   5.2735353768e+00    0.0289169   0.01030771 -70.22  0.001872029    4.113    0.757
        31  -9.9412    132.5969    139.7605   2.9115505743e+02   5.3723350149e+00   0.02240686  0.009346134 -69.87   0.00139131    3.016    0.668
        32  -9.8856    144.5235    147.3133   2.9106388549e+02   5.2138089824e+00   0.02080212   0.01124647  71.07  0.001531525    3.586    0.721
        33 -13.6118     16.0950    176.1842   2.9272615347e+02   5.6500514943e+00    0.1149059   0.08205443  81.75   0.01182813    1.786    0.440
        34 -11.9009    160.3401    128.9010   2.9076746787e+02   5.3307238282e+00    0.0222096   0.01833639 -33.24  0.001993273    1.268    0.211
        35  -9.9709    136.0000    128.4813   2.9104609456e+02   5.4817351160e+00    0.0214091  0.008397157 -57.29  0.001743824    2.390    0.582
        36  -9.4537    135.2118    124.2196   2.9102888332e+02   5.5355156873e+00   0.01355007  0.009250845 -80.01     0.000881    1.731    0.422
        37  -9.1668    135.0000    120.0235   2.9100541368e+02   5.5850789595e+00    0.0163666  0.005540384 -61.75  0.001044453    2.932    0.659
        38  -8.8307     99.4532    131.4194   2.9148668315e+02   5.6671302033e+00  0.006529897  0.006366062 -19.98 0.0001407626    1.026    0.025
        39 -10.9991    134.7016    109.3677   2.9094302832e+02   5.7094961218e+00   0.08991699  0.006730804 -56.67  0.004591368    6.121    0.837
        40 -10.7456    149.1819    116.7160   2.9082108623e+02   5.5379742288e+00   0.03634536   0.01959813  83.75  0.002597105    3.878    0.742
        41  -9.7373     91.0219    116.0805   2.9148954083e+02   5.8942372187e+00   0.01489964   0.00944452 -72.96 0.0009306025    1.771    0.435
        42 -10.8660    156.7800    112.6549   2.9070819232e+02   5.5390517390e+00   0.02070071   0.01255216  73.08   0.00171986    2.550    0.608
        43 -10.5784    127.4050    112.4854   2.9104663768e+02   5.7174212172e+00   0.02018387   0.01279351 -83.43  0.001047203    2.043    0.511
        44 -11.2109    125.0841    103.7484   2.9101948955e+02   5.8318942656e+00   0.04125534    0.0224822  66.76  0.003225642    3.170    0.685
        45 -10.9567    119.5479    102.9123   2.9107833557e+02   5.8747417539e+00     0.015841   0.01216764 -86.20 0.0008915145    1.505    0.335
        46 -10.9378    117.8222    109.2484   2.9113743182e+02   5.8121803061e+00   0.01341846   0.00982246  57.10  0.001427567    1.547    0.354
        47  -8.8068     93.5281    103.7904   2.9138468811e+02   6.0206815485e+00  0.009061247  0.006430956 -84.08 0.0009228901    1.688    0.407
        48 -11.4958    153.7063     99.0568   2.9065963440e+02   5.7139672115e+00   0.02829465   0.02015466  79.52  0.002894498    1.805    0.446
        49  -9.9760    144.4040    102.7793   2.9079016109e+02   5.7270338268e+00   0.01235676   0.01033638  -6.54 0.0006252824    1.314    0.239
        50  -9.5990    132.0086     98.0771   2.9090438149e+02   5.8555802791e+00  0.009960884  0.009637853  71.60 0.0004480415    1.067    0.063
        51 -12.2081    191.5535    151.7888   2.9054848367e+02   4.8797432963e+00   0.04006486   0.01959583 -83.78  0.002760184    4.017    0.751
        52 -10.0796    115.1779     95.2232   2.9108136058e+02   5.9894424788e+00  0.009701433   0.00765131  55.60  0.001074895    1.382    0.276
        53 -10.8786    137.7951     93.0729   2.9080654599e+02   5.8784046833e+00   0.01898112   0.01264953  48.84  0.001947167    1.623    0.384
        54 -11.5940    149.8952     88.6042   2.9063903487e+02   5.8571112915e+00   0.01389552   0.01177592 -67.97 0.0005899094    1.203    0.168
        55 -10.7648    171.8587     85.6957   2.9036721991e+02   5.7585043888e+00   0.01121784   0.01096181  41.76 0.0003371452    1.037    0.035
        56  -9.1992    150.7940    153.7681   2.9103129893e+02   5.1018646341e+00  0.009376448  0.007533744  59.43 0.0005864372    1.374    0.272
        57  -9.0947     79.5255     75.5045   2.9137201193e+02   6.4300900354e+00   0.01156823  0.006617171 -77.83 0.0009944572    2.244    0.554
        58 -10.6481     98.7089     62.7546   2.9107117943e+02   6.4617692997e+00   0.02623272   0.01605077  68.21  0.002352421    2.379    0.580
        59 -10.7804    203.8621    151.9695   2.9040756044e+02   4.8036456380e+00    0.0138348   0.01137051  72.74  0.001033581    1.386    0.278
        60 -11.2737    180.9545    152.1462   2.9067302979e+02   4.9393460283e+00   0.01625237    0.0130285  27.75   0.00129524    1.251    0.201
        61  -8.8572     58.4584     43.9346   2.9142084051e+02   6.9193910738e+00  0.009803888  0.006461339 -61.57 0.0004829825    1.510    0.338
        62 -11.9550    176.8138    146.6940   2.9068715255e+02   5.0269737695e+00   0.03068174    0.0152037  54.02  0.002485782    2.748    0.636
        63  -9.0234     78.4588     36.9831   2.9114621020e+02   6.8795387540e+00   0.01008958  0.006466317 -61.70 0.0005593479    1.554    0.356
        64  -9.5479    170.8144     32.2308   2.9004812868e+02   6.3793690619e+00    0.0172884  0.005432089 -64.56  0.001053972    3.546    0.718
        65  -9.0778     78.9698     28.0163   2.9108481052e+02   6.9795607908e+00  0.008191282  0.007544301 -58.93 0.0004412404    1.080    0.074
        66 -10.1205    200.2143     25.0920   2.8966410877e+02   6.2842557497e+00  0.008148925  0.006888927  59.98 0.0009335754    1.281    0.219
        67  -8.4578    177.5085     25.7080   2.8993030672e+02   6.4139945216e+00  0.006480397  0.005931928  14.85  0.000770395    1.111    0.100
        68 -10.4462     92.1048     23.5610   2.9090511905e+02   6.9520172817e+00   0.01458008   0.01075791 -70.21 0.0005058758    1.426    0.299
        69 -10.1864    203.4230     19.6970   2.8959357215e+02   6.3268653578e+00  0.008644037  0.006233147 -54.77 0.0005674549    1.357    0.263
        70 -13.5486     30.2018    173.9094   2.9254907062e+02   5.5920616493e+00   0.04722372   0.04505978  15.58  0.003733778    1.056    0.053
        71 -10.5655    208.9257    186.2480   2.9056087351e+02   4.3788016340e+00   0.01168817  0.009246946  77.18 0.0004938528    1.486    0.327
        72 -11.4649    210.7512    178.9193   2.9049456885e+02   4.4521496815e+00   0.02531753   0.01073151  44.63  0.001761911    2.599    0.615
        73  -8.3638    142.6541    180.3392   2.9128921606e+02   4.8448363671e+00  0.007182086  0.004949466  62.90 0.0007047619    1.782    0.439
