#   1 NUMBER                 Running object number                                     
#   2 MAG_AUTO               Kron-like elliptical aperture magnitude                    [mag]
#   3 X_IMAGE                Object position along x                                    [pixel]
#   4 Y_IMAGE                Object position along y                                    [pixel]
#   5 X_WORLD                Barycenter position along world x axis                     [deg]
#   6 Y_WORLD                Barycenter position along world y axis                     [deg]
#   7 A_WORLD                Profile RMS along major axis (world units)                 [deg]
#   8 B_WORLD                Profile RMS along minor axis (world units)                 [deg]
#   9 THETA_WORLD            Position angle (CCW/world-x)                               [deg]
#  10 FWHM_WORLD             FWHM assuming a gaussian core                              [deg]
#  11 ELONGATION             A_IMAGE/B_IMAGE                                           
#  12 ELLIPTICITY            1 - B_IMAGE/A_IMAGE                                       
         1 -10.0465    115.0000     48.9426   8.2916283436e+01   4.9652233826e+01     0.743774   0.08066916 -35.56  0.001431009    9.002    0.889
         2 -12.4488    186.0685     32.6077   6.2574414483e+01   3.4429622771e+01     1.104786    0.8745998  20.22  0.004525656    1.469    0.319
         3 -12.0819    191.2061     25.2105   5.9589879463e+01   3.3986458026e+01    0.8009126    0.6239727  41.35  0.001633549    1.363    0.266
         4 -10.5983    208.3996     15.2033   5.4572672711e+01   3.0681831942e+01    0.7599183    0.1339072 -24.38  0.002007903    5.689    0.824
         5 -10.7233     51.7753      7.7531   8.6347402909e+01   6.7477511107e+01    0.2729138    0.1628751   3.36  0.001431211    1.990    0.497
         6 -10.5787    210.3264      2.1213   5.0767617736e+01   3.1511850048e+01     0.547071    0.2516403  58.65  0.002433273    2.062    0.515
         7 -11.0993    167.0452    223.4992   1.1076512590e+02   6.8307795068e+00    0.4093707    0.2517046  60.72  0.002129904    2.014    0.503
         8 -19.3996     19.6896    131.1500   1.3006090550e+02   4.5652459122e+01      17.5108     2.040968 -72.71   0.04298512    8.602    0.884
         9 -11.8501     71.1491    193.5621   1.2532050812e+02   2.6831650970e+01    0.6158964    0.5600534  37.79  0.004456824    1.418    0.295
        10  -8.4025    208.3122    211.6567   1.0161603137e+02   1.5281663528e+00    0.1113112   0.09532244  69.30 0.0007046384    1.704    0.413
        11  -9.5598     59.8474    189.3391   1.2713099020e+02   2.9111979412e+01    0.2880029    0.1868632 -61.23 0.0009405909    1.665    0.399
        12  -9.8873    209.6213    180.9169   9.5974849984e+01   5.5051762004e+00    0.5631962    0.3147241  -5.97  0.002288508    3.189    0.686
        13  -8.3009     99.4344    180.7028   1.1804454277e+02   2.5278632040e+01    0.1566055    0.1176895 -55.35 0.0006630098    1.477    0.323
        14 -10.3032     82.9815    177.8700   1.2114188316e+02   2.8305201726e+01    0.3840285    0.2317212 -43.88  0.001991113    2.313    0.568
        15 -10.4892     86.1410    173.1396   1.1986364728e+02   2.8811115889e+01    0.2554928    0.2344664 -73.09 0.0007063784    1.212    0.175
        16  -9.0953    128.2992    173.1553   1.1079688501e+02   2.1961363805e+01    0.2539515    0.1141929 -45.84  0.001077994    2.550    0.608
        17  -9.3805    196.5900    171.1972   9.6536242684e+01   9.4286718105e+00    0.3039073      0.24398  -6.92  0.001141715    1.340    0.254
        18  -8.3294    115.0000    170.9880   1.1330831727e+02   2.4685943221e+01    0.2112072   0.07455737 -55.31 0.0008095245    2.992    0.666
        19  -9.6745    100.8786    170.6561   1.1632589630e+02   2.7068219456e+01     0.354246    0.1774875  54.40  0.001644448    2.027    0.507
        20  -9.2178    241.9768    165.3511   8.7230345849e+01   1.8006451503e+00    0.2245951   0.08305404  29.51 0.0007048083    4.491    0.777
        21  -9.8375     92.7479    163.8418   1.1712066257e+02   2.9747188180e+01    0.2488429    0.2075769 -59.00 0.0006233503    1.278    0.218
        22 -10.6250     98.3619    156.3989   1.1470527995e+02   3.0436478473e+01    0.6037747    0.4021901 -23.48  0.002270291    2.879    0.653
        23  -8.3686    141.4663    158.2454   1.0532593642e+02   2.2448915375e+01    0.1758028     0.134205 -68.11 0.0005193004    1.511    0.338
        24 -15.4948      4.9614    247.5145   1.4000414347e+02   2.4762303754e+01     7.251431     1.704366  32.51  0.005098557    9.109    0.890
        25  -9.0430    134.4798    147.9855   1.0490306767e+02   2.5829787077e+01     0.281443    0.1400909 -55.17  0.001163285    2.215    0.548
        26 -10.2553    108.9223    140.8341   1.0949718125e+02   3.2011359638e+01    0.4592678    0.2690516 -35.12  0.001978768    2.406    0.584
        27 -10.5425     97.2920    141.2824   1.1239290629e+02   3.3870402288e+01    0.2479912    0.2335378  37.25 0.0005086364    1.202    0.168
        28  -8.5444    127.7244    140.3648   1.0493312863e+02   2.8688712015e+01      0.14601    0.1100413  89.44 0.0007006693    1.670    0.401
        29 -10.4110    115.3178    131.1266   1.0600533335e+02   3.2968500612e+01    0.2862554    0.2755928 -56.26 0.0009556123    1.082    0.076
        30 -10.1023    104.3760    128.7720   1.0824221595e+02   3.5430618207e+01    0.5486183    0.3570684 -83.08   0.00123279    2.129    0.530
        31  -8.7924    125.7787    127.6030   1.0268734275e+02   3.1752867566e+01    0.2134154    0.1327749  54.72 0.0006653717    1.722    0.419
        32  -9.4788    120.4934    124.4722   1.0329015603e+02   3.3436714795e+01    0.2670636    0.1307485 -39.39  0.000824192    2.385    0.581
        33  -9.4538     87.4701    224.1695   1.2522928094e+02   1.9058052286e+01    0.2197163    0.1444605  30.01  0.001351502    1.959    0.490
        34  -9.6133    115.0000    123.0192   1.0433993396e+02   3.4783320593e+01    0.3072234    0.1115297 -50.37  0.001084144    2.705    0.630
        35  -9.5608    110.8132    119.8245   1.0469201909e+02   3.6250107359e+01    0.2088134    0.1971181 -12.01 0.0005211387    1.203    0.169
        36  -9.1054     84.5874    218.9200   1.2525876997e+02   2.0354820966e+01    0.2283972    0.1843304   6.72  0.001476909    2.218    0.549
        37 -10.6890    115.2419    109.2348   1.0106553141e+02   3.7724740963e+01    0.4708093    0.2207969 -45.73  0.001870107    2.088    0.521
        38 -10.2698    114.7724    102.1682   9.9414559346e+01   3.9334077173e+01    0.4829044    0.1438016 -45.08  0.001512105    3.283    0.695
        39  -8.6795    205.7928    110.3751   8.1130100456e+01   1.7592501261e+01     0.214066    0.1324696  40.57 0.0004793573    1.670    0.401
        40  -9.8758    115.4837    210.9285   1.1867865953e+02   1.7183790550e+01    0.4062014    0.1501293 -64.64  0.001673945    3.866    0.741
        41  -9.4381    127.5506     94.9938   9.4158271558e+01   3.8260065752e+01    0.2346637    0.1448775 -43.86 0.0005362079    1.583    0.368
        42  -9.7618    115.0000     83.5533   9.4234958621e+01   4.3188111686e+01    0.4990379   0.08189548 -43.77  0.001149041    5.862    0.829
        43 -10.4544    172.1400     71.3329   7.6901910465e+01   3.2316142917e+01    0.4300314    0.3093386 -89.60 0.0009600247    1.936    0.484
        44  -8.2401    211.3688    203.1156   9.9652202462e+01   2.1208953111e+00    0.1589506    0.1147525 -45.14 0.0009410241    1.799    0.444
        45  -9.5169    101.5862     64.2655   9.2055102140e+01   4.9662240801e+01     0.290701    0.1321582 -45.24  0.001000088    2.147    0.534
        46  -9.4750    107.1563     62.1776   8.9733761060e+01   4.8958153446e+01    0.1935238    0.1733993 -70.41 0.0004376701    1.318    0.241
        47  -9.4030     58.3798    197.0110   1.2812539404e+02   2.7805495604e+01    0.3410371    0.1630265  74.10  0.001487281    2.435    0.589
        48  -9.5988    171.5172    240.4950   1.1223013158e+02   3.8248525549e+00    0.1717548    0.1108619 -61.97  0.001033505    2.455    0.593
        49  -9.8437    193.8738    194.5441   1.0134458510e+02   6.3773912530e+00    0.4310266    0.2920724 -28.50  0.002439225    1.677    0.404
        50 -10.0840     92.9043    236.5188   1.2539440907e+02   1.6281881648e+01    0.2081036    0.1617135  58.22  0.000417247    1.050    0.047
        51  -8.7097     78.4726    232.4428   1.2752017856e+02   1.8900028223e+01    0.1824624    0.1429275  18.89 0.0007608815    2.101    0.524
        52  -9.9572    169.0572    231.4727   1.1148545382e+02   5.4018424168e+00      0.18988   0.09396954  41.08  0.001032793    1.602    0.376
        53 -11.2989    173.0023     44.8085   6.8538383380e+01   3.6200919593e+01    0.4238087    0.3928016  41.14 0.0007677486    1.078    0.072
        54 -11.5237    162.2911    226.8391   1.1206955841e+02   7.1394175504e+00    0.4328329    0.2338149  34.32  0.002279539    1.714    0.417
