#   1 NUMBER                 Running object number                                     
#   2 MAG_AUTO               Kron-like elliptical aperture magnitude                    [mag]
#   3 X_IMAGE                Object position along x                                    [pixel]
#   4 Y_IMAGE                Object position along y                                    [pixel]
#   5 X_WORLD                Barycenter position along world x axis                     [deg]
#   6 Y_WORLD                Barycenter position along world y axis                     [deg]
#   7 A_WORLD                Profile RMS along major axis (world units)                 [deg]
#   8 B_WORLD                Profile RMS along minor axis (world units)                 [deg]
#   9 THETA_WORLD            Position angle (CCW/world-x)                               [deg]
#  10 FWHM_WORLD             FWHM assuming a gaussian core                              [deg]
#  11 ELONGATION             A_IMAGE/B_IMAGE                                           
#  12 ELLIPTICITY            1 - B_IMAGE/A_IMAGE                                       
         1 -15.3189    241.9501     84.8839   4.3022670383e+01   1.5734133366e+01     4.633839     2.364852 -33.93   0.01605158    1.961    0.490
         2 -11.7465    220.2439      3.4202   2.8285079078e+01   3.0881790257e+01    0.8199419    0.5611998 -60.03  0.005567589    1.222    0.182
         3 -13.5907    204.7512     20.5057   3.3175080703e+01   3.2327664142e+01     1.696863    0.7827739 -87.38  0.007709831    2.585    0.613
         4 -13.0451    231.6866     30.5206   3.2867841956e+01   2.5489212358e+01    0.9470747    0.6517488  68.03  0.002340022    1.523    0.343
         5 -13.0346    236.4050     22.8318   3.0948921537e+01   2.5480025956e+01     1.199798    0.5783328 -49.46  0.005407012    1.705    0.414
         6 -13.8029    218.3265     16.0841   3.1022631414e+01   2.9929938027e+01     2.681236    0.9745831 -83.84  0.009093693    5.103    0.804
         7 -11.3610      2.4267      3.6866   8.2694406077e+01   7.4320842290e+01    0.4325299    0.1806857 -47.75  0.002228453    2.998    0.666
         8  -8.6397     78.4960      4.4347   4.8841786759e+01   6.2499026662e+01    0.1229398    0.1016256  41.30 0.0001618924    1.040    0.039
         9 -10.5482    173.7345      1.5489   3.1767071158e+01   4.1178949107e+01     0.437276    0.1069826  73.77  0.001570551    3.717    0.731
        10 -12.4307    127.2494    231.2218   9.5271727613e+01   7.7715740236e+00    0.5710651    0.2586051  34.09  0.002497182    1.982    0.495
        11 -12.8647     50.1476    250.1753   1.1404617157e+02   1.4610310881e+01     1.211003    0.5677393  25.50   0.00581556    2.563    0.610
        12 -13.7716     84.6875    243.6651   1.0623579649e+02   1.1477624858e+01     1.454859    0.6379971  23.13  0.004921735    3.152    0.683
        13 -10.8431     60.1678    247.3515   1.1177224703e+02   1.3949740850e+01    0.3055861    0.2351083  59.56 0.0008423427    1.103    0.093
        14 -11.9493     58.3912    242.6554   1.1174207402e+02   1.5126136532e+01    0.4671516    0.2994136  40.05 0.0007347843    1.377    0.274
        15 -12.2355     30.2307    249.1959   1.1792457975e+02   1.7085584135e+01     1.101008     0.487299  17.93  0.004421373    4.514    0.778
        16 -11.3732     45.2283    178.8145   1.0836626818e+02   3.1485956775e+01    0.3526501    0.2759102 -33.50 0.0005527879    1.576    0.365
        17 -11.4347     52.6091    172.6155   1.0560639051e+02   3.2196589560e+01    0.3114926    0.2622242 -41.65 0.0006810974    1.323    0.244
        18 -10.6835     65.1039    162.8027   1.0069027631e+02   3.3135109607e+01    0.2592809    0.2535926   7.68 0.0003707109    1.136    0.120
        19 -12.9141     50.4999    159.1065   1.0430402866e+02   3.5933155259e+01    0.5716118    0.3349746 -37.16  0.001565502    2.108    0.526
        20 -12.0910     74.0163    156.0163   9.6982409988e+01   3.3654465620e+01    0.6070384    0.5613186  46.62  0.002769422    1.123    0.109
        21 -12.7187     67.9176    143.9443   9.6607221911e+01   3.7653631437e+01    0.8662351    0.5669608  66.52   0.00377094    2.005    0.501
        22 -13.8113     11.4880    205.8158   1.1897989065e+02   2.8354955219e+01    0.8912535    0.7439489 -12.79 0.0009696035    1.745    0.427
        23  -9.3520     93.9831    139.9876   8.7910723729e+01   3.4640310390e+01    0.2409417    0.2055047 -26.00 0.0004132355    1.264    0.209
        24  -8.7450    134.2826    142.0002   7.7041270382e+01   2.6634447919e+01    0.2021517    0.1381679 -47.78 0.0008763188    1.430    0.300
        25 -11.7952     77.7590    141.0064   9.3026924013e+01   3.6986743476e+01    0.3215685    0.2850323 -45.85 0.0004765702    1.096    0.088
        26 -10.1432     90.3500    143.0577   8.9648855704e+01   3.4468411131e+01     0.299255    0.2764437  39.67 0.0009417707    1.123    0.110
        27  -8.7323    138.1915    136.1559   7.4643509235e+01   2.7214673165e+01    0.2093672    0.1849313 -84.73 0.0004290389    1.315    0.239
        28 -10.3003    105.4236    131.0225   8.2478731894e+01   3.4850532500e+01     0.442032    0.3398113   5.26  0.001468593    1.630    0.387
        29 -11.5003    249.8701    124.9351   5.0235109657e+01   7.7128109070e+00     1.012218    0.2561581 -38.56  0.003484018    3.412    0.707
        30 -13.3865      3.2005    245.6143   1.2285405367e+02   2.0541864412e+01     2.848073    0.9804537 -75.26   0.01443924    2.623    0.619
        31 -11.7545     53.3275    119.6527   9.6514589988e+01   4.5823561290e+01    0.7548442    0.2958153 -73.64  0.002025506    5.143    0.806
        32  -9.8900     91.1945    127.4035   8.5919055940e+01   3.8278706050e+01    0.3058818    0.2362428 -16.06 0.0009219714    1.561    0.359
        33  -9.2362    103.1002    119.6662   8.0391001590e+01   3.8040288690e+01    0.2101643     0.194758  22.24 0.0003704815    1.110    0.099
        34 -14.0035     19.9981    198.6887   1.1654838668e+02   2.9232346072e+01     2.042061    0.9381895  53.78  0.007498899    2.086    0.521
        35  -8.6966     24.7775     82.6117   9.8893333790e+01   5.7753890733e+01    0.1583834    0.1218932  28.76 0.0002434382    1.497    0.332
        36 -10.7066      2.2616     81.1205   1.0775030719e+02   5.9545832421e+01    0.3062189   0.09856202 -69.64  0.001204795    2.879    0.653
        37 -10.9769    193.0340     77.1558   4.8049677999e+01   2.7036633583e+01    0.4015843    0.2395408  42.48  0.001836703    2.070    0.517
        38  -9.4270    184.5075     77.4750   4.9535467628e+01   2.8895201026e+01    0.1401025    0.1337279 -67.81 8.543483e-05    1.053    0.050
        39 -11.0406    204.4433     71.7266   4.5018760462e+01   2.5413533920e+01      0.59848    0.3692135  26.69  0.002434884    3.322    0.699
        40 -10.3948     13.4277     59.9971   9.8056197598e+01   6.3588144147e+01     0.219727    0.1746792  -5.55 0.0004277696    1.252    0.202
        41 -11.1141     76.9589    223.8778   1.0581216804e+02   1.6698326174e+01    0.4423324       0.2346 -62.69  0.002146809    1.955    0.488
        42 -12.1307     69.4247    245.8522   1.0970632351e+02   1.3072516378e+01    0.5546925    0.4480786  69.35  0.002743215    1.148    0.129
        43 -12.6455    116.3497    230.6406   9.7651338212e+01   9.5449418203e+00     1.200731    0.4738014 -47.26  0.004862904    2.872    0.652
        44 -11.5808     85.0181    220.3273   1.0353469603e+02   1.6357610414e+01    0.6866345    0.3863544 -88.90  0.002299194    2.562    0.610
        45 -13.4596     99.7620    228.6765   1.0116615148e+02   1.2423211447e+01     1.464176    0.4203717  45.96  0.004890237    3.585    0.721
        46 -10.7431     50.3089    199.9129   1.0947029626e+02   2.5682300581e+01     0.326015     0.219185  79.30  0.001711942    1.515    0.340
        47 -15.1731     24.0957    179.3075   1.1387347608e+02   3.3555236287e+01     7.822238     2.925284  84.17   0.02456956    4.566    0.781
        48 -10.6087      1.9860     18.5063   8.9954875340e+01   7.2127722508e+01    0.1874956    0.1232653 -36.30   0.00126029    1.272    0.214
