#   1 NUMBER                 Running object number                                     
#   2 MAG_AUTO               Kron-like elliptical aperture magnitude                    [mag]
#   3 X_IMAGE                Object position along x                                    [pixel]
#   4 Y_IMAGE                Object position along y                                    [pixel]
#   5 X_WORLD                Barycenter position along world x axis                     [deg]
#   6 Y_WORLD                Barycenter position along world y axis                     [deg]
#   7 A_WORLD                Profile RMS along major axis (world units)                 [deg]
#   8 B_WORLD                Profile RMS along minor axis (world units)                 [deg]
#   9 THETA_WORLD            Position angle (CCW/world-x)                               [deg]
#  10 FWHM_WORLD             FWHM assuming a gaussian core                              [deg]
#  11 ELONGATION             A_IMAGE/B_IMAGE                                           
#  12 ELLIPTICITY            1 - B_IMAGE/A_IMAGE                                       
         1  99.0000     57.9809     79.1789   5.6294114773e+01   5.4458049508e+01     2.161964    0.7181678 -38.32  0.007229367    3.546    0.718
         2 -14.3242    213.0302     64.5342   1.4216819852e+01   2.3956250381e+01     1.555981    0.9224536 -53.48  0.007453655    1.612    0.380
         3 -12.3188      9.3820     26.3154   6.0462464201e+01   6.9438054775e+01    0.8103335    0.6895784 -68.46  0.005669894    1.964    0.491
         4 -12.7020     11.7958     49.3683   6.6993440385e+01   6.5224673900e+01     1.206949     0.675375 -43.94  0.004935933    1.465    0.317
         5 -13.5617     17.1374     12.4576   5.0517087385e+01   7.0763760641e+01     1.162956    0.6867852  31.55  0.007381076    1.766    0.434
         6 -13.7108     30.9154     46.4915   5.7171930997e+01   6.4034514521e+01     1.269853     0.736863 -33.89  0.005872453    1.545    0.353
         7 -14.1302     24.9647     30.0731   5.3946649406e+01   6.7386024049e+01     1.287048    0.6490777 -34.85  0.005538326    1.796    0.443
         8 -13.9582     95.6926     16.3855   2.1972710879e+01   5.7140248846e+01     1.426832    0.9704587 -63.51  0.007468065    2.355    0.575
         9 -12.6718    213.6263     21.1241   4.7984934963e+00   2.9521304854e+01    0.7253836    0.3923812 -67.48  0.003892645    1.844    0.458
        10 -12.7664    184.4208     18.8478   7.3314984201e+00   3.6313803707e+01    0.8614898    0.4378325  80.84  0.003535664    1.903    0.475
        11 -11.4563    241.2581     13.7698   1.0848868090e+00   2.4632276092e+01    0.3315658    0.1832699  87.13  0.001828624    1.629    0.386
        12 -13.0872    207.7976     10.7093   3.1589571768e+00   3.1923980279e+01    0.6591519    0.4276956 -84.68  0.003057094    1.339    0.253
        13 -13.3788    199.6941      5.8248   2.8501273553e+00   3.4200512065e+01    0.6575247    0.4899439  87.98   0.00367951    1.086    0.079
        14 -11.5310    242.4939      4.4977   3.5931760749e+02   2.5395913697e+01    0.2516755    0.1506754 -68.29  0.001507664    1.353    0.261
        15 -11.1047     98.2701    211.2209   7.0663757447e+01   1.7265787158e+01    0.5577766    0.1880419  49.80  0.001796655    3.608    0.723
        16 -11.9899    164.5766    250.2679   6.1404947931e+01  -8.2048052543e-01    0.6190189    0.1394558  36.13  0.002074111    3.703    0.730
        17 -13.6175    133.2767    233.3813   6.5708230164e+01   7.0774458590e+00    0.9617887    0.5890506 -43.37   0.00468699    1.881    0.468
        18 -13.1486    120.9439    247.6841   7.0352113543e+01   6.3283683654e+00    0.7584208    0.4151112  41.83  0.003256792    1.547    0.354
        19 -14.9823    119.4333    229.5072   6.8274836850e+01   1.0052478515e+01     2.262115     1.450414 -74.06    0.0110617    2.144    0.534
        20 -13.5131    108.6499    232.3362   7.1095530791e+01   1.1184344246e+01    0.7134702    0.5333104  71.72  0.002864945    1.560    0.359
        21 -15.2232     93.5109    224.4484   7.3536694602e+01   1.5138358740e+01     1.860781     1.015767  65.10  0.007132275    2.503    0.600
        22 -12.6051     74.6714    249.5096   8.0437641255e+01   1.2746748804e+01    0.5221724    0.2678903  44.88  0.002159937    1.601    0.375
        23 -11.9521     57.9535    244.6773   8.3480028884e+01   1.5925664524e+01     1.085769     0.751026  81.17  0.005040646    1.446    0.308
        24 -13.5431     39.2419    246.6461   8.7440703473e+01   1.7835545660e+01    0.8489145    0.4011815  74.53  0.004174807    2.421    0.587
        25  99.0000     40.1508    230.1112   8.5988520641e+01   2.1130915079e+01     1.500445    0.5490434  50.15  0.006744889    2.413    0.586
        26 -13.9634      3.0971    142.6315   8.6983102196e+01   4.4927882464e+01     3.254464    0.2180784 -70.18  0.008544012    6.368    0.843
        27 -14.3013     13.1556    156.0174   8.5612801286e+01   4.0982853775e+01     1.472003    0.5979394  89.09  0.005630293    3.251    0.692
        28 -14.7639     20.2310    149.7000   8.2950654227e+01   4.1942987132e+01     3.681186     1.422721  85.06   0.01019244    6.267    0.840
        29 -14.2997     11.3182    133.6985   8.3588498347e+01   4.6526438252e+01     1.799263    0.5794156 -81.22   0.00585773    4.310    0.768
        30 -14.6702      6.2998    169.6019   8.8683742406e+01   3.8260394015e+01     2.445304     0.873814  58.71  0.009477455    3.595    0.722
        31 -15.4102     22.2189    229.2102   8.9648250684e+01   2.3315639577e+01     2.574439    0.7658015 -74.49   0.01095576    3.178    0.685
        32 -16.2533      8.3109    192.4920   9.0036051101e+01   3.2756065478e+01     2.647815     1.063842  88.06   0.01152196    2.698    0.629
        33 -13.7150     10.0742    246.2676   9.3037071725e+01   2.1082235011e+01     1.133327    0.3610494  62.63  0.004969589    3.204    0.688
        34 -12.3224      1.6095    235.8270   9.4083420679e+01   2.3983325937e+01    0.3096908     0.131966 -89.31  0.001650789    2.167    0.538
        35 -12.3938    113.2147    182.4606   6.2389887678e+01   2.1329882240e+01    0.8043552    0.4778593  64.36  0.003139427    2.478    0.596
        36 -13.6785    119.2408    205.3711   6.4730595320e+01   1.5126220667e+01     1.334572    0.7677625  54.30  0.004907266    1.987    0.497
        37 -13.3477    119.5254    196.3219   6.3185118943e+01   1.7072458873e+01    0.9067824    0.6011409 -75.01  0.003933904    2.020    0.505
        38 -12.7244    105.0195    207.9396   6.8565590334e+01   1.6914515201e+01    0.6043993    0.4241241  61.00  0.001952926    1.562    0.360
        39 -11.2764     99.5092    203.4899   6.9253224251e+01   1.8794161963e+01    0.3934523    0.2229785 -59.67  0.001668763    1.878    0.467
        40 -11.8738    177.6618    205.1619   5.1198791335e+01   5.0607718213e+00    0.3863182    0.1819951 -40.05   0.00163438    2.213    0.548
        41 -12.9847    158.5753    199.1211   5.4353422616e+01   9.5723720756e+00    0.5965679    0.5491504  30.04  0.002979722    1.062    0.058
        42 -12.2679    155.7256    192.7502   5.3836551588e+01   1.1390737811e+01    0.6251305    0.4853467 -42.00  0.002785464    1.343    0.255
        43 -13.9796    137.2019    199.6445   5.9454732700e+01   1.3256737005e+01     1.110211    0.8548002 -68.72  0.004898569    1.586    0.369
        44 -13.1066    138.2581    191.3272   5.7723276303e+01   1.4860058869e+01    0.6694037    0.5633263  53.22  0.002181762    1.241    0.194
        45 -13.4031     73.0753    197.6927   7.4991665962e+01   2.4139395738e+01    0.8165781    0.6464964  63.46  0.003361558    1.225    0.184
        46 -14.5834     81.9932    189.5323   7.1601349452e+01   2.4759279042e+01      1.73142     1.058348 -89.01  0.006073966    2.211    0.548
        47 -13.6421     63.8600    178.0432   7.4687529087e+01   3.0129066407e+01     1.993288     1.153264  82.74  0.008364411    2.394    0.582
        48 -11.7098    196.4979    205.5188   4.7288184016e+01   1.8475846148e+00    0.2844732    0.1294601 -42.13  0.001227044    2.221    0.550
        49 -11.5041    128.2670    170.5176   5.6275807348e+01   2.1368040846e+01    0.4057997    0.3362325 -82.93  0.002005307    1.455    0.313
        50 -12.6954    108.4516    169.2873   6.1235799562e+01   2.5272318788e+01    0.7852387    0.6180494  31.77  0.003498839    1.276    0.216
        51 -13.1682     84.2172    112.6915   5.6141921674e+01   4.3049078206e+01     1.172138    0.6077717 -53.53  0.004801906    1.951    0.488
        52 -12.8230     82.1320     99.3897   5.3397900019e+01   4.6398475704e+01     1.361229    0.5612203 -38.89  0.004823701    2.750    0.636
        53 -14.8353     90.0407    144.0760   6.1436930103e+01   3.4567598965e+01     2.552394     1.382785 -63.19   0.01022662    2.061    0.515
        54 -14.7542    109.7230    144.5724   5.5879628609e+01   3.0956347069e+01     1.665281     1.164956 -41.83  0.007248163    1.482    0.325
        55 -13.8102    127.0228    140.5993   5.0237335432e+01   2.8532391706e+01     0.704631    0.5523211 -69.10  0.003304683    1.497    0.332
        56 -10.3139     67.6416    147.7008   6.8773094434e+01   3.7127157037e+01    0.2616345      0.20086 -46.42 0.0006328221    1.303    0.232
        57 -11.2294     70.4988    145.5034   6.7518829452e+01   3.7266223934e+01       0.3817    0.2966203 -87.42  0.001441659    1.464    0.317
        58 -12.3819     67.2050    139.3001   6.7345506065e+01   3.9274971334e+01    0.6310414    0.5098885  84.16  0.003276195    1.421    0.297
        59 -12.3024     43.5574    147.3287   7.5869405657e+01   4.0253510241e+01    0.4217669    0.2830288  -6.98  0.001479678    2.088    0.521
        60 -13.1526    226.7222    138.0170   2.8071292049e+01   8.8614181298e+00    0.7454586    0.4975308 -40.91  0.002872065    1.347    0.257
        61 -12.1183     28.6889    135.7804   7.8610921887e+01   4.4617728117e+01    0.9237266    0.5133939 -88.16  0.003613006    2.196    0.545
        62 -10.9208     73.5938    133.6571   6.4255481934e+01   3.9736315861e+01    0.2480965     0.208179 -45.18 0.0002967547    1.164    0.141
        63 -12.8116     72.2910    125.4762   6.2935681414e+01   4.1923726516e+01    0.8362427    0.6852012  60.54  0.003393078    1.399    0.285
        64 -11.8568     70.7135    117.1378   6.1586996617e+01   4.4157745499e+01    0.4908622    0.4080974 -68.63  0.002497842    1.297    0.229
        65 -12.7515     40.6694     98.1540   6.7652991832e+01   5.2455692350e+01    0.8047276    0.6570997 -59.00   0.00417179    1.205    0.170
        66 -12.8340     60.9139     87.9831   5.7682943444e+01   5.2196077063e+01     1.018579    0.3793154 -56.96  0.003565022    3.236    0.691
        67 -12.1996    151.3921    248.1028   6.3870361343e+01   1.5556752972e+00    0.4304605    0.2629874  42.59  0.002301136    1.505    0.336
        68 -13.7690     53.0975    111.5269   6.6236146971e+01   4.7901783438e+01    0.9331032    0.8946926 -19.51  0.004198375    1.057    0.054
        69 -13.3355     48.8180    104.2010   6.6095150056e+01   5.0140468597e+01    0.8569681    0.5034095 -50.29  0.002585611    1.536    0.349
        70 -12.5220     32.0112    117.9867   7.4671511621e+01   4.8648899693e+01    0.9196122    0.3334864 -64.67  0.003608715    2.523    0.604
        71 -12.2472     29.0121    110.7700   7.4383839291e+01   5.0649519678e+01    0.5023684    0.4048734  41.10  0.002916471    1.415    0.293
        72 -11.3244    132.4966    161.9839   5.3460795054e+01   2.2524810626e+01    0.2425922    0.1531563 -50.14  0.001044597    1.625    0.385
        73 -10.9496     15.4945    120.4804   8.0503032303e+01   4.9414321506e+01    0.2614381    0.2150853  73.10   0.00161704    1.354    0.261
        74 -11.5752    122.2069    117.5297   4.5992120088e+01   3.4730949854e+01    0.3014551    0.2284247 -46.09  0.001419585    1.339    0.253
        75 -11.9306     66.4730    106.7231   6.0549661339e+01   4.7220688952e+01    0.4720262    0.3055383 -65.12  0.001823311    1.782    0.439
        76 -12.8988      3.1457     94.0475   8.0608151486e+01   5.6356830313e+01     1.095504    0.4071443 -70.55  0.004787815    2.505    0.601
        77 -15.1565     96.8366    126.1715   5.5468573922e+01   3.7695769450e+01     2.217093     1.722045  53.03   0.01074764    1.399    0.285
        78 -13.3386     73.3408     91.0773   5.4113828933e+01   4.9653076377e+01    0.9178971    0.6673905 -33.54  0.003380831    1.369    0.270
        79 -10.9284     72.0082     83.5224   5.2436152221e+01   5.1449875307e+01    0.3160237    0.1784697  37.32  0.001162438    1.774    0.436
        80 -13.3303     30.7384     93.0804   7.0192758483e+01   5.4599530930e+01    0.7866433    0.5121487  35.47  0.003618699    1.738    0.425
        81 -13.9692     27.0030     81.5888   6.8993848273e+01   5.7481317626e+01     1.471351    0.7285561 -67.86  0.006598469    2.449    0.592
        82 -12.8893     37.9814     79.4849   6.4114685272e+01   5.6865268069e+01    0.7235022    0.5315331 -86.91  0.003766993    2.136    0.532
        83 -13.4193     37.4376     72.5203   6.2443339090e+01   5.8376551514e+01     1.383133    0.7231308 -64.93  0.006088378    2.650    0.623
        84 -11.0329    207.7606     85.5729   1.9680324620e+01   2.1802039536e+01    0.3405305      0.23844  76.03  0.001763484    1.578    0.366
        85  99.0000     11.8407     80.5600   7.4784645116e+01   5.8856915256e+01    0.7827289     0.474298 -78.12  0.004129692    2.033    0.508
        86 -12.2260      3.1465     73.4865   7.6814466415e+01   6.0885178734e+01     0.567743    0.3579614 -72.74  0.002865649    1.692    0.409
        87 -12.0273      4.7571     66.9010   7.4718995549e+01   6.2185379837e+01      0.61747    0.3428784  40.28  0.003334482    2.442    0.590
        88 -12.6369    242.7166     47.8759   7.4201402610e+00   2.0156516364e+01    0.5754928     0.240239  53.58  0.002414977    2.916    0.657
        89 -15.1046     85.4223    240.1429   7.7186307067e+01   1.3091720799e+01     1.690653     0.824644  54.57  0.007395628    2.108    0.526
        90 -14.8040    227.4316     57.5794   1.0965978475e+01   2.1909328372e+01     1.264269    0.9518846  79.53  0.006690244    1.290    0.225
        91 -13.6140    214.2721     47.4118   1.0317484902e+01   2.6112717558e+01    0.8076622    0.6592895 -67.25  0.003495607    1.082    0.076
        92 -13.8280    247.8403     61.2573   9.5140884687e+00   1.7318641997e+01     1.276392    0.3427406 -42.48  0.004919837    2.977    0.664
        93 -11.4024     47.6265     68.8376   5.7252896636e+01   5.7920449796e+01    0.4423494    0.1919433  28.66  0.001932419    2.339    0.572
        94 -10.4346     51.2972     63.0445   5.3976348474e+01   5.8551234016e+01    0.1890485    0.1637632 -24.18  0.001161148    1.095    0.086
        95 -11.4500    249.9012    247.2804   4.4457216047e+01  -1.1966580709e+01    0.3086151     0.148749 -20.41  0.001662401    2.107    0.525
        96 -10.7097     31.9117    246.6610   8.8889098268e+01   1.8678324565e+01    0.2685759    0.1424363  49.83  0.001561219    1.528    0.345
        97 -11.9583    175.9452    238.2908   5.7201186944e+01  -5.7203647509e-01    0.4008496    0.3194298 -21.45  0.002078302    1.306    0.234
        98 -12.0772     33.7588     57.1087   5.9409275468e+01   6.1801108077e+01     1.008406    0.2892538  29.82  0.003933297    3.400    0.706
        99 -13.1740    151.3501    231.8790   6.1479281737e+01   4.4443689847e+00    0.7227709    0.5273645  73.61  0.003640163    2.183    0.542
       100  99.0000      5.0085    223.8146   9.2779669673e+01   2.6150710878e+01    0.9049565    0.3223191  81.49  0.003815916    3.308    0.698
       101 -12.8854    188.8112     53.9583   1.5130061120e+01   3.0930443835e+01    0.6936092    0.4914995 -49.99  0.002721426    1.394    0.283
       102 -12.8561    143.2753     54.2081   2.3166435948e+01   4.1686927939e+01    0.7853703    0.5860549 -75.44   0.00399545    1.659    0.397
       103 -13.2992     54.2948    120.8200   6.7798005410e+01   4.5527234153e+01     1.075988    0.7990391  59.80   0.00386318    1.642    0.391
       104 -12.1083    188.5054     40.8904   1.2043259503e+01   3.2766956130e+01    0.5044456    0.3606877 -54.51  0.002877079    1.379    0.275
       105 -12.5682    116.6879     41.6621   2.5341246158e+01   4.9614436248e+01    0.5832106    0.4796072  68.42  0.002445147    1.269    0.212
       106 -11.0564      7.4787     35.3667   6.4691300294e+01   6.8066281115e+01    0.2753722    0.1601476 -31.66  0.001398946    1.394    0.283
       107 -12.0090      2.0829    211.6765   9.2664091914e+01   2.9011263834e+01    0.6428125    0.1887482 -74.80  0.002827418    2.879    0.653
       108 -11.3251    248.6362    227.8788   4.1428952171e+01  -9.1923629196e+00    0.2263216    0.1631174  26.72  0.001493432    1.431    0.301
       109 -12.5204     68.2691    209.8893   7.7674416935e+01   2.2000213313e+01    0.8962452    0.6984788 -84.02  0.003435923    1.289    0.224
       110 -15.4259     41.1002    186.9243   8.1684355283e+01   3.0804507924e+01     2.597161     1.196349  84.81  0.009844011    3.215    0.689
       111 -14.3967     48.0361    214.4584   8.2871541347e+01   2.3597921825e+01     1.220809    0.5375097  65.81  0.004894352    3.014    0.668
       112 -14.1109     38.9969    204.2258   8.3967249995e+01   2.6986443462e+01    0.9971197    0.3483474  53.24  0.003852813    3.113    0.679
