#   1 NUMBER                 Running object number                                     
#   2 MAG_AUTO               Kron-like elliptical aperture magnitude                    [mag]
#   3 X_IMAGE                Object position along x                                    [pixel]
#   4 Y_IMAGE                Object position along y                                    [pixel]
#   5 X_WORLD                Barycenter position along world x axis                     [deg]
#   6 Y_WORLD                Barycenter position along world y axis                     [deg]
#   7 A_WORLD                Profile RMS along major axis (world units)                 [deg]
#   8 B_WORLD                Profile RMS along minor axis (world units)                 [deg]
#   9 THETA_WORLD            Position angle (CCW/world-x)                               [deg]
#  10 FWHM_WORLD             FWHM assuming a gaussian core                              [deg]
#  11 ELONGATION             A_IMAGE/B_IMAGE                                           
#  12 ELLIPTICITY            1 - B_IMAGE/A_IMAGE                                       
         1 -14.0120    244.6266    158.0085   9.3963678986e+01   4.8245565495e+00     2.728664    0.8557051 -35.42   0.01086462    3.436    0.709
         2 -14.3433    200.5307     17.6309   6.3884291605e+01   3.2514593169e+01      2.90312      1.56171  28.87   0.01023286    2.350    0.575
         3 -13.8077    205.5204     10.0183   6.0934152135e+01   3.1965781419e+01     1.621969    0.7795039  47.32  0.001367822    2.137    0.532
         4 -12.7692      2.1816     13.1723   1.2412976877e+02   7.1947159242e+01     1.583497    0.2328749 -62.97  0.004933724    5.480    0.818
         5 -13.2083      3.3451      4.1432   1.2004781255e+02   7.3681237002e+01    0.9033934    0.7988021  28.05  0.007004187    1.550    0.355
         6 -10.3575    165.7738    241.8262   1.2054724117e+02   7.6706186951e+00    0.2708532    0.1266965  31.67 0.0007642311    1.979    0.495
         7  -9.5599    205.4741    250.4804   1.1526659308e+02   1.2138944845e+00    0.1053807   0.07298352  30.60 0.0008097962    1.002    0.002
         8  -9.5742    184.0127    250.2532   1.1858467736e+02   4.2109431945e+00    0.1368122   0.09572437  11.79 0.0005398773    1.606    0.377
         9 -10.3917    143.3846    249.1621   1.2491486958e+02   9.9378899526e+00    0.2068412    0.1462347  59.28 0.0008505332    1.470    0.320
        10 -11.1970    143.4052    244.7274   1.2447813604e+02   1.0458512710e+01    0.3825212    0.1098572  43.70  0.001900338    2.535    0.606
        11 -11.2501    150.0745    248.3756   1.2376909791e+02   9.1162013641e+00    0.3635359    0.1914476  41.11  0.002467824    1.371    0.271
        12 -10.5729    152.4876    243.7372   1.2290742752e+02   9.3191218194e+00     0.189709     0.151846 -70.93    0.0013808    1.819    0.450
        13 -10.0727    135.8214    250.6365   1.2625755274e+02   1.0783145572e+01    0.1560302    0.1427748  82.94 0.0002354805    1.395    0.283
        14 -10.9995    132.2534    248.8586   1.2666263617e+02   1.1472286885e+01    0.2850206    0.1547466  51.87  0.001432259    1.552    0.356
        15 -11.3325     98.8344    247.6459   1.3187411218e+02   1.5935784885e+01    0.6543309    0.2397418  52.15  0.003781619    2.271    0.560
        16 -11.6301     96.6243    239.3336   1.3159561122e+02   1.7325748824e+01    0.3356715    0.2271593  88.51  0.002050369    1.731    0.422
        17 -10.8375    103.7210    238.6623   1.3038728746e+02   1.6519826269e+01    0.3266984    0.2064604  27.35  0.002234509    1.949    0.487
        18 -10.0602    122.6785    250.0850   1.2829421138e+02   1.2587175775e+01    0.2338063    0.1281761  44.80  0.001553109    1.311    0.237
        19  -9.8864    126.8343    249.0965   1.2754779877e+02   1.2162712331e+01    0.2045092    0.1451835  58.30 0.0009110887    1.310    0.237
        20 -11.8857    111.7235    248.4809   1.2989834241e+02   1.4204646268e+01    0.7407752    0.2207977  44.46   0.00347251    2.354    0.575
        21  -9.9677    108.6689    242.4945   1.2989836499e+02   1.5372312113e+01    0.1632539    0.1018827 -64.21  0.001211831    2.055    0.513
        22 -10.9369    121.4868    244.9619   1.2804003835e+02   1.3383135350e+01    0.3672005    0.1417967  48.75  0.001733588    2.043    0.511
        23 -12.2988    126.3540    240.9122   1.2688465070e+02   1.3249573764e+01    0.3399095    0.3121782  68.96  0.001704935    1.283    0.221
        24 -10.5409     87.6362    250.6061   1.3383693188e+02   1.6907217909e+01    0.4951249    0.1191273  39.25  0.002426307    3.178    0.685
        25 -10.5229     88.5568    247.2385   1.3346299319e+02   1.7244221774e+01    0.2250951     0.119671  42.95  0.001293787    1.418    0.295
        26 -10.1766     81.5204    247.5084   1.3458162764e+02   1.8044124748e+01    0.2281981    0.1776158  45.05  0.001989983    1.254    0.203
        27 -10.0961     79.9074    243.9074   1.3459720090e+02   1.8724396943e+01    0.2402297   0.09616771  59.15  0.001406463    2.433    0.589
        28  -8.9503     74.7289    250.5948   1.3582568762e+02   1.8415391085e+01    0.1882311   0.07442933  37.21  0.001154632    2.211    0.548
        29 -14.8793     15.0843    171.2235   1.4136723061e+02   3.7427143530e+01      2.46675    0.8748989 -63.54   0.01360492    2.774    0.639
        30 -12.3863      8.2998    196.5630   1.4377939400e+02   3.3448470412e+01    0.3253056    0.2499316  71.96 0.0005162702    1.118    0.106
        31 -13.1716     44.8079    228.5562   1.3925625371e+02   2.4842258408e+01     0.455413    0.2983969  58.26 0.0009191668    1.098    0.089
        32 -14.5291     52.1112    217.1846   1.3741306521e+02   2.5838052843e+01      1.45281     1.091084  80.96   0.01211804    1.203    0.169
        33 -14.6204     29.7004    246.2989   1.4237141739e+02   2.3746963424e+01     1.917171    0.7780917  35.59   0.01295382    2.362    0.577
        34 -13.0195     13.9631    238.9706   1.4441390238e+02   2.6251810462e+01    0.3175085    0.2010565  46.98  0.002822259    1.340    0.254
        35 -11.3607    136.1770    227.8318   1.2394587317e+02   1.3594732924e+01    0.3204966    0.1537606 -46.54  0.001910254    2.768    0.639
        36 -10.8814    135.8964    241.0610   1.2533872233e+02   1.1935065613e+01    0.1911356    0.1623187  39.75 0.0006596805    1.173    0.147
        37 -12.1609    135.2217    236.8733   1.2503673083e+02   1.2554359445e+01    0.3122124    0.2726796  31.52  0.001170612    1.251    0.201
        38 -11.1032     90.3154    236.7373   1.3242278406e+02   1.8468787332e+01    0.2623664    0.1695526  64.64  0.001605568    1.394    0.283
        39  -9.7923     83.3018    238.3698   1.3367803295e+02   1.9091834007e+01    0.2646434    0.1113444  42.25  0.001652994    1.788    0.441
        40 -10.2200     86.2461    236.9914   1.3310321614e+02   1.8930624552e+01    0.2237598    0.1294257  86.18  0.001541463    2.118    0.528
        41 -10.4808    173.1635    239.6778   1.1910280643e+02   6.8576223864e+00    0.2287835    0.1477341 -44.05  0.001640254    2.119    0.528
        42 -11.0636    145.6405    240.7906   1.2371770264e+02   1.0622432159e+01     0.244202     0.123105  48.73 0.0008602964    1.631    0.387
        43 -10.7043    115.8390    240.1009   1.2852979859e+02   1.4754589445e+01    0.1771781      0.12941  55.22 0.0005424482    1.141    0.124
        44 -10.3869    165.8913    235.3315   1.1979028961e+02   8.3958843986e+00    0.1811322    0.1678061 -22.25  0.001532466    1.408    0.290
        45 -10.6332    162.0613    232.8569   1.2013910420e+02   9.2411643787e+00    0.2292189    0.1423823  59.84  0.001040431    2.038    0.509
        46  -9.3055     83.8432    242.1555   1.3385569424e+02   1.8499700429e+01    0.1800878    0.1561849  -9.99  0.001180904    2.022    0.505
        47 -14.1660      9.4234    207.9082   1.4403143088e+02   3.1454136437e+01     1.030121    0.8383518  85.70  0.008801447    1.306    0.234
        48 -11.2459     98.5407    231.1458   1.3062371208e+02   1.8226424061e+01    0.2707592    0.2256458  47.34 0.0008609063    1.185    0.156
        49  -9.3594    110.3167    233.6501   1.2887363793e+02   1.6348383997e+01    0.1638904   0.09386023  61.91 0.0009436358    1.783    0.439
        50 -11.1250    111.8409    230.1214   1.2830172630e+02   1.6634352136e+01    0.4574758    0.1944834  43.81  0.001508325    1.770    0.435
        51  -9.5917    104.2033    229.2186   1.2950929965e+02   1.7768725646e+01    0.1983801    0.1238779  60.57  0.001220194    1.468    0.319
        52  -9.1937     77.9583    233.3043   1.3418874308e+02   2.0452206431e+01    0.1731378    0.1158241  83.95  0.001339492    1.549    0.354
        53 -11.0261    156.6248    231.6828   1.2091268795e+02   1.0170343525e+01     0.210159     0.158475  34.84 0.0005095882    1.098    0.089
        54 -11.3560    122.0375    232.6555   1.2682306733e+02   1.4914898812e+01    0.2757303    0.2288958  38.42  0.001475154    1.200    0.167
        55 -10.8853    141.8317    230.7692   1.2330007489e+02   1.2408103751e+01    0.2535414    0.1927223   1.44 0.0008945247    1.936    0.483
        56  -9.8661    103.5609    244.8701   1.3091054547e+02   1.5709792384e+01    0.4134645    0.1519106  59.38  0.001912493    3.951    0.747
        57 -11.6618    244.1940    230.4647   1.0661164877e+02  -2.3879134314e+00      0.37005    0.1664817  15.97  0.001929067    2.734    0.634
        58 -10.7488    165.4707    227.3826   1.1891871471e+02   9.3995940738e+00    0.2866509    0.2147008 -68.42  0.001542884    2.119    0.528
        59 -10.7793    161.2671    223.2268   1.1912767843e+02   1.0535108741e+01    0.4147683    0.2362915  19.97  0.002105254    2.456    0.593
        60 -10.4120     84.5653    229.6898   1.3283775536e+02   2.0183435479e+01    0.1861175    0.1501947  32.72 0.0007918568    1.473    0.321
        61  -9.6849    179.7620    228.4227   1.1664978171e+02   7.1605252240e+00    0.2019324    0.1573368  79.98  0.001224719    2.241    0.554
        62  -9.2274    150.4985    229.5292   1.2170002910e+02   1.1323515535e+01    0.2082617   0.07600729  48.15  0.001031918    2.415    0.586
        63 -11.0121     79.8089    228.4692   1.3353788398e+02   2.0939267394e+01     0.309669     0.242031 -24.46  0.002105355    2.470    0.595
        64 -10.2018     78.6721    224.6908   1.3344893907e+02   2.1640079157e+01     0.187733    0.1733298 -10.50  0.001019282    1.725    0.420
        65 -10.6973     77.7935    221.0912   1.3332726961e+02   2.2293046420e+01    0.2071332    0.1248697  51.74 0.0004193669    1.273    0.215
        66  -8.9869    198.3811    228.1771   1.1354122888e+02   4.4259183524e+00     0.124726    0.1045601 -43.66 0.0009482979    1.742    0.426
        67 -10.0698    190.8561    228.1279   1.1477153108e+02   5.5467494169e+00    0.1569451    0.1193126  39.87 0.0002742273    1.189    0.159
        68  -8.9338     71.2890    228.6063   1.3495861472e+02   2.1926062176e+01    0.1073389   0.05645499  65.12 0.0001391012    1.774    0.436
        69  -9.9215     93.8743    217.5630   1.3026095679e+02   2.0826838249e+01    0.2418478    0.1494426  81.13  0.001585672    1.924    0.480
        70 -10.7311     92.8740    226.0713   1.3115748888e+02   1.9680577834e+01    0.2583217    0.1390932  53.74 0.0004873156    1.509    0.337
        71 -11.9875     98.5923    223.5454   1.2996833229e+02   1.9319467938e+01    0.4185087    0.2155466  38.64  0.002219496    1.661    0.398
        72 -10.8379    132.8427    224.7990   1.2419473273e+02   1.4474950878e+01    0.2112599    0.1593192 -14.50  0.001442057    2.134    0.531
        73 -11.9082    142.0629    221.4516   1.2223182127e+02   1.3600366258e+01    0.2920287    0.2740422  44.76    0.0023885    1.207    0.171
        74 -11.2502    137.6717    214.3923   1.2219045609e+02   1.5216330165e+01    0.4884315    0.2390957  32.91  0.001244929    2.026    0.506
        75 -10.8512    117.3694    224.3866   1.2681754019e+02   1.6692061342e+01     0.194756    0.1551143  50.92 0.0002508745    1.038    0.036
        76  -8.8702     73.4812    225.4698   1.3437660394e+02   2.2140405922e+01    0.1034245   0.07463704  58.77 0.0001154275    1.044    0.042
        77  -9.0501    220.0809    223.6450   1.0938776962e+02   1.6814494481e+00    0.1598533     0.112728  41.61  0.001121357    1.410    0.291
        78 -10.3339    149.9292    222.5100   1.2099185230e+02   1.2307001334e+01      0.18003    0.1592865  27.63  0.001416795    1.195    0.163
        79 -10.6260    110.3026    222.5818   1.2786315391e+02   1.7911029802e+01    0.2172511    0.2125712 -38.83 0.0009415726    1.394    0.282
        80 -10.4629    105.2031    219.2051   1.2843058274e+02   1.9091107530e+01    0.2667362    0.1582731  69.06 0.0004106575    1.950    0.487
        81 -11.1280     70.5066    219.1813   1.3442872682e+02   2.3454284037e+01    0.3760262    0.2522491 -83.88  0.002250644    1.556    0.357
        82  -9.6902     35.1720    219.1269   1.4032768716e+02   2.7278662949e+01    0.2495743    0.1277007 -62.20 0.0008800117    2.386    0.581
        83  -9.1202     30.9339    218.4812   1.4098551177e+02   2.7794908930e+01    0.2270274   0.07183321  52.68   0.00114207    2.283    0.562
        84  -9.2649     89.3549    219.1254   1.3118201611e+02   2.1165784028e+01    0.1698403    0.1239379 -48.89  0.001241371    1.916    0.478
        85 -10.4493    246.4187    218.8798   1.0452358667e+02  -1.6931573980e+00    0.2359179    0.1050728  27.50    0.0013286    1.884    0.469
        86  -9.7228    101.1886    216.1412   1.2884790720e+02   2.0086103776e+01    0.1592741       0.1235  55.60 0.0003112499    1.032    0.031
        87  -9.9402    101.7843    211.8264   1.2833184702e+02   2.0667849405e+01    0.2916976    0.1317702  52.54  0.001629761    1.964    0.491
        88 -10.3893     88.2709    213.0050   1.3084761212e+02   2.2250664408e+01    0.1974616    0.1574974 -87.93 0.0006349162    1.322    0.243
        89  -9.2137    152.1263    211.8849   1.1931351730e+02   1.3397161317e+01    0.1720851    0.1307334  53.21 0.0006037786    1.271    0.213
        90  -9.3522    131.5085    212.0146   1.2301602927e+02   1.6461507853e+01    0.1367052    0.1117557 -67.25 0.0003774831    1.510    0.338
        91 -10.4668     72.7662    210.0892   1.3335108682e+02   2.4630551776e+01    0.3369407    0.1771297  50.44 0.0006416682    1.505    0.336
        92  -9.4656     68.2102    211.4258   1.3425575593e+02   2.4953289832e+01    0.1488493    0.1110992  52.10 0.0004243051    1.123    0.109
        93  -9.5793     33.3883    211.5364   1.4023661122e+02   2.8673651374e+01    0.1440182    0.1032772  39.66  0.001160722    1.481    0.325
        94  -9.9722    108.9665    207.9811   1.2664944788e+02   2.0284801819e+01    0.2411977    0.1333022 -61.47  0.001478449    2.147    0.534
        95  -9.8727    135.2851    207.9537   1.2185701106e+02   1.6494611140e+01    0.2731847    0.1791328  28.45  0.001281486    1.612    0.380
        96  -8.6792    197.7339    207.9988   1.1078234255e+02   6.7711990330e+00    0.1189842   0.09776358 -15.59 0.0002662331    1.377    0.274
        97 -11.5192     92.6991    204.9228   1.2931324272e+02   2.2967192331e+01     0.546623    0.2634631  48.12  0.001638629    1.687    0.407
        98 -11.7260    247.5806    205.3236   1.0217233259e+02  -6.1958650915e-01    0.4088956    0.2268622  18.65  0.002486582    1.596    0.374
        99 -10.6375    174.8958    205.8502   1.1445044768e+02   1.0655349907e+01    0.2489428    0.1786913  -6.78  0.001507473    1.798    0.444
       100  -9.4752    149.3624    204.8454   1.1890608868e+02   1.4802921341e+01    0.2590255    0.1695859  -9.69   0.00123576    2.844    0.648
       101  -9.3540    125.8455    205.8532   1.2333096797e+02   1.8203495634e+01    0.1623791    0.1353113  38.06 0.0004391375    1.147    0.128
       102  -8.7774    114.4086    206.5363   1.2550284560e+02   1.9746722064e+01    0.2407555    0.1363739 -84.81  0.001254543    2.978    0.664
       103 -10.9455    115.3166    200.2085   1.2463057801e+02   2.0609605061e+01    0.2285846    0.2023046 -30.70 0.0002499027    1.510    0.338
       104 -10.4156    120.4852    199.5364   1.2358469100e+02   1.9965049125e+01    0.3673978    0.1745867  54.42  0.001535536    2.154    0.536
       105 -10.6862    102.4041    202.5022   1.2728520627e+02   2.2056531196e+01    0.3911599    0.1975665  52.96  0.001423782    1.767    0.434
       106  -9.7996    100.3239    198.3188   1.2723608710e+02   2.3023310123e+01    0.3525076    0.2422054  -6.82  0.001802421    3.553    0.719
       107 -10.0068     98.0265    196.2170   1.2744806218e+02   2.3685775367e+01    0.3557421    0.1606871  34.75  0.001371416    2.232    0.552
       108  -9.2525     76.1932    203.2754   1.3217883660e+02   2.5333311991e+01    0.2590777    0.1618083  31.63  0.001685797    1.796    0.443
       109 -10.1468     37.4905    202.8341   1.3905981933e+02   2.9713525211e+01    0.2437987    0.1441249 -89.55  0.001147243    1.539    0.350
       110  -9.9271    166.9818    203.2434   1.1549537867e+02   1.2257939721e+01     0.176392    0.1333779  28.56 0.0004077873    1.183    0.155
       111 -10.5695    169.7604    200.1897   1.1455638425e+02   1.2226699972e+01    0.2079843    0.1622153  34.35 0.0003475487    1.046    0.044
       112  -9.7132    133.1053    202.8858   1.2163979055e+02   1.7573220027e+01    0.1702374    0.1344689  58.41 0.0003218164    1.217    0.178
       113  -8.8846    224.8042    202.6004   1.0538248546e+02   3.1173967394e+00     0.148979   0.09403451  42.46 0.0002687162    1.507    0.336
       114  -9.5720    138.0916    201.8295   1.2058599694e+02   1.6975822165e+01    0.1704697    0.1332218  54.99 0.0003438162    1.200    0.166
       115 -10.1523     64.1823    201.9823   1.3425532167e+02   2.6980512534e+01    0.2329669    0.1574699  37.83 0.0009653362    1.490    0.329
       116 -10.1145    197.3556    200.8350   1.0975157560e+02   7.6839804398e+00    0.2437907    0.1412916  35.00 0.0009856776    1.395    0.283
       117  -9.7962     44.2997    199.1807   1.3763467975e+02   2.9641636968e+01    0.2421615    0.1404522  45.12  0.001041299    1.467    0.318
       118  -9.3116     82.0210    194.2725   1.3028557778e+02   2.6126554401e+01    0.1489795    0.1325837  48.50 0.0002201824    1.226    0.185
       119  -9.3901     84.7070    192.3452   1.2958762866e+02   2.6113593555e+01    0.1512424    0.1027559 -77.93 0.0004140815    1.560    0.359
       120  -9.2381     86.2688    199.2754   1.2996317322e+02   2.4733845355e+01    0.1508082    0.1360868  70.13 0.0001869345    1.166    0.142
       121  -9.8653     85.9721    195.9781   1.2970268279e+02   2.5327920051e+01    0.1666275    0.1331572  61.65 0.0003146814    1.027    0.026
       122  -8.9868    192.2859    198.2730   1.1023901399e+02   8.8215020736e+00    0.1171648    0.0786816  18.21            0    1.506    0.336
       123  -8.6127    149.7221    198.7222   1.1802283320e+02   1.5630202600e+01    0.1097891   0.08399235  17.09 0.0001876185    1.500    0.333
       124 -10.0698    134.0909    197.9444   1.2083640563e+02   1.8175132921e+01    0.1745769    0.1438842  51.98 0.0003486396    1.084    0.077
       125 -11.9187     69.4220    194.8067   1.3270713551e+02   2.7590453657e+01    0.3753563    0.3069603  -6.74  0.002618854    2.123    0.529
       126 -11.8884     73.8622    187.6585   1.3122179029e+02   2.8305594918e+01    0.2654392    0.2248512 -62.39  0.000830139    1.411    0.291
       127 -10.0406     77.3156    188.7284   1.3065592232e+02   2.7686723773e+01    0.1515763    0.1307148  73.33 0.0002742096    1.090    0.083
       128 -10.5090    112.9513    193.8795   1.2434473712e+02   2.1973980413e+01    0.3780394    0.2370491 -71.53  0.001739499    1.966    0.491
       129  -9.1383    107.2109    196.1865   1.2570341454e+02   2.2416198436e+01     0.158291    0.1129851  62.21 0.0004735874    1.319    0.242
       130 -10.6916    248.5325    194.1832   1.0013482933e+02   3.1266325572e-01    0.3003548    0.1479361  21.27  0.001601508    1.989    0.497
       131 -10.0524    159.9897    194.2803   1.1548961926e+02   1.4632952090e+01    0.1782791    0.1677626  28.16 0.0004250491    1.145    0.126
       132 -10.8105    120.5409    192.8750   1.2276944832e+02   2.1022594267e+01    0.2936347    0.2746908 -42.71 0.0008870026    1.317    0.241
       133 -10.6891     38.8284    192.3993   1.3818730916e+02   3.1380124366e+01    0.2303267    0.1531477 -72.93 7.140356e-05    1.527    0.345
       134  -9.9106     42.2118    189.1662   1.3735208272e+02   3.1609640828e+01    0.1438436    0.1234432  74.61 0.0005773381    1.178    0.151
       135 -10.6372     26.0226    192.9222   1.4052596743e+02   3.2525124454e+01     0.204938    0.1290509  75.41   0.00111668    1.265    0.210
       136  -9.7384    173.0744    192.4509   1.1279518612e+02   1.2747374550e+01    0.2630101    0.1693619   6.90  0.001213985    2.261    0.558
       137  -9.5296     47.6150    192.8690   1.3660877473e+02   3.0389985989e+01     0.140004    0.1062784  88.23  0.001079841    1.196    0.164
       138 -15.0120      5.4728    242.7190   1.4575037957e+02   2.6449933291e+01     1.453303    0.6047059 -85.26  0.007746231    2.228    0.551
       139 -10.2187    191.4205    191.4988   1.0931379347e+02   9.8260604629e+00    0.2224666    0.1759013  20.74 0.0006573246    1.117    0.105
       140 -10.8150     30.8895    190.0741   1.3948979188e+02   3.2569124959e+01    0.3778028    0.2011101  51.59  0.002035394    1.514    0.339
       141 -10.8108     26.0104    184.4863   1.4005801168e+02   3.4026479242e+01    0.3023266    0.1608064  51.53   0.00207835    1.534    0.348
       142  -9.9584     29.9137    182.9259   1.3923988296e+02   3.3945811767e+01    0.3283056    0.1583624  60.15  0.002078706    1.751    0.429
       143  -9.5260    135.2206    190.0159   1.1957736278e+02   1.9237602933e+01    0.1728903     0.142625  61.54 0.0004659203    1.219    0.180
       144 -12.6587    248.0741    172.2294   9.6205627570e+01   2.6564368492e+00    0.6756706    0.4418966 -13.18  0.003908351    1.426    0.299
       145 -12.3452    247.6908    241.4430   1.0765720659e+02  -3.7619735523e+00    0.4539638    0.2944023  40.63   0.00336159    1.591    0.372
       146  -9.2368     67.6942    186.6247   1.3231936925e+02   2.9238492762e+01    0.1880525   0.09705792  34.76 0.0006868551    1.977    0.494
       147 -12.5893    248.0937    101.7543   8.0808756804e+01   1.1052084745e+01    0.8845824    0.4412872 -21.63  0.003997495    1.859    0.462
       148 -10.4873     54.3783    182.0614   1.3450851423e+02   3.1598156701e+01    0.1981918    0.1665044  33.66 0.0005368481    1.454    0.312
       149  -9.6161     65.9645    181.9655   1.3223433004e+02   3.0287365705e+01    0.1609697    0.1362098  66.53 0.0003020399    1.072    0.067
       150  -9.6787     86.4998    183.5253   1.2833265601e+02   2.7428395931e+01    0.3360718    0.1579632  32.78  0.001229581    2.330    0.571
       151 -10.7968    130.0061    180.0509   1.1921547696e+02   2.1684011783e+01    0.3665909    0.2060927  60.30  0.001838464    2.179    0.541
       152  -9.7160     36.8214    184.0686   1.3801690705e+02   3.3070637335e+01    0.1976561    0.1223188  42.98 0.0006299289    1.497    0.332
       153  -9.3179    104.1040    180.6853   1.2449158895e+02   2.5500800932e+01    0.1589488    0.1286779  49.37 0.0003296429    1.089    0.082
       154 -11.2646    141.1293    183.7230   1.1754750878e+02   1.9300218660e+01    0.3953767    0.1995123  55.81  0.001327348    2.327    0.570
       155  -9.5242    175.8765    179.8742   1.1025523428e+02   1.4055650980e+01    0.1906612    0.1509229  18.67 -0.0006383859    1.233    0.189
       156  -9.2765    170.0867    180.0924   1.1138859940e+02   1.5019792055e+01    0.1814064    0.1466509  21.65            0    1.187    0.157
       157  -9.3542     48.0887    179.6200   1.3553686522e+02   3.2730396964e+01    0.1485867   0.09107132  41.42 0.0005216246    1.538    0.350
       158 -11.5022     83.1828    175.7428   1.2815208724e+02   2.9280215551e+01    0.2958729    0.2729247  53.64  0.001084226    1.190    0.160
       159 -11.8182     69.1401    174.3905   1.3087311273e+02   3.1308954384e+01    0.3637805    0.2820944 -44.49  0.002464875    1.742    0.426
       160 -10.3577     76.3562    175.1675   1.2948256776e+02   3.0267943964e+01    0.3792418    0.1629931  56.75  0.001748128    2.473    0.596
       161  -9.5563    114.9049    176.5454   1.2177259871e+02   2.4631991173e+01    0.2239233    0.1522349 -84.02 0.0008512142    1.905    0.475
       162  -9.5314     30.0456    177.6384   1.3888253018e+02   3.4904673256e+01    0.2147741   0.08874401  34.11  0.001231562    2.422    0.587
       163  -9.6196    179.3824    175.1511   1.0878754614e+02   1.4130343300e+01     0.155098    0.1208604 -51.48 0.0001142124    1.655    0.396
       164 -10.8907     95.6486    172.8182   1.2524494004e+02   2.8124133067e+01    0.2191363    0.1938738  78.80 0.0003515839    1.078    0.072
       165 -12.7724     88.6400    167.1880   1.2601569388e+02   3.0150524967e+01    0.7101789    0.6553165  80.30  0.005111632    1.104    0.094
       166 -10.8494     89.9456    160.6603   1.2490368111e+02   3.1222148458e+01    0.2877935    0.2129756 -75.14 0.0004610005    1.374    0.272
       167 -10.7919     28.2988    171.4226   1.3881571662e+02   3.6231866291e+01     0.313292    0.1595618 -76.33  0.001263105    1.745    0.427
       168  -9.0276     31.3468    171.7033   1.3823545466e+02   3.5894599826e+01    0.1090948   0.08795522  79.19 0.0004812727    1.073    0.068
       169  -9.4534    154.7540    172.4221   1.1310694753e+02   1.8840012716e+01    0.1683771    0.1091134  33.73 0.0002642917    1.447    0.309
       170 -11.2554      2.0746    166.7323   1.4362760381e+02   3.9291968197e+01    0.4693408    0.1266502 -86.46  0.002199588    3.396    0.706
       171 -10.2942     80.8137    163.6742   1.2725482743e+02   3.1875875441e+01    0.2193049    0.1717753  60.37  0.001455524    1.139    0.122
       172  -9.1257    166.8926    170.1927   1.1033311483e+02   1.7075176539e+01    0.1731082    0.1420869   7.42 0.0008493159    1.317    0.241
       173  -9.4079    100.5693    170.4870   1.2392523460e+02   2.7851900199e+01    0.1190567    0.1053177  63.27 -0.0001795346    1.016    0.016
       174 -10.7805     43.7661    168.6846   1.3552218751e+02   3.5246374436e+01    0.2819473    0.2467389 -59.34  0.001543801    1.441    0.306
       175  -9.6096     48.3150    168.6485   1.3459129338e+02   3.4777058465e+01    0.2075063     0.138965  63.98  0.001405109    1.290    0.225
       176  -8.9088    126.6787    168.3245   1.1816901392e+02   2.4235927202e+01    0.1280878   0.09171747  70.68 0.0007046728    1.680    0.405
       177  -9.5232    107.2077    168.2113   1.2222819165e+02   2.7293810142e+01    0.1694469    0.1556129  47.95 0.0004634454    1.111    0.100
       178 -10.8577     68.9186    166.9891   1.3015574827e+02   3.2744347703e+01    0.2066757    0.1674455 -82.96 0.0003278491    1.172    0.147
       179  -9.3811     58.4002    167.6225   1.3241822951e+02   3.3863701090e+01     0.168158    0.1059226  68.25 0.0007162796    1.489    0.328
       180  -9.1094    136.4259    165.5001   1.1569931646e+02   2.3123220191e+01    0.1264234    0.1137298  50.96 3.280572e-05    1.041    0.040
       181  -8.7467     53.7832    164.9888   1.3313088986e+02   3.4893004128e+01    0.1387376   0.08163486 -74.44 0.0003160249    1.593    0.372
       182 -10.7084     47.3449    163.3093   1.3432485993e+02   3.5916708419e+01    0.2904028    0.1445379  50.75  0.001694115    1.797    0.444
       183 -12.9415    248.3834    114.1217   8.3732013617e+01   9.4455288155e+00     1.251052    0.6256526 -15.26  0.005551682    2.074    0.518
       184  -9.0920    123.1761    160.8251   1.1774347424e+02   2.6153832206e+01    0.1618123    0.1418243  20.91 0.0002833633    1.279    0.218
       185 -12.0377      9.1176    154.7401   1.4162518259e+02   4.1066937946e+01    0.3891179    0.1268854 -84.68  0.001798709    2.721    0.632
       186 -12.6233     14.3611    153.9598   1.4049860132e+02   4.0813127084e+01    0.3716499    0.2529282  58.50  0.002132054    1.288    0.224
       187 -11.6514     34.6995    159.7602   1.3667242228e+02   3.7886322360e+01    0.4558294    0.3277543  34.19  0.003232376    1.585    0.369
       188 -13.2151     31.1602    227.8147   1.4138012312e+02   2.6320799941e+01     1.319582    0.5572931  46.42  0.009249485    1.716    0.417
       189  -9.9247     33.0178    153.9887   1.3656324567e+02   3.9194285761e+01    0.2039022    0.1671799 -44.90 0.0003317992    1.650    0.394
       190 -13.4030     22.8935    156.0267   1.3886051610e+02   3.9697352450e+01    0.6011112    0.4643218  34.66  0.004550277    1.530    0.347
       191 -11.7601     23.5520    149.9165   1.3827787313e+02   4.0862496956e+01    0.2458851    0.1425013 -66.64  0.001046717    1.612    0.380
       192 -11.1249     96.0669    157.5935   1.2314828812e+02   3.0947507569e+01     0.380719    0.2024182 -64.88  0.000893651    2.015    0.504
       193 -10.8950    101.6655    151.1330   1.2095537755e+02   3.1382927473e+01    0.3320445    0.2546843  63.26  0.001538335    1.293    0.227
       194  -9.7673     96.4931    152.3012   1.2229386039e+02   3.1922594410e+01     0.204085    0.1770883  11.44  0.001289057    1.479    0.324
       195  -9.8563    104.3399    146.0676   1.1955092499e+02   3.1976080341e+01    0.2844343    0.1996511 -33.05   0.00152365    1.910    0.476
       196  -9.0214    104.2822    142.3264   1.1894972299e+02   3.2733036297e+01    0.2393448    0.1597731 -35.82  0.001046557    1.942    0.485
       197 -10.2462     73.5530    159.5589   1.2833419766e+02   3.3618170684e+01    0.4488551    0.2086493  63.06  0.001996495    2.759    0.638
       198 -10.4966     74.5247    156.5540   1.2776232232e+02   3.4090436276e+01    0.2993817    0.1587692  53.46  0.001060857    1.828    0.453
       199  -9.9626     79.0444    158.9245   1.2705985886e+02   3.3036023678e+01    0.1796828    0.1534416  72.58 0.0004116445    1.027    0.026
       200  -9.0935     52.4811    158.4826   1.3278336542e+02   3.6318350427e+01    0.1136327   0.09482772  79.18 0.0004652767    1.021    0.021
       201  -9.5850     47.7214    157.8111   1.3374248201e+02   3.6964087477e+01    0.1853743    0.1424698  58.34 0.0008840184    1.177    0.151
       202 -11.1691    133.6037    142.6966   1.1231644456e+02   2.7750263159e+01    0.8855818    0.2625423 -52.04  0.002963788    3.967    0.748
       203  -9.2381    228.3714    155.2757   9.6108061777e+01   8.0211231683e+00    0.1673816    0.1144297 -31.92 0.0005054233    1.581    0.368
       204  -9.8610     53.0107    146.4672   1.3142044462e+02   3.8698810215e+01    0.1945871    0.1628385  52.40 0.0007962066    1.212    0.175
       205  -9.8548     60.8961    151.4383   1.3019247205e+02   3.6786479481e+01    0.2920084    0.1663354  72.55  0.000539833    1.951    0.488
       206 -11.0156     56.2699    150.4515   1.3111975363e+02   3.7517831862e+01    0.5197529    0.2565159  59.54   0.00270868    2.135    0.532
       207 -11.4216    113.9681    150.8978   1.1815830853e+02   2.9510216580e+01    0.3148906    0.2855592  -6.99  0.001136209    1.350    0.259
       208  -8.8198    148.6842    152.6563   1.1089945849e+02   2.3232244729e+01    0.1350093    0.1024581   3.99 -2.180306e-05    1.714    0.416
       209 -10.4597     90.3006    149.8513   1.2333671710e+02   3.3304549086e+01    0.2139892    0.1917955  57.36 0.0003259357    1.081    0.075
       210 -13.2174     67.3532    144.1824   1.2784569635e+02   3.7505812639e+01    0.8073695    0.5120898  77.20  0.004555535    1.726    0.420
       211 -12.0588     74.0536    138.8971   1.2555619558e+02   3.7764325588e+01    0.6024106    0.4259076  82.07  0.002499454    1.489    0.328
       212 -10.8597     35.1886    148.8632   1.3565582842e+02   4.0027223976e+01    0.2557156    0.1268165  47.28  0.001172913    1.866    0.464
       213 -11.0101     32.4265    145.7824   1.3599761904e+02   4.0916225002e+01    0.2330581    0.1151462 -67.66 0.0009737294    1.785    0.440
       214  -9.6642    134.4732    155.5486   1.1444791729e+02   2.5223252709e+01    0.2142291    0.1938562 -74.70 0.0005818958    1.220    0.180
       215 -11.3936     37.3131    144.0709   1.3474364779e+02   4.0809695431e+01    0.2323199    0.1820495  70.07 0.0006428204    1.121    0.108
       216 -12.1031      2.2722    132.1685   1.4174254668e+02   4.6097857316e+01    0.4419595    0.1828282 -83.63  0.002498505    1.934    0.483
       217 -11.3522      2.2249    143.2438   1.4241030317e+02   4.3846820400e+01    0.2316155    0.1175009 -86.61  0.001482249    1.557    0.358
       218 -10.4033     42.0873    140.6720   1.3331409232e+02   4.1050101603e+01    0.2204076    0.1108534  50.65  0.001225574    1.914    0.477
       219 -11.8441     32.8206    137.2946   1.3513173181e+02   4.2644667660e+01    0.3663824    0.1541068 -54.44  0.001861147    2.519    0.603
       220 -11.8557     18.6639    140.3884   1.3863047658e+02   4.3211437617e+01    0.2798817    0.1427626  53.81  0.001470568    1.820    0.451
       221 -13.0057     46.1857    248.5513   1.4003180489e+02   2.1794530860e+01     1.265859    0.3620252  36.24  0.006950013    3.188    0.686
       222 -11.6088     47.8800    138.3880   1.3171370560e+02   4.0937364780e+01     0.418416    0.2079642  23.10  0.002099934    2.815    0.645
       223  -9.5230    118.9966    138.5166   1.1486109727e+02   3.1096053771e+01    0.1931772    0.1260912  41.31 0.0004137365    1.482    0.325
       224 -10.9355     13.0806    137.5179   1.3966958326e+02   4.4236218836e+01      0.17768    0.1147595 -84.49  0.001221175    1.235    0.190
       225 -10.7201    112.0197    136.1765   1.1606361406e+02   3.2728887858e+01     0.333106    0.2648147   6.67  0.001247385    1.698    0.411
       226  -9.9651    132.1649    152.2301   1.1436968616e+02   2.6226364903e+01    0.2178468    0.1883703 -65.54   0.00037254    1.270    0.212
       227 -10.7377     58.8888    133.2553   1.2844725775e+02   4.0817265981e+01    0.2176552    0.1477449 -84.24 0.0007372377    1.407    0.289
       228 -12.7153     45.8718    131.8836   1.3144972327e+02   4.2529526197e+01    0.5967285    0.3836441  61.36  0.003627767    1.538    0.350
       229 -11.9119     67.7057    128.3339   1.2557903294e+02   4.0818952832e+01    0.4960139      0.32007  58.27            0    1.615    0.381
       230  -9.7972    117.4420    128.7792   1.1336645292e+02   3.3306333334e+01    0.1927892    0.1249882 -39.11 0.0009454402    1.728    0.421
       231  -9.7163    106.5244    128.9115   1.1603497109e+02   3.5110383229e+01    0.3000931    0.1762926 -72.04  0.001348004    2.270    0.559
       232  -9.3828    175.9569    186.9977   1.1140661882e+02   1.3026974538e+01     0.172773    0.1434333  66.86 0.0003804988    1.571    0.364
       233 -11.9384     24.7728    125.9996   1.3596865098e+02   4.5744042509e+01    0.3284881    0.1966472   5.92  0.001842478    2.848    0.649
       234 -11.6116     32.6804    127.3377   1.3416810461e+02   4.4776009876e+01    0.2861613    0.1633379 -84.42   0.00167491    1.564    0.361
       235 -11.1730     29.6797    126.6877   1.3483653982e+02   4.5180984972e+01    0.2643451    0.1556199 -55.41   0.00143635    1.731    0.422
       236 -10.4989    209.7924    125.8295   9.2957389249e+01   1.5602587706e+01    0.2827952    0.2256238 -12.41 0.0005175643    1.195    0.163
       237  -8.9390     85.4725    126.5992   1.2083749253e+02   3.8818228716e+01    0.1269856    0.1172336  84.84 0.0002299485    1.019    0.019
       238 -12.8712     18.3941    122.4946   1.3720432265e+02   4.7001361309e+01    0.4909379    0.3347485 -24.38   0.00307925    2.323    0.570
       239 -11.8913    247.8801    142.4832   9.0203619047e+01   6.0735429955e+00    0.6688392    0.4672346  -6.93  0.003887034    1.282    0.220
       240 -10.8999     38.0961    121.7143   1.3218582597e+02   4.5497251384e+01    0.2154634    0.1773349 -74.33 0.0004424478    1.103    0.093
       241 -10.1931    238.7837    121.9623   8.7073022245e+01   1.0320346291e+01    0.2228096    0.1610814   4.87  0.001209353    1.315    0.239
       242 -10.6084     55.1125    120.8993   1.2770466835e+02   4.3925420106e+01    0.2384491    0.1854229  25.24   0.00149652    1.578    0.366
       243 -12.0544      9.8997    117.9053   1.3890396389e+02   4.8595779952e+01    0.3747767    0.2004935 -40.87  0.002120958    2.607    0.616
       244 -11.9987     31.0110    117.5055   1.3351252131e+02   4.7059894738e+01    0.3729211    0.2498944 -42.05  0.001818689    1.851    0.460
       245 -11.6956     15.4000    114.6796   1.3723219839e+02   4.8910891443e+01      0.28859    0.1659897 -77.18 0.0009144085    1.385    0.278
       246 -12.6709    248.7900    132.8390   8.7954314073e+01   7.0657433025e+00     1.139997    0.5991985 -23.77  0.005661192    1.758    0.431
       247 -11.4497    168.2732    113.4659   9.8218599494e+01   2.6326824245e+01    0.3470177    0.3116706 -82.43 0.0007601531    1.406    0.289
       248  -8.7386     82.0136    114.2426   1.1951488999e+02   4.1984269777e+01    0.1563174    0.1108892  38.61            0    1.496    0.332
       249  -9.1447     30.7097    194.9874   1.3980530825e+02   3.1723182379e+01    0.1385878    0.1018442  69.11 0.0005929208    1.011    0.011
       250  -9.5155    203.7773    111.4229   9.0591037490e+01   1.9011954792e+01    0.2105109    0.1252734  36.35 0.0009458302    1.675    0.403
       251 -10.5880     69.9158    111.0600   1.2218837491e+02   4.4323746696e+01    0.1957941     0.180072  67.27  0.001267671    1.121    0.108
       252 -11.5162     56.6981    110.5647   1.2571316342e+02   4.6035848541e+01    0.4030368      0.25072   6.49  0.001615242    2.790    0.642
       253  -9.7656    113.9126    106.3131   1.0940121061e+02   3.8552346087e+01     0.400592    0.2500876 -78.66 0.0009941837    2.866    0.651
       254 -12.1613      2.1018    122.8465   1.4117056943e+02   4.8051024498e+01    0.6599512    0.1127313 -79.68     0.002256    5.108    0.804
       255  -9.6486    134.7445    105.2623   1.0388326667e+02   3.4811604976e+01    0.2378106    0.1176746 -33.14 0.0009019052    2.429    0.588
       256 -11.4173     27.8400    106.4320   1.3304358804e+02   4.9775170460e+01    0.2323891    0.2300973  84.56  0.001409852    1.274    0.215
       257  -8.5766     42.6786    103.7025   1.2853723172e+02   4.9056480005e+01    0.1210238   0.08467827 -42.31 0.0004264326    1.620    0.383
       258  -9.2336     17.0000     90.9451   1.3419388626e+02   5.4052471688e+01    0.1969053   0.05391181 -72.00 0.0004122548    2.886    0.654
       259 -10.1667     46.6313     90.1418   1.2511103738e+02   5.1730076006e+01    0.3150193    0.1746695  19.96  0.001339559    2.430    0.588
       260 -11.7114     42.9688    237.8767   1.4001315462e+02   2.3644208128e+01    0.2760888    0.1581648 -86.27  0.002190437    1.742    0.426
       261  -8.8572    124.2526     51.3208   9.0293050439e+01   4.7277005939e+01    0.1504225    0.1130246   1.72 0.0001338525    1.536    0.349
       262 -10.0083    169.3824    248.8475   1.2074006400e+02   6.3934976765e+00    0.2073526    0.1352767  15.25 0.0006981579    1.904    0.475
       263  -9.8795    199.9081    245.6881   1.1554729905e+02   2.4380385983e+00    0.1506507   0.09972791  34.29 0.0004123736    1.080    0.074
       264 -10.3404    222.9948    244.5028   1.1181048213e+02  -6.6704397541e-01    0.1675299   0.07517467  37.63  0.001038825    1.609    0.379
