#   1 NUMBER                 Running object number                                     
#   2 MAG_AUTO               Kron-like elliptical aperture magnitude                    [mag]
#   3 X_IMAGE                Object position along x                                    [pixel]
#   4 Y_IMAGE                Object position along y                                    [pixel]
#   5 X_WORLD                Barycenter position along world x axis                     [deg]
#   6 Y_WORLD                Barycenter position along world y axis                     [deg]
#   7 A_WORLD                Profile RMS along major axis (world units)                 [deg]
#   8 B_WORLD                Profile RMS along minor axis (world units)                 [deg]
#   9 THETA_WORLD            Position angle (CCW/world-x)                               [deg]
#  10 FWHM_WORLD             FWHM assuming a gaussian core                              [deg]
#  11 ELONGATION             A_IMAGE/B_IMAGE                                           
#  12 ELLIPTICITY            1 - B_IMAGE/A_IMAGE                                       
         1 -14.8579    215.6415      9.7352   3.7974019086e+01   3.0110427130e+01     2.236504     1.525313  36.20  0.009668964    2.070    0.517
         2 -14.3640    190.9689     40.6287   4.8902341709e+01   3.2435143821e+01     1.136639      1.08925  -5.96   0.00404829    1.200    0.167
         3 -13.5440    195.6544     34.8470   4.6657373985e+01   3.2026908130e+01    0.6557649    0.5715947  58.94  0.001196395    1.188    0.158
         4 -11.9815    189.5994     14.8849   4.1971612639e+01   3.5899185826e+01    0.3118489    0.2539596 -47.33 0.0008719144    1.238    0.192
         5 -13.2086     41.3437      6.6934   7.4707269929e+01   6.9537213089e+01    0.5558832    0.3468783  10.41  0.003311098    1.557    0.358
         6 -14.0282    175.6359     54.3074   5.5301070592e+01   3.4348196411e+01     1.798844      1.25696  23.93  0.004907802    1.952    0.488
         7 -12.3808     60.0698      3.1948   6.5098228553e+01   6.6949902287e+01    0.4623292    0.1601975  36.90  0.001967239    2.765    0.638
         8 -10.1249     98.6893      2.3138   5.2985858159e+01   5.9307341704e+01    0.1206341    0.0995242 -66.89 0.0007030332    1.632    0.387
         9 -11.2347    247.1228      1.7030   3.3738133606e+01   2.3864716870e+01    0.5535411     0.145634  79.18  0.002036626    4.106    0.756
        10 -11.1770     96.4233    202.2231   1.0842117998e+02   1.9847217175e+01    0.2850987     0.224409 -70.62 0.0009862108    1.314    0.239
        11 -12.5043    248.7023    244.0309   8.4669316584e+01  -1.1231037678e+01    0.7821116    0.3813341   4.35  0.003734811    2.948    0.661
        12 -16.7102     70.1439    144.4462   1.0634034178e+02   3.7136740285e+01     8.005255     4.045759  66.96   0.02913345    3.264    0.694
        13 -13.2507     59.1659    194.1432   1.1564928054e+02   2.6924610969e+01    0.5278108    0.3131351 -52.92  0.002047487    1.965    0.491
        14 -10.2940     43.8552    198.8044   1.1936956994e+02   2.7787261365e+01     0.261472    0.1567684 -53.14  0.001362083    2.039    0.510
        15 -10.8832     36.1763    197.9377   1.2089225985e+02   2.8849463666e+01    0.1684745     0.129605  73.25 0.0003682385    1.046    0.044
        16  -9.6714    186.6691    186.3074   8.6058699623e+01   7.0055421542e+00    0.2047658    0.1687646  74.82 0.0007150058    1.705    0.414
        17 -10.8133     81.9572    194.6941   1.1067156163e+02   2.3657287658e+01    0.3050998    0.2303183  52.08  0.001044385    1.203    0.169
        18  -9.4159     77.8773    192.6220   1.1133049773e+02   2.4706569386e+01    0.1868819     0.119929  43.18 0.0004362137    1.470    0.320
        19 -10.2026     75.6948    246.3692   1.1720355383e+02   1.4273896187e+01    0.3764891    0.1413943 -66.12  0.001871507    2.919    0.657
        20 -13.0795    149.8671    188.6398   9.4415581687e+01   1.3450971311e+01    0.8768464    0.4883425 -70.21  0.003211343    3.330    0.700
        21  -9.9670     38.5525    192.5555   1.1994073266e+02   2.9757885045e+01    0.1217275   0.09950054  82.29 0.0002256459    1.051    0.048
        22 -18.3917     36.7389    237.3272   1.2359115818e+02   2.0827842462e+01     7.477062     4.155326  38.16   0.03384244    1.781    0.438
        23 -10.6451     96.7070    190.6763   1.0680846628e+02   2.2284116599e+01    0.2289434    0.1965446 -89.69 0.0005651694    1.126    0.112
        24 -11.6495     94.5897    187.1900   1.0680476918e+02   2.3388472193e+01    0.5892707    0.3556309  30.92 0.0003762202    1.871    0.466
        25 -12.3699     99.3788    180.8725   1.0475837675e+02   2.4034338924e+01    0.4454617    0.3939361 -53.60  0.002598495    1.247    0.198
        26  -9.6692     47.5938    191.6329   1.1791635430e+02   2.8916180037e+01    0.1262525   0.09708854  72.81 0.0002470178    1.093    0.085
        27 -12.3183     66.0580    204.6723   1.1525597066e+02   2.3735663833e+01    0.5424929    0.2313121 -52.45  0.001112888    2.865    0.651
        28  -9.2582     49.8506    187.1494   1.1697983184e+02   2.9645885862e+01    0.2218529     0.124408 -34.90 0.0009168786    3.792    0.736
        29 -12.3367    143.5368    178.0044   9.3915425724e+01   1.6818559715e+01    0.4947785    0.2696687 -49.10  0.001218709    1.934    0.483
        30 -12.9363    241.2947    178.4189   7.4013847011e+01  -1.3880076855e+00    0.4054675    0.3049412  23.21  0.002384322    1.290    0.225
        31 -11.2098    187.7032    176.1468   8.3830892328e+01   8.6706010108e+00    0.3641446     0.345826 -82.36  0.001359496    1.288    0.224
        32 -11.1337    149.3179    177.0125   9.2405874541e+01   1.5925052976e+01    0.2575376    0.2021475  50.00 0.0003964391    1.250    0.200
        33 -13.2320    235.6476    173.3550   7.3977552460e+01   3.5322106006e-01    0.7055061    0.3394984  32.58  0.003137509    2.259    0.557
        34 -11.3161     44.9832    172.1077   1.1650985355e+02   3.3664271802e+01    0.7081022    0.1777591  39.90  0.002707172    3.405    0.706
        35  -9.9866     59.3147    176.8329   1.1368478002e+02   3.0822758229e+01    0.1866069    0.1508366  87.52 0.0005220524    1.079    0.073
        36 -10.1425    193.8993    171.3197   8.1556248515e+01   8.3686815515e+00     0.229029     0.203411 -50.08  0.000757515    1.279    0.218
        37 -10.7363    185.3973    169.5972   8.2968662645e+01   1.0350806227e+01    0.2649648    0.2464236  81.78 0.0008350177    1.309    0.236
        38 -11.8822    230.5941    167.4806   7.3662774095e+01   2.1851023478e+00    0.4279402    0.2141049 -49.54  0.001759651    2.680    0.627
        39 -10.0617    187.8473    162.7765   8.1008830760e+01   1.1168251843e+01    0.2753611     0.195829 -67.03  0.001010277    2.078    0.519
        40 -12.5313     96.4000    150.9140   1.0046365285e+02   3.1528991197e+01    0.6209695    0.5331643  -9.55  0.003284573    1.506    0.336
        41 -11.7733    134.1521    146.9491   8.9922914163e+01   2.5478147722e+01     1.219922    0.3294593 -54.74   0.00303279    5.123    0.805
        42 -10.2856    133.0000    140.0029   8.8670930819e+01   2.7295759139e+01    0.3492768    0.1583164 -41.81 0.0009766056    2.375    0.579
        43 -10.9769    187.3264    151.6465   7.8671551204e+01   1.3433862120e+01    0.2883466    0.2559566   0.52 0.0008308415    1.151    0.131
        44 -10.5325    113.2257    151.2156   9.6138850726e+01   2.8507768003e+01    0.3070628    0.2095219  79.63  0.001145907    2.037    0.509
        45 -10.3037    174.7494    149.1498   8.0826615327e+01   1.6566023609e+01    0.2616043    0.2112585  56.90 0.0007096344    1.356    0.263
        46 -13.6125    204.0817    200.2065   8.5187745632e+01   1.4996309284e+00     1.438845    0.4663046  29.22  0.003681679    6.591    0.848
        47 -10.5524    108.9843    147.0412   9.6405036832e+01   3.0266198150e+01    0.2253589    0.2080604  83.49            0    1.071    0.067
        48 -12.0367    193.5903    196.0479   8.6495723811e+01   4.0341286757e+00     1.354127    0.6551054 -57.88  0.004605824    4.495    0.778
        49  -9.3967    101.7112    132.7212   9.5367513311e+01   3.5001145360e+01    0.2155314    0.1929764  51.86 0.0003065682    1.145    0.126
        50 -11.9611    107.9306    137.4052   9.4678598698e+01   3.2756175146e+01    0.5573579    0.4131467 -47.92   0.00269753    1.340    0.254
        51 -11.6522    105.9176    130.7561   9.3770675166e+01   3.4715425315e+01    0.4086528    0.3340468 -65.36  0.001155124    1.226    0.184
        52 -12.4331     95.9261    136.7818   9.7825618634e+01   3.5024684941e+01    0.3043108    0.2689183 -59.00 0.0005249508    1.087    0.080
        53 -11.2335    135.9381    129.0654   8.5356208004e+01   2.9183069357e+01    0.6050225     0.191336 -51.41  0.001743027    3.509    0.715
        54 -10.2838    160.8776    128.3000   7.9044470510e+01   2.3941397391e+01    0.2876068    0.2207044 -55.00  0.001331306    1.383    0.277
        55 -11.2582    102.4794    124.4389   9.3295517100e+01   3.6853781693e+01    0.2884305    0.2440438 -22.58 0.0005910555    1.371    0.270
        56 -11.1132    120.5162    122.6940   8.7870936687e+01   3.3820096261e+01    0.4825216     0.288599 -23.47  0.001715153    2.801    0.643
        57 -11.1843    114.9288    128.8040   9.0852379658e+01   3.3487428714e+01    0.3346404    0.3159894  10.92 0.0008038931    1.159    0.137
        58 -10.1928    110.1635    118.0370   8.9589850748e+01   3.6940988368e+01    0.2365674    0.2172942  42.83 0.0002895218    1.127    0.113
        59 -10.8800    231.2194    113.7451   6.1499981039e+01   1.1239068961e+01    0.2842729    0.2559107 -36.22 0.0007240926    1.023    0.022
        60 -10.0280    167.9235    112.8051   7.3459126594e+01   2.5590409148e+01    0.3074222    0.2059881 -67.49  0.001221152    2.099    0.523
        61 -10.5401    134.6262    105.6214   7.9637057038e+01   3.4701089103e+01    0.4985417    0.1481875 -46.77  0.001425434    3.413    0.707
        62 -11.9253    118.7094    110.6543   8.5304994453e+01   3.6960058052e+01    0.6382499    0.4465902  69.13  0.002582752    1.939    0.484
        63 -10.4105    205.4378    110.1302   6.5084621463e+01   1.7470048498e+01    0.3118317    0.2288475  46.68 0.0008090647    1.437    0.304
        64 -11.8575     71.9703    244.6484   1.1774571394e+02   1.5084056661e+01    0.2672365    0.1703483 -71.80   0.00121809    1.694    0.410
        65 -19.1281     14.0796     99.3584   1.1558807735e+02   5.3904041500e+01     15.81959    0.7024578 -69.03   0.02541425   16.884    0.941
        66 -10.6529     74.8161    250.6286   1.1771232021e+02   1.3642100852e+01    0.1056933   0.08658724  72.39 0.0001781605    1.136    0.120
        67  -9.3433    154.5231     82.4984   6.8043929319e+01   3.4801934430e+01    0.1555926    0.1522313   7.23 8.274904e-05    1.044    0.042
        68  -9.2048    184.3515     77.2920   6.0310639153e+01   2.8408126377e+01    0.1561389    0.1189793  22.99 0.0007029269    1.676    0.403
        69 -10.1883     70.4998    199.9368   1.1380397254e+02   2.4147251514e+01    0.2708511    0.1960897  64.11  0.001424006    1.225    0.184
        70 -11.9070     43.7022    210.2823   1.2036455859e+02   2.5368649965e+01    0.2690013    0.1858211  78.50 0.0009493323    1.215    0.177
        71 -12.3266    249.0183    229.6955   8.2227098057e+01  -9.6004219169e+00    0.3882997    0.1888968 -31.57  0.002163655    2.042    0.510
        72  -8.9344    166.2711    233.6697   9.8225697827e+01   2.5344634706e+00     0.117851   0.09382159  65.22 0.0002832326    1.587    0.370
        73 -11.6118     43.0496    206.0741   1.2015311486e+02   2.6327510063e+01    0.3190525    0.2786708 -40.70  0.001319941    1.684    0.406
        74 -11.0811    184.0741    211.9987   9.1259516368e+01   3.0334353799e+00    0.2111143    0.1831619  21.28 0.0008525395    1.015    0.015
        75 -10.2167     93.6918    205.4342   1.0942169481e+02   1.9596466084e+01    0.2603083    0.2192639  31.08 0.0008800688    1.358    0.264
        76 -12.1238     56.0896    201.1583   1.1701420804e+02   2.5788403950e+01     0.340051    0.2377045 -43.78  0.001937355    2.041    0.510
