#   1 NUMBER                 Running object number                                     
#   2 MAG_AUTO               Kron-like elliptical aperture magnitude                    [mag]
#   3 X_IMAGE                Object position along x                                    [pixel]
#   4 Y_IMAGE                Object position along y                                    [pixel]
#   5 X_WORLD                Barycenter position along world x axis                     [deg]
#   6 Y_WORLD                Barycenter position along world y axis                     [deg]
#   7 A_WORLD                Profile RMS along major axis (world units)                 [deg]
#   8 B_WORLD                Profile RMS along minor axis (world units)                 [deg]
#   9 THETA_WORLD            Position angle (CCW/world-x)                               [deg]
#  10 FWHM_WORLD             FWHM assuming a gaussian core                              [deg]
#  11 ELONGATION             A_IMAGE/B_IMAGE                                           
#  12 ELLIPTICITY            1 - B_IMAGE/A_IMAGE                                       
         1 -14.5697     88.5518    137.0020   9.3639959442e+01   3.6375420091e+01     3.401699     1.720129  49.58  0.007899331    2.251    0.556
         2 -14.3618     55.2842    110.9019   9.8308652058e+01   4.7701279779e+01     2.913538     1.861662 -81.25   0.01198176    2.008    0.502
         3 -15.1866     55.5429    163.9514   1.0750376863e+02   3.4452038167e+01     4.000389     2.962685  71.69   0.01346742    1.370    0.270
         4 -14.4334     50.7948     71.0152   8.9600676123e+01   5.7401223271e+01     4.088377     2.960499 -31.99   0.01500101    1.281    0.219
         5 -13.0185      8.7457     66.2609   1.0547208709e+02   6.2363510140e+01     1.592616    0.7849486 -69.64  0.006366905    2.081    0.519
         6 -13.2685      3.8852     20.4702   9.3567661499e+01   7.1547799532e+01     2.433445    0.8306358 -53.46   0.01134834    2.964    0.663
         7 -12.4777     20.2827      3.3660   7.6084972830e+01   7.2502363018e+01     1.423748     0.552861  27.16   0.00613266    2.605    0.616
         8 -14.9638    117.6302     18.7732   4.9349456618e+01   5.2841983289e+01      2.98582     2.204274 -52.86   0.01364419    1.628    0.386
         9 -11.5864    140.1336     37.8499   5.1200970393e+01   4.5269623183e+01    0.9344597    0.7660545   1.18  0.004739359    1.453    0.312
        10 -11.9705     53.5171     37.7338   7.6636000130e+01   6.3210204781e+01    0.8899469    0.5834456  19.59  0.002669138    1.546    0.353
        11 -12.2843     60.9598     18.3277   6.5262266594e+01   6.4697200578e+01     1.014847    0.7906857  -9.91  0.003718823    1.211    0.174
        12 -12.0288    221.7288     30.2069   3.7705713588e+01   2.6739380015e+01    0.8875919    0.5390821  40.90  0.004424931    2.498    0.600
        13 -11.1597    242.4093     11.7390   3.2043308458e+01   2.4495599502e+01    0.5990666    0.4012718 -62.39  0.003206354    1.211    0.174
        14  -9.4005     75.5903     12.6156   5.7693260892e+01   6.2591439605e+01    0.4728079    0.2390716  66.79  0.001992282    3.195    0.687
        15 -10.4258    114.0997    240.6413   1.0381519975e+02   9.0483048617e+00    0.2079428    0.1733089  84.13  0.001322874    1.340    0.254
        16  -9.7635    249.1104    248.7639   7.9072147899e+01  -1.1745386801e+01    0.2533951    0.1831156 -19.93  0.001817886    1.301    0.231
        17 -12.2393    223.0995    248.2984   8.3532440388e+01  -8.4032741737e+00     1.072378    0.4974563  35.40   0.00416776    1.946    0.486
        18  -9.9185    213.4032    250.0599   8.5566778508e+01  -7.3302540444e+00    0.3078701    0.1667408  30.85  0.001296418    1.573    0.364
        19  -9.9200    171.9842    249.4259   9.3322081803e+01  -1.2874991020e+00    0.4204879    0.2164576  50.40  0.002021762    2.424    0.587
        20 -11.5007     79.8816    238.2742   1.1055965286e+02   1.4499840096e+01    0.7799257    0.4832232  69.62  0.003108472    1.694    0.410
        21 -11.9750     90.8090    248.6343   1.0939330648e+02   1.1008015779e+01     0.578183    0.5269288  46.61  0.002782499    1.185    0.156
        22 -11.1549     84.3865    249.7532   1.1076723438e+02   1.1704796637e+01    0.6146929    0.3109654  38.82  0.002665241    1.680    0.405
        23 -11.4144     68.5745    237.7019   1.1278848592e+02   1.6155123534e+01    0.6223057    0.3208361  63.87  0.002076136    2.023    0.506
        24 -12.4181     37.3205    241.8918   1.1920175612e+02   1.9231016617e+01    0.7160427    0.3762022  48.18  0.003125076    1.533    0.348
        25 -14.1644     56.7974    243.5723   1.1560863655e+02   1.6544116153e+01     1.349463    0.8591219  59.94  0.008439166    1.310    0.236
        26 -11.4936     45.3529    244.5233   1.1786880027e+02   1.7773599084e+01     0.404647    0.2763095 -81.04  0.001840926    1.442    0.307
        27 -10.4646      1.6774    242.3457   1.2566773195e+02   2.2896507463e+01    0.3298102    0.1466064 -83.60  0.001720333    1.965    0.491
        28 -10.0742      1.4777    225.2299   1.2491828478e+02   2.6285140464e+01    0.4464543    0.1192456 -79.11  0.001982262    3.242    0.692
        29 -12.6218     21.1755    245.7232   1.2239832905e+02   2.0285093822e+01    0.7970675    0.3549428  82.60  0.004360822    2.203    0.546
        30 -13.7786      9.7371    237.9668   1.2404396600e+02   2.2960704270e+01     1.131938    0.5354332  74.86  0.005828916    1.835    0.455
        31 -12.8859     25.9460    216.2334   1.1965987270e+02   2.5738369010e+01     1.605386    0.7612615  57.02  0.007167701    1.847    0.459
        32  -8.7499     24.9264    235.3500   1.2111159339e+02   2.1906019030e+01    0.1866645    0.1226205  77.24 0.0005834083    1.251    0.200
        33 -13.0281     44.8708    216.6366   1.1579328158e+02   2.3513044490e+01     1.189506    0.6153612  81.63  0.005955589    2.096    0.523
        34 -13.5153     60.3701    209.2687   1.1176662594e+02   2.3175801461e+01     1.670946    0.6766357  38.83  0.007389873    2.221    0.550
        35 -13.3043     28.4518    197.8568   1.1772976176e+02   2.9510076712e+01     1.205913    0.5664804 -80.49  0.005285839    1.957    0.489
        36 -14.4576      9.8516    194.8221   1.2151456436e+02   3.2009550177e+01      1.47375     1.119904 -81.33  0.007501218    1.177    0.150
        37 -10.6506    229.1431    231.2658   7.9655288502e+01  -6.9443744943e+00     0.363543     0.271203  17.70  0.002285232    1.156    0.135
        38 -15.0210     85.7295    168.8268   1.0033073075e+02   2.8988790797e+01     3.602636     2.141546  68.78   0.01180082    2.269    0.559
        39 -11.8760    231.2780    222.6101   7.7783718443e+01  -6.0297584595e+00    0.9062372    0.5559089 -40.53  0.005214673    1.814    0.449
        40 -13.7189    115.1839    145.5032   8.8058490976e+01   2.9569160472e+01       4.5976     2.804043 -55.62   0.01975839    1.649    0.394
        41  -9.3828      5.2559    132.2066   1.1727572707e+02   4.7135790302e+01    0.5402103     0.314672 -64.58   0.00235219    1.387    0.279
        42  -9.2898      1.4749    129.4731   1.1805109248e+02   4.8035473986e+01    0.2009268     0.129003 -64.60 0.0005504893    1.270    0.213
        43  -9.7820    124.9197    114.4552   7.7984123051e+01   3.4874597434e+01    0.6698213    0.5028602  26.93  0.002161856    1.523    0.343
        44 -10.7843    141.5107    117.1697   7.4380530055e+01   3.0712496367e+01    0.6888926    0.4659445 -44.97  0.002168698    1.453    0.312
        45 -11.8269    135.4754    110.8994   7.4260182602e+01   3.3397633933e+01     1.215977    0.9516833 -24.58  0.004706551    1.443    0.307
        46  -8.7736     12.0321    220.6407   1.2268780122e+02   2.6228288093e+01    0.1559148    0.1181593  59.88 0.0005218926    1.153    0.133
        47 -11.2330     11.9595     91.7823   1.0945960568e+02   5.6404431076e+01    0.7003385    0.5168679 -78.32  0.002858149    1.328    0.247
        48 -11.4816      3.9492     88.7900   1.1182312907e+02   5.7571479499e+01     0.730895    0.3907045 -65.22  0.002938059    1.478    0.324
        49 -11.2443     22.3587     83.2760   1.0390266603e+02   5.7629874271e+01     1.212706    0.4132641 -57.41  0.004891043    2.250    0.556
        50 -10.3148     19.0636     75.2824   1.0336718510e+02   5.9687181104e+01    0.3730186    0.3385912 -29.45  0.002137129    1.136    0.120
        51 -10.7049    200.1295     80.2849   5.2571671004e+01   2.4359034894e+01    0.3752688    0.2813742 -11.34  0.001830636    1.788    0.441
        52 -11.6396    184.3039     76.5331   5.4252417500e+01   2.8684404804e+01    0.8185344    0.5007582 -18.69  0.003385776    2.323    0.570
        53 -10.1041    213.3563     78.5691   5.0127332870e+01   2.1657801414e+01    0.3254484    0.2685602 -31.47  0.001814246    1.260    0.206
        54 -10.1010    174.1022     76.9031   5.6204955119e+01   3.1053965008e+01    0.3261368    0.1942799 -41.64  0.001439983    1.633    0.388
        55 -10.1290     84.7170    230.5297   1.0876867005e+02   1.5343257681e+01    0.3030676    0.1638702  79.12  0.001365463    2.671    0.626
        56 -10.6903    112.4495    229.9880   1.0285123920e+02   1.1301747870e+01    0.4957417   0.09728336  43.48  0.001526449    4.261    0.765
        57 -10.1730     86.8299    224.7740   1.0769054484e+02   1.6201770916e+01    0.2870321    0.1834552 -81.60 0.0009446023    1.777    0.437
        58 -11.0749    205.0130     69.6956   4.9168946131e+01   2.4964321645e+01     0.416482    0.3033144 -60.85  0.002170478    1.365    0.268
        59 -12.3931    196.0730     53.0842   4.6256088038e+01   2.9564951820e+01    0.8604035    0.5342638 -49.65  0.004036381    1.547    0.353
        60 -11.1809    182.2961     51.4967   4.7864923028e+01   3.3089707666e+01     0.544052    0.4005095 -21.94  0.002800631    1.608    0.378
        61 -10.4450    177.8509     50.8606   4.8386546359e+01   3.4259276360e+01    0.3925231    0.3461603  25.70  0.002215906    1.369    0.270
        62 -10.5831     31.8003     47.5042   8.9817326910e+01   6.4301507844e+01    0.5197605    0.3855969 -11.61  0.002589748    1.271    0.213
        63 -11.5404     77.2508    218.7225   1.0908060349e+02   1.8834018623e+01     0.676917    0.5205407  66.57  0.003044514    1.180    0.152
        64  -9.7720     85.1944    219.8646   1.0748484185e+02   1.7454323447e+01    0.2791986    0.2363545  76.44  0.001044788    1.110    0.099
        65 -12.1680     36.4429    136.3657   1.0882685305e+02   4.3512191405e+01     1.067161    0.7288179 -22.03  0.003290142    2.013    0.503
        66 -12.6576     35.0991    181.9320   1.1476268718e+02   3.2484763310e+01     1.044052     0.712805 -35.35  0.005624372    2.121    0.529
        67 -12.9878     22.6203    154.1097   1.1495113318e+02   4.0438743984e+01     1.986743    0.9749127  76.42  0.008753506    2.488    0.598
        68 -14.3150      5.2867    164.1021   1.2026608279e+02   3.9475487677e+01       1.4553    0.6193272 -79.59   0.00460449    1.956    0.489
