#   1 NUMBER                 Running object number                                     
#   2 MAG_AUTO               Kron-like elliptical aperture magnitude                    [mag]
#   3 X_IMAGE                Object position along x                                    [pixel]
#   4 Y_IMAGE                Object position along y                                    [pixel]
#   5 X_WORLD                Barycenter position along world x axis                     [deg]
#   6 Y_WORLD                Barycenter position along world y axis                     [deg]
#   7 A_WORLD                Profile RMS along major axis (world units)                 [deg]
#   8 B_WORLD                Profile RMS along minor axis (world units)                 [deg]
#   9 THETA_WORLD            Position angle (CCW/world-x)                               [deg]
#  10 FWHM_WORLD             FWHM assuming a gaussian core                              [deg]
#  11 ELONGATION             A_IMAGE/B_IMAGE                                           
#  12 ELLIPTICITY            1 - B_IMAGE/A_IMAGE                                       
         1 -14.2812    203.7714     20.1695   6.1891589250e+01   3.2274009638e+01     2.399203     1.513402  32.36   0.01169146    2.673    0.626
         2 -11.3653      1.9449     13.9303   1.1360123295e+02   7.0922033495e+01    0.3342794    0.1395866 -45.67  0.001766391    2.188    0.543
         3 -11.3799      2.0787      4.7367   1.0964920904e+02   7.2146473570e+01    0.5468754    0.1360913 -42.47  0.002587815    3.539    0.717
         4 -11.3587     99.1827    236.9232   1.3108810422e+02   1.2019377805e+01    0.3314003    0.2245161  81.90 0.0008311883    1.584    0.369
         5 -10.9010    247.1346    249.7000   1.0424787233e+02  -1.4156271157e+01    0.4656205    0.1463923  34.64  0.002045781    2.939    0.660
         6 -11.9966    139.3988    248.3878   1.2454699060e+02   3.1845648198e+00    0.4713604    0.3410342 -73.87  0.002718364    1.725    0.420
         7 -11.7333    100.9457    249.4363   1.3217874514e+02   9.3127689357e+00    0.5234689    0.3554454 -74.08  0.003105881    1.598    0.374
         8 -12.4876    108.0879    245.9563   1.3039715934e+02   8.8288551754e+00    0.8598257    0.3471025  57.50  0.003430509    2.939    0.660
         9 -11.6187     95.9823    244.5136   1.3258893052e+02   1.1034757227e+01    0.4463059    0.1759297  41.45  0.001917968    2.229    0.551
        10 -11.0948     92.8493    249.5233   1.3373473131e+02   1.0560841306e+01    0.3526365    0.2653342  40.68 0.0004809496    1.372    0.271
        11 -11.7922     89.0544    244.6194   1.3393826851e+02   1.2089425897e+01    0.5291743    0.2815893  78.17  0.001445706    2.497    0.599
        12 -14.7263     28.3278    244.7347   1.4504204045e+02   2.0326229680e+01     10.77588     2.599976  31.79   0.02725547   11.953    0.916
        13 -12.5466      5.1027    246.4904   1.4900412731e+02   2.2545504788e+01     1.174286    0.6187907  77.35  0.007690022    1.463    0.316
        14 -14.8845      8.7858    209.0437   1.4605294072e+02   2.9802100627e+01     4.517143     1.226764 -59.73   0.01624527    3.618    0.724
        15 -11.3353     22.3015    236.0908   1.4549622595e+02   2.2740975874e+01    0.2939026    0.2612494 -65.00  0.001813573    1.607    0.378
        16 -10.5458     28.4459    234.6534   1.4431356272e+02   2.2330257301e+01    0.2196264    0.1265678  76.46  0.001023185    1.449    0.310
        17  -9.8575     42.5024    231.9478   1.4154909321e+02   2.1188244813e+01    0.1721105    0.1009411 -76.75 0.0004983463    1.535    0.349
        18 -12.8126     37.9020    225.6293   1.4188168327e+02   2.3076418593e+01    0.3591411    0.3179066 -79.33 0.0007768524    1.360    0.265
        19 -10.3182     68.0725    226.8932   1.3616556856e+02   1.8817679249e+01    0.2841907     0.143693  68.84 0.0009671519    2.201    0.546
        20 -14.0432     45.2480    216.5016   1.3965646039e+02   2.4123431844e+01     1.136537    0.7090253  65.48   0.00611592    1.413    0.293
        21 -11.8149     52.0099    236.3640   1.4015863731e+02   1.9055477299e+01    0.4661739     0.272641  89.36  0.001720837    1.600    0.375
        22 -11.1414     26.6602    215.3510   1.4316392085e+02   2.6579863957e+01    0.3483502    0.1539318  88.15  0.001669877    2.323    0.570
        23 -10.7183     53.8383    229.2186   1.3917092016e+02   2.0291979790e+01    0.3791669    0.2003977  79.04   0.00193583    1.986    0.496
        24 -10.8620    227.8509    204.1844   9.9563890402e+01  -4.5072418263e+00    0.3147024    0.2376996 -57.08 0.0007682221    1.776    0.437
        25 -11.0094     26.1333    203.7264   1.4229052074e+02   2.9179064559e+01    0.2658361    0.1667098  59.40 0.0009345223    1.443    0.307
        26 -10.2611    193.3452    195.8247   1.0472149424e+02   3.1884586736e+00    0.8745323    0.4102908 -63.16  0.002093266    7.865    0.873
        27 -11.6221     64.0838    193.0583   1.3312214318e+02   2.6923913989e+01    0.3887049    0.2585326 -43.70  0.001398281    1.984    0.496
        28 -11.7582     69.4843    185.8598   1.3094498906e+02   2.7851983277e+01    0.3122725    0.2556052 -49.25 0.0008936456    1.427    0.299
        29  -8.7285    181.4969    192.4475   1.0653562983e+02   6.1263547706e+00    0.1442732    0.1372486  21.83 8.184007e-05    1.017    0.017
        30 -11.0310     79.0364    174.0924   1.2694298612e+02   2.9253609023e+01    0.2615447    0.2393239 -79.41 0.0003673817    1.084    0.077
        31 -13.2963     66.2180    171.4946   1.2966236076e+02   3.1756521196e+01     0.526997     0.285457 -45.38   0.00163824    2.206    0.547
        32 -10.5357    106.9544    173.7094   1.2006296105e+02   2.4715103459e+01    0.5546831    0.1288186  45.95  0.001514162    4.467    0.776
        33 -11.6694     54.4090    120.3934   1.2393824304e+02   4.5664737443e+01    0.9206042    0.3212179 -68.82  0.002690801    4.733    0.789
        34 -13.1144     66.7367    143.1907   1.2484850963e+02   3.8583572300e+01     1.714491    0.9178834  86.74   0.00338751    3.762    0.734
        35  -9.8419     99.0049    149.8207   1.1750819512e+02   3.1892603290e+01    0.2966556    0.2378852 -52.54 0.0006322094    1.212    0.175
        36  -9.3211    101.9983    145.6802   1.1586517078e+02   3.2366787524e+01    0.3017898    0.1871196 -32.07    0.0012226    2.226    0.551
        37 -12.1037     87.6256    148.8209   1.2031144809e+02   3.4058977808e+01    0.2993655    0.2586932 -41.49 0.0006523959    1.251    0.201
        38 -10.6591     38.6309    146.7941   1.3292698766e+02   4.1143191954e+01    0.2542282    0.1964193  66.27  0.001106355    1.374    0.272
        39 -12.1528     28.0103    143.5167   1.3521180519e+02   4.2991388179e+01    0.3657837     0.344039  40.19  0.002521371    1.302    0.232
        40 -11.4675     26.1480    138.2685   1.3495805572e+02   4.4407765343e+01    0.3295132    0.1862781  52.17  0.001723843    2.069    0.517
        41  -9.5870    110.2170    135.7063   1.1149275511e+02   3.3247631785e+01    0.3004766    0.2152648 -17.36  0.001280102    2.077    0.518
        42 -10.6034     97.5090    132.6059   1.1423674177e+02   3.6309858458e+01    0.2841298    0.2389536 -25.42 0.0009632083    1.378    0.274
        43  -9.2804    107.1395    122.8427   1.0929650666e+02   3.6854188883e+01    0.2092335    0.1957541 -80.94 0.0002760433    1.092    0.084
        44  -9.9938    230.9888    168.0020   9.1691403587e+01   1.3073471571e+00    0.2533522    0.1431831 -58.39  0.001025171    2.588    0.614
        45 -11.1125    167.9904    112.9927   9.1539781349e+01   2.5877037636e+01    0.3670068    0.3089371 -81.87 0.0006814561    1.322    0.243
        46 -12.0806     86.2051    165.7192   1.2378607999e+02   3.0163306900e+01    0.7605078    0.5597136  60.59  0.003889525    1.404    0.288
        47  -9.5577    204.4302    110.8998   8.3683042446e+01   1.7819438149e+01    0.3195877    0.1984024  36.43  0.001345321    2.071    0.517
        48 -15.3197      4.1990    178.5321   1.4459947436e+02   3.6944056402e+01     7.559174    0.7204704 -69.73    0.0236057    5.197    0.808
        49 -14.8408     53.9806    208.4548   1.3708400475e+02   2.4774035383e+01     6.050641     1.040561  49.94   0.01634097    6.603    0.849
        50 -12.3469     19.9466    230.3984   1.4552041084e+02   2.4160126306e+01    0.5352831    0.4349485  22.20  0.003747319    1.983    0.496
        51  -9.5391    157.5333     77.5068   8.4308119459e+01   3.5221420993e+01    0.1490655    0.1434359  78.46 0.0002007807    1.002    0.002
        52  -8.6470    108.6390     42.2760   8.5084922515e+01   5.1836770965e+01    0.1289452    0.1064235 -89.96 0.0007007444    1.662    0.398
        53 -11.0542    191.1272    249.2984   1.1454992510e+02  -5.6514223518e+00    0.4002225    0.1585015  29.58  0.001565598    3.047    0.672
        54 -10.7365    163.2433    248.4223   1.1985060107e+02  -8.6369480184e-01    0.3165759    0.1859581 -38.41  0.001645162    2.104    0.525
