#   1 NUMBER                 Running object number                                     
#   2 MAG_AUTO               Kron-like elliptical aperture magnitude                    [mag]
#   3 X_IMAGE                Object position along x                                    [pixel]
#   4 Y_IMAGE                Object position along y                                    [pixel]
#   5 X_WORLD                Barycenter position along world x axis                     [deg]
#   6 Y_WORLD                Barycenter position along world y axis                     [deg]
#   7 A_WORLD                Profile RMS along major axis (world units)                 [deg]
#   8 B_WORLD                Profile RMS along minor axis (world units)                 [deg]
#   9 THETA_WORLD            Position angle (CCW/world-x)                               [deg]
#  10 FWHM_WORLD             FWHM assuming a gaussian core                              [deg]
#  11 ELONGATION             A_IMAGE/B_IMAGE                                           
#  12 ELLIPTICITY            1 - B_IMAGE/A_IMAGE                                       
         1 -12.1874    107.6283     28.7170   6.5741474892e+01   5.4470950116e+01    0.6215029    0.3203117 -21.76 0.0003058187    2.112    0.527
         2 -12.2268      2.0206     24.9083   1.0635345551e+02   7.0010381732e+01    0.3750053    0.1462699 -57.27  0.001974203    2.088    0.521
         3 -11.7170      5.6436     16.4656   1.0140352516e+02   7.1323230119e+01    0.3734416    0.2681412 -46.43  0.002569829    1.246    0.198
         4 -11.2260    182.0926     19.1613   4.7826832274e+01   3.7173262733e+01    0.3412388    0.2659968  -8.31  0.001024092    1.531    0.347
         5 -12.5350    166.4043     18.0042   4.9728151182e+01   4.1350314792e+01    0.4645333    0.2705375  44.51 0.0003487362    1.775    0.437
         6 -12.4373    169.4562     14.4047   4.8144475310e+01   4.0946122018e+01     1.064872    0.2478124  51.79  0.003302557    3.779    0.735
         7 -11.5200     64.3749     14.4381   7.3318388627e+01   6.4758141385e+01    0.4582499    0.3940356  30.36  0.003011295    1.258    0.205
         8 -10.4692    229.9337     16.1736   4.1665763839e+01   2.5592485239e+01    0.2057487    0.1524055 -63.71 0.0003537414    1.226    0.185
         9 -11.2875    133.0250     12.9777   5.3773608826e+01   5.0328082728e+01    0.3022915    0.2467289 -18.84 0.0003237143    1.310    0.237
        10 -11.1552    209.7898     12.2158   4.2619672585e+01   3.0913674165e+01    0.4351507    0.2973815  -6.28  0.002217788    1.981    0.495
        11 -10.1812    139.9937     13.8045   5.2749159666e+01   4.8517757071e+01    0.2897144    0.1768478  35.23  0.001069483    1.743    0.426
        12 -10.1479    150.5532     12.0101   5.0280470483e+01   4.6035914102e+01    0.2721359    0.1662842  50.05  0.000308919    1.510    0.338
        13 -10.1109     75.1027     12.5274   6.8606681670e+01   6.3092313464e+01    0.1969274    0.1742368 -28.60  0.001262791    1.324    0.245
        14 -10.3576    218.7163     11.8923   4.1655305275e+01   2.8759734653e+01    0.2426658    0.1987189  67.67 0.0006019867    1.234    0.189
        15  -9.7486     97.6994     11.7800   6.1434180044e+01   5.8638913103e+01    0.2244097    0.1641462 -29.99 0.0006238539    1.460    0.315
        16 -11.1585     14.3681     10.5745   9.4230835766e+01   7.1667590894e+01    0.3162076    0.1767423 -36.86  0.001139235    1.385    0.278
        17  -9.3908      8.3011     10.7106   9.7557703475e+01   7.2118722476e+01     0.154009   0.08926933 -52.40 0.0001655436    1.775    0.437
        18 -10.4270      4.8100      9.4925   9.8934974616e+01   7.2562613995e+01    0.2282238    0.1912739 -34.26  0.001668135    1.270    0.213
        19  -9.4756     37.9634      9.9644   8.2141234120e+01   6.9264793427e+01    0.1518175    0.1477278 -47.50  0.001097917    1.677    0.404
        20 -10.6590    185.3266      8.8829   4.4405010029e+01   3.7430193548e+01    0.2447118    0.1791502  66.59 0.0003258424    1.253    0.202
        21 -10.6562    164.5748      8.1871   4.6886164129e+01   4.2823059667e+01    0.2890258    0.1964897 -76.94 0.0007531698    1.676    0.403
        22 -10.8105    128.4093      8.4507   5.2996201837e+01   5.1894863647e+01    0.2394712    0.2150846  51.73 4.635616e-05    1.038    0.036
        23 -10.4719     73.5506      8.4711   6.7215458540e+01   6.3839248436e+01    0.2951007    0.1658208  26.31  0.001499314    1.813    0.448
        24  -9.7973    240.5172      7.8963   3.8807653833e+01   2.4059672105e+01    0.1762063    0.1154869 -35.93 0.0003784196    1.466    0.318
        25 -11.1171    192.9345      8.1055   4.3307148300e+01   3.5571259398e+01    0.3547228    0.1815506  85.67  0.001543997    2.101    0.524
        26 -10.7205    146.1205      8.3001   4.9746729616e+01   4.7515564918e+01    0.2382453    0.1491001  46.84  0.001178579    1.496    0.332
        27 -10.9414    115.7471      1.9748   5.3050062896e+01   5.5491723475e+01    0.2354625    0.1728502  54.37 0.0003823364    1.214    0.176
        28 -10.4334    112.0000      5.0051   5.5077878226e+01   5.6101468553e+01    0.1874358    0.1849728 -58.53 0.0004381162    1.198    0.165
        29 -12.0244     87.2043      5.8422   6.1734446835e+01   6.1442543639e+01    0.2655016    0.2440152 -11.01 0.0002735806    1.208    0.172
        30  -9.6666     90.5313      1.4195   5.8798081490e+01   6.1162494180e+01      0.24907    0.1141595  55.26 0.0006112793    2.007    0.502
        31 -10.7918     49.1300      7.8552   7.6132070278e+01   6.8002162815e+01    0.4994285    0.1800526  30.84  0.002055024    3.318    0.699
        32 -11.3058    208.8527      4.5513   4.0715889029e+01   3.1944995784e+01     0.409423    0.2753904 -60.91  0.001909886    1.430    0.301
        33 -10.5990     61.8657      6.4514   7.0364194828e+01   6.6141119192e+01     0.234777    0.2277386 -30.00 0.0009346623    1.465    0.317
        34  -9.7335     18.2935      2.6129   8.8186568009e+01   7.2516680139e+01    0.1545723    0.1473813 -86.26  0.001002562    2.046    0.511
        35  -9.9588     24.5007      6.7750   8.7079892374e+01   7.1286596536e+01    0.2027655    0.1509379 -40.09  0.001384128    1.517    0.341
        36 -10.1261     20.5263      6.0770   8.8785546138e+01   7.1795234540e+01    0.2592264    0.1303106 -32.45  0.001039679    1.610    0.379
        37 -10.7037    170.7064      6.0238   4.5379923519e+01   4.1454551168e+01     0.182989    0.1752609  82.83  0.000431507    1.065    0.061
        38 -10.6462    134.0601      5.9914   5.1020682157e+01   5.0736097725e+01    0.2688957    0.1716655  62.54  0.001367517    1.420    0.296
        39 -10.5510     39.6610      5.2897   7.8960512411e+01   6.9666332814e+01     0.228859    0.2186435 -18.91  0.001035705    1.564    0.361
        40 -10.4500     38.1638      2.1799   7.7994074384e+01   7.0258448892e+01    0.1763341    0.1483238   6.28 0.0002275317    1.209    0.173
        41 -10.2982     46.5565      4.4986   7.5492722323e+01   6.8794787309e+01    0.2041388    0.1513191  -3.47 0.0001329797    1.110    0.099
        42 -10.2668     49.5392      2.5069   7.3185980382e+01   6.8580858478e+01     0.211885    0.1600041  16.40 0.0006227578    1.141    0.124
        43 -11.7724    195.4005      3.5211   4.1775211624e+01   3.5400348492e+01    0.5666475    0.2198694  67.10  0.002364001    2.244    0.554
        44 -10.1958    184.9547      4.4648   4.3176764534e+01   3.7956330692e+01    0.2044219    0.1222494  72.57 0.0003672547    1.517    0.341
        45 -10.9388    165.8727      3.5048   4.5236126560e+01   4.2924482239e+01    0.3206981    0.2340802  42.12  0.001737569    1.420    0.296
        46 -11.5055    160.7559      3.0848   4.5795203044e+01   4.4269772798e+01    0.4958565     0.315303  68.47  0.001609502    1.409    0.290
        47 -10.1063    142.0001      3.6997   4.8828695798e+01   4.8964940135e+01    0.2006627    0.1625925  58.86 0.0006241121    1.100    0.091
        48  -9.7835     30.8177      3.3635   8.2130085032e+01   7.1044296783e+01    0.1820747    0.1295271 -29.83 0.0005943774    1.335    0.251
        49 -11.1374    116.8555     14.9219   5.7947176621e+01   5.4009000731e+01    0.3242686      0.21865  29.60  0.001058576    1.501    0.334
        50  -9.9384    248.8748      2.8725   3.7058397791e+01   2.2724672520e+01    0.1712743     0.157576 -84.30  0.000337113    1.193    0.162
        51 -10.5094    218.1795      2.4253   3.9334382611e+01   2.9883278093e+01    0.2429731     0.207818 -62.95 0.0006893983    1.076    0.071
        52 -11.1552     74.1771      1.9913   6.3884797180e+01   6.4388978744e+01    0.2686112    0.1865322  40.32  0.000508986    1.302    0.232
        53 -10.5530    180.1952      1.9414   4.2992564394e+01   3.9404312664e+01    0.3080881    0.1710367  66.51   0.00125901    1.591    0.371
        54 -10.4285    130.4302      2.1647   5.0271242758e+01   5.1958063895e+01    0.2771538   0.08152176  62.36 0.0009973781    2.813    0.645
        55 -11.8088    107.6630      7.7365   5.7196791375e+01   5.6841937464e+01    0.5239833    0.4639505  45.70  0.002195316    1.093    0.085
        56  -9.7870     81.4023      1.8771   6.1594706086e+01   6.2992332484e+01     0.214719    0.1699362  56.62  0.001314725    1.414    0.293
        57  -9.6181    148.3268      1.4079   4.7039808139e+01   4.7570460795e+01    0.2595295    0.1114106  62.91  0.001104911    1.972    0.493
        58  -9.3971     43.0375      1.3781   7.5363418826e+01   6.9676914509e+01    0.1681368    0.1006757  33.28  0.001005187    1.611    0.379
        59 -10.0710     15.5853    217.7983   1.2844574127e+02   2.7439088137e+01    0.2929544      0.20449 -31.65  0.001760436    3.427    0.708
        60  -9.3877    233.8164    250.6607   9.2506464322e+01  -9.3081859398e+00    0.1465394   0.08463801  39.21 0.0002818188    1.558    0.358
        61 -10.3241    186.9415    250.3858   1.0057884931e+02  -2.2912864400e+00    0.1687649    0.1249339  40.10  0.001142641    1.150    0.130
        62 -10.9505    161.2528    249.6261   1.0506721974e+02   1.8343203489e+00    0.2548881     0.198539   6.07  0.001131152    1.628    0.386
        63 -10.1556    165.9959    248.9517   1.0412945370e+02   1.1797302809e+00    0.1756784    0.1401979  40.25            0    1.039    0.037
        64 -11.1634    127.3920    248.6355   1.1104413684e+02   7.2675074007e+00    0.2676966    0.2628353 -86.26  0.001429558    1.313    0.238
        65 -10.9497    115.5189    249.4681   1.1325395526e+02   8.9412174187e+00    0.2894956    0.2029006  59.58  0.001367813    1.234    0.190
        66 -10.2263    112.0025    246.2915   1.1356148892e+02   9.9718705457e+00    0.1790081    0.1637526 -79.07 0.0003520601    1.332    0.249
        67 -11.5120     38.7718    249.3374   1.2632940995e+02   1.9250768192e+01    0.2487777    0.1890592  54.34 0.0009515236    1.283    0.221
        68 -10.5519     33.6776    239.5769   1.2660671958e+02   2.1520291068e+01    0.2571771     0.189264  31.74  0.001876893    1.889    0.471
        69 -11.4458      8.8988    224.4783   1.2990499082e+02   2.6845952824e+01    0.4192551    0.1751769  80.53   0.00140917    2.066    0.516
        70 -11.5487     10.5757    249.6247   1.3073877775e+02   2.2244385285e+01    0.4129127    0.1678258  50.79  0.002127559    1.751    0.429
        71 -10.2133     30.9800    250.5943   1.2763574466e+02   1.9920642004e+01    0.1433711   0.08972505  56.43 3.910979e-05    1.194    0.163
        72 -11.7520     30.7241    244.9228   1.2738024605e+02   2.0917051398e+01    0.5103122    0.2579921  37.28  0.002754388    2.085    0.520
        73 -11.5265     24.4368    249.2767   1.2859538242e+02   2.0859835875e+01    0.7194275          nan  46.77  0.002938537    4.407    0.773
        74 -11.7091      4.8627    246.1312   1.3146278130e+02   2.3400652769e+01    0.3811097    0.2826898 -66.16  0.002690384    1.879    0.468
        75 -11.9654     16.2639    244.1240   1.2962953907e+02   2.2602547808e+01    0.5288258    0.3430274  24.47   0.00357664    2.666    0.625
        76 -10.8079     22.9274    238.6366   1.2830894005e+02   2.2862442705e+01    0.2354968    0.1743162  65.76  0.001091851    1.132    0.117
        77 -11.9657     12.8586    235.8143   1.2978854176e+02   2.4403511847e+01      0.40416    0.2343822 -75.34  0.002536453    1.689    0.408
        78 -11.0106     10.9660    231.0340   1.2987269938e+02   2.5447879518e+01    0.2229073    0.1402711  82.91 0.0006056725    1.211    0.174
        79 -11.1428      3.5070    232.5702   1.3113071308e+02   2.5894132657e+01    0.2924691    0.1738073 -79.90  0.001363612    1.543    0.352
        80 -11.7408      2.1025    225.1447   1.3104353199e+02   2.7367450286e+01    0.3311493     0.156061 -81.17 0.0006443799    1.780    0.438
        81 -11.7457     89.4654    216.5968   1.1470199896e+02   1.8542703440e+01    0.6308277    0.2119895  49.54  0.002446107    2.594    0.614
        82  -9.5005     46.8731    218.3623   1.2293143698e+02   2.3898315891e+01    0.1468842      0.10127  33.12 0.0009467842    1.798    0.444
        83 -10.0571     39.0883    218.0839   1.2432485508e+02   2.4865296038e+01    0.1541137    0.1348431 -84.34  0.001019803    1.371    0.271
        84 -10.2591     24.0934    217.1376   1.2693189527e+02   2.6694351141e+01    0.3394326     0.123388 -80.89 0.0003148072    2.513    0.602
        85 -10.0605     31.8367    215.9378   1.2548399701e+02   2.6093154380e+01    0.1654556    0.1221801  73.62 0.0003019443    1.012    0.012
        86 -10.6381     28.8261    213.3807   1.2585865689e+02   2.6915926899e+01    0.2563919    0.1727438  52.92  0.001807338    1.309    0.236
        87 -11.7016     23.7890    208.6264   1.2646554750e+02   2.8378534857e+01    0.4203336    0.2289266  47.06   0.00162776    1.623    0.384
        88 -11.4430     17.6892    207.7090   1.2750981865e+02   2.9178304270e+01    0.2572341    0.1484452  77.89 0.0004782859    1.369    0.269
        89  -9.4320    175.5522    217.4449   9.7875491909e+01   4.2217534557e+00    0.1293221    0.1084743  30.89 8.843153e-05    1.040    0.039
        90 -10.9086     72.9235    215.9879   1.1784385123e+02   2.1010192929e+01    0.2305517    0.1787202 -67.02 0.0003827415    1.444    0.307
        91  -9.5432     58.3400    215.9721   1.2061496250e+02   2.2941854441e+01    0.1570741    0.1220471  75.70 0.0005837394    1.047    0.045
        92 -10.2406     68.3852    215.0508   1.1862673499e+02   2.1806795201e+01    0.1734952    0.1503769  50.31 0.0003223099    1.298    0.230
        93 -10.4240    111.6004    213.6676   1.0998988278e+02   1.5695433564e+01    0.2203317    0.1764173  47.52 0.0005976715    1.130    0.115
        94 -11.9121      8.4581    210.8612   1.2931161755e+02   2.9457011649e+01    0.3493764    0.1855494 -78.75   0.00232202    1.605    0.377
        95 -10.9255     13.9296    212.4314   1.2844279302e+02   2.8629375885e+01    0.1889897    0.1400374  72.92 0.0004160488    1.072    0.067
        96 -11.3510    126.9923    208.7704   1.0624291304e+02   1.4080561143e+01    0.5999118    0.3832127 -27.79   0.00283087    2.788    0.641
        97 -10.3881    129.7223    207.3162   1.0548340865e+02   1.3888364750e+01    0.2181869     0.191177  57.81 0.0002398525    1.031    0.030
        98 -10.0866    117.9460    211.9173   1.0849521795e+02   1.4996493417e+01    0.1964702    0.1648003  57.76 0.0005212778    1.014    0.014
        99  -8.8261     52.6442    212.7513   1.2142049327e+02   2.4285752702e+01   0.09465315   0.09247797  -0.20 0.0003207955    1.598    0.374
       100 -10.5263    155.1376    209.6874   1.0068574389e+02   9.0566836085e+00    0.1914679    0.1768043  86.66 0.0003810433    1.239    0.193
       101 -10.8171    144.5061    208.5646   1.0265715534e+02   1.1114320843e+01    0.3592604    0.2029052 -60.69  0.001181147    2.243    0.554
       102  -9.5464     46.5546    210.5614   1.2239260751e+02   2.5457624564e+01      0.21843   0.06940629  48.11 0.0006845559    2.531    0.605
       103  -9.7265     39.4851    209.9971   1.2367376500e+02   2.6396117584e+01    0.1642915   0.09516858 -77.26  0.001018965    1.567    0.362
       104  -9.2884     97.0073    208.9596   1.1235263161e+02   1.8879814936e+01     0.152342    0.1257272  62.68 0.0004516377    1.014    0.014
       105 -11.2846     67.0884    207.2177   1.1814128842e+02   2.3525010790e+01     0.288181    0.1832635 -72.13  0.001142114    1.543    0.352
       106 -11.1740     58.9597    207.2503   1.1973697675e+02   2.4582624372e+01    0.4973757    0.2437863  85.57  0.002460055    2.367    0.577
       107  -9.9986      4.7696    205.7987   1.2969657311e+02   3.0780020349e+01    0.2423184     0.125776 -84.78  0.001134047    1.540    0.351
       108 -10.1293      1.4306    204.6242   1.3022215976e+02   3.1307877800e+01    0.1768075   0.07898089 -88.21 0.0005829671    1.790    0.441
       109 -11.2459     35.0050    204.3594   1.2409927781e+02   2.8025982609e+01     0.289478    0.1913547 -78.46  0.001027608    1.367    0.268
       110 -10.3953     32.3038    199.0549   1.2422221842e+02   2.9398003135e+01    0.2580238    0.1742369  72.57   0.00158599    1.178    0.151
       111  -9.4001     39.9177    205.0784   1.2322234350e+02   2.7328036802e+01    0.1439014    0.1235449 -84.37 0.0007679461    1.291    0.225
       112  -9.8598    142.0191    203.5716   1.0241369003e+02   1.2451671570e+01    0.2011194    0.1817093 -29.01 0.0007014353    1.324    0.245
       113 -10.5137    121.2439    199.8904   1.0618499141e+02   1.6738748934e+01    0.3187928     0.218963 -82.46  0.001299611    1.799    0.444
       114 -11.2398     97.5631    200.5226   1.1121785760e+02   2.0463444364e+01    0.4167513    0.2121838  40.52  0.001363355    1.826    0.452
       115 -11.0849      5.6843    200.1782   1.2924228258e+02   3.1804476464e+01    0.1744428    0.1309942  81.66 0.0002705543    1.093    0.085
       116  -9.6233    170.3932    200.2303   9.6088213256e+01   7.9534059234e+00    0.1704629    0.1300472 -58.81  0.000693257    1.627    0.386
       117  -9.7458     87.4823    200.5172   1.1330737721e+02   2.1997762833e+01    0.1275017    0.1076921  69.12 0.0008101047    1.019    0.018
       118  -9.2558     62.4556    198.5412   1.1822114882e+02   2.5903718952e+01    0.1220507    0.1002119  75.68 0.0001276013    1.037    0.035
       119 -10.2828     13.1501    197.1558   1.2770865564e+02   3.1722870043e+01    0.1935921    0.1547625  76.28  0.001027442    1.149    0.129
       120 -10.3112    108.3905    193.0036   1.0793704775e+02   2.0257010048e+01    0.4380242    0.1278819 -57.12     0.001484    3.593    0.722
       121 -10.4539     82.4521    195.4959   1.1376605561e+02   2.3769968403e+01    0.2149488     0.180964  81.93 0.0001401766    1.063    0.059
       122 -10.4401     37.5480    195.7199   1.2294596527e+02   2.9508127993e+01    0.2759236    0.1622241 -65.66  0.001675933    1.687    0.407
       123 -10.2902     95.4616    194.8239   1.1093862687e+02   2.1949684570e+01    0.2193666    0.1715118  42.59 0.0006937077    1.281    0.220
       124  -9.4071      6.5938    194.8558   1.2878542689e+02   3.2789509820e+01     0.137887     0.110659  79.17 0.0005232519    1.168    0.144
       125  -9.5642     44.3763    194.1419   1.2145830584e+02   2.9057063153e+01    0.1618828     0.122058  84.92 0.0004841353    1.082    0.075
       126 -10.1965    100.0447    192.5211   1.0965981160e+02   2.1704771752e+01    0.2027625    0.1708284 -57.75 0.0001673509    1.337    0.252
       127  -9.8117     52.7037    192.6778   1.1963884041e+02   2.8366110038e+01    0.1827099    0.1070256 -69.76 0.0008328191    1.599    0.375
       128  -9.3132     49.5372    192.4312   1.2026207049e+02   2.8803860820e+01    0.1495388    0.1375087 -67.39 0.0001528674    1.399    0.285
       129  -9.9889     66.9189    190.9927   1.1651977187e+02   2.6893252795e+01    0.2502003    0.1409354 -54.53 0.0008046179    2.014    0.503
       130 -10.9751     58.9697    190.1448   1.1809498477e+02   2.8115840241e+01    0.2363637    0.1525964 -72.73 0.0003961446    1.444    0.307
       131 -11.2935     91.5977    188.9594   1.1100785891e+02   2.3769051649e+01    0.2796945    0.2186965 -81.52 0.0004075169    1.245    0.197
       132  -9.6263    165.8532    188.4901   9.4974334231e+01   1.0868379169e+01    0.2394385    0.1663785 -75.77 0.0009778846    2.295    0.564
       133  -9.4210    120.4048    189.1761   1.0478762210e+02   1.9012451931e+01    0.1801327    0.1266774 -75.19 0.0009352554    1.634    0.388
       134 -10.2142     85.5950    186.8521   1.1203755970e+02   2.5125908876e+01    0.2204559    0.1742791  31.44 0.0007965689    1.505    0.335
       135 -10.6867    105.0636    185.9699   1.0766101524e+02   2.2259750283e+01    0.2856769    0.2177542  66.48 0.0007243574    1.257    0.204
       136  -9.9400     75.3416    186.4845   1.1421342003e+02   2.6695114299e+01     0.220599    0.1110072 -66.73  0.001082439    1.935    0.483
       137  -8.8980     48.4932    187.4648   1.2001147043e+02   2.9983381413e+01    0.1216414   0.09896351  81.22 0.0001463253    1.040    0.038
       138  -8.8839    149.0193    186.7778   9.8224818506e+01   1.4340798832e+01    0.1691944    0.1054606  43.10  0.000815194    1.462    0.316
       139 -10.1027     35.5311    184.5531   1.2242521471e+02   3.2083896795e+01    0.2234453     0.204277 -20.52  0.001590795    1.705    0.414
       140  -9.8636    177.8227    184.1637   9.1706167304e+01   9.3800164849e+00     0.187676    0.1547195   9.19 0.0002973076    1.314    0.239
       141  -9.3067    130.0296    184.3160   1.0192220576e+02   1.8303605497e+01    0.1887167    0.1659642  53.82 0.0002569874    1.037    0.035
       142 -11.0815     15.6096    183.1226   1.2633210364e+02   3.4391878514e+01    0.2283559    0.1718831 -86.96 0.0004881383    1.127    0.113
       143  -9.9552     44.0065    182.8352   1.2050997109e+02   3.1505632346e+01    0.2840393    0.1267836  76.63  0.001234377    2.829    0.647
       144  -9.0713      2.8062    183.5820   1.2885119497e+02   3.5424703137e+01    0.1365193   0.08099946  56.14 0.0002910988    1.476    0.323
       145  -9.1380    108.2416    181.3495   1.0627543891e+02   2.2709283504e+01    0.1258507    0.1054305 -31.17 0.0002931901    1.575    0.365
       146 -10.3280     55.7973    180.8641   1.1779984722e+02   3.0518805137e+01    0.2079413    0.1740146  86.87 0.0006847066    1.063    0.059
       147  -9.6806    131.4084    179.2153   1.0076751080e+02   1.9095366397e+01     0.192599    0.1329377 -69.66  0.000740012    1.703    0.413
       148  -9.3474      4.1279    178.8833   1.2831470029e+02   3.6294581725e+01    0.1366096    0.1090084 -79.10 0.0003711076    1.273    0.215
       149 -10.4172     92.0433    177.5658   1.0935757216e+02   2.6148418580e+01    0.2382406    0.1781769 -61.11 0.0006570558    1.364    0.267
       150 -12.1123     78.5596    173.7333   1.1188653511e+02   2.9025420192e+01    0.4556412    0.2682733  79.51 0.0004188002    2.062    0.515
       151  -9.3673    136.3047    176.3349   9.9179651215e+01   1.8784904852e+01    0.1385554    0.1130112  -4.63 0.0003968557    1.666    0.400
       152  -9.5533    107.9931    176.1666   1.0553357061e+02   2.3861157981e+01     0.245982    0.1392438  61.65 0.0008627911    2.055    0.513
       153  -9.5089     24.0174    176.4545   1.2412941252e+02   3.5016518448e+01     0.149985    0.1046677  46.30 3.347918e-06    1.471    0.320
       154 -12.3840     31.9267    176.7410   1.2249805454e+02   3.4155698766e+01    0.3179521     0.228844 -54.09 0.0009013709    1.678    0.404
       155  -9.4456     17.4861    175.0044   1.2536691803e+02   3.5949984783e+01    0.1711668   0.09106012 -76.27  0.000711925    1.538    0.350
       156  -9.9964     46.1984    177.0247   1.1947552143e+02   3.2519775735e+01    0.1943246    0.1540111  60.81 0.0002681742    1.183    0.155
       157  -9.9445     63.1029    170.9938   1.1505252900e+02   3.1773028696e+01    0.1952718    0.1616619  78.38 0.0004234422    1.042    0.040
       158  -9.9184     43.2618    170.2507   1.1942588907e+02   3.4359101910e+01    0.2754521    0.2022683  -5.91  0.001308031    2.522    0.603
       159 -10.0563    122.0188    168.9991   1.0112973675e+02   2.2955545834e+01    0.3840076    0.2671268 -32.05  0.001829599    1.944    0.486
       160  -9.0968     19.6829    169.6720   1.2449109451e+02   3.6905983003e+01    0.1113158   0.07873973 -54.46  0.000704591    1.679    0.404
       161  -9.1156      4.9304    168.7635   1.2750224518e+02   3.8380203605e+01    0.1410262    0.0866539  53.16  0.000324555    1.535    0.349
       162  -9.7366      2.8894    166.2033   1.2775033715e+02   3.9093931854e+01    0.2132344    0.1014168 -59.95  0.001003585    2.088    0.521
       163  -9.8640     53.8316    166.7017   1.1665223688e+02   3.3916208136e+01    0.1791675    0.1683209 -20.53 0.0006913323    1.488    0.328
       164 -10.5293     46.4858    166.2296   1.1827263230e+02   3.4895171939e+01    0.2839352    0.1651345  49.41 0.0005395118    1.661    0.398
       165 -10.7046     24.5203    163.0690   1.2287865115e+02   3.7912869121e+01    0.1978424    0.1719922  82.27 0.0003811812    1.165    0.142
       166 -10.2241     75.5187    162.0995   1.1097860998e+02   3.2095026047e+01    0.2654285    0.1895715 -56.52   0.00146228    1.425    0.298
       167 -10.1919    140.1181    160.9534   9.5451561380e+01   2.1270530967e+01    0.2423615    0.1997438  46.40 0.0004415938    1.165    0.141
       168 -11.0508     37.4276    159.5580   1.1961874089e+02   3.7410939358e+01     0.576063    0.2026598  50.04   0.00249955    2.882    0.653
       169 -10.6944     30.1642    154.5548   1.2077396982e+02   3.9291878729e+01    0.3572903    0.2007405  54.51  0.001918145    1.765    0.433
       170  -9.0289      4.4576    159.4894   1.2695307836e+02   4.0430668823e+01    0.1165827   0.08528281  86.73 7.745094e-05    1.028    0.027
       171  -9.5321     66.1148    158.1763   1.1267656780e+02   3.4300114942e+01    0.1880958    0.1369479  68.60 0.0005213016    1.341    0.254
       172 -10.7541    112.8994    153.7501   1.0052833971e+02   2.7973465003e+01    0.2728755    0.2236101  60.56 0.0006093448    1.207    0.172
       173  -9.1947     72.4634    154.4160   1.1058998149e+02   3.4304571771e+01    0.1340251    0.1184467  89.82 0.0001912869    1.020    0.019
       174  -9.3120     72.5920    150.8191   1.1001114329e+02   3.5127288063e+01    0.2723368     0.122067 -71.74 0.0005178732    2.448    0.592
       175  -8.8942    107.6808    152.7345   1.0161723950e+02   2.9129496300e+01    0.1345307    0.1154729  -8.70 0.0002537142    1.555    0.357
       176  -9.5159     45.7691    151.7198   1.1674423513e+02   3.8305206586e+01    0.1690889     0.122792  80.34 0.0003181022    1.276    0.216
       177  -9.0134     85.7279    150.2568   1.0663460080e+02   3.3323803450e+01    0.1349486   0.09917708  75.21 0.0001940982    1.457    0.314
       178  -9.5028     20.2448    149.9565   1.2262414274e+02   4.1260263538e+01    0.1609002   0.08321486 -76.93 0.0006273211    1.564    0.361
       179 -10.7380      5.5337    147.7430   1.2581331838e+02   4.2948725654e+01    0.2570615    0.1434722  59.98            0    1.741    0.426
       180 -11.0905     13.5508    143.2227   1.2355519345e+02   4.3352389393e+01    0.3053587    0.2046949  83.39 0.0009755429    1.278    0.218
       181  -9.1439     24.9332    144.7858   1.2098756676e+02   4.2026587908e+01    0.1330064   0.09937826  33.41 0.0003088768    1.615    0.381
       182  -9.7613      4.8204    142.9044   1.2557621559e+02   4.4085427992e+01    0.1707999    0.1219445 -72.16 0.0003413875    1.194    0.162
       183  -9.0294     21.3301    142.2764   1.2159465803e+02   4.2923423168e+01    0.1147694   0.08156833 -49.57 0.0004271654    1.596    0.373
       184 -10.5978     35.0401    138.9401   1.1781045016e+02   4.2427809826e+01    0.3127688    0.2089812  71.64  0.001804813    1.513    0.339
       185  -9.9941     40.7477    138.8245   1.1634264942e+02   4.1871722677e+01    0.2483292    0.1354522  60.74  0.001039823    2.064    0.516
       186 -10.3934    236.0516    137.4901   7.0606800598e+01   5.9575558420e+00    0.2023581    0.1390779  46.34 0.0008626326    1.564    0.361
       187 -12.6062     28.1259    132.0446   1.1872245618e+02   4.4700377694e+01    0.3096954    0.2876455 -68.88  0.000815589    1.223    0.183
       188  -9.2058    105.0260    132.9718   9.8386543926e+01   3.4170052161e+01    0.1714169    0.1629342 -88.75            0    1.020    0.020
       189  -9.1617     76.4390    133.4337   1.0609204271e+02   3.8695824961e+01    0.1411205    0.1231757 -87.37            0    1.082    0.076
       190 -11.1396     40.6437    131.9320   1.1542816881e+02   4.3511408125e+01    0.3107923    0.2925234  18.36 0.0007156009    1.359    0.264
       191 -10.1407     17.9510    131.0082   1.2121761923e+02   4.5808481156e+01    0.1812231    0.1425204 -82.14 0.0003266877    1.011    0.010
       192 -10.0547     78.1081    129.1228   1.0483412253e+02   3.9479943761e+01    0.2688737    0.1871968  41.58  0.001381273    1.529    0.346
       193 -10.0424      7.9946    133.9619   1.2401522706e+02   4.5882781150e+01    0.1880362    0.1144743 -52.24 0.0007694383    1.709    0.415
       194 -10.0416     91.8607    126.1639   1.0047936652e+02   3.8032530474e+01    0.2278368    0.2101442  52.68 0.0003315374    1.139    0.122
       195 -10.8177     20.7024    126.5554   1.1998863267e+02   4.6621880894e+01    0.2451112    0.2093892 -44.32 0.0009556339    1.386    0.279
       196 -10.1793     30.0496    125.6744   1.1739117277e+02   4.6023051013e+01    0.1646695    0.1429024 -77.67 0.0004576267    1.086    0.079
       197 -11.3075      2.8447    124.1285   1.2435108230e+02   4.8472999881e+01    0.3448264    0.1845468 -71.05  0.001833877    1.413    0.292
       198 -10.5703      6.3095    122.1217   1.2325505427e+02   4.8707348259e+01    0.3294412    0.1685201  81.99  0.001741949    2.007    0.502
       199 -11.5775      9.2965    118.1860   1.2203647358e+02   4.9412909330e+01    0.4477039    0.2088548 -45.00 0.0006648529    2.411    0.585
       200 -11.3399     21.6319    119.7343   1.1888577283e+02   4.8140550248e+01    0.4099095    0.3027342 -73.62  0.001793345    1.076    0.070
       201 -11.8725     19.4096    112.0023   1.1847179797e+02   5.0122739004e+01    0.7663038     0.294719 -55.87  0.003649246    2.104    0.525
       202  -9.4502    123.2896    121.0328   9.0875597466e+01   3.3458026452e+01    0.2058808    0.1872226 -62.49 0.0002936837    1.087    0.080
       203 -10.1136     92.6995    119.3742   9.8777335007e+01   3.9497972867e+01    0.2750707    0.2478435 -27.40  0.001113805    1.245    0.197
       204  -9.7102     97.8218    118.8991   9.7243259631e+01   3.8735788001e+01     0.208912    0.1895519 -36.31 0.0003395971    1.168    0.144
       205 -11.3277     69.3067    123.0893   1.0611704413e+02   4.2179495187e+01    0.2355839    0.2144542 -70.65 0.0002514111    1.036    0.035
       206 -11.1148     55.2570    118.0046   1.0915777156e+02   4.5204205930e+01    0.2220588    0.1939805  40.27 0.0003751979    1.305    0.234
       207 -10.4696     49.5253    117.5307   1.1071753610e+02   4.5982940790e+01     0.250971    0.1860519  83.01 0.0005982702    1.448    0.309
       208 -10.1039    239.4692    117.4857   6.5401251242e+01   8.5504412736e+00    0.1431582    0.1282507 -21.58 0.0001780746    1.017    0.016
       209  -9.0230     30.2979    117.3213   1.1615019856e+02   4.7971523653e+01    0.1281783   0.08146814 -46.66 0.0003221639    1.621    0.383
       210 -10.5829      5.6619    115.2178   1.2268021885e+02   5.0333182587e+01    0.2499944    0.1273635 -52.21 0.0006801378    1.831    0.454
       211 -11.1212      4.5484    110.7214   1.2247519833e+02   5.1433410749e+01    0.2954136     0.143452 -57.42  0.001648585    1.696    0.410
       212 -10.1881     34.2910    114.9518   1.1465925462e+02   4.8166096686e+01    0.2239895    0.1559416  66.32  0.001281837    1.610    0.379
       213  -9.8107     47.5420    111.5012   1.1022160642e+02   4.7640933130e+01    0.1888136    0.1331089  31.76 0.0006213515    1.657    0.397
       214  -9.6007     45.2160    109.0378   1.1046318274e+02   4.8477747230e+01    0.1818765    0.1344365 -81.12 0.0003321247    1.319    0.242
       215 -10.3234     61.2525    113.2307   1.0651200519e+02   4.5604449083e+01    0.3927484      0.17307 -50.20  0.001381957    2.070    0.517
       216  -9.2678     93.2148    108.9285   9.6203019561e+01   4.1860763276e+01    0.2004812    0.1133458 -54.16  0.000684951    1.666    0.400
       217  -9.1327     84.8595    108.3850   9.8506668320e+01   4.3367684151e+01    0.1940168    0.1411491  21.35 0.0009445159    1.711    0.415
       218  -9.3963     36.6630    108.6997   1.1294970153e+02   4.9421541497e+01    0.1311503    0.0857431 -40.62 0.0007035238    1.661    0.398
       219 -10.1469     63.7185    106.2895   1.0434648804e+02   4.6936499673e+01    0.3338546    0.2237643  88.39  0.001591835    1.983    0.496
       220  -9.4641    108.7645    114.8243   9.3256343030e+01   3.7703642501e+01    0.2045068    0.1743831 -89.33 0.0005354483    1.313    0.238
       221 -10.3532     47.3078    104.5096   1.0897867356e+02   4.9326002547e+01    0.2976198     0.119032 -51.09 0.0009646597    2.160    0.537
       222 -10.9805    238.0215    121.6768   6.6621704261e+01   8.1586416179e+00    0.3891338    0.1845471  60.14  0.001499344    2.944    0.660
       223 -10.3162     36.0875    103.8935   1.1228832628e+02   5.0610797017e+01    0.1837344     0.153332 -88.46            0    1.199    0.166
       224  -9.8660     29.2470    103.2348   1.1425301047e+02   5.1381299520e+01    0.1678441    0.1296516  88.14 0.0004451626    1.316    0.240
       225 -11.0966    141.8748    100.9182   8.0840926408e+01   3.3893825298e+01    0.2362434    0.2331308 -16.06 0.0002927533    1.018    0.018
       226 -11.6186     42.2046     99.1015   1.0950179386e+02   5.1138480486e+01    0.3934948    0.2257973  40.26 0.0003827524    2.005    0.501
       227 -10.3288      8.9863     99.3128   1.1976086064e+02   5.3781551567e+01    0.2452556     0.154661  58.63 0.0008865129    1.878    0.468
       228  -9.7356      3.8872     98.0298   1.2110875970e+02   5.4375225337e+01    0.1962163    0.1689772  45.37  0.001435755    1.435    0.303
       229 -10.6351     54.5034     94.4495   1.0461184079e+02   5.0870498292e+01    0.4573831    0.1140231 -57.92  0.001314245    3.356    0.702
       230 -10.0024     32.2930     95.1230   1.1186926489e+02   5.3012418348e+01    0.2816343    0.1468436  88.75  0.001166622    3.054    0.673
       231 -10.1555     23.0509     95.9105   1.1492988667e+02   5.3594133905e+01    0.1813182    0.1485269 -70.37  0.001194682    1.051    0.049
       232 -10.8697     46.3796     94.1292   1.0715418226e+02   5.1864779589e+01    0.3240992    0.1914031  32.86   0.00150036    1.952    0.488
       233  -9.0745     38.8922     95.0000   1.0973883907e+02   5.2428087621e+01    0.1765512   0.07588135  26.48 0.0007117578    2.801    0.643
       234  -9.5012     14.3257     93.2771   1.1723438477e+02   5.4826845611e+01    0.1222488   0.07428814 -44.64 0.0002307893    1.588    0.370
       235 -10.1909      1.5252     92.9416   1.2114730593e+02   5.5659563957e+01    0.2207736    0.1146973 -83.20 0.0007174694    1.748    0.428
       236 -10.3541    104.5222     91.3248   8.8260825656e+01   4.3806868728e+01      0.26148    0.2348714  78.26  0.001385975    1.277    0.217
       237  -9.3058     17.4789     91.4823   1.1594578857e+02   5.5025014775e+01    0.1244953   0.09770897 -64.72 0.0003227818    1.004    0.004
       238 -10.6544      7.0938     89.8675   1.1898429829e+02   5.6052627638e+01    0.2757019    0.1649055 -73.98 0.0008414576    1.353    0.261
       239  -9.8591    118.0342     90.0106   8.4021912347e+01   4.1392193952e+01    0.2237566    0.2172475  -9.00 0.0004069298    1.040    0.039
       240  -9.5543     30.8320     84.3682   1.1022345832e+02   5.5621398554e+01    0.2055089    0.1460603 -22.38  0.000917704    1.673    0.402
       241 -11.1187     27.0901     88.0656   1.1221315755e+02   5.5086806965e+01    0.3962823    0.1996939 -56.91  0.001180888    1.549    0.354
       242 -12.2342     21.2357     87.7521   1.1408015595e+02   5.5611993287e+01    0.2349814    0.2111585 -79.05 0.0003154633    1.163    0.140
       243  -9.8105     87.9553     88.6597   9.2502920037e+01   4.7380886076e+01    0.2567503    0.1841347 -39.41 0.0005253177    1.339    0.253
       244  -8.9257     97.6953     88.7327   8.9546470824e+01   4.5650801716e+01    0.1439711    0.1144786  -9.10 0.0002681824    1.530    0.346
       245 -10.2345     11.1232     86.0604   1.1709437212e+02   5.6678991592e+01    0.3423067    0.1853265  87.75  0.001736475    2.276    0.561
       246 -10.9452      2.6531     87.0200   1.1996938247e+02   5.6939658142e+01    0.2887707     0.163247 -78.46  0.001688642    1.511    0.338
       247 -10.2253    123.6142     86.9010   8.1566934832e+01   4.0863256132e+01    0.2639378    0.2284994  60.41 0.0005364349    1.257    0.204
       248  -9.5830     64.1150     86.8502   9.9648219708e+01   5.1404551430e+01    0.1910971    0.1541665 -24.89 0.0008484241    1.339    0.253
       249  -9.9376    155.0515     85.0901   7.3100288311e+01   3.4002041912e+01    0.2307165    0.2232026 -51.80 0.0004294273    1.041    0.039
       250 -11.8926     50.1655     83.3280   1.0342445355e+02   5.3932363505e+01    0.3949927    0.2790178  -3.69 0.0006257799    1.869    0.465
       251 -10.6303     73.1095     81.3358   9.5194620451e+01   5.1367077737e+01    0.5317777    0.2089645 -42.91   0.00202176    2.444    0.591
       252 -10.2605     20.1003     81.6554   1.1331863684e+02   5.7083708868e+01    0.2267567    0.1516915 -81.20 0.0006502603    1.531    0.347
       253 -10.2859     18.3198     77.1098   1.1304168844e+02   5.8233646946e+01    0.2408682    0.1653126 -42.02  0.001499212    1.347    0.257
       254 -10.1765     19.1790     73.2727   1.1195254804e+02   5.9031058657e+01     0.297924    0.1681387 -32.43  0.001270561    1.919    0.479
       255  -9.7047     57.4971     81.3045   1.0041983095e+02   5.3513871064e+01    0.2155066    0.1259369  29.51 0.0009513556    1.971    0.493
       256 -10.4724     44.2209     80.3624   1.0473682376e+02   5.5253964389e+01    0.2482135    0.2134808 -17.88 0.0008378509    1.275    0.216
       257  -9.6190    130.3121     76.4934   7.6581336871e+01   4.1472806991e+01    0.2664258    0.1848851 -15.20  0.001013822    1.848    0.459
       258 -10.7627     52.1570     75.7964   1.0080340331e+02   5.5389391026e+01    0.3523856    0.2355678 -18.96  0.001271041    1.865    0.464
       259 -10.0256     29.0918     75.7879   1.0896769413e+02   5.7709386962e+01    0.4398333    0.1457797 -60.69  0.001844927    2.408    0.585
       260 -10.7504     63.5189     75.7142   9.6830145875e+01   5.3966810542e+01    0.3993095    0.2415327  45.28  0.001612311    1.989    0.497
       261  -9.2395     93.4064     74.5058   8.6593443586e+01   4.9468672926e+01    0.1457785    0.1338359 -35.25 9.618732e-05    1.029    0.029
       262  -9.8939     69.4174     74.1080   9.4341916468e+01   5.3485771262e+01    0.1973716     0.153272 -49.33 0.0005558778    1.178    0.151
       263  -8.8929    169.4080     72.4544   6.6180387823e+01   3.2783151826e+01    0.1542377    0.1480242 -60.18 -5.391365e-05    1.051    0.049
       264  -9.2811    138.1692     72.4303   7.3284463298e+01   4.0430017646e+01    0.1952693    0.1506692  66.01 0.0003507096    1.475    0.322
       265 -10.9620     88.8217     71.1247   8.6975874746e+01   5.0986716629e+01    0.4357672    0.2185912 -51.99 0.0007257189    2.121    0.528
       266 -10.6776     42.3036     70.9804   1.0303704224e+02   5.7540654019e+01    0.2552545    0.2168523 -38.12 0.0003475874    1.077    0.072
       267 -10.5385     45.0000     68.9778   1.0151301786e+02   5.7691494296e+01    0.2758874    0.1435413 -50.47 0.0007852716    1.584    0.369
       268  -9.2885     95.0428     71.5145   8.5128010420e+01   4.9780817526e+01    0.2047721    0.1447975  39.79  0.000432755    1.491    0.329
       269 -10.2131    204.9329     69.4130   5.8777041160e+01   2.4391058336e+01    0.2374202    0.1895261 -46.21 0.0009899578    1.206    0.171
       270 -11.2636     79.7490     69.9551   8.9575681089e+01   5.2768797615e+01    0.2255876    0.2118494   3.00 0.0002805889    1.103    0.093
       271 -11.0381     52.4361     69.6441   9.8999084159e+01   5.6699855657e+01     0.241527    0.2128223 -47.47 0.0002383971    1.074    0.069
       272 -10.2104     56.5068     66.5643   9.6623011920e+01   5.6855109268e+01    0.2406807     0.213484 -82.51  0.001021561    1.407    0.289
       273 -10.5765     15.4300     65.3291   1.1160639741e+02   6.1031640760e+01     0.437859    0.2515573  51.43  0.002357283    2.550    0.608
       274 -11.2967     19.1315     62.0696   1.0944522910e+02   6.1487560070e+01    0.6327029    0.3547892  55.46  0.003152983    2.970    0.663
       275 -12.9512     24.0657     57.6026   1.0638540401e+02   6.2074785721e+01    0.3241269    0.2504228 -46.45 0.0004785698    1.021    0.021
       276 -11.7995      5.7196     58.5978   1.1383100389e+02   6.3049389430e+01     0.503293    0.3796132  73.78  0.003133104    1.758    0.431
       277 -11.4245      1.2111     65.9328   1.1699772839e+02   6.1688804857e+01    0.5191572     0.126191 -70.59  0.001913688    3.779    0.735
       278 -10.7772      1.5040     62.1104   1.1616234733e+02   6.2502673178e+01    0.2430788    0.1221328 -62.73 0.0006150344    1.467    0.319
       279 -10.2774    105.8821     67.0044   8.0334783471e+01   4.8569014305e+01    0.2447344    0.2097099  38.61 0.0005142679    1.202    0.168
       280  -9.7146     75.2876     66.1154   8.9853195043e+01   5.4273909645e+01    0.1925567    0.1629582 -39.32  0.000334926    1.080    0.074
       281  -9.5130     64.0410     69.4956   9.4820700234e+01   5.5233916546e+01    0.1896922    0.1360371  29.33 0.0006973415    1.552    0.356
       282 -10.6275     31.5017     64.8625   1.0542981644e+02   5.9906641118e+01    0.3143225    0.2003598  19.28  0.001561297    1.877    0.467
       283  -9.6543    203.1548     63.4072   5.7412516900e+01   2.5784698319e+01    0.2052492    0.1425212  80.00 0.0004794738    1.670    0.401
       284  -9.7590     73.3586     61.2687   8.8922006194e+01   5.5554438419e+01     0.218555    0.1732426  -5.08 0.0006802025    1.367    0.269
       285 -10.0871     70.3104     59.9428   8.9547790131e+01   5.6288420061e+01    0.2323462    0.2049088  41.88 0.0004108104    1.321    0.243
       286  -9.1900     98.4829     60.5923   8.0399755790e+01   5.1258544398e+01     0.144242    0.1339729  -7.15 -1.232365e-05    1.021    0.020
       287 -10.1512     38.9603     57.8923   1.0061027006e+02   6.0678985094e+01    0.3362264    0.1341007 -54.15  0.001497798    2.133    0.531
       288 -11.7352     42.0380     51.9486   9.7539452244e+01   6.1570128560e+01    0.4218758    0.2463351 -28.98  0.001250941    1.747    0.427
       289 -10.3887     47.6556     46.7214   9.3514298201e+01   6.1953299549e+01    0.3935771    0.2135159  -6.02  0.001524103    3.280    0.695
       290  -9.2477    238.4544     58.5250   5.1172782628e+01   1.8062982349e+01    0.1393728    0.1257077 -50.97  9.17733e-05    1.018    0.017
       291  -8.8378     60.6712     57.9772   9.2375379739e+01   5.8074414438e+01    0.2090707    0.1089797 -66.60 0.0007037242    4.224    0.763
       292 -10.1356     53.3126     55.7949   9.4409276963e+01   5.9478763947e+01    0.3327336    0.2316135 -87.50  0.001512808    2.996    0.666
       293 -10.3553    122.4338     51.7524   7.0401834755e+01   4.7722480481e+01    0.2888472    0.2718778  23.42  0.001151012    1.029    0.029
       294 -10.9993     94.3543     49.6424   7.7763645617e+01   5.4034936083e+01    0.4113818    0.2805189  25.67  0.001016996    1.612    0.380
       295 -10.3177    151.2716     53.2599   6.4010234111e+01   4.0542056527e+01    0.2472612    0.2175799  25.34  0.000357672    1.193    0.162
       296  -9.7738     32.8741     54.1249   1.0188779371e+02   6.2048973461e+01    0.1845254    0.1664749 -70.83  0.001245035    1.331    0.249
       297  -9.6807     28.9767     53.2052   1.0318482519e+02   6.2588028360e+01    0.1707003    0.1322931  56.95 0.0009136391    1.864    0.463
       298 -10.2086     60.7860     51.9741   9.0275530019e+01   5.9237457268e+01    0.2083842    0.1848146  11.40 0.0006325454    1.185    0.156
       299 -11.3160      5.1922     38.8795   1.0916684855e+02   6.7151069506e+01    0.6677257    0.2908444  26.41  0.003667122    2.783    0.641
       300 -11.5848      7.2659     50.2092   1.1127137454e+02   6.4735399660e+01    0.3640619    0.3121062 -18.05  0.002490971    1.291    0.226
       301 -11.7205     17.2997     47.0352   1.0622442486e+02   6.4765250951e+01    0.6103303    0.2370795  20.41  0.002549808    3.069    0.674
       302 -12.6169     12.4347     44.0530   1.0745182611e+02   6.5692969940e+01    0.2899527    0.1743238 -46.19 0.0005761028    1.255    0.203
       303 -11.4436     14.4313     39.5354   1.0523428615e+02   6.6462679979e+01    0.1857334    0.1668785 -24.22 0.0005068091    1.213    0.175
       304 -12.3625     13.6977     36.0198   1.0445486932e+02   6.7198096523e+01    0.2366388    0.1940921 -32.95 0.0004369863    1.100    0.091
       305 -10.9192     65.6323     49.3128   8.7513029363e+01   5.9040977959e+01    0.3008702     0.195484 -28.14 0.0007708386    1.483    0.326
       306  -9.9062     31.5356     47.9404   1.0052020889e+02   6.3427424225e+01     0.168392    0.1412724 -26.91 0.0005602848    1.097    0.089
       307 -10.0169    114.6388     46.8700   7.0745458683e+01   5.0268524041e+01    0.2427634    0.1692444 -26.58 0.0005721413    1.447    0.309
       308  -9.1067    165.0232     46.0575   5.8897794880e+01   3.8142015106e+01    0.1741897    0.1679291  63.16 0.0003098009    1.011    0.011
       309 -11.1249     62.0757     44.6213   8.7104274748e+01   6.0428044065e+01    0.3148861    0.2023952 -35.54 0.0004148273    1.381    0.276
       310  -9.6682     93.3537     54.7588   7.9950665075e+01   5.3321605455e+01    0.2788238    0.1640165 -31.46 0.0006237103    1.690    0.408
       311  -9.3211    108.7750     44.7427   7.1599952065e+01   5.1889196166e+01    0.2282568    0.1038809 -43.38 0.0008770984    2.401    0.583
       312 -10.0674    200.0216     43.3979   5.2311127142e+01   2.9531026199e+01    0.2208484     0.199891 -15.80 0.0003946012    1.226    0.184
       313  -9.2426    192.4800     44.5137   5.3749197370e+01   3.1296227185e+01    0.1457299    0.1394196 -81.85 1.904791e-06    1.008    0.008
       314  -9.9808     33.3425     43.6505   9.8347430482e+01   6.4101063381e+01    0.2095904    0.1860006 -52.66  0.001066645    1.281    0.220
       315 -11.8836    103.5253     39.2209   7.1016823012e+01   5.3866535422e+01    0.3900208     0.240117 -25.68 0.0004431522    1.649    0.394
       316 -10.3405     31.6645     58.9364   1.0376224376e+02   6.1156655156e+01    0.2355645    0.2118564  69.12  0.001584284    1.467    0.318
       317 -10.4930     20.4456     40.7926   1.0296891006e+02   6.5781162918e+01    0.2917476    0.1964293  -1.40  0.001836977    1.666    0.400
       318  -9.9740     91.3334     40.7918   7.5352137385e+01   5.6094154631e+01    0.2299783    0.1882773  49.55  0.001277055    1.365    0.267
       319 -10.1298     38.7819     40.4086   9.4901703956e+01   6.4161749219e+01    0.3229155    0.1821896   3.70  0.001595692    2.429    0.588
       320 -10.1624    117.8257     38.7662   6.6893868262e+01   5.0789480019e+01    0.3657022    0.1504996  52.14  0.001057394    2.339    0.572
       321  -9.7755     82.3268     39.0107   7.7611910278e+01   5.8071570569e+01    0.1921489    0.1562844 -25.40 0.0004920118    1.148    0.129
       322  -9.0719     97.2911     38.7231   7.2682234904e+01   5.5234756100e+01    0.1275637    0.1124581 -71.20 0.0002323605    1.522    0.343
       323 -10.2648     85.9862     37.1788   7.5655287266e+01   5.7686590864e+01    0.2211559    0.1789745 -21.78 0.0003505808    1.155    0.134
       324 -11.1003    156.2103     36.7861   5.7574532997e+01   4.1697727941e+01    0.2541393    0.2419439  71.67 0.0002644777    1.041    0.040
       325 -11.1190     75.2368     34.2041   7.8117736429e+01   6.0093815420e+01    0.5690277    0.3277048  13.14   0.00233951    2.522    0.604
       326 -12.2883    193.9853     35.1901   5.0848042773e+01   3.2172993853e+01     0.276331    0.2608429 -77.34  0.000359615    1.014    0.014
       327  -9.5787    198.8174     35.1140   5.0154070751e+01   3.0950310647e+01    0.2799938    0.1600142  54.63 0.0005968097    1.740    0.425
       328  -9.3608    175.5059     35.9870   5.3901436326e+01   3.6831989772e+01    0.2203699    0.1034419 -50.92 0.0008101633    2.548    0.608
       329  -9.8797    136.1575     35.9094   6.1419291964e+01   4.6845778270e+01    0.1978573    0.1625137  23.00 0.0002404149    1.274    0.215
       330 -10.7312    129.5425     35.6911   6.2855176021e+01   4.8479798032e+01    0.4367108     0.258004  72.11  0.001818657    2.239    0.553
       331 -10.7889    142.4486     31.8337   5.8631521881e+01   4.5828648860e+01    0.5535446    0.2520421 -27.32  0.002199749    2.305    0.566
       332  -8.9973     55.5294     29.5080   8.3599288676e+01   6.3962389859e+01    0.2090761    0.1111139 -35.81 0.0007606979    1.682    0.406
       333  -9.9055     60.7511     32.9574   8.2984788188e+01   6.2636476123e+01     0.249946    0.1633291 -32.99 0.0007771507    1.371    0.271
       334  -9.9784     58.2856     35.3016   8.4915731012e+01   6.2610261826e+01     0.214156    0.1637682   7.79 0.0005504712    1.304    0.233
       335 -10.6272     55.0110     33.2822   8.5391718653e+01   6.3416075352e+01    0.2259334    0.1801641 -29.76 0.0003047485    1.134    0.118
       336  -9.9670     40.3120     35.0875   9.2245393695e+01   6.4968131768e+01    0.1686776    0.1314145 -33.29 0.0002691031    1.090    0.082
       337  -9.5422     47.8076     34.2363   8.8732968739e+01   6.4216253359e+01    0.1690451    0.1237503 -10.37 0.0004220716    1.319    0.242
       338 -10.3376    117.9905     32.9667   6.4667484510e+01   5.1567959911e+01     0.207902     0.196582  27.15            0    1.044    0.042
       339  -9.6820    137.3694    248.2050   1.0920033658e+02   5.7889121886e+00    0.1382834    0.1081709 -82.78 0.0003657565    1.625    0.385
       340 -10.3501    208.2890     35.8835   4.9112034137e+01   2.8460214137e+01    0.3301346    0.2403459   5.64  0.001598594    1.934    0.483
       341  -9.2814     66.5292     33.0069   8.0796413033e+01   6.1733057200e+01    0.1943546    0.1171398 -33.83 0.0004847684    1.520    0.342
       342  -9.7964    233.0660     32.0341   4.5243702026e+01   2.2935643392e+01    0.2048067    0.1747549 -65.21 0.0003601781    1.046    0.044
       343  -9.9945      5.1994     31.9401   1.0709756685e+02   6.8507696446e+01     0.228916    0.1065288 -26.81  0.001240837    2.195    0.544
       344 -10.7991    159.0326     30.1807   5.4878805447e+01   4.1830313863e+01    0.2408066     0.206559 -35.99            0    1.215    0.177
       345 -10.3427     32.2936     29.4350   9.3554670207e+01   6.6838449023e+01    0.2857672    0.2479915  24.75  0.002000167    1.426    0.299
       346 -10.3134    211.4017     28.9223   4.6856810490e+01   2.8571889791e+01     0.355452    0.2177009  30.44  0.001017888    2.466    0.594
       347 -10.3912     19.0865     29.1972   9.9587575499e+01   6.8086488570e+01    0.2107092    0.1455456 -51.19 0.0009138179    1.364    0.267
       348 -11.4262     18.4408     23.8866   9.7862459205e+01   6.9092898219e+01    0.2320303    0.1624667 -42.87 0.0006140571    1.215    0.177
       349 -10.8390    221.0264     28.6161   4.5676736806e+01   2.6244148361e+01    0.2912406    0.1637632 -49.64  0.001378553    1.692    0.409
       350 -10.1346    181.5829     27.9159   5.0508757049e+01   3.6283009966e+01    0.3100463    0.1806264 -24.33  0.001281077    1.875    0.467
       351 -10.4831     71.3569     28.8529   7.7255179599e+01   6.1580329624e+01    0.1826852    0.1633018  18.81 0.0006939182    1.163    0.140
       352 -11.7929     48.6385     26.6921   8.5230032613e+01   6.5369157176e+01    0.3292951    0.2707573  62.52            0    2.080    0.519
       353  -9.3463     99.8669     27.1690   6.7288381556e+01   5.6351726994e+01    0.1958206    0.1486041  19.02 0.0005187499    1.315    0.240
       354  -9.6085    164.5532     26.4776   5.2725680148e+01   4.0861229687e+01    0.1427869    0.1350928  66.00 0.0001316593    1.009    0.008
       355 -10.1514     24.7298     30.8627   9.7574064006e+01   6.7307018405e+01    0.2008272    0.1669169 -34.11 0.0007612175    1.128    0.114
       356  -9.5948     78.3211    248.2820   1.1966907377e+02   1.4462697008e+01    0.1429348    0.0894632 -89.07 0.0006888597    1.675    0.403
       357 -10.8102     10.7408     22.2263   1.0102834456e+02   6.9968279861e+01    0.4566641    0.1518203  23.95  0.002234605    3.357    0.702
       358 -11.6679    201.7231    244.6502   9.7151006953e+01  -3.8631899427e+00    0.2674762     0.181919  27.58 0.0004251825    1.200    0.167
       359 -10.8204    227.4371     22.5874   4.3481975768e+01   2.5435287683e+01    0.2208107    0.1764977  67.29  0.001282184    1.280    0.219
       360 -10.2744    192.8378     17.1788   4.5868191112e+01   3.4636948738e+01    0.2072724    0.2047126  50.30 0.0003410344    1.139    0.122
       361 -10.3441    187.7569     22.9834   4.8185250851e+01   3.5279265975e+01    0.2212937     0.210136 -40.69  0.000292866    1.121    0.108
       362  -9.9333    190.0475     20.0388   4.7033280457e+01   3.5029973732e+01    0.2073742    0.1825479  52.96 0.0003346058    1.181    0.153
       363 -10.2344    169.9249     23.3030   5.0856310461e+01   3.9846781047e+01    0.2031083      0.17382  65.03 0.0004117348    1.095    0.086
       364 -10.2406    153.7681     23.0077   5.3437728726e+01   4.4039382107e+01    0.2380317    0.1921798  56.51 0.0003197792    1.151    0.131
       365 -10.2699    123.1363     22.1005   5.9286046196e+01   5.1733979057e+01    0.4097092    0.2399452 -66.55  0.001565714    3.252    0.692
       366 -12.3517    116.9069     22.3173   6.0836379270e+01   5.3170786457e+01      0.28535    0.2312578 -20.12  0.001591118    1.268    0.211
       367 -10.0995     62.4392     22.8237   7.7935630294e+01   6.3936343854e+01    0.2551184    0.1460986  23.19  0.001284713    1.924    0.480
       368 -10.3190     26.9039     21.5722   9.2808692706e+01   6.8729464748e+01    0.3138205    0.1784564 -16.22  0.001129641    1.881    0.468
       369 -10.7374    176.3141     21.8036   4.9433125897e+01   3.8366815242e+01    0.2852685    0.1539997  43.19  0.001221853    2.053    0.513
       370 -10.3156    132.3124     21.4543   5.7031339985e+01   4.9595213944e+01    0.2407565    0.1647294 -50.00  0.001091977    1.737    0.424
       371  -9.8259     90.0330     21.5710   6.7861747118e+01   5.9105899252e+01    0.2991184    0.1685358 -40.99  0.001422499    2.041    0.510
       372  -9.9546     41.0007     21.5465   8.6269208256e+01   6.7168614696e+01    0.1669706     0.136721  -0.40 0.0003302267    1.127    0.112
       373 -10.1256     36.6240     21.2202   8.8099247683e+01   6.7744944016e+01    0.2846164    0.1491915  15.05 0.0009291082    2.340    0.573
       374  -9.2479    148.5530    246.4581   1.0697078174e+02   4.2917770157e+00    0.1197855   0.09407102  45.28 0.0001457759    1.024    0.023
       375 -10.6846    104.9906     20.9871   6.3336492599e+01   5.6022263378e+01    0.2124898    0.1837214  39.88            0    1.100    0.091
       376  -9.4710    101.6923     19.2788   6.3521835220e+01   5.6944397553e+01    0.2003489    0.1634287  46.32 0.0002322618    1.190    0.159
       377  -9.0131     86.6977     21.2756   6.8768649232e+01   5.9807835025e+01    0.1184141    0.1070615 -67.20 0.0001868491    1.540    0.351
       378  -9.5464     97.4163    244.8012   1.1602400570e+02   1.2364832519e+01    0.1346386    0.1060443 -57.49 0.0006245015    1.640    0.390
       379 -10.7258     73.3789    244.2084   1.2019976545e+02   1.5815771606e+01    0.2101866    0.1477971  75.54 0.0006737097    1.243    0.195
       380 -10.3688    219.5247     19.5128   4.3508179003e+01   2.7704312436e+01    0.1367645    0.1192875 -71.75 0.0001285953    1.021    0.020
       381 -10.1144    198.9232     18.4948   4.5504683943e+01   3.2943065869e+01    0.2158906    0.1282314  70.76  0.001031685    1.586    0.370
       382  -9.9897     61.5457     17.8962   7.6020897600e+01   6.4769874467e+01    0.2500766    0.1516851  25.99 0.0002852347    1.656    0.396
       383 -11.3469     75.9825    241.0445   1.1949061814e+02   1.6008918851e+01     0.286825    0.1704497  65.40 0.0006482651    1.459    0.315
       384 -10.3443     46.3897     17.8773   8.2213365527e+01   6.7027117610e+01    0.2932667    0.2111515  58.22  0.001611697    2.598    0.615
       385 -10.3462     15.0503     18.2724   9.7266763384e+01   7.0339860316e+01    0.1573943    0.1216029 -19.49 0.0003831373    1.104    0.094
       386  -8.9860     92.4886     17.4764   6.5361223519e+01   5.9103955735e+01    0.1354499    0.1172622  17.06 0.0008100902    1.010    0.010
       387 -10.5598     62.9055    243.2655   1.2193310578e+02   1.7350947615e+01    0.1741694    0.1248441  76.97 0.0004749787    1.181    0.154
       388  -9.4096    112.5067     15.4923   5.9198634245e+01   5.4954564953e+01    0.2302812    0.1465063  32.53   0.00114254    1.566    0.361
       389 -10.1692    145.8454    242.7843   1.0701797088e+02   5.2674739299e+00    0.1712928    0.1407252  34.79 0.0005777007    1.159    0.137
       390  -8.5237     22.7308     12.3775   9.0728743401e+01   7.0624791093e+01     0.175477   0.09236568 -43.40  0.001007398    1.725    0.420
       391 -10.4137     91.7262    242.2325   1.1680194166e+02   1.3612947732e+01    0.2269525    0.1500506  57.96 0.0004571679    1.205    0.170
       392 -10.4452    179.4552     13.7978   4.6583731717e+01   3.8432855000e+01    0.2351089    0.1536872  63.38 0.0006508692    1.400    0.286
       393  -9.5536    154.9382     13.6953   5.0129286382e+01   4.4749220882e+01    0.1959348    0.1684203  70.64 0.0004627955    1.095    0.087
       394 -10.3413    110.2396    241.0270   1.1334314133e+02   1.1093243366e+01    0.2864507    0.1840777  74.47  0.001280972    1.761    0.432
       395  -8.9367     23.3340     15.7158   9.1970355169e+01   7.0037790134e+01   0.09510964   0.09281886 -54.28 0.0004758449    1.620    0.383
       396  -9.9717     89.0480     13.8937   6.4811138376e+01   6.0220794306e+01    0.1957449    0.1680197  24.93  0.000314199    1.046    0.044
       397 -10.7577    147.3850     12.8599   5.1103834034e+01   4.6754540580e+01    0.2298141    0.1765493  35.28 0.0005471064    1.329    0.248
       398 -10.2332     55.1080    241.1132   1.2311232098e+02   1.8711234570e+01    0.2274561    0.1248284  87.64 0.0009396482    1.786    0.440
       399 -10.1487    134.2919    240.9647   1.0892458275e+02   7.3814732026e+00    0.1548236    0.1389807  53.28 0.0003791492    1.134    0.118
       400  -9.7255     51.1986     13.2096   7.7933196067e+01   6.7001088699e+01    0.1567752    0.1406128 -25.78  0.001068648    1.371    0.271
       401 -10.0709    119.2304    240.8117   1.1167664771e+02   9.7577030584e+00    0.1528457    0.1214194  36.15  0.000396806    1.297    0.229
       402 -11.4563      5.0538    238.0580   1.3111368127e+02   2.4775817108e+01    0.3540077    0.1475804  58.47  0.001486684    1.722    0.419
       403  -9.4810     32.2256     12.5994   8.6147572193e+01   6.9581670240e+01    0.1578842   0.09891661  13.83  0.000952735    1.625    0.385
       404  -9.4475     26.2256     12.4122   8.8989321576e+01   7.0266844977e+01    0.1315511    0.1038511  23.02  0.000247969    1.467    0.319
       405 -10.5068    246.6854    239.9900   8.8687751410e+01  -9.9750424561e+00    0.1643315    0.1240926   5.93  0.001181372    1.097    0.089
       406  -9.9144    197.9099    240.4959   9.7221183541e+01  -2.7444481046e+00    0.1789623   0.09636318  38.92 0.0004339284    1.502    0.334
       407  -9.1251    190.5123    240.5549   9.8560568160e+01  -1.5813004440e+00    0.1213915   0.09542108  30.91 9.054317e-05    1.006    0.006
       408 -10.2113    137.9974    239.9935   1.0812545709e+02   6.9455674253e+00    0.1831838    0.1410721  56.51 0.0004897175    1.180    0.153
       409 -11.0978    143.0794    237.8212   1.0691732878e+02   6.4703578502e+00    0.5342761    0.1502923  44.64  0.002139558    2.863    0.651
       410 -10.0997     96.3512    238.8569   1.1565346062e+02   1.3518588883e+01    0.2300111    0.1213409  54.20 0.0007680215    1.573    0.364
       411 -10.0052    220.6741    238.3155   9.2859593578e+01  -5.9958406939e+00    0.1050826    0.0890028  53.38 0.0005984674    1.670    0.401
       412  -9.6502    167.8503    238.1188   1.0235875297e+02   2.4071864664e+00    0.1784501     0.146599  52.69 0.0008254576    1.240    0.193
       413  -9.5399    105.8919    235.1830   1.1353582551e+02   1.2731212687e+01    0.1480122    0.1290734  39.20 0.0003571501    1.302    0.232
       414  -9.6214     84.1020    238.0457   1.1779081346e+02   1.5409863510e+01    0.1945803    0.1054778  63.01 0.0009131081    1.704    0.413
       415  -9.7801     63.1470    237.8422   1.2148872182e+02   1.8268099001e+01    0.1686832    0.1117061  69.52  0.001148255    1.227    0.185
       416  -9.6105     44.6640    236.6699   1.2459267892e+02   2.0767173966e+01    0.3355401    0.1441437  63.36  0.001877345    2.043    0.511
       417  -9.4969    101.2725    236.3536   1.1450833302e+02   1.3222393799e+01     0.101115   0.09280207  -3.00 0.0001818736    1.638    0.390
       418  -9.7150     93.7653    234.2648   1.1568231939e+02   1.4688596474e+01    0.1850301    0.1320675 -78.43 0.0007237306    1.508    0.337
       419 -11.5425     18.0836    232.8393   1.2880374395e+02   2.4403872502e+01     0.235922     0.193413  57.64  0.001775331    1.370    0.270
       420  -9.6097    230.1313    233.1543   9.0393885794e+01  -6.8078548442e+00    0.1899403    0.1260529  15.83 0.0007471223    1.337    0.252
       421  -9.3453    197.4882    233.5052   9.6249511687e+01  -1.7624724917e+00    0.1229879   0.09873282  28.23 0.0001387639    1.013    0.013
       422  -9.3457    173.3279    233.3463   1.0067593907e+02   2.2016316982e+00    0.1248624   0.08743162  12.53 0.0006076255    1.752    0.429
       423  -9.1478    156.6756    233.3185   1.0378929984e+02   4.9507700857e+00    0.1227816   0.08670364  63.83  0.000704502    1.673    0.402
       424 -11.6482     47.0637    230.8945   1.2379490921e+02   2.1524913176e+01    0.4238611    0.1733323  56.87  0.001367971    2.011    0.503
       425 -11.1618     41.5450    231.8815   1.2481637679e+02   2.1998565820e+01    0.3392728    0.1691072  73.48  0.001659686    1.822    0.451
       426  -9.8025    219.2786    232.6382   9.2207746271e+01  -5.0930026448e+00    0.1025814   0.09433316  63.98 0.0006227478    1.669    0.401
       427 -10.1704    143.2172    232.2453   1.0618665448e+02   7.3277908067e+00    0.4506364    0.1263892  42.12  0.001765568    2.882    0.653
       428 -10.8246     29.4771    231.0443   1.2681905198e+02   2.3517631463e+01    0.2097148     0.144574  86.26 0.0006301679    1.210    0.174
       429 -10.6061     73.2574    226.6307   1.1875468381e+02   1.8955242446e+01    0.4183888    0.2195648  72.87  0.002255504    2.063    0.515
       430 -10.2825    243.8492    231.1504   8.7718942058e+01  -8.5959086837e+00    0.1615491    0.1365512  14.94 0.0003842411    1.227    0.185
       431  -9.0588    159.5798    230.5535   1.0286386092e+02   4.8950994545e+00    0.1241432    0.1022554  43.99 -3.755499e-05    1.049    0.047
       432  -9.5840    152.3264    230.2840   1.0420161582e+02   6.1402718103e+00     0.120151     0.089513  18.20 0.0002073674    1.603    0.376
       433  -9.7582     15.9342    228.5277   1.2894141109e+02   2.5405822642e+01    0.1431089   0.08174773  48.46 0.0003117333    1.500    0.333
       434  -9.3344    175.1707    227.1173   9.9423301893e+01   2.8118486086e+00    0.1607996    0.1396667  61.55  0.001053837    1.346    0.257
       435 -10.3597    109.3424    225.7887   1.1186558586e+02   1.3841415593e+01    0.3567434    0.2051451  59.92 0.0009912212    1.687    0.407
       436  -9.4397    153.4795    226.4467   1.0345686599e+02   6.5572962369e+00    0.1269271    0.1044251  44.74 6.823293e-05    1.029    0.028
       437  -9.5228    164.5066    225.5033   1.0121179192e+02   4.8516471544e+00    0.1272116    0.1056952  39.47 -0.000192531    1.011    0.011
       438  -9.7877    124.5176    224.5025   1.0878944378e+02   1.1663551992e+01    0.2178983    0.1085971  32.39 0.0005903181    2.261    0.558
       439  -9.5065    112.7016    223.6160   1.1096934403e+02   1.3703768349e+01    0.1678499    0.0962389  49.83 0.0004218443    1.460    0.315
       440  -9.2578    110.0112    220.9852   1.1118409384e+02   1.4599545760e+01    0.1700572    0.1237417  66.27 0.0003589457    1.293    0.227
       441  -9.5071     38.7723    223.4772   1.2474783578e+02   2.3876274121e+01     0.129418    0.1006617  36.74 0.0009258628    1.623    0.384
       442  -9.3275     78.4266    222.4360   1.1740627312e+02   1.9022907125e+01    0.1217836   0.09192703  66.20 8.862572e-05    1.068    0.064
       443 -11.6784     84.0084    220.7118   1.1617881571e+02   1.8557109928e+01    0.1958746    0.1600028  78.16 0.0003262071    1.107    0.097
       444  -9.2421     54.3696    220.8583   1.2175007567e+02   2.2503703693e+01     0.144379   0.09409396 -68.36 0.0005849814    1.619    0.382
       445 -10.5224    228.7160    220.0391   8.8457553657e+01  -4.9818083017e+00    0.2061549    0.1522176  35.91 0.0003171947    1.296    0.228
       446 -10.2107    136.0730    218.0123   1.0568776762e+02   1.0890366025e+01    0.2955051     0.228402  17.63  0.001731669    1.643    0.391
