#   1 NUMBER                 Running object number                                     
#   2 MAG_AUTO               Kron-like elliptical aperture magnitude                    [mag]
#   3 X_IMAGE                Object position along x                                    [pixel]
#   4 Y_IMAGE                Object position along y                                    [pixel]
#   5 X_WORLD                Barycenter position along world x axis                     [deg]
#   6 Y_WORLD                Barycenter position along world y axis                     [deg]
#   7 A_WORLD                Profile RMS along major axis (world units)                 [deg]
#   8 B_WORLD                Profile RMS along minor axis (world units)                 [deg]
#   9 THETA_WORLD            Position angle (CCW/world-x)                               [deg]
#  10 FWHM_WORLD             FWHM assuming a gaussian core                              [deg]
#  11 ELONGATION             A_IMAGE/B_IMAGE                                           
#  12 ELLIPTICITY            1 - B_IMAGE/A_IMAGE                                       
         1 -13.5538    121.3847     77.9196   2.0212159543e+01   4.2895081089e+01     1.652435     1.311169  63.67  0.008256068    1.308    0.235
         2 -14.7911     14.9589     24.3494   4.4895884706e+01   7.3971620940e+01     3.231961     2.172045 -33.28   0.01804958    1.422    0.297
         3 -12.5953     76.1321     13.2225   7.0818076865e+00   6.3926116797e+01    0.4750895    0.2863733  65.55  0.001050951    1.562    0.360
         4 -11.7038     65.4759     17.3617   1.2621346635e+01   6.5950567694e+01    0.8657231    0.4476959  56.06  0.001910269    1.767    0.434
         5 -11.9767    141.8179     32.2452   1.3558107807e+00   4.5368450080e+01     1.066826    0.4394009 -57.06  0.003884792    3.057    0.673
         6 -15.0555     90.4527      6.2338   2.5433238526e-01   6.1095089185e+01     3.821777     1.349026  73.61   0.01415426    2.901    0.655
         7 -13.0447    148.6525     30.4191   3.5980414667e+02   4.3929527964e+01     1.758679     0.793317 -66.08  0.004991333    3.068    0.674
         8 -13.4295     49.9657     38.2262   2.9986605222e+01   6.5974567248e+01     1.530095     1.060308  12.50  0.007326827    1.873    0.466
         9 -12.5471    238.6157     21.6046   3.4981110808e+02   2.5820179493e+01    0.9386307    0.3653277 -76.22  0.004445914    3.239    0.691
        10 -11.4207    151.1076     19.7999   3.5618794340e+02   4.4579024113e+01    0.4763219    0.3630831 -79.98  0.001853484    1.197    0.165
        11 -11.7391    207.9820     17.5031   3.5069225778e+02   3.2102720291e+01     0.391599    0.2246453 -48.71  0.001205153    1.362    0.266
        12 -12.1622    244.9947     14.7128   3.4808808406e+02   2.5439317729e+01    0.3451593    0.2538007  63.63  0.001459941    1.815    0.449
        13 -10.9684    174.6248     13.2774   3.5201771015e+02   3.9744485489e+01    0.2971235    0.2308633 -80.25 0.0008876458    1.139    0.122
        14 -11.8179    184.3456     10.3596   3.5050809267e+02   3.7865358138e+01    0.7203175    0.3412338 -49.42  0.003072275    1.736    0.424
        15  -9.9388    178.5687      8.2238   3.5035272889e+02   3.9366178914e+01    0.2207009    0.1733136  71.33 0.0006308082    1.366    0.268
        16 -10.6394    202.1722     11.3208   3.4958821720e+02   3.3950668036e+01    0.2162053       0.1669 -61.23 0.0004447499    1.018    0.018
        17  -9.4131    155.5228      9.7596   3.5265966924e+02   4.4563945465e+01    0.1743517    0.1021443 -46.48 0.0005105707    1.533    0.348
        18 -12.0891    137.5620      4.2824   3.5267173383e+02   4.9446136934e+01    0.5260705    0.3164411 -80.26 0.0007589576    1.593    0.372
        19 -11.7718    149.0922      7.0734   3.5243734488e+02   4.6370605482e+01    0.4883142    0.2557316 -66.49  0.001148644    1.894    0.472
        20  -9.6537    143.7869      8.4571   3.5339999132e+02   4.7530991697e+01    0.2597435    0.1881677  55.78  0.001253244    1.493    0.330
        21 -10.1091    235.7702      6.6057   3.4683868243e+02   2.7910899813e+01    0.1460516   0.08330093 -74.00 0.0007724192    1.584    0.369
        22  -9.7958    199.9232      4.8578   3.4816729915e+02   3.5070859340e+01    0.2562453   0.09266896 -51.16  0.001231674    2.147    0.534
        23 -10.9927    244.8393      3.8708   3.4592500807e+02   2.6574394626e+01    0.1524742     0.133511 -47.75  0.001240088    1.317    0.241
        24  -9.5311    228.4266      3.5003   3.4649669441e+02   2.9570669451e+01    0.1153105   0.08108927 -54.97 3.138178e-05    1.034    0.033
        25 -10.8011    215.5738      2.2986   3.4679488246e+02   3.2150640483e+01    0.2045905    0.1503581 -61.52 0.0005102851    1.048    0.046
        26 -15.0583     69.3601     37.7100   2.1260563352e+01   6.2128153457e+01     3.930304      2.19682  31.80   0.01630051    2.290    0.563
        27  -9.2642    167.3816      2.2147   3.4949983573e+02   4.2490168481e+01    0.1760536   0.09426812 -42.38 0.0009345649    1.622    0.384
        28  -9.7393    235.5183      1.4848   3.4579287801e+02   2.8464628261e+01    0.1125246   0.07972734 -54.91 0.0005647856    1.006    0.006
        29  -9.6124    146.3338     95.8789   1.9568285626e+01   3.3804947858e+01      0.24616    0.2020611  71.11 0.0005379264    1.352    0.260
        30 -10.5758    205.1437     92.8351   8.7094578058e+00   2.2440381799e+01    0.3974761    0.2965447 -64.96  0.001654239    1.467    0.318
        31 -10.2377    201.2283     92.5810   9.1876536240e+00   2.3207813896e+01    0.2929025    0.2472624  67.29  0.001330227    1.385    0.278
        32 -12.5309    114.3898     86.9867   2.4804959463e+01   4.2625518541e+01     1.333681    0.8383054  25.47  0.005219626    2.421    0.587
        33 -12.7690     96.5766     70.7533   2.4838706128e+01   4.9948065998e+01      0.58978    0.3489966  44.03 0.0006059719    1.724    0.420
        34 -12.1652    104.7336     64.3935   2.0236609247e+01   4.9344560915e+01      1.24318    0.6663545 -41.52  0.005151683    1.867    0.464
        35 -11.3466    193.2511    248.9560   3.9422304228e+01  -3.5204776159e-01     0.307528     0.134719  17.81  0.001690918    2.164    0.538
        36 -11.1028    246.5166     93.0286   3.9056357559e+00   1.5450854121e+01    0.2001543    0.1536465 -73.13 0.0007923857    1.597    0.374
        37 -10.0198    163.4883     92.2851   1.5185790240e+01   3.0812263034e+01    0.2567491    0.1933757  55.41 0.0007632052    1.439    0.305
        38 -10.8938    144.7667     91.2825   1.8659446039e+01   3.5037711297e+01    0.2986485    0.2568267  68.99 0.0006198497    1.236    0.191
        39  -9.4011    157.5023     87.9967   1.5183032911e+01   3.2875220762e+01    0.2073255    0.1346084 -40.75 0.0009785077    1.432    0.302
        40  -9.9653    152.5647     87.8097   1.6096606592e+01   3.3985821151e+01    0.2490985    0.2069782  61.40 0.0007550585    1.276    0.216
        41 -11.9426    249.1751     84.3575   1.9085321493e+00   1.6234197867e+01    0.4820339    0.2283069 -41.60   0.00196592    1.560    0.359
        42 -11.0585      5.6423     84.8760   6.8106956538e+01   6.0004806549e+01    0.4521403    0.2915362 -48.63  0.002287509    1.453    0.312
        43 -11.2955    245.4129     79.3954   1.2593350368e+00   1.7495274097e+01    0.2961858    0.2107946  50.94  0.001294331    1.868    0.465
        44  -9.7038    174.7901     81.2747   1.0375028837e+01   3.0341603705e+01    0.2465677    0.1646772 -49.23 0.0006722837    1.365    0.268
        45 -11.2881    117.4268     65.6287   1.7282234157e+01   4.6145270680e+01    0.6080284    0.4512154   2.70  0.002706538    2.088    0.521
        46  -9.6618     32.8234     79.0667   5.3488884788e+01   5.9248791838e+01    0.2320763    0.1986224  70.45   0.00123896    1.300    0.231
        47 -11.8039    234.4406     74.7859   1.3473775639e+00   1.9923945784e+01    0.4707479     0.260386 -56.50  0.002413696    1.793    0.442
        48 -10.1794    205.7549     75.4748   4.6156877994e+00   2.5001254252e+01     0.352483    0.2056763 -78.68  0.001642734    2.586    0.613
        49 -10.1754    218.2998     72.2810   2.4519453724e+00   2.3116994630e+01    0.3046272    0.2147146 -21.16  0.001773343    1.635    0.388
        50 -11.0436    249.7465     74.2166   3.5982194420e+02   1.7504223071e+01     0.235681    0.1905003 -67.12  0.001366221    1.311    0.237
        51  -9.2002    143.9967     73.4560   1.3761916463e+01   3.8518754192e+01    0.1961185    0.1438918  61.27 0.0003222303    1.413    0.292
        52 -10.0752    243.8622     74.6240   4.2779642504e-01   1.8388105592e+01     0.193835    0.1155192  73.34  0.001166212    2.223    0.550
        53 -13.3505     78.8316     60.7975   2.7266730052e+01   5.5828081425e+01     2.612814     1.175579  52.94  0.009611845    2.451    0.592
        54 -10.6717    200.5231    236.0178   3.6362765095e+01   5.9191898968e-01    0.2255003    0.1234226  23.74  0.001422005    1.626    0.385
        55  -9.6388    214.6577    232.3118   3.3432191082e+01  -3.6600277927e-01   0.09092508   0.08346915  19.75 0.0006214526    1.700    0.412
        56  -9.8335    244.7820    181.5940   2.0709017386e+01   3.1841943704e+00    0.1269401    0.1032823  33.21 0.0009466231    1.657    0.397
        57  -9.7799    201.5854     68.0462   3.3573040325e+00   2.6916066053e+01    0.2361849    0.1666734 -79.80 0.0009255193    1.615    0.381
        58 -10.3191    126.6696     66.3161   1.5295773656e+01   4.3838791531e+01    0.2846997    0.2468799 -68.58  0.000755033    1.148    0.129
        59 -10.9203    126.1848     62.4109   1.4149261528e+01   4.4642176934e+01    0.4089306    0.3399217  88.17  0.001086411    1.262    0.208
        60 -10.7986    124.5799     57.1059   1.2765477425e+01   4.5932289554e+01     0.579167    0.3637794 -88.89  0.001454819    2.284    0.562
        61 -12.1128    214.3230     60.7397   2.4686418633e-01   2.5482305996e+01    0.4495038    0.3501041  70.82   0.00132131    1.481    0.325
        62 -10.2368    169.5549     61.5392   5.9355355982e+00   3.4664474460e+01    0.2710012    0.2114178 -74.96 0.0007695545    1.301    0.231
        63 -10.2939    247.5925     60.4148   3.5720931078e+02   1.9645829520e+01     0.201463   0.09697006 -87.85 0.0009611609    3.543    0.718
        64  -9.4236    183.3333     57.4142   2.9432037118e+00   3.2252294961e+01    0.1669434    0.1235867  88.20  0.000926141    1.441    0.306
        65 -10.0662    174.1351     56.1143   3.8076290546e+00   3.4459027093e+01    0.2150611    0.2073649  87.48 0.0008738746    1.170    0.145
        66  -9.4019    189.7260     56.4277   1.9038097131e+00   3.1029391207e+01    0.2248202    0.1278548  74.78  0.001098031    1.997    0.499
        67 -10.5684    249.9661     54.7483   3.5588149020e+02   1.9973894911e+01     0.162682    0.1216956 -48.24  0.001076642    1.029    0.028
        68 -11.7860    209.1781     54.2590   3.5925723654e+02   2.7363739755e+01    0.2912362    0.2373891  73.19 0.0008368808    1.391    0.281
        69  -9.8787    213.5246     50.2568   3.5790785694e+02   2.7049995607e+01    0.1967008    0.1585287  89.46 0.0004818181    1.323    0.244
        70 -11.2315    133.8431     52.3099   9.2560432646e+00   4.4469252836e+01    0.3243868    0.2639499  79.68 0.0002322344    1.227    0.185
        71 -10.9880    148.6714     47.4299   5.0782470723e+00   4.1629677250e+01    0.9309371    0.5794599 -44.05  0.004420626    1.498    0.333
        72 -10.0256    166.2285     34.7764   3.5887833153e+02   3.9199560993e+01    0.2539369    0.1760737  73.09 0.0009589703    1.437    0.304
        73 -11.0005    132.3284     36.1152   4.1599775960e+00   4.7202144060e+01    0.9006711    0.4097506  55.50  0.002148223    2.151    0.535
        74 -10.7884    227.5155    178.9370   2.2780465696e+01   5.5470176840e+00    0.2635005    0.2379761 -42.17  0.001459559    1.515    0.340
        75 -12.4064    157.0369     42.5587   2.3422476662e+00   4.0327209105e+01    0.5348734    0.3746323  66.45  0.001067684    1.438    0.305
        76 -11.9507    159.5895     36.3530   1.5974330668e-01   4.0553741684e+01    0.4179629    0.3489069  48.05 0.0006145995    1.424    0.298
        77  -9.4479    126.5239     50.4841   1.0128880409e+01   4.6535689408e+01    0.1434503     0.137329 -88.79 3.746775e-05    1.051    0.049
        78  -9.6061    241.3077     49.6465   3.5547494963e+02   2.2057192065e+01    0.1268375   0.06376433 -54.81 0.0007042725    1.718    0.418
        79 -12.5962    121.4995     44.2369   9.0308300575e+00   4.8726565286e+01    0.4549239    0.3992859 -61.43  0.001217159    1.110    0.099
        80 -11.4425    246.9484     42.9889   3.5370952231e+02   2.1913869265e+01    0.2752819    0.2019275 -56.31  0.001004735    1.117    0.105
        81 -10.4756    139.1939     44.0512   5.5971851557e+00   4.4409584297e+01    0.3754811    0.2759274  21.17  0.001373509    2.009    0.502
        82 -13.1193    213.6239     39.0625   3.5530891239e+02   2.8462618743e+01    0.3337103     0.297625  82.13 0.0005575162    1.302    0.232
        83  -9.7008    203.8455     42.6721   3.5701139538e+02   2.9961103770e+01    0.1992727    0.1612313 -28.28 0.0007645296    1.354    0.262
        84 -12.0620      3.5896    170.3895   7.6031602028e+01   3.7093349154e+01    0.4088601    0.3546197  17.99  0.002538625    1.303    0.233
        85 -10.6227    235.1763     41.6817   3.5424576785e+02   2.4109201479e+01    0.2185111    0.1922812  61.69 0.0009953282    1.509    0.337
        86 -11.7516    228.2978     40.4482   3.5447913581e+02   2.5503968918e+01    0.3869043    0.2530862 -79.27  0.001351183    1.591    0.372
        87 -11.1497    180.1463     40.6820   3.5890895066e+02   3.5268655234e+01    0.2506379    0.2010104 -77.52 0.0003720795    1.167    0.143
        88 -10.7399    248.1314     37.2036   3.5246069032e+02   2.2400263920e+01    0.2770909    0.1178498 -53.54  0.001535354    1.911    0.477
        89 -12.1340    240.3288     34.0234   3.5229184449e+02   2.4111818253e+01    0.4163705    0.2869364  65.66 0.0007156807    1.810    0.448
        90 -11.2558    247.6301     31.1021   3.5125777955e+02   2.3189311429e+01    0.3589059    0.2134055  82.54  0.002376819    1.918    0.479
        91  -9.8631    211.9863     32.8484   3.5399717344e+02   2.9543927631e+01    0.2451304    0.1731534 -78.11 0.0007815774    1.365    0.267
        92 -10.5067    171.0146    160.0000   2.9153997216e+01   1.6593583254e+01    0.3189165    0.1732731  29.92  0.001479506    2.047    0.511
        93 -10.4534    217.3625     27.9819   3.5248695224e+02   2.9060783381e+01    0.3314603    0.1642278 -64.56   0.00137208    1.943    0.485
        94 -10.9222    168.2391     26.9872   3.5643402050e+02   3.9689480538e+01    0.3727991    0.2118729  79.83  0.001544683    1.757    0.431
        95 -13.8457     16.7926    149.7360   7.0627720192e+01   4.1480149673e+01     1.812469    0.8602245  82.06  0.007447163    2.243    0.554
        96  -9.4059     43.6679     27.5161   2.7797898954e+01   6.9033703750e+01    0.1293677    0.1232269 -14.16 0.0001902127    1.089    0.082
        97 -12.7899      8.9069    147.2134   7.3026859105e+01   4.2761632613e+01    0.6866137    0.3680624 -88.50  0.003169233    1.749    0.428
        98 -13.5509      3.6733    139.9949   7.4284238754e+01   4.5056160011e+01     1.960526     0.451615 -83.62  0.005774204    4.300    0.767
        99 -13.3854    143.7385    149.0176   3.2818526286e+01   2.3349202200e+01     1.487189    0.8828622  28.25  0.006639431    1.909    0.476
       100  -9.6153    187.0240     18.4228   3.5239958425e+02   3.6424202988e+01    0.1806583    0.1120114  79.88  0.001019465    1.592    0.372
       101 -12.8546    164.9114    145.8434   2.7515506690e+01   2.0299432009e+01    0.9423891    0.8042254 -66.53  0.004158542    1.420    0.296
       102 -10.7315     60.1772    145.1302   5.5698852413e+01   3.8012940106e+01    0.3656061    0.2634429  63.59  0.001352475    1.491    0.329
       103  -9.5341    238.5141    143.4873   1.4730508482e+01   9.3320294714e+00    0.1197716   0.09167514 -27.24 0.0008102763    1.023    0.023
       104 -12.4067     76.9776    136.0261   4.8626548301e+01   3.7953624067e+01    0.4375091    0.3350795 -56.44   0.00183287    1.293    0.227
       105 -13.8532     62.3809    118.2739   5.0067003496e+01   4.4881027882e+01     1.765676     1.643074 -39.51  0.007820046    1.126    0.112
       106 -11.1894    125.1599    128.9806   3.2978723232e+01   3.1125671109e+01    0.4649974    0.3180449  35.35  0.001822647    1.537    0.349
       107 -12.4820      8.9329    128.6327   7.1564466283e+01   4.7805256472e+01    0.6784928     0.325925  36.00  0.002991723    2.014    0.503
       108 -14.1585     78.1662    103.9248   4.1042619318e+01   4.6023891091e+01     2.827817     1.670276  29.30   0.01120328    1.893    0.472
       109 -11.2216     71.7171     94.4470   4.0863148018e+01   4.9544169102e+01    0.4262595    0.3712186 -62.16 0.0008528318    1.139    0.122
       110  -8.7242    180.6527     16.7315   3.5246218448e+02   3.8018206729e+01    0.1164042   0.09259788  48.30 0.0006989519    1.617    0.381
       111  -9.8620    168.0083    119.3656   2.1006246783e+01   2.4841366865e+01    0.2402406    0.1899957 -29.11 0.0009994321    1.249    0.199
       112 -12.3784     14.8221    115.3212   6.7968081945e+01   5.1061761827e+01    0.4263114    0.3822568 -26.38  0.002443218    1.240    0.194
       113 -10.1664    250.2407    107.9664   6.4713110364e+00   1.2815007048e+01    0.1660826   0.07529756 -36.91   0.00089284    1.645    0.392
       114 -12.7221     16.5834    100.1516   6.5240633453e+01   5.5119413297e+01    0.9569767    0.5192682 -45.69  0.004235047    1.853    0.460
       115 -11.9863     23.6806     97.1051   6.1600178406e+01   5.5361483913e+01    0.7789973    0.5364031 -30.60   0.00376601    1.629    0.386
       116  -9.5176    208.6034    102.1628   1.0337221242e+01   2.0333031205e+01    0.1885452     0.108826 -29.41 0.0009449706    1.692    0.409
       117 -12.2471      2.8826     96.8838   7.0907721815e+01   5.6892376961e+01    0.7093929    0.4686459 -65.42  0.003651727    1.338    0.253
