#   1 NUMBER                 Running object number                                     
#   2 MAG_AUTO               Kron-like elliptical aperture magnitude                    [mag]
#   3 X_IMAGE                Object position along x                                    [pixel]
#   4 Y_IMAGE                Object position along y                                    [pixel]
#   5 X_WORLD                Barycenter position along world x axis                     [deg]
#   6 Y_WORLD                Barycenter position along world y axis                     [deg]
#   7 A_WORLD                Profile RMS along major axis (world units)                 [deg]
#   8 B_WORLD                Profile RMS along minor axis (world units)                 [deg]
#   9 THETA_WORLD            Position angle (CCW/world-x)                               [deg]
#  10 FWHM_WORLD             FWHM assuming a gaussian core                              [deg]
#  11 ELONGATION             A_IMAGE/B_IMAGE                                           
#  12 ELLIPTICITY            1 - B_IMAGE/A_IMAGE                                       
         1 -13.4630    201.3786     11.3125   3.0679297298e+01   3.3864748821e+01     1.392539    0.3423718 -41.08  0.005893778    3.241    0.691
         2 -11.9972    189.7577      6.1152   3.0558736849e+01   3.6931345336e+01    0.2779202    0.2121185  86.62 0.0005626954    1.089    0.082
         3 -11.2669    144.1474      5.4993   3.5383073153e+01   4.7381371609e+01    0.2042714    0.1561292 -69.87  0.001123628    1.339    0.253
         4 -10.8433     77.5822      1.7865   4.6686551998e+01   6.2594618680e+01    0.3131712    0.1591482  65.26  0.001595535    2.017    0.504
         5 -10.4739     28.7145      1.4288   6.4392363781e+01   7.1397914781e+01    0.1877316   0.09527867  41.05 0.0005987334    1.825    0.452
         6 -11.2788     35.9129    222.9500   1.1326625100e+02   2.2026751024e+01    0.2990956    0.1922729  83.90 0.0008876763    1.482    0.325
         7 -11.1211     70.0460    249.7600   1.0819118626e+02   1.2047311839e+01    0.3336046    0.2117852  27.30  0.001260862    1.651    0.394
         8 -10.7041     21.8025    250.5838   1.1811677692e+02   1.7665972527e+01    0.2791576   0.05442575  40.01  0.001138474    3.193    0.687
         9 -11.8685    237.4848    210.4742   6.7155672057e+01  -5.0099961184e+00    0.7615117    0.2758062 -31.73  0.003187482    2.788    0.641
        10 -11.3448    243.7825    219.1799   6.7601706569e+01  -7.1387108281e+00    0.2821043    0.2342939 -60.81  0.001785514    2.071    0.517
        11 -11.9640    236.7278    218.3033   6.8669448059e+01  -6.1386521001e+00      0.60348    0.4346817 -68.80  0.002955545    3.522    0.716
        12  -9.8558    109.0000    221.9573   9.6219150693e+01   1.2283280127e+01    0.2153848   0.07981121 -57.99 0.0008013152    2.935    0.659
        13 -10.2536     97.9890    220.7040   9.8644645312e+01   1.4237732984e+01    0.2011041    0.1664374  40.59 0.0006798839    1.110    0.099
        14 -12.8473     23.0549    218.3020   1.1574932573e+02   2.4480115226e+01    0.4119991    0.2438179  69.69  0.001190668    1.555    0.357
        15  -9.8411    213.4396    211.5272   7.1719795395e+01  -1.9374546164e+00      0.12955    0.1098721 -11.47 0.0001764539    1.034    0.032
        16 -11.9853    239.8288    217.0042   6.7902175393e+01  -6.3242375264e+00     0.400545    0.2456675 -51.79  0.002141877    2.348    0.574
        17 -11.0717     56.3376    204.8483   1.0675576121e+02   2.3782290507e+01    0.2790401    0.1240658 -79.08  0.001095955    2.660    0.624
        18 -10.6553     18.9231    203.3678   1.1555644305e+02   2.8368742960e+01    0.3697226    0.1206176  47.46  0.001528441    2.750    0.636
        19 -10.5028     49.3349    202.6587   1.0823268287e+02   2.5187092494e+01    0.1499288   0.08912577  64.66 0.0007050893    1.757    0.431
        20 -10.8200     41.5629    201.3089   1.0999194666e+02   2.6440860429e+01    0.2614225    0.1236641 -78.17   0.00114559    2.134    0.531
        21 -10.3102    140.0000    200.0295   8.5392802141e+01   1.2005478660e+01    0.2345961   0.08302523 -51.52 0.0008017612    2.938    0.660
        22 -10.7024    191.9156    198.9545   7.3662794844e+01   3.5527981315e+00    0.2046532    0.1809277  -6.74 0.0003507661    1.013    0.013
        23 -10.0919    149.3188    198.6540   8.2955975612e+01   1.0710830705e+01    0.1456681    0.1156825  74.42 0.0006382656    1.727    0.421
        24 -11.1628     36.5876    194.5656   1.1053834910e+02   2.8649906759e+01    0.3871699    0.1191319 -70.96  0.001412307    3.017    0.669
        25 -11.1934    161.1083    193.7622   7.9343683154e+01   9.7189961953e+00    0.3904383    0.2875893  49.46  0.001784981    1.520    0.342
        26 -10.7983    121.5352    188.0913   8.7801642687e+01   1.7879559388e+01    0.4613003    0.1719147  43.62  0.001579589    2.703    0.630
        27 -11.4047     34.4397    187.1570   1.1032196002e+02   3.0718810319e+01    0.3407519    0.1905889  76.23  0.001570487    1.980    0.495
        28  -9.7952    183.0000    183.9994   7.2649791715e+01   7.9444057901e+00    0.2372058    0.0778994 -45.30 0.0008016392    2.937    0.660
        29 -10.0343    174.2315    183.2380   7.4388072669e+01   9.6241793719e+00    0.2285213    0.1166932 -55.82 0.0008687455    2.444    0.591
        30 -12.2236     45.3468    182.4665   1.0696764270e+02   3.0665171229e+01    0.4208378    0.2496813  53.32  0.002019802    1.709    0.415
        31 -10.7111    147.2828    179.4254   7.9820907058e+01   1.5285498422e+01    0.4042191    0.1377493 -55.15  0.001212787    3.654    0.726
        32 -10.7343    191.7396    177.3248   6.9502252804e+01   7.7714319543e+00    0.3825132     0.185394 -48.83   0.00158356    2.117    0.528
        33 -10.5195    100.9992    175.9974   9.0992191038e+01   2.4303284052e+01    0.2108115    0.2057606  75.81  0.001156989    1.001    0.001
        34 -11.1718     46.8674    176.3336   1.0580613941e+02   3.2045226411e+01    0.3872588    0.1357696  26.31  0.001385975    3.216    0.689
        35  -9.9296    215.3953    194.2050   6.8159592023e+01   7.8846807697e-01    0.1884233    0.1164798 -48.34 0.0009500265    1.745    0.427
        36 -11.1824     76.0112    174.7870   9.7595473487e+01   2.8554130379e+01    0.2827184    0.1909393 -82.25   0.00129184    1.669    0.401
        37 -11.8115    120.5622    171.5918   8.4983880900e+01   2.1976573722e+01    0.6201527    0.2851679 -47.84   0.00196597    2.176    0.540
        38 -10.3332    175.7786    171.0311   7.1587569151e+01   1.1889981397e+01    0.3275027    0.1681957 -44.57  0.001359161    1.868    0.465
        39 -10.1848    206.2904    170.3145   6.5213104658e+01   6.6534546841e+00    0.2782989     0.160181 -59.06  0.001163945    2.495    0.599
        40 -10.3070    192.1517    165.3871   6.6978517030e+01   1.0081977129e+01    0.2557703     0.162165 -46.23  0.001207253    1.511    0.338
        41 -10.2364    138.6933    164.7068   7.8951617123e+01   2.0253517224e+01    0.3046015    0.1936489 -73.67  0.001166128    2.423    0.587
        42  -9.7953    213.5034    164.0018   6.2585714334e+01   6.6371342686e+00    0.1919655    0.1139851 -60.62 0.0008098934    2.480    0.597
        43  -9.7544    159.6627    164.3351   7.3812035541e+01   1.6342774041e+01    0.1542098    0.1226017  85.46 0.0007051784    1.747    0.428
        44 -10.1238     79.9713    164.2124   9.4727861728e+01   3.0668821535e+01    0.2801657    0.1537799  77.43 0.0008886618    3.642    0.725
        45 -11.5687     93.9942    160.3553   9.0040939233e+01   2.9407846668e+01    0.4810254    0.3430774  82.55  0.001456194    1.844    0.458
        46 -11.5436     15.6441    159.9585   1.1247496760e+02   3.9408606445e+01    0.3942461    0.2073464 -67.46  0.001435917    1.604    0.377
        47 -10.2364    197.2984    158.0115   6.4409572067e+01   1.0628364261e+01     0.287728    0.1907051  72.26  0.001190078    2.773    0.639
        48 -10.4594    105.2715    157.7187   8.6357661681e+01   2.8129555383e+01    0.3748954    0.2148658  73.85  0.001141031    3.899    0.744
        49 -10.5456    218.8929    156.1402   6.0016126164e+01   7.2019843091e+00    0.2485866    0.1782958 -40.63  0.000760535    1.225    0.184
        50 -10.3068    170.8196    156.8146   6.9670354392e+01   1.5842906373e+01    0.2308449     0.204158 -16.05 0.0007810448    1.164    0.141
        51 -10.9964    243.4001    154.0701   5.5573407443e+01   3.6230546853e+00    0.2635137    0.2152745 -61.41  0.001153964    1.454    0.312
        52 -11.4947    118.4536    153.3124   8.1818874017e+01   2.6811194289e+01    0.5087091     0.275705 -65.05   0.00185529    2.386    0.581
        53 -10.2166     43.0059    155.4949   1.0407693687e+02   3.7884717526e+01    0.2016331    0.1412892  29.43  0.000630933    1.554    0.356
        54 -10.1957    233.9941    151.2269   5.6487097278e+01   5.6020521768e+00    0.1625527    0.1117977  42.97 0.0008931128    1.713    0.416
        55 -10.1180    189.4105    150.1949   6.4302847501e+01   1.3665439663e+01    0.2158365    0.1310566 -52.90 0.0009492498    1.729    0.422
        56 -10.0002    199.0000    147.4798   6.1835436089e+01   1.2406154655e+01    0.3294145   0.07590459 -43.20 0.0009368292    3.952    0.747
        57 -11.5598    107.2249    145.6583   8.3278956611e+01   3.0786360295e+01    0.5745869    0.3133177  67.90  0.001669351    4.216    0.763
        58 -10.9659    148.7217    145.0244   7.2173484176e+01   2.2830981520e+01    0.3579702    0.2548344 -78.65   0.00149438    2.045    0.511
        59 -11.5627    125.6693    144.4369   7.7923621235e+01   2.7574733790e+01    0.4736398    0.3124682 -75.00  0.001146984    2.193    0.544
        60 -11.1413     21.2040    139.1521   1.0837792421e+02   4.4281472888e+01     0.375067    0.2527122  24.21 0.0008231782    1.694    0.410
        61 -10.2142     81.0000    137.9811   8.9390269170e+01   3.7259438599e+01    0.2631613   0.08455496 -56.86 0.0008088484    2.987    0.665
        62 -10.1866      1.3485    136.1804   1.1407886387e+02   4.6472821640e+01     0.187886    0.1042961 -85.15 0.0005645963    1.664    0.399
        63 -11.5267     83.5167    132.7012   8.7474735057e+01   3.8191493014e+01    0.4637551    0.2816149 -87.35  0.001635781    2.971    0.663
        64 -11.9347     98.0999    125.8582   8.1422850334e+01   3.7351134166e+01    0.8824663    0.3539105 -59.01  0.002796839    3.033    0.670
        65 -10.3285    131.8122    131.4354   7.3256459143e+01   2.9408951326e+01    0.3326722    0.1909341 -76.58 0.0009481965    4.293    0.767
        66 -10.5292    190.0382    124.7210   5.8486817923e+01   1.8678768622e+01    0.2662084    0.1985617 -67.14 0.0009490933    1.557    0.358
        67  -9.9108    179.3444    124.6769   6.0579383673e+01   2.0893186794e+01    0.1545311    0.1168138 -80.61 0.0007050298    1.734    0.423
        68 -11.4097     43.0637    122.3611   9.8542253219e+01   4.6466513074e+01    0.5772341    0.2654016 -78.34  0.001983008    3.280    0.695
        69 -10.6329     28.5266    123.0190   1.0358769202e+02   4.7775850973e+01    0.2013069    0.1117062  84.29 0.0008100439    2.610    0.617
        70 -11.0288    158.1708    121.0520   6.4256406833e+01   2.6145790448e+01     0.421313    0.2388672 -64.79  0.001512523    2.672    0.626
        71 -11.3179    248.7132    120.5928   4.8203853452e+01   8.5313582471e+00     0.233953    0.1308287 -54.27  0.001135357    1.758    0.431
        72 -11.5153    141.0895    115.5878   6.6944595344e+01   3.1014802931e+01    0.8420082    0.2525499 -43.11  0.002487581    3.344    0.701
        73 -10.8432    130.6987    118.7104   7.0396550046e+01   3.2547763969e+01    0.3192251    0.1916677 -67.34  0.001168801    2.468    0.595
        74 -11.5931    153.4353    115.2349   6.3897398847e+01   2.8405112807e+01    0.3845222    0.1456461 -46.43  0.001288002    2.597    0.615
        75 -10.8798    108.5052    113.0262   7.5099008666e+01   3.8408100048e+01    0.5782197    0.2800613 -63.53  0.001800991    3.431    0.709
        76 -11.4177     92.0520    111.0036   7.9584019608e+01   4.2020867510e+01    0.8472082    0.2775772 -56.16  0.002428798    3.795    0.737
        77 -11.0030     78.4518    112.1118   8.4268338443e+01   4.4120819452e+01     0.420231     0.257482 -81.47  0.001515333    2.987    0.665
        78 -11.3122     13.4697    109.7158   1.0660062330e+02   5.2323515419e+01    0.4469009    0.1921702 -78.22  0.001799491    2.621    0.618
        79 -11.2526    250.5206    109.4334   4.5766108240e+01   1.0095609153e+01    0.2768967    0.1029047 -41.72   0.00121055    2.172    0.540
        80 -10.8284    139.4178    104.5720   6.4491681065e+01   3.3729309189e+01    0.3843933    0.2204071 -57.37  0.001375785    2.072    0.517
        81 -11.2361     46.0534    103.3242   9.3478287359e+01   5.0859299683e+01    0.4890406     0.262742  66.90  0.001543805    4.733    0.789
        82 -12.5705     63.9336    100.5620   8.6318699593e+01   4.9139531754e+01    0.5986059    0.3531409 -59.12 0.0005706046    1.763    0.433
        83 -10.9356    149.8871    101.2814   6.1130485947e+01   3.2072289509e+01    0.5275893    0.1448125 -47.97  0.001456492    4.022    0.751
        84 -11.5809    128.2884    101.8778   6.6601096347e+01   3.6737021380e+01    0.4552494    0.2637812 -62.75  0.001707533    2.421    0.587
        85 -10.8093      6.6982    102.7344   1.0790966376e+02   5.4466568612e+01    0.2636741     0.142811  85.05  0.001179955    2.515    0.602
        86 -12.9861    111.2502    100.9924   7.1060505117e+01   4.0545633742e+01     1.090482    0.4123437  48.92  0.003575003    2.905    0.656
        87 -10.9426     44.9097     94.7809   9.1863440857e+01   5.3029871890e+01    0.2121492    0.1731232 -27.86 0.0003986351    1.179    0.152
        88 -10.6173     18.0427     93.3244   1.0192556243e+02   5.5970648730e+01    0.1760618    0.1602022 -33.38 0.0004083467    1.097    0.088
        89 -10.8592     34.3234     89.7947   9.4743734087e+01   5.5360616908e+01    0.2789607    0.1257943 -67.42  0.001088367    2.687    0.628
        90 -11.1643     86.6889     87.4680   7.4789209089e+01   4.8273793266e+01    0.3821629    0.2400768  69.69  0.001408058    3.116    0.679
        91 -10.3891     79.7757     87.8722   7.7238495755e+01   4.9435301696e+01    0.2177033    0.1914203 -15.24 0.0003427169    1.139    0.122
        92 -10.7390     48.7917     85.1860   8.7863240974e+01   5.4748354122e+01     0.229323     0.151373  70.24 0.0009568046    2.872    0.652
        93 -11.2858    104.4481     83.2947   6.7951407627e+01   4.5635366422e+01    0.3640295    0.2490799 -71.95  0.001530308    2.269    0.559
        94 -10.9709    240.4682     76.4931   4.0387796524e+01   1.7183033618e+01    0.1276145    0.1022656 -59.12 0.0001439893    1.013    0.013
        95 -10.8010    103.0788     75.8349   6.6078536194e+01   4.7362654309e+01    0.2302602    0.2057714  78.47   0.00123617    1.309    0.236
        96  -9.4610    203.3273     75.6735   4.4901339519e+01   2.4785045340e+01    0.1450368   0.09449933 -70.05 0.0007050135    1.699    0.412
        97 -10.2724    127.6786     75.3601   5.9227122589e+01   4.2066956504e+01    0.1543065    0.1157797 -79.44 0.0007043293    1.772    0.436
        98 -11.1391     62.3990     72.1207   7.8703352091e+01   5.5590515198e+01    0.6296395    0.1314774 -48.38  0.001772574    4.784    0.791
        99 -11.4589     82.0402     72.6637   7.1779946393e+01   5.2123636668e+01    0.4259118    0.2748475 -70.69  0.001698474    2.923    0.658
       100 -10.3732    105.3993     71.5869   6.4068949967e+01   4.7659385262e+01    0.2883194    0.1234418 -52.94 0.0009552775    3.384    0.705
       101  -9.7244    178.8919     69.8388   4.7252042168e+01   3.1152324841e+01    0.1884547    0.1487944 -82.86  0.000332225    1.298    0.230
       102 -11.7126      7.6882     65.4124   1.0005121497e+02   6.2980939137e+01    0.3823055    0.2302016  18.37  0.001910377    1.813    0.448
       103 -11.2020    249.1080     59.4179   3.6139924420e+01   1.8117608542e+01    0.2689772    0.1151193 -53.07  0.001337503    1.990    0.497
       104 -10.7926    217.1848     60.0374   3.9615469929e+01   2.4279560156e+01    0.1974516    0.1636462 -87.80 0.0005179481    1.136    0.120
       105  -9.9901    100.3209     60.6462   6.2025697144e+01   5.0640367337e+01    0.1426248    0.1138653 -82.60 0.0007046899    1.753    0.430
       106 -12.0784     25.2389     58.1572   8.9931897980e+01   6.3096536690e+01     0.434186    0.2236164 -56.77   0.00213379    2.030    0.507
       107 -11.4731     20.9758     53.1685   9.0355489636e+01   6.4477241384e+01     0.277645    0.2271607  40.21  0.001762661    1.593    0.372
       108 -11.7994     30.8853     51.4064   8.5093174906e+01   6.3813214795e+01     0.388307    0.2772295  76.21  0.001794546    3.435    0.709
       109 -11.7732    236.5617     46.4623   3.4780656311e+01   2.2301795877e+01     0.362698    0.2215603 -44.19  0.002163458    1.447    0.309
       110  -9.9729    105.3141     52.6610   5.7955647248e+01   5.0840435092e+01    0.1391136     0.110675 -80.40 0.0004654129    1.698    0.411
       111 -10.5686     51.3551     52.2748   7.6365985253e+01   6.1004154342e+01    0.2445383    0.1681167  26.43 0.0008029775    1.398    0.285
       112 -13.1830      9.8097     49.3521   9.4612243167e+01   6.6127898302e+01    0.3641575    0.2556959 -25.13 0.0008388408    1.204    0.169
       113 -10.5987    144.7649     45.5284   4.6718015039e+01   4.2786767497e+01    0.2944476   0.07260668 -44.02  0.000891262    4.439    0.775
       114 -10.2413     57.3765     41.2012   6.9730246076e+01   6.1890647892e+01    0.1712676    0.1190011 -44.24 0.0005435322    1.673    0.402
       115  -9.6249     45.3038     35.6343   7.2554507342e+01   6.4624791442e+01    0.1121918    0.1039304  89.89 0.0005373423    1.740    0.425
       116 -11.5574      2.0428     29.2309   9.1983906110e+01   7.0375037649e+01    0.3986162    0.1610797 -49.86  0.002083909    2.136    0.532
       117  -9.6572    179.9961     26.4265   3.6317686996e+01   3.6939379610e+01    0.1824595    0.1102248  72.53 0.0009852637    1.483    0.326
       118  -9.7602    108.6930     26.3454   4.8175602989e+01   5.3551395594e+01    0.1299489   0.09894551 -74.21 0.0007043096    1.696    0.410
       119 -10.6812     37.0465     25.7332   7.2102893417e+01   6.7258288466e+01    0.2812834    0.1779301  18.29  0.001635563    1.478    0.323
       120 -11.5708     64.7395     21.9675   5.9099706043e+01   6.3191763479e+01    0.3089504    0.2828462  60.18   0.00125268    1.389    0.280
       121 -11.1652    218.6788    247.1036   7.6780750830e+01  -8.2317036641e+00     0.171192    0.1432195 -33.43  0.001178497    1.452    0.311
       122 -10.0690    137.0690     20.8793   4.0869825020e+01   4.7569733475e+01    0.1915675    0.1558603 -87.52 0.0002884601    1.224    0.183
       123 -11.0917     33.0404     19.5104   7.1208762772e+01   6.8663095577e+01    0.2251841    0.1875845  17.42 0.0004382282    1.190    0.160
       124  -9.6638    100.6522     19.2737   4.7580619458e+01   5.6098601953e+01    0.1239909   0.09631838 -86.66 0.0004206384    1.628    0.386
       125 -11.1071    122.4716     17.2712   4.2324793408e+01   5.1341537299e+01     0.404413    0.1981856  63.37  0.001507154    1.747    0.428
       126 -11.0429    149.7345     16.5240   3.7680213397e+01   4.5042828488e+01    0.2506278    0.2246105  80.30  0.001538712    1.067    0.063
       127 -11.4837    209.7888    242.6949   7.7743225599e+01  -6.4651909448e+00    0.2933863    0.2378831 -55.83  0.001791934    1.913    0.477
       128 -12.2399     38.3336    242.9591   1.1429233139e+02   1.7393883373e+01    0.2981136     0.211348  55.43 0.0006981955    1.165    0.142
       129 -11.4691    149.8173    222.2133   8.6854447076e+01   5.7904954112e+00    0.5142065    0.2904222 -54.10  0.002408794    2.030    0.507
