#   1 NUMBER                 Running object number                                     
#   2 MAG_AUTO               Kron-like elliptical aperture magnitude                    [mag]
#   3 X_IMAGE                Object position along x                                    [pixel]
#   4 Y_IMAGE                Object position along y                                    [pixel]
#   5 X_WORLD                Barycenter position along world x axis                     [deg]
#   6 Y_WORLD                Barycenter position along world y axis                     [deg]
#   7 A_WORLD                Profile RMS along major axis (world units)                 [deg]
#   8 B_WORLD                Profile RMS along minor axis (world units)                 [deg]
#   9 THETA_WORLD            Position angle (CCW/world-x)                               [deg]
#  10 FWHM_WORLD             FWHM assuming a gaussian core                              [deg]
#  11 ELONGATION             A_IMAGE/B_IMAGE                                           
#  12 ELLIPTICITY            1 - B_IMAGE/A_IMAGE                                       
         1 -12.9548    214.2272     50.8527   3.2357241146e+01   2.6206920684e+01     1.108889     0.916362  60.74  0.006892482    1.387    0.279
         2 -13.6424    232.3105     37.5399   2.7586983081e+01   2.4238670390e+01     1.259677     0.891734  50.76  0.007632367    1.863    0.463
         3 -11.7158      2.7592      5.4604   7.8872724121e+01   7.5969580655e+01    0.6692288    0.2625396 -46.24   0.00349492    2.230    0.552
         4  -8.3831    198.6195    222.8661   7.0652323007e+01   3.5245956219e-01    0.1444294    0.1107993 -44.24 0.0003994425    1.575    0.365
         5 -10.0415    134.8610    250.1753   8.6966886035e+01   4.8337715096e+00    0.1838247    0.1437211  44.49 0.0005604156    1.233    0.189
         6 -12.4824     43.3445    174.8960   9.9668529083e+01   3.2880523713e+01    0.8938714    0.5908744 -10.57  0.001394311    2.526    0.604
         7 -11.6572     50.7322    169.1891   9.7042501155e+01   3.3416833709e+01    0.3117818    0.2813769 -27.66 0.0005733802    1.374    0.272
         8 -15.3368     16.4888    241.5845   1.1049504085e+02   2.1011890158e+01     8.477467      3.13047  21.06   0.03530974    4.181    0.761
         9  -9.2174    141.2991    222.3287   8.2053618075e+01   8.6596180036e+00    0.1282087   0.09504662  -4.79 0.0003273502    1.639    0.390
        10 -15.4848     23.0805    178.0081   1.0525159761e+02   3.4253027330e+01      8.46465     2.714929  87.26   0.02620591    4.812    0.792
        11 -11.5119    101.5806    239.0234   9.2618337652e+01   1.1304272993e+01    0.3676062    0.2206561 -76.54  0.001976817    2.232    0.552
        12 -10.9610     49.9517    223.0588   1.0238643085e+02   2.1125988100e+01    0.4715087    0.1708332 -70.98  0.002096549    2.856    0.650
        13  -9.2285    196.3863    200.1356   6.7318913356e+01   4.2336628368e+00    0.1696704    0.1164522 -48.48 0.0009031796    1.699    0.411
        14  -9.4437    110.8180    167.5259   8.0607404727e+01   2.4921500503e+01      0.25727    0.2065354 -70.37 0.0005697796    1.331    0.249
        15 -10.6804     80.0713    148.5965   8.5709671260e+01   3.4552473081e+01    0.4665069    0.3061097  75.81  0.001523183    1.952    0.488
        16 -12.0045     76.5994    139.1955   8.5049878677e+01   3.7462227136e+01    0.4913479     0.341747 -68.78 0.0004663777    1.440    0.306
        17 -12.8569     55.0256    124.4877   8.9179680974e+01   4.4302309015e+01     2.842191    0.8414997 -72.86  0.006054342    7.877    0.873
        18 -12.5891     72.3586    153.7826   8.8812391144e+01   3.4402264984e+01    0.9563333     0.667209  62.13  0.001806068    1.529    0.346
        19 -13.3421     68.2005    143.9670   8.8427516927e+01   3.7492526005e+01     1.949325     1.003046  72.95  0.002934645    3.570    0.720
        20 -13.1691     48.7723    155.6519   9.5921684641e+01   3.7056872572e+01    0.6199433    0.4223617 -44.21  0.003113776    1.696    0.410
        21 -10.5255     89.3671    141.3710   8.1667227001e+01   3.4872227494e+01    0.3735681    0.3192734  24.64 0.0009062443    1.283    0.221
        22  -9.4462     93.5218    138.1517   7.9818037950e+01   3.4970889078e+01    0.3461963    0.2486899 -16.20  0.001504592    2.054    0.513
        23  -8.0231    132.3012    140.9874   6.9846304315e+01   2.7125760514e+01    0.2408398    0.1238824 -69.92  0.000701876    4.081    0.755
        24 -10.4056    105.1966    130.5349   7.4830450992e+01   3.4752710199e+01    0.4259641    0.3314779  32.55  0.001005129    1.358    0.264
        25 -11.0056     63.3684    160.1149   9.2341378043e+01   3.4066573625e+01    0.2976022    0.2710916 -48.08 0.0004818639    1.221    0.181
        26  -9.9947     90.5103    126.4239   7.8251821297e+01   3.8395919454e+01    0.3155175    0.2624125  -6.90 0.0007596062    1.511    0.338
        27 -10.4741    244.4965    124.0054   4.4621761077e+01   9.1934407755e+00    0.2047303    0.1046256 -38.37  0.001038863    1.609    0.378
        28  -8.0839    121.5851    122.5246   6.8421485641e+01   3.3475180264e+01    0.1535994    0.1470107 -78.15 0.0001556986    1.042    0.040
        29 -11.0815     24.3244    119.3964   9.8746437815e+01   4.8950116091e+01    0.3602237    0.1930266  78.40  0.001550731    2.305    0.566
        30  -9.4814    102.9078    118.9615   7.2833766361e+01   3.7965478070e+01    0.2191291    0.2154205 -48.18 0.0002968188    1.047    0.045
        31 -11.2036     66.1651    126.0465   8.5823920443e+01   4.2373000462e+01    0.3840437     0.307212  88.39  0.001965432    1.333    0.250
        32 -13.5022     10.3212    206.6803   1.1012705906e+02   2.8828235068e+01     1.020631    0.6848307  22.08  0.003951421    1.772    0.436
        33  -9.3952    204.5220    110.9845   4.7775714308e+01   1.8581885938e+01    0.3466987    0.1917008  35.66  0.001498468    2.468    0.595
        34 -10.4193     46.2667    109.2221   8.9319396749e+01   4.9312163706e+01    0.2593465    0.2255973  78.37 0.0003621516    1.203    0.169
        35 -10.9296     52.3970     90.9163   8.2995800364e+01   5.3107124083e+01    0.4051943    0.3048879 -61.58  0.001538525    1.277    0.217
        36  -9.5374     41.6396     92.1572   8.7471104318e+01   5.4138360357e+01    0.2181834    0.1893598  44.95 0.0005239277    1.253    0.202
        37  -9.4469    165.5186     85.5176   4.8473621878e+01   3.1565458925e+01     0.147356    0.1393791 -65.35 0.0001346728    1.010    0.010
        38  -8.7034    184.5072     77.4501   4.2956314327e+01   2.8663876994e+01    0.1410595    0.1316721 -61.21 7.705677e-05    1.040    0.038
        39  -8.9887     66.9913     77.2412   7.3634583015e+01   5.4138391134e+01    0.2087526    0.1884209  71.42 0.0005022978    1.269    0.212
        40  -9.0636     55.8244     67.1401   7.4914483246e+01   5.8107933022e+01    0.1959645    0.1543959 -25.03 0.0003500439    1.321    0.243
        41 -12.9672      9.0063    200.2100   1.1008741696e+02   3.0382095960e+01    0.5125799    0.3485351  27.38 0.0007924321    1.624    0.384
        42 -10.3121     13.4207     59.9398   9.2234141197e+01   6.4409776045e+01    0.2164583    0.2049614  -8.14 0.0004651758    1.155    0.135
        43 -10.1136     53.0545    218.0135   1.0128940379e+02   2.1819516188e+01    0.1999482    0.1634038  60.66 0.0006967102    1.022    0.021
        44 -14.4474     17.5547    193.6266   1.0772118395e+02   3.1096215561e+01     2.206852    0.9621028  57.33  0.006746962    2.074    0.518
        45  -8.2710     94.5234     46.5014   5.3432281871e+01   5.4824100198e+01    0.1392997    0.1351828  60.06 2.637972e-05    1.061    0.057
        46 -10.0861     11.6924     53.0536   9.1335428744e+01   6.6071474326e+01    0.1852126    0.1429952 -51.52 0.0007656765    1.120    0.107
        47 -10.7905    115.4859     23.5242   3.9407326185e+01   5.3193268259e+01    0.3640119    0.2651949 -77.65  0.000780485    1.639    0.390
