#   1 NUMBER                 Running object number                                     
#   2 MAG_AUTO               Kron-like elliptical aperture magnitude                    [mag]
#   3 X_IMAGE                Object position along x                                    [pixel]
#   4 Y_IMAGE                Object position along y                                    [pixel]
#   5 X_WORLD                Barycenter position along world x axis                     [deg]
#   6 Y_WORLD                Barycenter position along world y axis                     [deg]
#   7 A_WORLD                Profile RMS along major axis (world units)                 [deg]
#   8 B_WORLD                Profile RMS along minor axis (world units)                 [deg]
#   9 THETA_WORLD            Position angle (CCW/world-x)                               [deg]
#  10 FWHM_WORLD             FWHM assuming a gaussian core                              [deg]
#  11 ELONGATION             A_IMAGE/B_IMAGE                                           
#  12 ELLIPTICITY            1 - B_IMAGE/A_IMAGE                                       
         1 -15.2241     67.9332    144.0500   1.1501225583e+02   3.7383108997e+01     3.760512     1.861604  77.73  0.005272746    3.488    0.713
         2 -14.4158    194.8480     31.9271   5.5932229495e+01   3.2278131268e+01     2.012194     1.286154  26.29  0.008514618    2.079    0.519
         3 -14.5133    205.8155     18.5242   5.0516212405e+01   3.1009406779e+01     1.463016     1.056348  14.70  0.007178999    1.802    0.445
         4 -12.2522     31.0310      3.0416   8.8595149434e+01   7.0574932376e+01    0.3180317    0.2106717  39.51  0.002041694    2.022    0.505
         5 -15.9960     53.4631    205.2440   1.2466119296e+02   2.6617941224e+01     3.336679     1.878528  65.62   0.01267341    1.494    0.331
         6 -10.5149    174.3593    250.0694   1.0827837834e+02   1.4705876503e+00    0.2295895    0.1190072  54.46  0.001260417    1.937    0.484
         7 -15.8688    115.9958    246.2444   1.1755429873e+02   1.1063469010e+01     7.625463     1.860814  41.92   0.03145705    3.419    0.708
         8 -12.0244     76.9870    175.9149   1.1723391952e+02   2.9302933065e+01    0.3082117    0.2367982 -48.38 0.0007804924    1.681    0.405
         9 -14.7354     47.4306    235.5593   1.2781015112e+02   2.2003158854e+01      1.80265    0.7019323  69.60   0.00707486    2.664    0.625
        10  -9.7912     99.4495    180.6846   1.1320869073e+02   2.4987426321e+01    0.1581414     0.117062 -56.49 0.0008439082    1.494    0.331
        11 -10.2180    198.1374    176.9380   9.2651710385e+01   7.5388436266e+00    0.2643513    0.2086694  32.34 0.0008891652    1.149    0.129
        12 -10.9349    196.3413    171.3235   9.1904534202e+01   8.7885414617e+00    0.3577712    0.3123028 -26.96  0.001052844    1.224    0.183
        13 -11.4146    125.2589    172.7763   1.0665185417e+02   2.2230458305e+01    0.4080309    0.2533216  71.24  0.001920669    2.057    0.514
        14 -12.6032     91.1830    158.7612   1.1186979689e+02   3.0820151323e+01    0.6401262    0.4608819 -31.72  0.001473551    2.167    0.538
        15 -13.8916     85.2562    165.4645   1.1413801561e+02   3.0290009108e+01     2.071859     0.476123  50.09 0.0005688548    5.117    0.805
        16 -13.7107     73.3465    161.4479   1.1619052844e+02   3.2848353445e+01    0.6784505    0.4760329 -54.82   0.00399811    1.554    0.356
        17 -17.5925      7.5624    240.2784   1.3402660692e+02   2.5506732689e+01     12.58309      1.49769 -77.89   0.01849516    7.287    0.863
        18  -9.9931    141.0550    157.8795   1.0065266430e+02   2.2258290571e+01    0.2159911    0.1774935  78.20 0.0005093847    1.321    0.243
        19 -11.2714     37.5770    150.9120   1.2278084497e+02   3.9449860960e+01    0.2950308    0.1120464  51.11  0.001403846    2.649    0.622
        20 -10.9924    133.7833    144.4686   9.9660181882e+01   2.6410925623e+01     1.074924    0.2335028 -54.80  0.002276078    8.294    0.879
        21 -10.2681    174.7826    148.9623   9.1628407313e+01   1.7112585538e+01    0.2677777    0.1855503  59.66 0.0007559827    1.598    0.374
        22 -12.1213     53.6728    147.1614   1.1874025919e+02   3.8482307345e+01    0.3820356     0.221194 -77.78  0.002102509    1.559    0.359
        23 -11.3148    104.3675    142.5267   1.0613788283e+02   3.2208122450e+01    0.5076812    0.3187392 -32.51  0.002248062    2.462    0.594
        24 -12.2798     91.9805    142.9492   1.0915062942e+02   3.4142216178e+01    0.2606683    0.2380958 -57.95 0.0004088278    1.199    0.166
        25 -14.9199     11.4583    206.3852   1.3191345689e+02   3.0947775460e+01    0.7012358    0.4766548  47.68  0.003435656    1.517    0.341
        26  -9.1526     97.4704    138.5497   1.0706039781e+02   3.4235623681e+01    0.1386375    0.1232035  88.49 0.0001806348    1.038    0.037
        27 -13.3499     25.6099    195.2773   1.2886571356e+02   3.1624920521e+01    0.7832137    0.2314093  49.62  0.004039777    2.672    0.626
        28 -12.7623     46.3100    129.7429   1.1816896198e+02   4.3203117720e+01    0.3693368    0.3148969  67.19   0.00250153    1.205    0.170
        29 -10.3564    112.8703    131.8882   1.0203351965e+02   3.3052620988e+01    0.2857852     0.234889  15.35  0.001126524    1.608    0.378
        30 -10.3046    105.9340    130.6818   1.0348822471e+02   3.4551803902e+01    0.2844228    0.2331528  86.28  0.001314914    1.278    0.218
        31 -10.1339    146.8326    185.7928   1.0430808177e+02   1.5862362658e+01    0.1818559    0.1474119  74.58 0.0005687695    1.327    0.247
        32 -11.0361    100.2945    128.4532   1.0444044047e+02   3.6015800520e+01    0.2755103    0.2203226 -37.49 0.0006469728    1.453    0.312
        33 -11.2587     73.0664    128.8283   1.1135327821e+02   4.0111602000e+01    0.2097928    0.1647724  81.35 0.0005794037    1.273    0.214
        34 -11.0561    118.4929    125.6052   9.9324024951e+01   3.3391249152e+01    0.5847759    0.3133288 -28.36  0.001945402    3.820    0.738
        35  -9.8463    160.3414    127.6796   8.9951352278e+01   2.4340331691e+01    0.1558232    0.1205002 -89.67 0.0004874109    1.720    0.418
        36 -10.9377     77.0253    133.8470   1.1122185056e+02   3.8421035423e+01    0.2066614    0.1602438  79.96 0.0005273671    1.292    0.226
        37  -9.7688    108.9133    120.3041   1.0055611374e+02   3.6328872453e+01    0.1898046    0.1776097  54.64 0.0003529073    1.113    0.101
        38 -10.5468    137.5028    170.5175   1.0368965420e+02   2.0444235738e+01    0.1364291    0.1247839  57.29 0.0008101657    1.036    0.035
        39  -9.4228    110.3173    115.8928   9.9206735016e+01   3.7052321938e+01    0.1991873    0.1691934 -57.19 0.0005233318    1.123    0.110
        40 -10.0706    167.5568    112.5138   8.4604835547e+01   2.5717565111e+01    0.3383434    0.2335661 -79.30  0.001348011    2.330    0.571
        41 -11.5868     37.0975    111.8398   1.1792313482e+02   4.8193243089e+01    0.1910833    0.1500906  85.52  0.001239203    1.222    0.182
        42 -10.0922    193.8136    165.2496   9.1182842661e+01   1.0292664719e+01      0.26385    0.1916663 -64.10  0.001292725    1.971    0.493
        43 -12.6311    195.2146    194.8250   9.6472837669e+01   5.3587818155e+00    0.7081699    0.5709893  72.16  0.004136013    1.677    0.404
        44  -9.7733    205.5410    110.0278   7.6198318869e+01   1.7278493005e+01    0.2317123    0.2046269  46.54 0.0006874834    1.148    0.129
        45 -10.9828    207.8402    183.5677   9.2094370006e+01   4.6629982515e+00    0.2671058    0.2491319 -58.81  0.001316965    1.378    0.274
        46  -9.3768     25.0333     82.4983   1.1647884078e+02   5.5828317064e+01     0.141277    0.1220041  22.20 0.0003718743    1.477    0.323
        47 -11.6408    160.2601     61.8645   7.1600265644e+01   3.6887325422e+01     0.703099     0.435807 -81.97  0.001238694    3.166    0.684
        48 -10.3935    155.6857     58.3269   7.1457051737e+01   3.8622494378e+01    0.4350228    0.2853215 -81.65  0.001654351    2.591    0.614
        49 -10.4374    160.6897     54.3344   6.9084677098e+01   3.8010451565e+01    0.3583159    0.2507219 -70.60  0.001523306    1.973    0.493
        50 -11.1997    211.2971    180.5398   9.0882817818e+01   4.4555165921e+00    0.3617867    0.2648047  -1.48  0.001902304    1.554    0.357
        51 -12.8946    185.7697     38.8652   5.9463305293e+01   3.3761346926e+01    0.6998351    0.4884736  40.09  0.001009798    1.538    0.350
        52 -13.7407     29.9838    205.7679   1.2878887036e+02   2.9199307749e+01     1.267829      0.25505  51.12  0.005605635    3.616    0.723
        53 -11.0350     71.2610    229.6387   1.2353648906e+02   2.0018502731e+01    0.2007382     0.153273  58.02  0.000818695    1.173    0.147
        54 -12.1265     19.5696     33.6926   1.0650687526e+02   6.6432871227e+01    0.2698959     0.193515  42.12  0.001786509    1.954    0.488
        55 -10.3899    150.4344     23.0038   6.0473132874e+01   4.5018300427e+01    0.2707971    0.2029393  86.24 0.0008315709    1.594    0.373
        56 -12.0184     72.6922    181.5101   1.1875762196e+02   2.8755943756e+01    0.3493876    0.2478318 -44.90  0.001730818    2.008    0.502
        57  -9.5801     95.3852     42.2162   8.1476039326e+01   5.4819831090e+01    0.2095366    0.1217218 -44.19 0.0009614847    1.777    0.437
