#   1 NUMBER                 Running object number                                     
#   2 MAG_AUTO               Kron-like elliptical aperture magnitude                    [mag]
#   3 X_IMAGE                Object position along x                                    [pixel]
#   4 Y_IMAGE                Object position along y                                    [pixel]
#   5 X_WORLD                Barycenter position along world x axis                     [deg]
#   6 Y_WORLD                Barycenter position along world y axis                     [deg]
#   7 A_WORLD                Profile RMS along major axis (world units)                 [deg]
#   8 B_WORLD                Profile RMS along minor axis (world units)                 [deg]
#   9 THETA_WORLD            Position angle (CCW/world-x)                               [deg]
#  10 FWHM_WORLD             FWHM assuming a gaussian core                              [deg]
#  11 ELONGATION             A_IMAGE/B_IMAGE                                           
#  12 ELLIPTICITY            1 - B_IMAGE/A_IMAGE                                       
         1 -10.7998    231.9862     34.2693   2.5734806271e+01   2.5653827709e+01    0.4731673    0.3521137  27.97  0.001918188    2.370    0.578
         2  -9.6416    250.2000     16.7406   2.1337188685e+01   2.4369686049e+01    0.4263388    0.1245903 -35.37  0.002104985    3.010    0.668
         3  -7.4597    191.1794      5.8687   2.3253386280e+01   3.6586225069e+01    0.1422635    0.1214134  64.21 0.0004001647    1.327    0.246
         4  -7.4579    126.1906    249.5896   8.7650183326e+01   6.1685504503e+00    0.1753321    0.1062631  15.72 0.0002433206    1.492    0.330
         5  -8.5707     21.2950    243.4863   1.1146298321e+02   1.9239674465e+01    0.4953012    0.1168077 -60.66    0.0019379    4.191    0.761
         6  -9.6543      3.5571    249.3713   1.1553766297e+02   1.9574782578e+01     0.521912    0.2811925  14.92  0.002577475    2.131    0.531
         7  -9.8589     13.0779    244.4311   1.1330673175e+02   1.9767238761e+01    0.4663961    0.3059427  70.65   0.00110477    1.445    0.308
         8  -8.6253     13.3333    239.7192   1.1301992040e+02   2.0703229155e+01    0.2114115     0.114021  49.90 0.0004339084    1.579    0.367
         9  -9.5851     18.8160    249.9915   1.1234643102e+02   1.8158637705e+01     0.581462    0.2191086  18.06  0.002573334    3.052    0.672
        10  -8.5708      9.9497    250.4865   1.1425170649e+02   1.8828815856e+01    0.3142351    0.1628407  16.97   0.00173196    2.121    0.528
        11  -7.6761     54.1068    249.3186   1.0444803222e+02   1.4830094079e+01    0.1719916    0.1301689  35.24 0.0002695731    1.105    0.095
        12  -7.5339     75.4102    248.3842   9.9418163836e+01   1.2633963078e+01    0.2585598    0.1118534  12.49 0.0009622247    3.397    0.706
        13  -7.3318    224.5024    247.4724   6.6714076797e+01  -5.0719648428e+00    0.1186824   0.08514568  -5.47 4.904469e-07    1.019    0.019
        14  -9.3080     27.2450    248.1292   1.1041286538e+02   1.7760498237e+01    0.3991272    0.1598128  35.71  0.001893244    1.937    0.484
        15  -9.1488     40.2940    244.9692   1.0728680462e+02   1.7133294818e+01    0.3050933    0.2051015  14.81  0.001786776    1.573    0.364
        16  -8.1182    153.7878    243.1681   8.0478941349e+01   3.7807089895e+00    0.1842208    0.1550021  16.56 0.0003349335    1.165    0.141
        17  -7.5399    181.9994    242.2431   7.4223444892e+01   4.2919750128e-01    0.1611398   0.09031578  23.03 0.0004414013    1.535    0.348
        18  -7.9691      1.3607    241.0145   1.1566381386e+02   2.1413759547e+01    0.1582574   0.09904946 -84.28 0.0005821917    1.595    0.373
        19  -8.7968      4.9724    239.3984   1.1482428067e+02   2.1456897474e+01    0.2709111    0.1588104  78.29 0.0008810782    1.658    0.397
        20  -7.7932    150.1845    238.7655   8.0648288774e+01   5.0077906584e+00    0.1835176    0.1332233  -8.34 0.0007427471    1.313    0.238
        21  -7.2481     85.3352    238.2998   9.6015899521e+01   1.3455038497e+01    0.1326821    0.0954399 -10.38 0.0004109906    1.656    0.396
        22  -9.1608     51.0406    238.0009   1.0425800819e+02   1.7454072515e+01    0.1958296    0.1461634 -20.29 0.0006365882    1.705    0.413
        23  -7.2481    139.3198    237.6852   8.2989668667e+01   6.6208876939e+00    0.1278334   0.09769323  47.65 0.0006735841    1.654    0.396
        24  -9.6276    120.7408    234.5191   8.6947358681e+01   9.6686003140e+00    0.2838077    0.2122445 -30.64  0.000246769    1.432    0.301
        25  -8.3401     75.2455    236.1930   9.8251553186e+01   1.5101510496e+01    0.2014134    0.1585736 -30.52  0.001179776    1.476    0.323
        26  -7.4375     64.0000    234.9768   1.0087394890e+02   1.6660499996e+01    0.1947931   0.07482678 -67.13 0.0008060269    2.967    0.663
        27  -7.9985     41.6345    233.8602   1.0616758227e+02   1.9299622524e+01    0.2877097    0.1549183 -45.90  0.001433078    2.298    0.565
        28  -7.4319     57.6762    234.3182   1.0235003461e+02   1.7506347467e+01    0.1377198    0.0833351  53.17 8.151684e-05    1.671    0.402
        29  -8.1593     46.2776    238.0299   1.0538805448e+02   1.7948191069e+01    0.1711119    0.1573317  61.52 0.0005771401    1.102    0.092
        30  -8.2591     36.0658    232.6333   1.0739826082e+02   2.0113956454e+01    0.3299286    0.1395854  47.77 0.0007538068    2.162    0.538
        31  -9.7576    112.2254    230.9863   8.8541694892e+01   1.1488493575e+01    0.3714358    0.1896834  41.93  0.001687389    1.974    0.493
        32 -10.3121      3.3965    206.7884   1.1361777255e+02   2.8626586321e+01    0.6743208    0.4389295 -50.19  0.003746899    1.732    0.422
        33 -11.0874     10.0655    208.3346   1.1207623867e+02   2.7779113499e+01    0.5553215    0.4494035 -73.11 0.0003644736    1.246    0.198
        34 -10.4643     13.5520    202.5412   1.1084677390e+02   2.8845573564e+01    0.3769632    0.2951114 -46.69 0.0007689841    1.431    0.301
        35  -8.9461     90.7580    230.2036   9.3757629660e+01   1.4436598720e+01    0.2202408    0.1882474 -21.77 0.0006235756    1.270    0.212
        36  -8.1955     61.4620    229.4825   1.0097525986e+02   1.8111155755e+01    0.1710635    0.1261626  85.34 0.0006553287    1.593    0.372
        37  -9.1142     26.6329    228.4283   1.0933976805e+02   2.1908732388e+01    0.2515725    0.1809703  37.70 0.0001922462    1.223    0.182
        38  -7.5104     63.7339    227.3132   1.0019926116e+02   1.8319336337e+01    0.1667505     0.121079 -52.82  0.000260343    1.529    0.346
        39 -11.9454     23.1371    195.2458   1.0782494278e+02   2.9791595478e+01     1.175161    0.9769519   6.36  0.007144751    1.330    0.248
        40  -8.6691     87.0517    222.1835   9.3726344243e+01   1.6600688294e+01    0.2167042    0.1954977  56.74 0.0002427317    1.211    0.174
        41  -9.3032     18.6919    222.2670   1.1083018965e+02   2.3954367235e+01    0.4227583    0.2106832  26.38  0.001928584    1.856    0.461
        42  -9.5463     17.4272    217.7910   1.1085747816e+02   2.5052153239e+01    0.4504508    0.2777923   5.38  0.002105946    1.999    0.500
        43  -7.6176     36.5462    222.4597   1.0652425365e+02   2.2275205044e+01    0.1220324    0.1166203  32.63 6.494643e-05    1.102    0.092
        44  -8.1800    248.9100    220.3208   5.8128049167e+01  -3.7733422215e+00    0.1805102    0.1271816 -26.99 0.0005461146    1.235    0.190
        45  -8.5315     92.8422    219.6063   9.1918509020e+01   1.6406881007e+01    0.3019109    0.1454156  39.21   0.00131589    1.912    0.477
        46  -7.7664    130.3875    219.2111   8.2389683587e+01   1.1357926396e+01    0.1825659    0.1386994 -62.93 0.0009631228    1.739    0.425
        47  -7.9250     50.0364    219.4774   1.0290082972e+02   2.1559569617e+01    0.1904254    0.1087689  -6.89 0.0008097626    2.712    0.631
        48  -9.5804     31.5049    217.6568   1.0740345401e+02   2.3829572850e+01    0.3945645    0.2747661   4.08  0.001916952    1.697    0.411
        49  -7.4184     84.8376    215.1491   9.3426455172e+01   1.8418052101e+01    0.1827388    0.1522224  -8.90 0.0003285005    1.279    0.218
        50  -9.6532     27.1336    212.5999   1.0811811552e+02   2.5377700067e+01    0.3669279    0.3429804 -16.82  0.001359458    1.226    0.185
        51  -8.3897     32.1045    210.4458   1.0669349877e+02   2.5414121631e+01    0.3362268    0.2280456 -21.71  0.001770863    1.931    0.482
        52  -7.4282     95.6377    211.6768   9.0137335165e+01   1.7762247655e+01    0.1506532    0.1029449 -14.05 0.0007041419    1.783    0.439
        53  -7.4903    118.3044    208.3038   8.3740508345e+01   1.5326492564e+01    0.1468313    0.1035069 -11.13 0.0003794266    1.598    0.374
        54  -7.8141     91.3783    204.1465   9.0223451225e+01   2.0022660411e+01    0.1878804     0.182409  51.52 0.0008482907    1.132    0.117
        55 -10.6203     32.3124    189.4121   1.0481806131e+02   3.0396051266e+01    0.6227458    0.4383745  72.67  0.002545239    1.512    0.339
        56  -7.2674    115.9557    203.0346   8.3520173880e+01   1.6800639476e+01    0.1703708    0.1544542   5.92 0.0003237085    1.032    0.031
        57  -7.1123    140.2733    202.2885   7.7207644461e+01   1.3351430460e+01     0.143406     0.101551 -10.04 0.0001834735    1.511    0.338
        58  -7.4567    249.4758    201.4848   5.4884096876e+01  -1.1431117914e+00    0.1178251   0.08797628 -18.64 1.067354e-06    1.036    0.034
        59  -7.7372     97.3320    200.6038   8.8102801154e+01   2.0008360418e+01    0.2189635    0.1609996  55.81 0.0007158103    1.616    0.381
        60  -7.9110     51.9590    199.5126   1.0040885734e+02   2.5969844731e+01    0.1991726    0.1279638  25.99 0.0003344529    1.476    0.322
        61  -7.9189     47.7945    199.2283   1.0151771536e+02   2.6485530679e+01    0.3691303    0.1998411  -7.40  0.001459863    2.960    0.662
        62  -8.4109    101.1054    198.6137   8.6780887269e+01   1.9927906542e+01    0.2057519    0.2024567  60.41 0.0003677373    1.160    0.138
        63  -9.4236     10.6577    229.5746   1.1310398112e+02   2.3045569420e+01    0.3919471    0.1827273  54.09   0.00169013    1.948    0.487
        64  -7.2305     78.3214    198.3440   9.2990165492e+01   2.3095645665e+01    0.1509448    0.1048737 -22.61 0.0007050033    1.729    0.422
        65  -7.8583    106.1410    188.3811   8.3767213544e+01   2.1535053964e+01    0.2320268    0.1731918 -58.35 0.0006179488    1.496    0.331
        66  -7.0121     90.5284    189.4241   8.8289925168e+01   2.3555932562e+01    0.1477872    0.1348786   9.11 0.0001495483    1.037    0.035
        67  -7.9967     64.5705    187.3931   9.5414358138e+01   2.7452368888e+01    0.2841969    0.1393144 -63.96  0.001184753    2.117    0.528
        68  -9.5088     25.8805    181.5340   1.0589669186e+02   3.2907906413e+01    0.3156606    0.2129161 -48.26   0.00166323    1.542    0.352
        69  -8.2913     29.9446    180.6877   1.0465393632e+02   3.2765929409e+01    0.2311811    0.1897061  27.27 0.0006753919    1.224    0.183
        70 -10.9359      4.3563    223.1873   1.1422008739e+02   2.4913363654e+01     1.098754    0.5705532  87.27  0.005935177    1.925    0.480
        71  -8.5462     12.1203    182.6948   1.0984330127e+02   3.3700956520e+01    0.3254386     0.128144 -54.72  0.001383029    2.469    0.595
        72  -7.6887      1.6224    183.7022   1.1275022346e+02   3.4166273195e+01    0.1312661   0.08565407 -39.68 0.0002021955    1.755    0.430
        73  -8.4019      4.0177    179.9670   1.1186773740e+02   3.4919896056e+01    0.3122728    0.1170487 -53.06  0.001309469    2.651    0.623
        74  -7.4600     59.4655    182.5736   9.6266271963e+01   2.9249929173e+01    0.1404677    0.1349474   4.84 2.878375e-05    1.040    0.039
        75  -8.1965     41.5522    181.8667   1.0141829186e+02   3.1375436669e+01    0.3583689    0.1469573  52.60  0.001290915    3.065    0.674
        76  -8.1059     52.3694    180.2468   9.8056772672e+01   3.0639613315e+01    0.2603452    0.1912474 -84.85 0.0007908118    1.511    0.338
        77  -7.8195     80.8135    179.4168   8.9533395403e+01   2.7314189050e+01    0.2290565     0.169172 -50.13 0.0002731546    1.384    0.278
        78  -9.5852     46.0961    177.1852   9.9540826152e+01   3.2084636646e+01    0.4021046    0.2688717 -26.02  0.001549373    1.789    0.441
        79  -7.6905    116.8733    178.0889   7.9005260766e+01   2.2245922175e+01    0.2058984    0.1663622 -17.45 0.0003895366    1.272    0.214
        80  -7.6078     86.6601    178.1061   8.7609530247e+01   2.6819817088e+01    0.2162002    0.1249365 -45.23 0.0005445882    1.787    0.440
        81  -7.6523     64.4293    176.9180   9.4024464257e+01   3.0064178166e+01    0.1872171    0.1207405  73.72 0.0003679078    2.135    0.532
        82  -7.4709     35.2817    176.6714   1.0268794185e+02   3.3286507165e+01    0.1433833   0.09717892  61.12 0.0003679849    1.603    0.376
        83  -9.0534     27.1950    173.6441   1.0476080579e+02   3.4772410083e+01     0.321652    0.2126764  -9.98  0.001208859    1.852    0.460
        84  -7.6208      1.5085    174.5429   1.1219788417e+02   3.6403799784e+01    0.1257364    0.1148231 -88.67 4.583486e-05    1.017    0.017
        85  -9.0982    175.3683    172.3639   6.3346933349e+01   1.3848887795e+01    0.2762714    0.2282461  -5.83 0.0006693333    1.122    0.108
        86  -7.4873     35.4760    173.0261   1.0223229012e+02   3.4189856926e+01    0.2003705    0.1300807 -66.59  0.000439495    1.492    0.330
        87  -9.4251     53.6354    171.1476   9.6491878306e+01   3.2793920102e+01    0.2971458    0.2508131 -30.61 0.0005400918    1.240    0.194
        88  -9.7773     16.4938    170.9738   1.0765613390e+02   3.6293421782e+01    0.3132404    0.2460764  17.14  0.001208842    1.356    0.262
        89  -9.8203     25.9576    162.8826   1.0402187506e+02   3.7615239283e+01    0.4091422    0.2636248 -64.47 0.0003619807    1.453    0.312
        90  -9.5823      9.1503    164.2397   1.0924501604e+02   3.8496446860e+01    0.2952568    0.2169341 -47.13  0.001420515    1.376    0.273
        91  -8.6450     65.8000    161.6827   9.1299816007e+01   3.3746565095e+01    0.2607308    0.2371293 -15.10  0.000342644    1.104    0.095
        92  -8.6450    245.7971    161.3681   4.8361966687e+01   5.3524483862e+00    0.1526256    0.1060315  19.42 0.0009511429    1.672    0.402
        93  -8.6733     16.0230    159.7397   1.0676765305e+02   3.9177300368e+01    0.1858282    0.1749253  19.01 0.0006190927    1.134    0.118
        94  -8.2561     52.0335    157.4090   9.5042301378e+01   3.6498508048e+01    0.2385765    0.1907914 -46.24 0.0004371159    1.232    0.188
        95  -9.3843     74.6645    155.7010   8.7465803149e+01   3.4088462583e+01    0.5614435    0.3410491   4.25  0.001914123    2.104    0.525
        96  -9.1689     22.1645    149.4372   1.0373609942e+02   4.1383077109e+01    0.3977566    0.2163373  -7.26  0.001552614    2.340    0.573
        97  -7.5215      3.7870    154.4338   1.1005364642e+02   4.1299795035e+01    0.1692541    0.1228427 -13.84 0.0003675696    1.578    0.366
        98  -7.2309     34.2966    153.3031   1.0024088126e+02   3.9369492504e+01    0.1475098   0.09867968 -35.80 0.0003082985    1.581    0.367
        99  -9.3634     13.9462    152.2698   1.0668845946e+02   4.1234109823e+01    0.2857038    0.1797825 -26.06  0.001415699    1.815    0.449
       100 -10.7078     68.5962    144.4592   8.7399809525e+01   3.7783572272e+01    0.7720259    0.5684103  60.91  0.003149017    1.694    0.410
       101 -10.5863    241.9156    142.5717   4.5445570737e+01   8.8058314162e+00     0.444775    0.2818992 -43.93  0.002661358    1.405    0.288
       102  -9.1824     78.5675    140.6628   8.3331050777e+01   3.7327835990e+01    0.2905149    0.2527126 -11.53 0.0002963899    1.153    0.132
       103  -7.0692     94.6624    138.6755   7.7673146053e+01   3.5276547952e+01    0.1670067    0.1176455 -14.66   0.00041678    1.720    0.419
       104  -7.6587     91.3074    142.6564   7.9595957599e+01   3.4854090636e+01    0.1571682    0.1231355  68.29 0.0005618862    1.693    0.409
       105  -8.2136      6.0198    138.0000   1.0785394502e+02   4.5378065661e+01    0.2016857   0.07674175  12.51 0.0005975901    2.893    0.654
       106  -9.0933     10.6523    133.2957   1.0577732089e+02   4.6332176012e+01    0.4639581    0.1803203 -89.85  0.001574932    3.638    0.725
       107  -7.8486     30.0336    132.9937   9.8894686504e+01   4.5033829170e+01    0.2286064     0.147068 -36.15 0.0003463656    1.568    0.362
       108  -7.0908     23.4813    142.4882   1.0246698399e+02   4.3087640799e+01    0.1393361    0.1278396 -51.87  0.000810137    1.026    0.025
       109  -8.8877     50.0010    130.5009   9.1279933272e+01   4.3700211383e+01    0.2613906    0.2064888 -56.23 -0.0002533693    1.231    0.188
       110  -7.6399     13.3031    148.3477   1.0650035515e+02   4.2285410443e+01    0.1476416   0.08737952 -42.78 0.0007040137    1.692    0.409
       111  -7.1558     95.3205    127.2857   7.4878213910e+01   3.7905074680e+01    0.1605608    0.1184776  -9.68 0.0003323122    1.594    0.373
       112  -7.8256     21.9687    122.0194   1.0022410154e+02   4.8512639807e+01    0.1675149    0.1552459 -21.46 0.0004099098    1.079    0.073
       113  -8.0365    249.3340    120.9977   4.0407083236e+01   1.1042831169e+01    0.2008769   0.07036784 -52.18 0.0007052047    4.413    0.773
       114  -7.3071     36.5670    117.4404   9.3896682106e+01   4.8467301282e+01    0.1448836    0.1309587 -33.70 -1.065541e-06    1.014    0.014
       115  -8.3820    245.9646    116.2111   3.9932208308e+01   1.2258900535e+01    0.1361729   0.09711467  51.99 0.0008725399    1.728    0.421
       116  -7.1050     71.6983    116.2812   8.0381594234e+01   4.4410261721e+01    0.1475576    0.1196948  60.75 0.0002275824    1.549    0.354
       117  -9.5943     17.6380    110.9325   1.0020172303e+02   5.1652936011e+01    0.2808969    0.2326306 -56.66 0.0004603754    1.101    0.092
       118  -9.0973     70.5317    109.3299   7.9129729679e+01   4.6265281675e+01    0.2764206    0.2570118  11.95 0.0002435904    1.062    0.058
       119  -7.3520     13.3030    107.2797   1.0136506239e+02   5.2847604195e+01     0.144521   0.08689554 -36.96 0.0003971223    1.549    0.354
       120  -7.6054      9.0221    106.0000   1.0289500236e+02   5.3405817409e+01    0.2099719   0.07638019  11.29 0.0008049118    2.960    0.662
       121  -8.5264     74.9729     97.8339   7.4481529208e+01   4.8237123943e+01    0.2411282    0.2088749 -34.03 0.0002691702    1.147    0.128
       122  -8.1139     18.1520     97.0595   9.7635667439e+01   5.5104027591e+01    0.3119862    0.1103345 -43.46  0.001192903    2.474    0.596
       123  -8.9058      4.2225     94.9380   1.0323548104e+02   5.6393440511e+01    0.2219104    0.1837648 -10.09 0.0006855967    1.230    0.187
       124  -8.1692     18.0161     92.3362   9.6805656564e+01   5.6275299156e+01    0.1868142    0.1575157 -18.77 0.0003361154    1.111    0.100
       125  -7.6664      2.0068     88.0117   1.0312092696e+02   5.8181425231e+01    0.1580508    0.1345292 -27.93 0.0003664988    1.102    0.093
       126  -7.8472     23.4099     82.7457   9.2344362416e+01   5.8185494616e+01    0.1939443    0.1118906 -48.35  0.000707698    1.512    0.338
       127  -7.8669      1.5761     72.5659   1.0062794718e+02   6.1876652046e+01    0.2646036   0.09147862 -43.87 0.0009974783    2.226    0.551
       128  -6.9846     46.4470     65.5236   7.6705349075e+01   5.9528650975e+01    0.1423099    0.1230527  -4.04 0.0001335487    1.015    0.015
       129  -7.9525     11.7698     61.0165   9.2811696021e+01   6.3970976898e+01    0.1697919   0.09918988 -56.93 0.0005294381    1.616    0.381
       130  -7.3699      1.3033     61.7290   9.8540366631e+01   6.4363438137e+01    0.1132368    0.0966239  45.47 0.0001687021    1.534    0.348
       131  -7.2975      5.4933     54.4275   9.4511359462e+01   6.5770609922e+01    0.1289155    0.1059779 -25.71  8.92239e-05    1.040    0.038
       132  -8.5947      5.6380     43.9066   9.1467539162e+01   6.7966989724e+01    0.2405239    0.1374892 -22.85 0.0009763599    1.522    0.343
       133 -10.3210    225.5681     40.4042   2.7450985395e+01   2.6119661450e+01    0.4253608    0.2678592 -89.18  0.002689503    1.628    0.386
       134  -8.1115    249.6797    249.3596   6.2615534862e+01  -7.7264461878e+00   0.09180013   0.08169583 -13.22   0.00070436    1.767    0.434
       135  -6.9750    105.0125     40.7712   4.6242543106e+01   5.2488286446e+01    0.1765283    0.1031202  53.68            0    1.510    0.338
       136  -7.3872    156.0062     30.0240   3.2895907095e+01   4.1903635692e+01     0.151464    0.1299994  77.76 0.0003334623    1.023    0.022
       137  -7.3269     43.5791     22.4887   6.1137958650e+01   6.7311854530e+01    0.1307122    0.1046493  15.92 6.098221e-05    1.015    0.015
       138  -8.7563    152.5530    248.1031   8.1462277663e+01   3.0992946962e+00    0.2568637    0.1673608  -1.20 0.0006768304    1.507    0.336
