#   1 NUMBER                 Running object number                                     
#   2 MAG_AUTO               Kron-like elliptical aperture magnitude                    [mag]
#   3 X_IMAGE                Object position along x                                    [pixel]
#   4 Y_IMAGE                Object position along y                                    [pixel]
#   5 X_WORLD                Barycenter position along world x axis                     [deg]
#   6 Y_WORLD                Barycenter position along world y axis                     [deg]
#   7 A_WORLD                Profile RMS along major axis (world units)                 [deg]
#   8 B_WORLD                Profile RMS along minor axis (world units)                 [deg]
#   9 THETA_WORLD            Position angle (CCW/world-x)                               [deg]
#  10 FWHM_WORLD             FWHM assuming a gaussian core                              [deg]
#  11 ELONGATION             A_IMAGE/B_IMAGE                                           
#  12 ELLIPTICITY            1 - B_IMAGE/A_IMAGE                                       
         1 -14.3560    248.3988     96.6126   1.2684627430e+01   1.6917247083e+01     3.484076    0.5930238 -41.54   0.01285188    4.613    0.783
         2 -10.1845     41.0007     13.8035   3.0725649485e+01   6.9107570643e+01    0.1835325    0.1640586  27.92 0.0002561464    1.115    0.103
         3  -9.2029     67.7425      1.3306   1.5704600382e+01   6.4815569668e+01    0.1716276   0.08707904  57.52  0.000610239    1.535    0.348
         4  -8.7869    106.3186    243.3326   6.2352546334e+01   9.3290950717e+00    0.1363673    0.0897515 -16.18 0.0002548814    1.693    0.409
         5 -11.0427     53.4372    249.5239   7.5934739851e+01   1.3742271903e+01    0.3435649    0.2510549  17.42 0.0009326467    1.241    0.194
         6 -10.2550     56.9825    246.7652   7.4829044929e+01   1.3962079797e+01    0.2825251    0.1662568  37.33 0.0008884222    1.458    0.314
         7 -10.8326     39.2720    249.7119   7.9455768132e+01   1.5088288453e+01    0.3585549    0.1510143  52.03  0.001565947    2.471    0.595
         8 -12.3090      6.8845    242.0435   8.7018422794e+01   1.9594659052e+01    0.6962671    0.4350043 -35.77  0.003724042    2.129    0.530
         9 -10.6678     12.7252    244.0733   8.5678695328e+01   1.8675034389e+01    0.3574158    0.1992603  51.74  0.001611744    1.601    0.375
        10 -12.8030     19.5628    248.5628   8.4229993137e+01   1.7125958079e+01    0.6980184    0.3917789  27.95   0.00377593    1.482    0.325
        11 -11.7512     12.2620    249.6297   8.6051447781e+01   1.7517504143e+01    0.6626676    0.1998508  42.81  0.002537612    2.506    0.601
        12 -10.6619     98.0758    241.9227   6.4171422903e+01   1.0529988857e+01     0.363648    0.2320399   7.68  0.001009066    1.561    0.359
        13 -11.5313    166.5477    241.8919   4.8896974976e+01   3.0771803707e+00    0.2641066    0.1555362  30.46  0.001368448    1.717    0.418
        14  -9.3476    221.0049    239.4734   3.8737995615e+01  -1.5968318063e+00    0.1431571   0.09138638  12.35 0.0004651507    1.522    0.343
        15  -9.5381    231.1059    234.6682   3.6480274077e+01  -1.7444217529e+00    0.1466708    0.1076097 -11.25 0.0009952807    1.119    0.106
        16 -11.7496    162.1376    225.7694   4.7511029722e+01   6.3365508398e+00    0.9831769     0.786561 -78.21  0.005836851    2.082    0.520
        17  -9.3520    100.7172    233.0438   6.2484837159e+01   1.2036629413e+01    0.1793679    0.1651273  -8.14 0.0004968725    1.095    0.087
        18  -9.6189     90.7528    231.2406   6.4756058924e+01   1.3570060172e+01    0.1898526    0.1473163 -16.19  0.001061272    1.364    0.267
        19  -9.0649    191.5013    226.5892   4.1943535847e+01   3.0787870005e+00    0.1163764    0.0932403 -13.89 9.077127e-05    1.024    0.023
        20  -9.8425    169.8900    225.2836   4.5870433524e+01   5.5671582611e+00    0.2991374    0.1684415  46.43   0.00147131    2.742    0.635
        21 -10.9402     98.9228    225.4118   6.1993440394e+01   1.3849146597e+01    0.3513744    0.2735358  -9.78 0.0009807894    1.323    0.244
        22 -11.7087     95.5021    218.0917   6.1937413823e+01   1.5848835062e+01    0.6541631    0.3134221  41.33  0.001984026    2.106    0.525
        23 -10.3357     99.9967    217.4948   6.0706362053e+01   1.5426296842e+01    0.2950174    0.2209415  45.72 0.0008832295    1.432    0.302
        24 -10.5692     27.6721    225.0294   8.0747128664e+01   2.1675029426e+01    0.2697412    0.1502379  45.20  0.001135514    1.613    0.380
        25  -9.9753     38.8122    235.1034   7.8537902516e+01   1.8314219156e+01     0.213602    0.1567723  48.43 0.0007253483    1.265    0.209
        26  -9.1078     89.3257    222.3077   6.4059422830e+01   1.5668812619e+01    0.1425954   0.09917012 -17.40 0.0007036923    1.652    0.394
        27 -10.2171    126.3932    220.9909   5.4702700336e+01   1.1437351316e+01    0.2359149    0.1672211  39.79 0.0007818945    1.511    0.338
        28 -11.3452     24.3900    216.9118   8.1073011141e+01   2.3898646198e+01    0.4244253    0.2032344  47.54  0.001903609    1.941    0.485
        29  -9.8262     56.0111    216.9754   7.2373513391e+01   2.0726300700e+01     0.192124    0.1788551  27.40            0    1.029    0.028
        30 -10.0439    170.6448    215.2602   4.4222077062e+01   7.2563416781e+00     0.234165    0.1791935 -14.34  0.000823391    1.173    0.147
        31  -9.0958    151.3397    216.3105   4.8387804872e+01   9.3285283356e+00    0.1371177   0.08848085 -14.52 0.0003488762    1.691    0.409
        32  -9.9235    189.9952    215.2477   4.0526607094e+01   5.1125254738e+00    0.2273524    0.0994921 -22.44 0.0008967767    3.617    0.724
        33 -10.1653    112.6829    213.6213   5.6980769004e+01   1.4675068776e+01    0.4815419    0.2488459 -20.95  0.001827588    3.083    0.676
        34 -10.1953     64.6774    213.5524   6.9631921860e+01   2.0566173612e+01    0.5075358    0.1793424  42.01  0.001847272    2.717    0.632
        35 -10.6940     21.9061    210.4538   8.1309782989e+01   2.5689010339e+01    0.2515362    0.1799932   3.42  0.001321309    1.539    0.350
        36 -11.7533     12.8051    204.7648   8.3494532765e+01   2.7864433686e+01    0.7320174    0.2005058 -68.09  0.002610278    3.324    0.699
        37 -11.6637     16.5032    196.5958   8.1877011297e+01   2.9620661200e+01    0.6318253    0.2821866 -39.75  0.001897787    2.937    0.660
        38 -10.9418    211.9801    207.7319   3.5574171926e+01   4.0462831011e+00    0.2584954     0.187856 -28.13  0.001796978    1.093    0.085
        39  -8.9450      1.6288    207.2865   8.6764447338e+01   2.8093665051e+01     0.149342   0.07903916  49.16 0.0006953388    1.710    0.415
        40  -9.4630    124.1176    205.8649   5.3042957019e+01   1.4853248043e+01    0.1778187    0.1430384 -16.18            0    1.236    0.191
        41 -10.2327    165.6576    199.4633   4.2753255330e+01   1.0761377866e+01    0.4114518    0.1936135 -30.89  0.001793262    2.473    0.596
        42  -9.1969     43.9567    198.4579   7.3939748191e+01   2.6550650563e+01    0.2227315   0.08512773  43.66 0.0008087985    2.518    0.603
        43  -8.9224    105.4691    197.4597   5.6474508120e+01   1.9189310815e+01    0.1433843    0.1303598  -1.63 0.0002046576    1.051    0.049
        44  -9.9540    172.5314    195.2585   4.0692414807e+01   1.0684180220e+01    0.2033921    0.1721003 -57.23 0.0006152666    1.408    0.290
        45  -9.9185     93.9541    181.4734   5.7133294966e+01   2.4535515310e+01    0.3461485    0.2981999 -70.78  0.001264529    1.281    0.219
        46 -11.7333     98.0935    189.1307   5.7181113453e+01   2.2129225147e+01    0.5655962    0.4066998  65.72  0.001886944    1.832    0.454
        47 -10.0551    104.0118    189.4839   5.5639768179e+01   2.1222078956e+01    0.3155095    0.2433876  19.30  0.001137162    1.264    0.209
        48  -9.1641    205.3314    188.6490   3.3673755749e+01   7.8942572505e+00    0.1088508   0.09190634 -74.25 0.0007047477    1.774    0.436
        49 -10.9257     11.2796    187.6326   8.2799978761e+01   3.2346507234e+01    0.2418157    0.2264785  69.51 0.0003808527    1.028    0.028
        50 -12.1129     14.3622    180.6883   8.1334977606e+01   3.3920952169e+01    0.7261623    0.3852786  32.32  0.003300783    1.732    0.423
        51  -9.8207    225.6812    182.9253   2.9580800402e+01   6.5564676075e+00    0.1602601    0.1167486 -37.29 0.0005057106    1.098    0.090
        52 -10.7942     47.7172    178.6944   7.0604575201e+01   3.1229216142e+01    0.7888054   0.08629251 -59.47  0.002024681    5.141    0.805
        53  -9.3642     70.2034    177.7916   6.3516965189e+01   2.8709707185e+01    0.2083078    0.1688576 -29.24  0.001049002    1.340    0.254
        54 -12.6103      4.8753    173.6584   8.3811210260e+01   3.6484784607e+01    0.5399857     0.386344  81.42 0.0003552269    1.390    0.281
        55 -11.1519      4.9236    166.6110   8.3288098728e+01   3.8358846654e+01    0.5711058    0.2825623 -15.16  0.002248664    2.729    0.634
        56  -9.3182    183.0000    175.0274   3.5294961271e+01   1.3070421934e+01    0.2094211   0.06404001 -47.05 0.0007982988    2.914    0.657
        57  -9.0210    149.1756    174.6133   4.2050904805e+01   1.7926684862e+01    0.1882261     0.126864  18.51 0.0009436915    1.673    0.402
        58  -9.8688     29.3689    172.1266   7.5749217190e+01   3.4885054895e+01    0.3718787     0.277739  75.05  0.001867255    1.424    0.298
        59  -9.1838     52.2955    172.6364   6.8384437617e+01   3.2290141556e+01    0.1603926    0.1066735  60.72  0.000703119    1.713    0.416
        60  -9.8423    176.9614    168.8126   3.5333801759e+01   1.5056593041e+01    0.3412552    0.1532432 -38.78  0.001531404    2.141    0.533
        61 -10.4374    206.8900    168.2625   3.0052965610e+01   1.1161398902e+01    0.3175144    0.1234292 -34.98  0.001378975    2.733    0.634
        62 -10.1411    174.1584    182.7269   3.8285287774e+01   1.2818247908e+01    0.3714038    0.2047686 -61.25  0.001684307    2.579    0.612
        63  -8.9179    199.7805    167.0290   3.0993014225e+01   1.2284649468e+01    0.1540748   0.08529773 -44.60 0.0003024222    1.540    0.351
        64  -9.5323    219.4848    165.1750   2.7615822888e+01   1.0123790975e+01    0.1896617     0.140798  69.93  0.001171591    2.308    0.567
        65 -10.7115    214.1258    164.8270   2.8354769996e+01   1.0836473803e+01    0.2473737    0.1685626 -61.90   0.00148509    1.858    0.462
        66  -8.7816    149.3349    163.6844   4.0036787577e+01   2.0163356682e+01    0.1347699    0.1094268  80.43 0.0003799782    1.691    0.409
        67  -8.5349    101.2282    176.3109   5.4270342521e+01   2.4721023279e+01      0.14369    0.1068166 -28.28            0    1.486    0.327
        68  -9.4313     99.7524    158.9729   5.1651674359e+01   2.9111201027e+01    0.2183096    0.1942997 -50.59  0.001160106    1.137    0.121
        69  -9.3435    188.4883    156.5371   3.1058625646e+01   1.5693812612e+01    0.2615893    0.1089692 -45.54  0.001188349    2.088    0.521
        70  -8.8837    105.2982    157.6522   4.9845413003e+01   2.8544475739e+01     0.151695    0.1164067  72.91  0.000538448    1.681    0.405
        71 -11.0632     23.5725    153.8689   7.5728806587e+01   4.0348405855e+01    0.3571248    0.1755832 -69.34  0.001469062    1.970    0.492
        72 -10.4725    204.3513    152.1883   2.7684484505e+01   1.4247486795e+01    0.4076276    0.1514972 -52.77  0.001680949    3.009    0.668
        73  -9.0215     68.5351    154.4635   6.0395226372e+01   3.4948564690e+01    0.1536058    0.1430532  52.96 0.0006448559    1.088    0.081
        74  -9.8087     40.9549    153.5229   6.9578270713e+01   3.8695872503e+01    0.2124341    0.2021675 -66.24 0.0004407358    1.063    0.059
        75  -9.6444      5.7166    151.9787   8.1848625461e+01   4.2247648143e+01    0.2041668    0.1822889  88.97  0.001035406    1.090    0.082
        76 -13.9101    246.2909    132.6215   1.8792036894e+01   1.1963348124e+01     2.039164    0.4922508 -48.30  0.008289425    3.679    0.728
        77 -11.2477    165.4238    247.8881   4.9935376785e+01   2.1954343870e+00    0.2355322    0.1437517  30.09   0.00140671    1.661    0.398
        78 -10.4908     26.1176    147.9009   7.4113517112e+01   4.1738459427e+01    0.2797627    0.2197959  77.30  0.001416863    1.361    0.265
        79  -9.6706    125.9093    143.7961   4.1679190719e+01   2.8285916317e+01    0.2694357    0.1925527 -84.83  0.001217486    2.033    0.508
        80  -9.0517     55.2935    144.6247   6.3201353881e+01   3.9333671470e+01    0.1624233    0.1123176  64.61 0.0007023666    1.738    0.425
        81  -9.3929    207.7935    143.1915   2.5575818667e+01   1.5307795526e+01    0.1907545    0.1236707 -77.36 0.0009482842    2.814    0.645
        82  -9.5617     13.4825    141.4793   7.8010648839e+01   4.4550809062e+01    0.2616046    0.1961382 -28.95 0.0008293115    1.426    0.299
        83 -10.8792     25.1519    139.2001   7.3359347878e+01   4.4191118942e+01    0.6260455    0.2612268  32.70  0.002411121    2.230    0.552
        84 -10.9808     18.9346    138.7837   7.5652090283e+01   4.4850665079e+01    0.6049455    0.3257904  30.99  0.001743685    1.792    0.442
        85  -9.6740    197.6258    136.4092   2.5896768953e+01   1.7939119968e+01    0.2485525    0.1310056 -42.51  0.001143574    1.635    0.388
        86 -10.0338    187.9873    134.7276   2.7125699142e+01   1.9707168434e+01    0.3048591    0.1621923 -45.15  0.001161923    1.636    0.389
        87 -11.3164    225.4576    131.5055   2.1100613005e+01   1.4799702031e+01    0.2949035    0.1914011 -68.44  0.001764027    2.026    0.506
        88 -11.0435     14.8013    133.3364   7.6575734341e+01   4.6659790604e+01    0.5141659    0.4037252  -3.50  0.002687871    1.350    0.259
        89  -9.7378    131.5562    130.7894   3.7592612626e+01   3.0116097661e+01    0.2055332    0.1342895 -62.57 0.0009441419    1.727    0.421
        90  -9.1563     83.2901    131.6492   5.1290805168e+01   3.8471863402e+01    0.1566843    0.1179593  72.80 0.0005515254    1.670    0.401
        91 -10.7537     47.2325    125.2429   6.2719229296e+01   4.5486827321e+01    0.5542257    0.4339114  51.86  0.002749632    1.355    0.262
        92 -10.3315     43.0000    120.9971   6.3566162525e+01   4.7129514177e+01    0.7938308     0.292048 -73.80  0.002302796    4.187    0.761
        93  -9.2410    162.4373    128.4722   3.0455794979e+01   2.5081930013e+01    0.1330259    0.1216627 -51.65 7.522471e-05    1.008    0.007
        94  -9.6028     98.7269    127.7118   4.5682871211e+01   3.6755287481e+01    0.3092903    0.1898119 -78.94  0.001170957    2.639    0.621
        95 -10.2743    118.6772    125.8373   3.9732262272e+01   3.3547986682e+01    0.4019149     0.286586  80.99  0.001524263    2.009    0.502
        96 -10.8381     66.3073    126.9037   5.6031438467e+01   4.2368582658e+01     0.528518    0.3399203 -13.89  0.002111945    2.301    0.565
        97 -10.4054     61.5497    126.5132   5.7648380831e+01   4.3180745383e+01    0.3414949    0.1718138  37.68   0.00126323    1.900    0.474
        98 -10.1046    222.4353    126.2684   2.0579231927e+01   1.6044029475e+01    0.1633867   0.08898994 -50.62 0.0006009123    1.559    0.358
        99  -9.8578     77.5129    126.4619   5.2090908312e+01   4.0702398104e+01    0.2600063    0.1494361  19.44 0.0006913456    2.151    0.535
       100 -10.1192     14.4832    126.1747   7.5810132232e+01   4.8617226508e+01    0.2411713    0.1932676  11.33  0.000250371    1.276    0.216
       101 -10.6161     74.8243    122.6895   5.2188431965e+01   4.2072171084e+01    0.5405602    0.3175553 -26.30  0.002028273    2.599    0.615
       102 -10.2034    189.3834    149.1179   2.9562864670e+01   1.6907353164e+01    0.3485744    0.1064966 -47.10   0.00129398    2.893    0.654
       103  -9.2491    104.0801    123.5288   4.3201011795e+01   3.6754051483e+01    0.2250818    0.1449892  38.34   0.00101467    1.543    0.352
       104  -9.5236     56.7235    121.5807   5.8421325191e+01   4.5141099940e+01    0.2186855    0.1338034  39.33 0.0009455001    1.596    0.374
       105 -10.1556    141.7741    118.7016   3.2639408036e+01   3.0734326463e+01    0.4517639     0.274684 -83.95  0.001662269    3.457    0.711
       106  -9.5472    119.5582    118.2826   3.7815704167e+01   3.5022385639e+01    0.2818076    0.1407167 -54.04  0.001138442    2.087    0.521
       107 -12.2192     65.1245     99.0251   5.0151348477e+01   4.9352790299e+01     0.862252    0.5663434  42.66  0.004012559    1.482    0.325
       108 -11.7126     52.5257    109.1889   5.7406595323e+01   4.8866166928e+01      1.51045    0.5112389  45.33  0.004628905    3.552    0.718
       109 -11.1535     67.2116    104.3784   5.0692972225e+01   4.7751439138e+01    0.5453606    0.2084325  28.67  0.001789793    2.997    0.666
       110 -11.8446     62.6725    107.2350   5.3058231031e+01   4.7807800638e+01    0.7155801    0.4227189  47.13  0.002853857    1.781    0.439
       111 -10.9752     72.4062    110.8248   5.0356487029e+01   4.5350843253e+01     0.438285     0.262445  47.02   0.00116181    1.720    0.419
       112 -11.5149     71.0008    117.9986   5.2483721679e+01   4.3848038782e+01    0.6189366    0.4747735 -33.90  0.003001535    1.441    0.306
       113 -11.1807     69.1403    113.2297   5.2071624829e+01   4.5314070183e+01    0.5153473    0.3920114  71.92  0.002280331    1.637    0.389
       114 -10.8196    107.8969    113.3998   3.9801201157e+01   3.8301823994e+01    0.6616801    0.3872114 -45.02  0.002917222    1.764    0.433
       115  -9.4923     53.0925    116.0050   5.8647811432e+01   4.7075092229e+01    0.2444089    0.1753643  63.16 0.0005966743    1.691    0.409
       116  -9.2187    185.6174    114.2086   2.3544858244e+01   2.3715193311e+01    0.1764544    0.1075398 -38.47 0.0007111177    1.600    0.375
       117 -10.3563     92.3510    111.7007   4.3961694494e+01   4.1608076903e+01    0.4199887    0.2828219 -71.48  0.001851377    1.881    0.468
       118  -9.9681     16.7875    112.5540   7.2937957952e+01   5.2061503843e+01    0.4233928    0.1804401  36.37  0.001661063    2.328    0.571
       119 -10.2401    159.7452    112.0341   2.7545101835e+01   2.8680396927e+01    0.2685891    0.1823627 -68.63  0.001364721    1.726    0.421
       120 -11.5116    132.8913    104.2714   3.1356932944e+01   3.5312310984e+01    0.7037774    0.6055492 -69.06  0.002528616    1.162    0.139
       121 -10.9800    146.6462    108.6392   2.9383292569e+01   3.1785344196e+01     0.366929    0.2527577  39.92  0.001887548    1.634    0.388
       122  -8.8969     22.3151    109.6664   7.0083275344e+01   5.2335882533e+01    0.1522596    0.1047662  56.92 0.0007046661    1.687    0.407
       123 -10.7243    157.3518    106.6054   2.6826685795e+01   3.0132894752e+01    0.2508481    0.2081421  20.06  0.001422847    1.615    0.381
       124 -10.9624    151.1091    104.2441   2.7507391220e+01   3.1758875934e+01    0.3492277     0.225591 -77.15  0.001606959    2.194    0.544
       125  -9.6192     92.8267    104.9228   4.2170457740e+01   4.3037376890e+01    0.2296676    0.2023005  -7.98 0.0007863502    1.330    0.248
       126  -9.7830     78.0717    105.3340   4.7072694847e+01   4.5658585430e+01    0.2991657    0.1395829  29.27  0.001081947    2.464    0.594
       127 -10.1253     17.8332    103.3554   7.0986425790e+01   5.4368424871e+01    0.3284227    0.1883418 -56.44 0.0009070362    1.638    0.390
       128 -10.5833     84.6447    100.8929   4.3764237015e+01   4.5467667584e+01    0.5287266    0.2912514  52.10  0.001342977    1.992    0.498
       129  -9.5840    160.0016    101.2069   2.5160660855e+01   3.0614443628e+01    0.2210809    0.1487437  88.57  0.001081206    2.037    0.509
       130  -9.1080     30.1621    101.1392   6.5055801361e+01   5.3731260072e+01    0.1956788    0.1665701  57.17 0.0004238664    1.303    0.232
       131 -10.9001     75.3222     98.9540   4.6431676645e+01   4.7604416642e+01    0.3960702    0.3315414  61.99  0.002056312    1.288    0.223
       132  -9.3895    108.0088     98.0014   3.6024035122e+01   4.1545392979e+01    0.2321997    0.1748673  83.93 0.0006012365    1.674    0.403
       133 -11.3358    148.2741     95.1447   2.6005108517e+01   3.3984216307e+01    0.2652159     0.226425  31.28 0.0009106894    1.453    0.312
       134  -9.2868     53.2241     96.8740   5.4264040895e+01   5.1754718888e+01    0.1928106    0.1626693 -18.95 0.0003030822    1.282    0.220
       135 -10.4592    223.3197    147.8051   2.4163401683e+01   1.2471809057e+01    0.2158218    0.1609059  39.52  0.001494459    1.676    0.403
       136  -9.4997    171.5976     94.6027   2.1754377298e+01   2.9583280445e+01    0.2219538    0.1535092 -18.95  0.001106986    2.344    0.573
       137 -10.3731    139.8368     92.4985   2.7079821712e+01   3.6155421317e+01    0.3275263     0.215425  79.44  0.001481498    1.999    0.500
       138 -11.2144     58.3263     91.0600   5.0740622414e+01   5.2305070044e+01    0.5359437    0.3512506  18.47  0.001877421    1.733    0.423
       139 -10.0464     24.5108     91.9747   6.5743041410e+01   5.6613001493e+01    0.3330255    0.2250157 -80.19 0.0009327849    1.782    0.439
       140  -9.9662    124.4978     91.3567   3.0179400288e+01   3.9500968750e+01    0.2567334    0.2253004 -34.62  0.001453156    1.283    0.221
       141 -10.8407     91.4888     90.7271   3.8937600351e+01   4.6337810476e+01    0.4531275    0.2917857  39.23   0.00110917    1.532    0.347
       142 -11.8102     82.8353     87.0377   4.0709718341e+01   4.8793885735e+01    0.6988818    0.3830485  47.19  0.001781174    1.761    0.432
       143  -9.8045     35.1878     89.7794   6.0308131028e+01   5.5939039167e+01    0.2468012    0.1395614  61.10 0.0009464602    2.783    0.641
       144  -9.3097    146.7480     85.9877   2.4171102044e+01   3.5917562245e+01    0.1764511    0.1096412 -45.69 0.0006192327    1.570    0.363
       145 -10.1648    124.9613     85.5367   2.8612551574e+01   4.0491535200e+01    0.2704907    0.1817542  -4.40  0.001035345    3.526    0.716
       146  -9.9802    128.1695     82.3795   2.7093604564e+01   4.0393384154e+01    0.2061784    0.1756794  68.59  0.001055983    1.124    0.110
       147  -9.9007    159.2065     84.5185   2.1592508369e+01   3.3671066164e+01    0.3162601    0.2113204  40.07  0.001657466    1.941    0.485
       148  -9.9915     48.4942     84.4703   5.3062877873e+01   5.5343310368e+01    0.2772219    0.2011827  39.79 0.0008815016    1.340    0.254
       149  -9.1356     51.2527     82.3451   5.1308116166e+01   5.5394497003e+01    0.2186133    0.1412996  27.55 0.0002788652    1.510    0.338
       150 -10.9570    104.7202     81.8750   3.2706146555e+01   4.5405789637e+01    0.6940727     0.292982 -56.35  0.002457658    3.175    0.685
       151 -10.5874    116.5994     83.6891   3.0121197930e+01   4.2581184510e+01    0.3171586    0.1359161 -42.74 0.0007951639    2.467    0.595
       152 -11.0216    119.5990     80.6087   2.8595088620e+01   4.2515468629e+01    0.3193966     0.205163 -85.70  0.001374488    2.392    0.582
       153 -10.0851     44.9656    100.8079   5.8599209423e+01   5.1993399978e+01    0.4405789    0.2407977  62.92  0.001572741    3.111    0.679
       154  -9.8440     24.3356     80.6302   6.3290682195e+01   5.9364111405e+01    0.2984383    0.2012722  71.98  0.001262691    2.161    0.537
       155  -9.7973    138.1784     79.8221   2.4357394274e+01   3.8749125836e+01    0.1790354     0.163224  30.39  0.001068925    1.360    0.265
       156  -9.9699     86.9475     80.2076   3.7469041438e+01   4.9369453641e+01    0.2392366    0.1665259  19.65  0.001084607    1.982    0.495
       157  -9.7187    175.3397     78.3282   1.7702864430e+01   3.1538333413e+01    0.2540549    0.1541752 -74.42  0.001000082    2.006    0.501
       158  -9.5951      4.8336     77.8272   7.2722291472e+01   6.1707249586e+01    0.1867567    0.1550786  43.87 0.0009732809    1.352    0.260
       159  -9.8531    128.2988     75.4352   2.5295900223e+01   4.1584246535e+01    0.3098286    0.1847435 -74.23  0.001249512    2.514    0.602
       160 -11.0173    234.5347     74.2158   1.0174267430e+01   2.2003721163e+01    0.2374584    0.1138901 -43.09   0.00143806    1.675    0.403
       161  -9.8387    140.6249     74.6410   2.2606496877e+01   3.9114348560e+01    0.2724864    0.1870069 -63.98   0.00103733    1.521    0.342
       162  -9.9728      9.7497     73.9120   6.9301688374e+01   6.2288315431e+01     0.248197    0.1819792  21.11 0.0006168431    1.332    0.249
       163  -9.6380    116.1836     72.1826   2.7163528760e+01   4.4735111656e+01    0.1981565    0.1574734 -85.34  0.000701415    1.365    0.268
       164  -9.8771    106.6689     72.1856   2.9520633386e+01   4.6772761981e+01    0.3459782    0.1845149  66.12  0.001407708    2.382    0.580
       165  -9.5011     82.3080     72.6291   3.6766850007e+01   5.1768580804e+01    0.1468537    0.1106853  85.81 0.0001496144    1.764    0.433
       166  -9.3892     95.3274     70.9886   3.2279392827e+01   4.9391759659e+01     0.228731    0.1084887 -63.72 0.0007051682    4.377    0.772
       167 -10.6873     50.9841     70.1657   4.7896217767e+01   5.8044866150e+01    0.4273562    0.3034094  46.34  0.002184364    1.419    0.296
       168  -9.4061    147.1627     68.1486   1.9830552949e+01   3.8795449303e+01    0.1872095    0.1414361 -75.64 0.0006316658    1.322    0.243
       169  -9.5464    135.7749    154.3565   4.1367241511e+01   2.4307045923e+01    0.2406289     0.174148  24.13 0.0006307656    1.524    0.344
       170  -9.3129     37.3508     64.6640   5.2483813415e+01   6.1284813844e+01    0.1424849    0.1042634  60.20 0.0007046054    1.787    0.440
       171 -10.6544     18.7498    145.9634   7.6564518541e+01   4.2914014903e+01    0.2069559    0.1886611 -73.43 0.0006093977    1.081    0.075
       172  -9.6767     99.9921     60.1549   2.7797888829e+01   5.0266968826e+01    0.2375436    0.1545886  80.99  0.001088046    2.069    0.517
       173  -9.7197     73.2855     59.3519   3.5695278784e+01   5.6013480154e+01     0.294733    0.2002165 -84.17  0.001300309    2.511    0.602
       174  -9.4410      1.6913     55.5758   6.9725411966e+01   6.7026444451e+01    0.2306958    0.1156831 -65.52  0.001096945    2.098    0.523
       175  -9.2765    107.0188    145.2361   4.6965132130e+01   3.1198249168e+01    0.2664676     0.161528  81.18 0.0008761975    3.696    0.729
       176  -9.4923    119.7726     55.9881   2.1910689727e+01   4.6590017056e+01    0.2271319     0.142187 -71.46  0.001078743    2.034    0.508
       177  -9.6192     22.4537     53.7227   5.6857695793e+01   6.5491298184e+01     0.306254   0.06176287  37.24 0.0009053664    4.600    0.783
       178  -8.7024    172.0043     49.9912   1.1960121535e+01   3.6347691280e+01    0.1409941    0.1159417 -75.66            0    1.000    0.000
       179 -11.1287     45.5213     48.9079   4.3290315623e+01   6.3045420169e+01    0.2394724    0.1934959  33.66 0.0001970663    1.102    0.093
       180  -9.0674     82.2878     46.6383   2.8540939987e+01   5.6232476796e+01    0.1353117    0.1021941 -84.95 0.0003922234    1.690    0.408
       181  -8.9701    122.6462     45.3251   1.8358499877e+01   4.7506159239e+01    0.1396562   0.09177618 -79.41 0.0007046888    1.765    0.433
       182  -9.0997    106.3023     41.6220   2.0654991348e+01   5.1670347611e+01    0.1383324    0.0941868 -76.77 0.0007026286    1.768    0.434
       183  -9.8492     44.3646     25.0922   3.4337436505e+01   6.7020375819e+01    0.2052846    0.1482058  36.43 0.0003775838    1.202    0.168
       184  -9.6548     13.1389     21.0812   5.0174557785e+01   7.2581561685e+01    0.1909518    0.1409663   4.10  0.000569929    1.263    0.208
       185  -8.7924     41.2644     20.7004   3.3811928964e+01   6.8189147334e+01    0.1123668   0.09577663  74.88 0.0006920956    1.516    0.340
       186  -9.6570     97.0000     13.9844   1.3783456973e+01   5.7071982589e+01    0.1789169    0.0721611 -30.05 0.0008071434    2.975    0.664
       187 -10.5617     73.7151    244.3985   7.0436154727e+01   1.2702783288e+01    0.2390333    0.2131335  28.10  0.000574609    1.062    0.058
