#   1 NUMBER                 Running object number                                     
#   2 MAG_AUTO               Kron-like elliptical aperture magnitude                    [mag]
#   3 X_IMAGE                Object position along x                                    [pixel]
#   4 Y_IMAGE                Object position along y                                    [pixel]
#   5 X_WORLD                Barycenter position along world x axis                     [deg]
#   6 Y_WORLD                Barycenter position along world y axis                     [deg]
#   7 A_WORLD                Profile RMS along major axis (world units)                 [deg]
#   8 B_WORLD                Profile RMS along minor axis (world units)                 [deg]
#   9 THETA_WORLD            Position angle (CCW/world-x)                               [deg]
#  10 FWHM_WORLD             FWHM assuming a gaussian core                              [deg]
#  11 ELONGATION             A_IMAGE/B_IMAGE                                           
#  12 ELLIPTICITY            1 - B_IMAGE/A_IMAGE                                       
         1 -13.5968    219.1453      7.8911   3.7804413711e+01   2.9487610167e+01      1.60568     1.209624  45.68   0.00684873    1.654    0.395
         2 -14.2616    194.2555     37.4878   4.8201325131e+01   3.2026438295e+01     2.727122     1.627909  26.93   0.01108714    2.825    0.646
         3 -10.0852     80.3942     15.2865   6.4704463786e+01   6.1845966164e+01    0.2808881     0.164765  56.16  0.001182941    1.917    0.478
         4 -10.2789    189.7410     14.8495   4.2580473444e+01   3.5887438518e+01     0.233265    0.2100423  82.20 0.0008190324    1.052    0.049
         5  -9.5895    167.9816    232.9979   9.8131791742e+01   2.4137720858e+00     0.236332     0.156825  44.55 0.0008579008    1.339    0.253
         6 -11.2350    249.3423    243.6939   8.4894869751e+01  -1.1247881785e+01    0.4103339    0.2085243 -21.45  0.002399541    2.002    0.501
         7 -19.5111     14.9526    144.7355   1.2118234530e+02   4.2970232602e+01     19.04838     4.481403 -76.54   0.06525311    3.980    0.749
         8 -10.6574    249.8478    227.1991   8.2066377982e+01  -9.3936302291e+00    0.3331593    0.0712894 -34.30  0.001210664    4.725    0.788
         9 -10.2326     58.9941    230.0664   1.1919691331e+02   1.9562186813e+01    0.1721028    0.1337245  80.72 0.0003717866    1.134    0.118
        10  -9.7321     48.5363    217.7862   1.2022212780e+02   2.3286033552e+01    0.2074533    0.1309617  49.19 0.0006058423    1.366    0.268
        11 -10.2351    183.9130    211.6617   9.1622842281e+01   3.1484149797e+00     0.343435    0.1921752 -40.24   0.00150517    1.985    0.496
        12  -9.8656     56.7683    209.5963   1.1789396740e+02   2.3937635832e+01    0.2588433    0.1548583 -64.48  0.001089263    1.722    0.419
        13 -10.4841     50.3017    224.7198   1.2042301330e+02   2.1691626797e+01    0.1976496    0.1210758  78.02 0.0007336734    1.467    0.318
        14 -13.1235     32.1761    206.4704   1.2256037275e+02   2.7496909482e+01    0.3246049    0.1646569  55.42  0.001123483    1.673    0.402
        15 -11.0332     65.9783    204.4643   1.1549932142e+02   2.3810352095e+01    0.2916521     0.175281 -60.88 0.0008677347    1.756    0.431
        16  -8.7438     70.4182    199.5355   1.1403812378e+02   2.4258072712e+01    0.1570731    0.1201993  30.81 0.0002122784    1.549    0.354
        17  -8.4572    223.7428    206.6649   8.3066409048e+01  -2.7603998681e+00    0.1291096   0.08741023  -0.24 0.0002544654    1.571    0.364
        18  -7.6751     76.5624    224.4573   1.1531055620e+02   1.8296474332e+01    0.1225292   0.09909763  64.83  0.000805738    1.015    0.015
        19 -12.5238     55.4954    198.0656   1.1707926267e+02   2.6543397823e+01    0.5894883    0.2688622 -55.14  0.002823235    2.478    0.597
        20 -10.7435    193.3161    195.6071   8.6891537326e+01   4.1735250376e+00    0.9074858    0.4803725 -62.81  0.002897192    5.382    0.814
        21 -10.6758    202.0964    199.8162   8.5926766932e+01   1.9237182825e+00    0.5579682    0.1302184  37.51  0.001675739    4.435    0.775
        22  -9.5215    150.8853    196.7959   9.5988336966e+01   1.1678323616e+01    0.2570272    0.1841548 -86.09  0.001230686    2.112    0.527
        23  -9.0813     65.0000    223.8338   1.1752267556e+02   1.9989587462e+01    0.1595259   0.06327949 -69.78 0.0007040161    2.587    0.613
        24  -9.3925     81.8461    194.6540   1.1097634573e+02   2.3689070411e+01    0.2339403    0.1778494 -86.51 0.0007481342    1.272    0.214
        25  -8.2999     78.2160    192.6803   1.1154368161e+02   2.4648241633e+01    0.1284552   0.08761144  78.52 0.0006783326    1.489    0.328
        26 -10.8262     99.0252    181.2845   1.0523909131e+02   2.3989122549e+01    0.4540887    0.3158796 -31.55   0.00180557    2.130    0.530
        27  -8.8249     96.7102    190.6999   1.0712550208e+02   2.2281567319e+01    0.2012398    0.1572464  52.80 0.0003935524    1.164    0.141
        28  -9.7343     94.8112    187.2977   1.0708602320e+02   2.3327458296e+01    0.2454901    0.2162781  86.36  0.000389051    1.072    0.067
        29 -12.0451     67.3012    185.1102   1.1309643158e+02   2.7859824383e+01    0.7307146    0.5768951 -86.89  0.003708026    1.147    0.128
        30 -10.5518     61.4438    187.5662   1.1469633502e+02   2.8088715442e+01    0.2709381    0.2252757 -64.91 0.0007984505    1.302    0.232
        31  -8.6147    156.4980    189.5512   9.3513663290e+01   1.2050257882e+01    0.1415723    0.1295408  39.12 0.0001715893    1.011    0.011
        32 -10.3503    149.4351    187.9480   9.4782621655e+01   1.3678889136e+01    0.3580023    0.1713324  48.27  0.001471297    2.068    0.516
        33 -10.5083    150.6581    179.1718   9.2921145118e+01   1.5222267540e+01    0.4524008    0.2877804 -71.92   0.00157009    2.395    0.582
        34 -11.3560    143.8887    178.6080   9.4351956870e+01   1.6622916066e+01    0.5243989     0.360076 -71.96   0.00163532    1.925    0.480
        35 -10.3849    189.1115    177.5142   8.4265726014e+01   8.1473288044e+00    0.5236308    0.3342587 -56.10  0.002310879    2.049    0.512
        36  -9.3541     37.7693    176.5063   1.1886756198e+02   3.3429787619e+01    0.2869529    0.1410187  50.47  0.001472832    1.917    0.478
        37  -9.5769     57.6412    175.7380   1.1422063279e+02   3.1265769450e+01    0.2704208    0.1798868  62.65 0.0004317213    1.432    0.302
        38  -8.4873     53.6769    173.7702   1.1491953229e+02   3.2215694993e+01    0.1114167   0.09973878 -32.89 0.0001824612    1.509    0.337
        39 -10.5764     55.0902    222.7163   1.1934936013e+02   2.1490190866e+01    0.1899811    0.1158443  55.99 0.0008515611    1.342    0.255
        40  -9.7541     46.2743    173.0169   1.1656293966e+02   3.3274571315e+01    0.3533506     0.192746  28.60  0.001787236    2.206    0.547
        41 -10.6838    139.4644    171.7018   9.4091007656e+01   1.8923181437e+01    0.4399392    0.2418173  46.92  0.001368936    1.763    0.433
        42  -9.8151    240.0248    169.4834   7.2890517953e+01   1.9458474385e-01    0.1912738     0.126717  37.48 0.0004767596    1.555    0.357
        43 -10.2039    230.3444    167.8600   7.4270937493e+01   2.1477720399e+00     0.284309    0.1132893 -43.35  0.001109645    2.667    0.625
        44 -11.5581     94.5561    151.6035   1.0146448299e+02   3.1615274980e+01    0.7173711    0.5367866 -38.94  0.003603787    1.563    0.360
        45  -9.8964    187.5795    151.9993   7.9194819662e+01   1.3290265471e+01    0.3198479    0.2566726 -80.92  0.001539516    1.747    0.427
        46 -10.8301    133.9515    146.0519   9.0243053095e+01   2.5680179328e+01     1.355298    0.3340192 -55.08  0.003016362    6.469    0.845
        47  -9.2204    112.9770    150.9722   9.6577588482e+01   2.8563404469e+01    0.2476043    0.1792327  79.15 0.0008103315    1.734    0.423
        48  -9.7703    174.5256    149.1366   8.1369351114e+01   1.6590517909e+01    0.2905241    0.2674519 -40.37 0.0007171055    1.100    0.091
        49  -9.2536    109.1293    147.2486   9.6834854775e+01   3.0137083921e+01    0.2034871    0.2031141   1.41 0.0003967906    1.101    0.092
        50  -9.3535     87.2535    143.5930   1.0193442644e+02   3.4725411696e+01    0.2937669    0.2052146  74.31  0.001070148    1.713    0.416
        51 -10.5392    106.6819    138.0095   9.5591580199e+01   3.2772779252e+01    0.4925646    0.3311673 -33.14  0.002177411    1.865    0.464
        52 -11.6390     94.5652    137.7449   9.8822186906e+01   3.4948277197e+01    0.2833448    0.2621383 -41.26 0.0007775581    1.164    0.141
        53 -10.4576    105.9135    130.6690   9.4217588101e+01   3.4662634613e+01     0.392458    0.3300247 -65.83  0.001219476    1.178    0.151
        54  -8.1131    100.2591    131.6112   9.5981682949e+01   3.5448713189e+01    0.1547039    0.1140537  89.95  0.000697077    1.689    0.408
        55 -10.0763    135.9362    128.7287   8.5787426445e+01   2.9203469339e+01    0.4113437    0.2115124 -49.67  0.001545341    1.955    0.488
        56  -9.0469    160.4917    127.0380   7.9357263476e+01   2.4252399460e+01    0.2496139    0.1538276 -43.75 0.0007896622    1.614    0.380
        57 -10.3390    101.7519    124.9558   9.4095342313e+01   3.6778374332e+01     0.303503    0.2485277 -25.89 0.0007514373    1.433    0.302
        58 -10.7234    120.1086    122.9930   8.8564325535e+01   3.3760904850e+01    0.5060428    0.3184477 -18.48  0.001827054    2.854    0.650
        59 -10.4567    114.4707    129.0898   9.1527272336e+01   3.3437783468e+01    0.3816589    0.3310698  30.90    0.0012683    1.239    0.193
        60  -9.7001     72.0980    250.2611   1.1838460571e+02   1.4145526415e+01    0.1453556    0.1083525  66.56 0.0002573292    1.085    0.079
        61  -9.4962    109.7201    118.3117   9.0291243833e+01   3.6878757945e+01    0.2434474     0.218818 -86.16 0.0003408221    1.188    0.158
        62  -9.9754    231.2757    113.7640   6.2044318070e+01   1.1175946724e+01    0.2680232    0.2551766  27.80 0.0008019331    1.138    0.121
        63  -9.2627    167.5829    112.5410   7.4036138762e+01   2.5677346100e+01    0.3559608    0.2426463 -80.29  0.001364157    2.417    0.586
        64 -11.4739    118.3912    110.2106   8.5822119267e+01   3.7045936407e+01    0.6250783    0.4632587  69.68  0.002514324    1.715    0.417
        65  -9.5491    205.3639    110.1249   6.5663282918e+01   1.7446093022e+01    0.3203258    0.2281341  45.19  0.001001993    1.480    0.324
        66  -9.7989    134.5126    105.0545   8.0086781682e+01   3.4781640142e+01    0.4214784     0.153714 -44.34  0.001356353    2.703    0.630
        67  -9.8329     64.9838    100.0551   9.9447957420e+01   4.8557763685e+01    0.3733859    0.1928976  33.84  0.001663488    2.126    0.530
        68  -9.2697     61.3950    219.9002   1.1788417256e+02   2.1242001786e+01    0.1419218    0.1002916 -58.80 0.0004639459    1.688    0.408
        69  -8.5244    184.4925     77.4376   6.0945935981e+01   2.8313344229e+01    0.1512282    0.1463615 -73.51 0.0001304172    1.010    0.010
        70  -9.2194     66.8011     71.0377   9.0991205590e+01   5.4848077248e+01    0.2205803    0.1937969  21.00 0.0005147256    1.213    0.176
        71  -9.9955     72.4046    245.4368   1.1794572620e+02   1.4954557356e+01    0.2771384    0.1357748  64.91  0.001200822    2.041    0.510
        72 -12.8266    178.4938     51.9771   5.4769033327e+01   3.3958843199e+01    0.9001848    0.7744629  23.01 0.0009247224    1.365    0.267
        73 -11.0243    246.0141    249.5126   8.6384732544e+01  -1.1455408876e+01    0.3625294    0.2106264  41.21  0.002240496    1.923    0.480
        74  -9.9217    158.0557    235.0421   1.0036357673e+02   3.7147559561e+00    0.1999624    0.1698625  40.21  0.001313602    1.050    0.048
        75  -9.9511     56.3313    217.9306   1.1871064486e+02   2.2288172500e+01    0.2549229    0.1352678  75.43 0.0009575736    1.948    0.487
