#   1 NUMBER                 Running object number                                     
#   2 MAG_AUTO               Kron-like elliptical aperture magnitude                    [mag]
#   3 X_IMAGE                Object position along x                                    [pixel]
#   4 Y_IMAGE                Object position along y                                    [pixel]
#   5 X_WORLD                Barycenter position along world x axis                     [deg]
#   6 Y_WORLD                Barycenter position along world y axis                     [deg]
#   7 A_WORLD                Profile RMS along major axis (world units)                 [deg]
#   8 B_WORLD                Profile RMS along minor axis (world units)                 [deg]
#   9 THETA_WORLD            Position angle (CCW/world-x)                               [deg]
#  10 FWHM_WORLD             FWHM assuming a gaussian core                              [deg]
#  11 ELONGATION             A_IMAGE/B_IMAGE                                           
#  12 ELLIPTICITY            1 - B_IMAGE/A_IMAGE                                       
         1 -13.5509     64.0431    125.5762   9.7721647486e+01   4.2885051959e+01     2.769772     1.871398  81.60  0.007569169    2.076    0.518
         2 -14.2917    219.3260     33.5743   3.7622939530e+01   2.6835880149e+01     1.727427     1.174714  35.25  0.009171897    2.262    0.558
         3 -13.6698    242.8603     12.5819   3.1175947866e+01   2.4328984550e+01    0.7232999     0.518892 -65.10  0.002677451    1.115    0.103
         4 -10.7316      2.8204      2.2747   8.4750673894e+01   7.4322002047e+01    0.2053592    0.1349262 -28.83   0.00145005    1.272    0.214
         5 -12.8302     11.6456    232.5849   1.2293733708e+02   2.3589172474e+01     1.235906    0.5035755  77.43  0.004856149    2.473    0.596
         6 -14.8348     67.9023    247.3198   1.1314171135e+02   1.4209153111e+01     8.471642     2.736039  26.15   0.02283893    8.177    0.878
         7 -12.9541     84.9498    231.7923   1.0814772957e+02   1.4915862026e+01     1.660649    0.8200165  75.61  0.006308306    3.759    0.734
         8 -14.3238      9.9243    207.2938   1.2180280541e+02   2.9040567892e+01     1.757163    0.9217712 -84.74  0.003097632    1.637    0.389
         9 -12.9655     21.9695    206.9655   1.1927897119e+02   2.7956070013e+01    0.3914296    0.2951068 -50.69  0.000862713    1.676    0.403
        10 -15.6984     33.0083    196.7212   1.1604371267e+02   2.9111402183e+01     8.932145     3.331683  85.96   0.02874942    4.566    0.781
        11 -13.1231      8.4817    246.9715   1.2423278751e+02   2.1092712218e+01     1.395481    0.6142576  64.13  0.008154963    1.875    0.467
        12 -11.5895    166.0440    221.8453   8.9305682769e+01   4.1193060163e+00    0.4879657    0.3562623 -74.93  0.002471007    2.304    0.566
        13  -8.8808    109.6271    200.8580   9.8608604897e+01   1.7661998060e+01    0.1961863    0.1325314 -74.25 0.0009455218    1.775    0.436
        14  -9.7884    191.6931    192.5771   7.8674312285e+01   5.0808496205e+00    0.5156025     0.276592 -63.75  0.001536889    5.728    0.825
        15  -9.2544     56.1552    192.8934   1.1029168662e+02   2.7298365651e+01    0.2041123     0.154599  71.08 0.0005283969    1.243    0.196
        16 -10.2791     59.5930    231.5945   1.1343474789e+02   1.8379257165e+01    0.2469419    0.1878499 -83.38  0.001070083    1.298    0.230
        17 -11.9707     52.7410    179.6810   1.0956505798e+02   3.0858493747e+01    0.5427032    0.3479043 -23.86  0.001517202    2.673    0.626
        18 -11.8714     59.0411    173.7946   1.0721167536e+02   3.1495702938e+01    0.3220471    0.2670507 -39.68 0.0004342278    1.419    0.295
        19 -10.9923    105.4965    172.4908   9.4952798828e+01   2.4832947997e+01    0.5004963    0.1089561  41.81  0.001372485    4.293    0.767
        20 -12.5971     86.9652    224.2892   1.0687850712e+02   1.6151711335e+01    0.6469168    0.3406589  52.83 0.0004041177    1.832    0.454
        21 -12.5104     69.7971    145.6084   9.9851085551e+01   3.7062923554e+01    0.5898813    0.4355601  25.89  0.001340865    1.522    0.343
        22 -12.7958     67.7666    142.5771   9.9890283810e+01   3.8109585571e+01    0.9601723    0.4072179  47.56   0.00148565    2.752    0.637
        23 -11.3302     70.2716    163.8198   1.0279461569e+02   3.2443936180e+01     0.317223    0.2634258 -59.68 0.0003725544    1.168    0.144
        24 -13.3579     56.5213    160.2789   1.0597870746e+02   3.5152601364e+01    0.5320909    0.3206386 -40.99  0.001703248    1.983    0.496
        25  -8.8151    151.2242    150.9366   7.8995116457e+01   2.1203937494e+01    0.1961222    0.1262176 -47.14 0.0004261249    1.552    0.356
        26 -11.7201     35.1345    159.1927   1.1159532832e+02   3.7861383039e+01    0.6636541    0.3073166  66.20  0.002094561    3.061    0.673
        27  -9.4908    133.8878    145.6964   8.2123972329e+01   2.5879676360e+01    0.6435183    0.1030741 -50.52  0.001264598    7.508    0.867
        28 -11.7227     24.6348    147.9475   1.1306978872e+02   4.1652118192e+01    0.3187427    0.1924615  43.51 0.0009522279    1.766    0.434
        29 -10.0344     48.7842    237.2157   1.1609048304e+02   1.8589445019e+01    0.2188501    0.2082149  12.35  0.001301863    1.461    0.315
        30  -9.8804     96.7039    140.6294   9.1105311165e+01   3.4074526571e+01    0.3478609    0.2446427 -29.96  0.001557953    1.716    0.417
        31 -12.2001     81.5970    141.7254   9.5688412227e+01   3.6284449046e+01    0.3259443    0.2810995 -58.55 0.0004059387    1.100    0.091
        32 -10.3642     93.9470    143.4698   9.2489329847e+01   3.3846492232e+01    0.3501743    0.3087882 -41.00 0.0008998129    1.153    0.133
        33  -8.8663    197.9755    139.7198   6.6156474992e+01   1.3963200297e+01    0.2564204    0.1555405 -69.52 0.0008885706    3.435    0.709
        34 -10.6334    106.4631    131.3764   8.6243207472e+01   3.4573846093e+01    0.3704636    0.3477691  -9.93 0.0009942403    1.124    0.110
        35  -9.9708     93.8434    127.8149   8.9087829921e+01   3.7704247840e+01    0.2916797    0.2411994 -21.71 0.0006904972    1.366    0.268
        36 -11.0300    239.5409    126.5318   5.5957323667e+01   8.3543166350e+00     0.329891    0.1470751 -43.56  0.001426017    1.993    0.498
        37 -11.0514     43.8654    218.1194   1.1553896317e+02   2.3135760245e+01     0.362716    0.2662427  63.50  0.001516265    1.162    0.139
        38  -9.4060    114.2859    125.3730   8.2581156106e+01   3.4506628548e+01    0.2482539    0.1870531  -7.21  0.001086267    1.778    0.438
        39  -9.8301    104.9079    119.9845   8.3932219850e+01   3.7576570198e+01    0.2224633    0.2159676 -34.25 0.0003510252    1.007    0.007
        40  -9.9900     23.6951    116.9742   1.0903644871e+02   4.9410304928e+01    0.1924756    0.1467084 -66.03 0.0003230902    1.109    0.099
        41  -9.2209    167.9479    112.9467   6.5863065043e+01   2.5712630477e+01    0.2506199    0.1912765 -76.17  0.001018142    1.723    0.420
        42 -10.0399    205.0397    110.6962   5.7995784271e+01   1.7972384933e+01    0.3618293    0.2538913  34.49  0.001216869    1.699    0.411
        43  -9.6088     70.0763    107.5497   9.1712907680e+01   4.6440956339e+01    0.2325794     0.182577 -51.54 0.0005214427    1.183    0.155
        44 -13.0503     78.0241    157.2779   9.9595577777e+01   3.2948366180e+01     1.624982    0.8406568  61.91  0.001339549    2.930    0.659
        45  -8.7009     82.0242     87.9639   8.2395696112e+01   4.9012781730e+01    0.1754288    0.1595702 -30.49 0.0003165064    1.035    0.034
        46  -9.7701     41.9662     88.4775   9.6883304373e+01   5.4537150243e+01    0.1910199    0.1338211  25.01 0.0007386165    1.576    0.365
        47 -10.5722    162.4900     83.3657   5.9075939038e+01   3.2648465831e+01    0.2992964    0.2216121 -14.05 0.0009704645    1.711    0.416
        48  -8.8246     59.7003     74.4030   8.6237766901e+01   5.5422046756e+01    0.1362558    0.1115721 -89.71 0.0001909616    1.831    0.454
        49 -11.5703     12.7015     60.6069   1.0157462664e+02   6.3247808736e+01    0.3908703    0.2334858 -16.91  0.001236836    1.762    0.433
        50 -12.6059    202.0099     47.9302   4.3005159391e+01   2.8865930236e+01     1.105029    0.6478111 -62.67  0.005285061    1.868    0.465
        51  -9.5032     24.4971    247.0600   1.2137501169e+02   1.9432297706e+01    0.1766215    0.1493908  30.98 0.0006740999    1.532    0.347
        52  -9.4426     23.5662     50.0064   9.3499894869e+01   6.4554174485e+01    0.1759621    0.1460093 -14.99 8.311807e-05    1.101    0.092
        53  -8.7012     94.5290     46.5097   6.4364377390e+01   5.4330542550e+01    0.1387823    0.1283945  19.14 7.959182e-06    1.041    0.039
        54 -10.4279      2.4189     37.7034   9.9780906745e+01   6.8472603065e+01    0.2214835    0.1022759 -60.36  0.001143657    2.170    0.539
        55  -8.8261    128.8764     28.8284   4.9366340567e+01   4.8903980913e+01    0.1825777    0.1547703 -88.16 0.0003567623    1.316    0.240
        56 -11.0801      2.0167     19.5251   9.3356330580e+01   7.1745535021e+01    0.1900969    0.1673927 -20.10  0.001464885    1.311    0.237
        57  -9.6209     19.8260    238.0523   1.2171875925e+02   2.1676169561e+01    0.1835819    0.1267041  53.48  0.001265426    1.207    0.171
        58 -10.4203    189.8067     15.1487   3.6302288310e+01   3.5690916537e+01    0.1967344     0.154456 -72.75 0.0006595325    1.165    0.142
