#   1 NUMBER                 Running object number                                     
#   2 MAG_AUTO               Kron-like elliptical aperture magnitude                    [mag]
#   3 X_IMAGE                Object position along x                                    [pixel]
#   4 Y_IMAGE                Object position along y                                    [pixel]
#   5 X_WORLD                Barycenter position along world x axis                     [deg]
#   6 Y_WORLD                Barycenter position along world y axis                     [deg]
#   7 A_WORLD                Profile RMS along major axis (world units)                 [deg]
#   8 B_WORLD                Profile RMS along minor axis (world units)                 [deg]
#   9 THETA_WORLD            Position angle (CCW/world-x)                               [deg]
#  10 FWHM_WORLD             FWHM assuming a gaussian core                              [deg]
#  11 ELONGATION             A_IMAGE/B_IMAGE                                           
#  12 ELLIPTICITY            1 - B_IMAGE/A_IMAGE                                       
         1 -15.7684    198.5574     64.2500   4.6157596535e+01   2.7779566553e+01      8.20833     3.674252 -28.56   0.03193017    2.823    0.646
         2 -16.3054    244.9304     48.4381   3.7086123308e+01   2.0232618658e+01     5.486914     2.594534  85.80   0.01347229    2.850    0.649
         3 -13.2936    248.6746     16.0436   3.0386205087e+01   2.3569564047e+01      1.07451    0.8169662  41.75  0.003630254    2.107    0.525
         4 -14.4777    209.9474     51.2722   4.1506797219e+01   2.7146850144e+01     2.291181     1.341486 -18.83  0.008482609    2.652    0.623
         5 -14.8656    227.8857     49.1807   3.8963984780e+01   2.3581808213e+01     1.430206      1.00145 -13.57  0.007622544    2.230    0.552
         6 -17.2821    246.4619     73.3519   4.2059144375e+01   1.6348214554e+01     7.111134     5.623889 -30.40   0.02447209    1.390    0.281
         7 -10.7044    122.6670     36.0964   5.1999900138e+01   4.9734056419e+01    0.3963035    0.2689548 -11.05  0.001248053    1.853    0.460
         8 -10.7829    139.0144     25.3379   4.5162863573e+01   4.7154365190e+01    0.5442858    0.2908071 -14.41  0.001860859    2.644    0.622
         9 -11.0632    142.2781     14.1600   4.1164345604e+01   4.7537584362e+01    0.9141082    0.3688894 -14.83  0.003445721    4.040    0.752
        10  -8.5935    155.8313      9.2954   3.7754034850e+01   4.4770415388e+01      0.22911    0.1484957  28.84 0.0009730245    2.099    0.523
        11  -9.3663    249.4655      4.2015   2.8112510142e+01   2.4730099449e+01    0.1835686    0.1225144 -80.48 0.0007162367    1.236    0.191
        12  -9.5325     95.4751      1.6917   4.5877784140e+01   5.9408239426e+01    0.2466041    0.1423436  74.01 0.0008954791    2.003    0.501
        13  -9.9318    166.2553    199.7450   8.3459310966e+01   8.0975433985e+00    0.5973682    0.3673307  68.36  0.002141533    3.847    0.740
        14  -8.4330    195.9198    250.3674   8.5696673177e+01  -5.1468038975e+00    0.1733312     0.125374  20.42 0.0004311355    1.143    0.125
        15  -9.1396    195.0451    233.5137   8.3208315679e+01  -2.4551638897e+00     0.208486    0.1820155 -54.68 0.0009033116    1.616    0.381
        16  -8.3210    106.8540    181.1670   9.4440188487e+01   2.2401304078e+01    0.2123557    0.1868135  70.36 0.0004551662    1.182    0.154
        17  -8.5999     38.2322    180.1407   1.1201114852e+02   3.2134280552e+01    0.1789801    0.1599657 -71.16 0.0003985893    1.147    0.128
        18 -11.0824    178.8024    173.7532   7.5658235715e+01   1.1098721505e+01    0.4388631    0.4006656  88.70  0.002411345    1.395    0.283
        19 -11.9949    184.0618    169.0658   7.3550793140e+01   1.1079613894e+01     1.108473    0.5429642  44.60  0.004531076    2.170    0.539
        20  -9.8468    153.6595    176.7880   8.1999172224e+01   1.5099424557e+01    0.3829212     0.288013 -88.56 0.0009991893    2.040    0.510
        21 -11.0438    204.2577    174.7147   7.0549658900e+01   6.3702802616e+00    0.5227946    0.3928381 -83.93  0.002415538    2.521    0.603
        22 -10.4680    215.0389    227.2294   7.8252534673e+01  -4.3080324005e+00    0.2210353    0.1805086  -3.56 0.0002284051    1.036    0.034
        23 -10.8983    185.3752    162.9475   7.1981002797e+01   1.2070104217e+01    0.7599527    0.4821114  77.54  0.002469924    4.456    0.776
        24 -11.3509    196.5551    176.5351   7.2470498859e+01   7.3647881724e+00    0.6630905    0.5012423  89.83  0.002684161    2.474    0.596
        25 -10.3899    190.0727    171.8626   7.2856910275e+01   9.4249193242e+00    0.3039007    0.2671419  42.38 0.0004455337    1.248    0.199
        26 -12.1388      4.6566    148.6355   1.1763350218e+02   4.2826776136e+01     2.212272     0.533503 -80.14  0.006980048    4.406    0.773
        27 -13.1214     18.3726    146.2003   1.1360060071e+02   4.2435708702e+01    0.9202126    0.9176515 -48.24  0.003991508    1.208    0.172
        28 -10.0829    205.2103    153.7705   6.5976563629e+01   1.0178960413e+01    0.4911986    0.3527433 -66.78  0.001793754    2.000    0.500
        29  -9.1299    198.3455    153.2840   6.7221061554e+01   1.1552968954e+01    0.2558307    0.2134977  -8.40 0.0007483987    1.255    0.203
        30 -10.6197    149.3638    151.7108   7.7779006111e+01   2.1487852578e+01    0.5735503    0.4012817 -74.24  0.001921367    2.073    0.518
        31  -9.5492    210.9599    150.9854   6.4281701221e+01   9.6526059731e+00    0.3329365    0.2688381 -74.54  0.001635262    1.715    0.417
        32 -10.9730    192.5623    194.3422   7.6794301748e+01   4.6881240866e+00    0.9352892    0.4897083 -62.67   0.00296023    5.067    0.803
        33 -11.5537     46.0241    138.2461   1.0436799418e+02   4.1849072774e+01    0.4238222      0.39946   5.23 0.0008893714    1.211    0.174
        34 -13.8983     58.1634    134.4001   9.9964234440e+01   4.1400143623e+01     2.531957     1.679239  22.22  0.007825673    1.726    0.421
        35 -10.3259    133.8031    145.2269   8.0267767733e+01   2.6059741269e+01      1.31473     0.346174 -55.25  0.002914754    6.175    0.838
        36  -9.6199    142.4947    141.9984   7.7296503231e+01   2.5070422484e+01    0.3607755    0.1528887 -53.73    0.0010726    2.663    0.624
        37  -9.5496    192.3892    143.7124   6.6306315354e+01   1.4594309704e+01    0.2909477    0.2487618 -56.84  0.001121967    1.263    0.208
        38  -8.8110    124.6522    141.7358   8.1907790885e+01   2.8672868683e+01    0.2618847    0.2270078 -24.05 0.0006917508    1.241    0.194
        39  -8.7516    174.5970    197.8391   8.1273438504e+01   7.0497422323e+00     0.224255    0.1780683  15.44   0.00039813    1.237    0.192
        40  -9.4401    216.0202    139.4400   6.0850614939e+01   1.0882764299e+01    0.4343352     0.305424  59.08  0.002185946    1.796    0.443
        41  -9.9386    216.7714    129.9320   5.8625727827e+01   1.2504004879e+01     1.028726    0.3267548 -32.63  0.002944157    4.464    0.776
        42  -9.9075    210.9340    136.8927   6.1208413975e+01   1.2319117521e+01    0.3473534    0.2770244  46.16  0.001043107    1.387    0.279
        43  -9.6917    207.2456    133.9965   6.1239976017e+01   1.3579014638e+01    0.2630934     0.234522 -76.01 0.0006804193    1.317    0.241
        44  -8.5319    221.3918    133.2079   5.8550264271e+01   1.1031427248e+01    0.2230417     0.168493 -68.99 0.0008634123    1.724    0.420
        45 -10.2993    224.6345    129.9142   5.7285139116e+01   1.1026934987e+01    0.5731531    0.3944936  63.70  0.002696885    1.912    0.477
        46 -10.0781    144.2722    137.9266   7.5899144085e+01   2.5636141321e+01    0.4957514    0.3307272 -89.41  0.001787553    2.890    0.654
        47 -10.2056    181.1404    144.6503   6.8866109870e+01   1.6638502800e+01    0.3239501    0.2322945 -40.75  0.000319805    1.332    0.249
        48 -10.5846    202.5708    131.6965   6.1593181473e+01   1.4938604182e+01    0.5569943    0.3245798 -31.05  0.001991437    1.799    0.444
        49 -10.1072    186.3184    142.1980   6.7214020405e+01   1.6104059096e+01    0.4527017    0.2944304   5.97  0.001776378    2.605    0.616
        50 -11.0848    174.5086    114.8779   6.3209529185e+01   2.4139137890e+01    0.9471285    0.5096138 -61.46  0.003336307    2.856    0.650
        51 -10.1112    189.6374    131.2311   6.4009755832e+01   1.7642087002e+01    0.6357244    0.3834918  76.78   0.00213395    3.832    0.739
        52 -11.6205    185.1914    123.9211   6.3188971065e+01   2.0027753573e+01    0.7633052     0.668134 -29.53  0.002930751    1.128    0.114
        53  -8.6803    180.5343    121.4785   6.3561243270e+01   2.1506460893e+01    0.2369395    0.1432734 -44.00 0.0001061126    1.579    0.367
        54 -11.2116    161.0952    129.2392   6.9735064053e+01   2.4040463026e+01    0.7407372    0.4991186  29.24  0.003220842    1.742    0.426
        55 -10.0626    168.6232    125.6713   6.7149812041e+01   2.3193179068e+01    0.2896353    0.2573799 -59.00 0.0007798064    1.169    0.144
        56  -8.9094    182.9837    227.2005   8.4619507208e+01   3.6585025086e-01    0.1996362    0.1740751 -12.02 0.0002762811    1.126    0.112
        57 -10.5051    173.2618    125.1205   6.5992525724e+01   2.2316592938e+01    0.3793564    0.3048074 -85.50  0.001450207    1.615    0.381
        58  -9.6975    208.3060    197.5582   7.4227270366e+01   1.5601629271e+00    0.2464142    0.1248677  40.50  0.001132371    2.081    0.519
        59  -9.6112    154.3385    125.7617   7.0483436334e+01   2.6232140617e+01    0.2686171     0.231293  37.24  0.001340763    1.194    0.162
        60  -8.6282    205.9992    123.0878   5.8993009717e+01   1.5894854343e+01    0.2611741     0.189851 -40.08 0.0007960147    1.259    0.206
        61 -11.4216    189.3022    136.6080   6.5321115275e+01   1.6633468000e+01     1.037341    0.4767114  60.27  0.003263132    3.993    0.750
        62  -8.7404     95.2386    122.8374   8.5966944402e+01   3.8711143602e+01    0.2247696    0.2117127 -84.84 0.0005502758    1.132    0.117
        63  -9.6748    143.9949    121.7677   7.2033900200e+01   2.9318524751e+01     0.325168    0.2643655  52.40 0.0009859675    1.287    0.223
        64  -9.8772    164.1595    120.1453   6.6795063041e+01   2.5313472868e+01    0.3407676    0.2707598 -84.54  0.001587578    1.636    0.389
        65 -10.6914    164.6189    116.1896   6.5700951447e+01   2.6037296055e+01    0.5374553    0.3503208  32.45  0.002305851    1.811    0.448
        66  -9.0815     72.8657    111.3068   9.0358570122e+01   4.5168740715e+01    0.2400162    0.1917814 -62.66 0.0003118034    1.267    0.211
        67  -8.8571    184.2383    222.9061   8.3645612026e+01   9.0632265281e-01    0.1796656     0.167758   2.15 0.0003063732    1.165    0.142
        68  -8.8193     87.1711    108.0578   8.4848552629e+01   4.3657609378e+01    0.4205108    0.2060641 -63.88  0.001454436    2.852    0.649
        69 -11.1680    178.4583    134.4948   6.7101766507e+01   1.9284185714e+01    0.5474916     0.328294  63.92  0.001891744    2.464    0.594
        70 -10.3109     90.9716     93.0516   7.9536229355e+01   4.6423035515e+01    0.2226417    0.2113955 -19.45 -0.002661949    1.004    0.004
        71  -8.7977    221.2783    196.1259   7.1466173265e+01  -1.9599191808e-01    0.2235284    0.1764101  64.29  0.001009494    2.153    0.536
        72  -9.5875    131.0000     86.9662   6.5946641183e+01   3.9497603798e+01    0.4429537     0.103263 -45.50  0.001137508    4.634    0.784
        73  -9.0744     35.9603    195.6975   1.1409456893e+02   2.8646955191e+01    0.1979075    0.1575167 -69.09 0.0005017306    1.247    0.198
        74  -8.7374    138.3046     87.4536   6.4222182361e+01   3.7757818822e+01    0.2927052    0.1764665 -43.57 0.0006123491    1.669    0.401
        75  -8.7116    165.0375     80.8307   5.6314920049e+01   3.2798739761e+01    0.2584638    0.2018266 -41.55 0.0007322239    1.273    0.215
        76  -8.2450    235.2844    219.3465   7.3131745932e+01  -5.8580147231e+00    0.1291112   0.07987024  -8.16 0.0002910112    1.647    0.393
        77  -9.0738    158.8312     72.7995   5.5368352888e+01   3.5659524617e+01    0.3113884    0.1998123 -43.66 0.0009940065    1.564    0.361
        78 -10.3604    137.8324     70.5457   5.9374234545e+01   4.0983261435e+01    0.4064887    0.3152924  85.98   0.00106233    1.622    0.384
        79 -10.7486    139.4447     66.2407   5.7700636348e+01   4.1342211687e+01    0.4815205     0.251014 -39.45  0.001760303    1.962    0.490
        80  -9.3458    153.0366     62.9970   5.3768772998e+01   3.8659467409e+01    0.2880273    0.2332751  18.53 0.0007470049    1.533    0.348
        81  -9.8376    152.3162     68.1675   5.5413411527e+01   3.7984128085e+01    0.4247585    0.2681855 -39.49  0.001251872    1.609    0.379
        82  -8.4920    103.6449     62.7622   6.6070094464e+01   4.9951640671e+01    0.1946985    0.1334409 -45.79 0.0006548777    1.583    0.368
        83  -9.8953    136.5468     59.4472   5.6301975070e+01   4.3132485284e+01    0.2593486      0.24795  56.51 0.0009157204    1.007    0.006
        84  -8.4485    156.0456    191.6402   8.4285498213e+01   1.1510463521e+01    0.2239613    0.1721037  52.65 0.0006904922    1.462    0.316
        85  -9.4171    184.9960    218.1669   8.2683077106e+01   1.6097417164e+00    0.2132581    0.1810691 -26.93 0.0002386222    1.200    0.167
        86  -9.8424    124.4933     50.6782   5.6385854118e+01   4.7292815920e+01     0.491535    0.2870919 -50.18  0.002184902    2.058    0.514
        87  -8.6494     91.3927     43.2790   6.2999595305e+01   5.5621370442e+01     0.248606    0.1316378 -28.33   0.00111452    2.064    0.516
        88 -10.2602    125.7697     42.0205   5.3249605486e+01   4.8231471980e+01    0.3570457    0.2378862 -28.09  0.001263514    1.650    0.394
        89 -10.1642    123.6652     39.6798   5.2964182999e+01   4.9035730903e+01    0.3301802    0.1944511  41.98   0.00155575    1.676    0.403
        90 -10.0384    151.9454    212.1745   8.8816704349e+01   8.0499155905e+00    0.2354084    0.2070559 -39.92 0.0003976364    1.220    0.180
        91 -10.3312    144.4308     32.1346   4.6265519778e+01   4.5069497893e+01    0.3989011    0.1797247 -21.14  0.001581527    3.034    0.670
        92  -9.7015    158.5032     32.0843   4.3830867585e+01   4.1692168618e+01     0.260519    0.2358524 -16.34  0.001194841    1.299    0.230
        93  -9.2939    233.3802    211.7587   7.2124283900e+01  -4.4543677990e+00    0.2187746    0.1481896  39.29  0.001273206    1.744    0.427
        94  -9.5002    227.8541    210.1255   7.2836076200e+01  -3.4355515537e+00    0.1816022    0.1658249  -3.74 0.0007118354    1.256    0.204
        95 -10.5588    169.6162     36.7431   4.3386548660e+01   3.8448195028e+01    0.4543359    0.3642139  22.84   0.00118968    1.637    0.389
        96  -8.8095    116.4936     21.9687   4.8571146570e+01   5.2817755049e+01    0.1824664    0.1323447 -25.27 0.0005213352    1.545    0.353
        97  -8.9643    250.5529    183.0655   6.3820711194e+01  -2.3258171736e+00    0.1946504    0.1047972 -35.55 0.0005195904    1.570    0.363
        98  -8.6056    103.9632    207.9656   9.9304673851e+01   1.6716467300e+01    0.2032311    0.1875402  51.47  0.000375809    1.004    0.004
        99  -9.5981    203.5725    187.4648   7.3226928769e+01   4.1267627581e+00    0.2820585    0.2128697 -45.81  0.001531799    1.428    0.300
       100  -8.9400    224.1729    205.3783   7.2650850515e+01  -2.1526697681e+00    0.1676264    0.1157415  39.21 0.0008845023    1.646    0.392
       101  -8.8160    181.0322    182.9783   7.7030036493e+01   8.8465810633e+00    0.1782308    0.1588948 -23.83 0.0004307741    1.078    0.072
       102  -8.7006    112.5247     29.4981   5.2123683496e+01   5.2876894238e+01    0.1356541      0.12087  44.28 0.0008101717    1.002    0.002
