#   1 NUMBER                 Running object number                                     
#   2 MAG_AUTO               Kron-like elliptical aperture magnitude                    [mag]
#   3 X_IMAGE                Object position along x                                    [pixel]
#   4 Y_IMAGE                Object position along y                                    [pixel]
#   5 X_WORLD                Barycenter position along world x axis                     [deg]
#   6 Y_WORLD                Barycenter position along world y axis                     [deg]
#   7 A_WORLD                Profile RMS along major axis (world units)                 [deg]
#   8 B_WORLD                Profile RMS along minor axis (world units)                 [deg]
#   9 THETA_WORLD            Position angle (CCW/world-x)                               [deg]
#  10 FWHM_WORLD             FWHM assuming a gaussian core                              [deg]
#  11 ELONGATION             A_IMAGE/B_IMAGE                                           
#  12 ELLIPTICITY            1 - B_IMAGE/A_IMAGE                                       
         1 -12.1425     58.3346     70.0998   2.9161196873e+02   6.6373140960e+00    0.1271032   0.04484274 -71.99  0.008557659    3.901    0.744
         2 -12.0745     51.8804     34.5430   2.9149969319e+02   7.0872415406e+00   0.06654015   0.05746549  16.56  0.005999862    1.109    0.098
         3 -12.1862     37.5816     47.0140   2.9174627131e+02   7.0237135412e+00   0.08334417   0.04220472  50.88  0.007078198    2.309    0.567
         4 -11.5177    122.2376     55.6445   2.9073474040e+02   6.4406333235e+00   0.08921409    0.0285064 -45.33  0.005997201    3.714    0.731
         5 -11.7475    111.3403     64.1967   2.9091739485e+02   6.4035567805e+00   0.05873921   0.03333181 -41.91   0.00245281    1.955    0.489
         6 -11.8446     41.1174     65.1221   2.9180026298e+02   6.7931601185e+00     0.159592   0.06843679  46.80   0.01255303    2.604    0.616
         7 -11.3660    173.6327      5.3278   2.8981868069e+02   6.7303958025e+00   0.04209295   0.03486162  57.63  0.004794886    1.289    0.224
         8 -11.1762    121.6685     38.1237   2.9064652624e+02   6.6474031942e+00   0.08499563   0.05477895   3.34  0.008198982    1.800    0.445
         9 -12.1625    135.7742      5.2476   2.9029119283e+02   6.9483522930e+00   0.06317773   0.03114069  29.73  0.005657924    1.830    0.454
        10 -12.5915     86.6955     52.2556   2.9116050952e+02   6.6830243334e+00   0.08387749   0.04539999 -53.46  0.004509855    1.886    0.470
        11 -11.5397    148.6842     16.2999   2.9019011369e+02   6.7461342754e+00   0.04483992   0.02722677 -51.83  0.004020085    1.701    0.412
        12 -12.4481    163.8334     10.7073   2.8997039499e+02   6.7241964501e+00   0.08847561   0.05216454 -44.24  0.008470305    1.830    0.454
        13 -10.8211    113.3242      9.0611   2.9059260648e+02   7.0325555916e+00   0.05181313   0.03850929  16.81  0.005596289    1.314    0.239
        14 -11.9704    130.3945     20.4111   2.9044104261e+02   6.8031480995e+00   0.05846297   0.02850762  23.29  0.003639672    1.957    0.489
        15 -12.3657     71.3900     31.1107   2.9123699251e+02   7.0159594482e+00    0.1184551    0.0490086  24.19  0.009578823    2.283    0.562
        16 -12.4038     92.4058     16.8871   2.9089678988e+02   7.0612302199e+00   0.02991561   0.01536633 -45.92  0.002667262    2.093    0.522
        17 -10.6703    123.6224     10.2444   2.9047030586e+02   6.9599159955e+00   0.01864186   0.01436388  46.54 0.0009882457    1.305    0.234
        18 -11.3330    127.5169     15.2861   2.9044909061e+02   6.8791101739e+00   0.06031605   0.02674458   2.09  0.003615097    4.859    0.794
        19 -12.3111    112.1261     22.0262   2.9067817850e+02   6.8888933571e+00   0.03706432   0.02551034  38.98  0.001838987    1.383    0.277
        20 -11.7822    117.1567     15.6603   2.9058062991e+02   6.9340358967e+00   0.01511744   0.01377197  48.70 0.0005484939    1.112    0.101
        21 -12.1155     93.2999      8.5108   2.9084002166e+02   7.1533696945e+00   0.03175193   0.02420886   0.85  0.001301262    1.409    0.290
        22 -11.2209    101.5854     13.1407   2.9076160168e+02   7.0522950050e+00   0.03729345   0.01774732 -37.37  0.002488802    2.694    0.629
        23 -13.0403     99.6293      5.7081   2.9074560082e+02   7.1497488442e+00   0.02704005   0.02024948 -67.02 0.0003764213    1.438    0.305
        24 -10.8904    203.2214     37.5589   2.8962520007e+02   6.1865091294e+00   0.02767879   0.01964488  -8.40  0.002821112    1.651    0.394
        25 -10.9127    124.1450      2.9577   2.9042407362e+02   7.0414949787e+00     0.019107   0.01466538   4.75 0.0003746853    1.367    0.268
        26 -11.8122     68.6408     20.6842   2.9121470701e+02   7.1527244195e+00   0.06801673   0.03299475   0.74  0.003555635    3.518    0.716
        27 -11.0339    147.6780     25.8946   2.9025496595e+02   6.6405260742e+00   0.04489722   0.02772875   7.67  0.004245334    1.836    0.455
        28 -10.3560     54.6402     18.1127   2.9137590340e+02   7.2623556513e+00   0.02722239   0.01712985 -24.44  0.001594914    1.998    0.499
        29 -10.7841     26.2391      4.8642   2.9165941559e+02   7.5777610412e+00   0.03594135   0.01272329 -47.67  0.002658446    3.030    0.670
        30 -12.2311     19.1406     13.6882   2.9179620139e+02   7.5156358200e+00    0.0504185   0.04329593  44.00   0.00498977    1.152    0.132
        31 -11.7235     77.8930      7.5392   2.9102746416e+02   7.2525853234e+00   0.03072871   0.02049636 -40.21 0.0009007286    1.634    0.388
        32 -12.0064     28.5168     26.8626   2.9175034579e+02   7.3093596653e+00   0.08222786   0.03616391 -50.94  0.006939746    2.318    0.569
        33 -12.3261     41.6649     17.0874   2.9153271157e+02   7.3481205205e+00   0.06376018    0.0359819 -63.87  0.006052524    1.873    0.466
        34 -12.4199     50.4338     10.9533   2.9138963492e+02   7.3694401006e+00   0.02416564   0.01675897  16.31 0.0007526039    1.429    0.300
        35 -11.8763      8.1394     26.5872   2.9200390906e+02   7.4282851881e+00   0.05998972   0.02408505  16.86  0.004421721    2.888    0.654
        36 -11.6088     69.4205      4.4660   2.9111675484e+02   7.3365805963e+00   0.04087346    0.0251918  -0.60   0.00376415    2.022    0.505
        37 -11.9011     58.0997      4.3117   2.9125758652e+02   7.4028892705e+00    0.0611741    0.0169846  33.14  0.004315752    2.943    0.660
        38 -11.0029      9.1800     19.2588   2.9195113180e+02   7.5074952354e+00   0.02876043   0.01401064  24.36  0.002524145    1.928    0.481
        39 -11.1379      2.5735      3.0022   2.9194564444e+02   7.7337443974e+00   0.02645602   0.01524321  10.31  0.001741988    1.955    0.488
        40 -11.4516      2.8668     18.6959   2.9202711696e+02   7.5498522899e+00   0.02272554   0.01479013 -56.60  0.001661819    1.588    0.370
        41 -12.4865      6.6377     11.8473   2.9194274966e+02   7.6079893912e+00   0.07148108   0.02694388 -38.96  0.004769918    3.886    0.743
        42 -11.8174      3.5563      8.3197   2.9196219313e+02   7.6664315396e+00   0.03405368   0.01588501 -46.13  0.002889619    2.314    0.568
        43 -10.3743    167.7774     24.9451   2.8999876936e+02   6.5363420815e+00   0.04203208   0.02482814 -19.46  0.003668981    2.349    0.574
        44 -11.8423    184.8142     26.4538   2.8979431439e+02   6.4210847508e+00   0.03228995   0.01795191 -40.52 0.0009720185    2.042    0.510
        45 -11.8600     88.1699     32.6805   2.9103566990e+02   6.9020102138e+00   0.09286458   0.02578581 -69.55  0.005487075    4.992    0.800
        46 -10.1970    243.0608     12.4340   2.8899136784e+02   6.2488899188e+00   0.02193682   0.01482664 -63.17  0.001488718    1.566    0.361
        47 -10.7001    244.7125     19.8094   2.8901106056e+02   6.1538568832e+00   0.02432352   0.01936655  34.14  0.001833087    1.178    0.151
        48 -10.0735    230.6456     19.0322   2.8918213694e+02   6.2438196673e+00   0.03164267   0.02168797 -56.14  0.003309337    1.515    0.340
        49 -11.9871    223.6985      2.5162   2.8917857537e+02   6.4753221437e+00   0.03159234   0.02359339  64.32  0.003361152    1.546    0.353
        50  -9.7337    229.9102      3.2190   2.8910496088e+02   6.4314310142e+00   0.02058097   0.01175879 -31.96  0.001825895    2.207    0.547
        51  -9.6988    236.9649     14.5126   2.8907869139e+02   6.2598754044e+00   0.01656804   0.01105102  39.66  0.001696529    1.431    0.301
        52 -10.7692    233.0446     11.4377   2.8911076708e+02   6.3180935078e+00   0.02007698    0.0158247 -77.30 0.0004495144    1.420    0.296
        53  -9.4599    221.8885     11.3048   2.8924913397e+02   6.3838173695e+00   0.01967062    0.0140134  66.69  0.001450096    1.689    0.408
        54  -9.9133    217.0779     14.6591   2.8932743606e+02   6.3725773003e+00   0.02542682   0.01391703 -50.45  0.002371969    1.891    0.471
        55 -10.2428    212.4859     14.5807   2.8938428015e+02   6.3998886531e+00   0.02349721    0.0139776 -73.77  0.002135012    1.963    0.491
        56 -10.4069    202.2613     18.7734   2.8953470657e+02   6.4100126732e+00   0.02671964   0.01729657 -25.18  0.002170114    1.902    0.474
        57  -9.8806    185.1037     14.3100   2.8972446851e+02   6.5603405269e+00   0.02284527   0.01283867  12.68   0.00205481    1.966    0.491
        58  -8.9166    178.6903     14.4130   2.8980509103e+02   6.5959599325e+00   0.01476922   0.01171145 -36.06   0.00098808    1.351    0.260
        59 -10.3998    189.9853      8.2582   2.8963051940e+02   6.6025207759e+00   0.01388955   0.01148462   8.94 0.0003647897    1.211    0.174
        60 -10.7144    196.1428      4.5052   2.8953319031e+02   6.6106841668e+00   0.03150256   0.02929622 -83.60   0.00382108    1.167    0.143
        61 -11.5260    204.2034      6.6055   2.8944407303e+02   6.5400032993e+00   0.02700708   0.02033859 -25.58  0.001077268    1.492    0.330
        62 -11.8043    209.5904      3.6363   2.8936065634e+02   6.5434733772e+00   0.02951983   0.01580996  36.81 0.0005382864    1.726    0.421
        63 -10.6856    247.8493      5.9601   2.8889633736e+02   6.2963786591e+00    0.0296235   0.02272158  57.74  0.003224423    1.425    0.298
        64  -9.5041    157.6500      7.2306   2.9002866942e+02   6.7999956468e+00    0.0138532  0.009566162  53.63 0.0007129673    1.581    0.367
        65  -9.2096     32.7015      4.2052   2.9157492742e+02   7.5486770453e+00   0.02762646   0.01132665   8.43  0.001717864    4.294    0.767
        66  -8.2094    238.4883      7.4685   2.8902123566e+02   6.3327870200e+00  0.006819453  0.006398081  14.66 7.953421e-05    1.028    0.028
        67  -8.7431    241.7238      1.4236   2.8894789119e+02   6.3842422295e+00   0.01312569  0.005890422  30.00  0.001110239    1.991    0.498
        68  -8.3430    189.7457      1.3594   2.8959586327e+02   6.6839205130e+00  0.009285465  0.006238295  12.02 0.0006773534    1.552    0.356
        69  -8.6297    145.9959      1.2141   2.9014146612e+02   6.9366041885e+00  0.008624386  0.005248224  24.80 0.0008257218    1.538    0.350
        70 -12.1273     28.2041     84.7143   2.9206791455e+02   6.6388108607e+00    0.0612331   0.04528188 -43.86  0.006613642    1.429    0.300
        71 -11.1563      3.2626     89.3632   2.9240494605e+02   6.7263545069e+00   0.03286223   0.02044824 -53.18  0.002942578    1.655    0.396
        72 -11.5323      4.4747     80.6483   2.9234263688e+02   6.8208110488e+00   0.03473041   0.02665718 -42.64  0.003169709    1.376    0.273
        73  -9.1593     34.3073    246.3389   2.9286442734e+02   4.7236284584e+00  0.007193023  0.004982982 -26.87 0.0005037502    1.681    0.405
        74 -12.1573     17.4395    102.6336   2.9229948680e+02   6.4915778637e+00   0.06286924   0.04243728  81.49  0.006113623    1.937    0.484
        75 -11.2934     21.5543     96.4907   2.9221480930e+02   6.5396507523e+00   0.02708349   0.02003547  -8.84  0.001677575    1.535    0.348
        76 -12.1735     20.6379     43.0414   2.9193671724e+02   7.1661724239e+00   0.03818357   0.02367849  48.86   0.00104509    1.711    0.415
        77 -10.9918     15.9829     33.9985   2.9194593018e+02   7.2976695704e+00   0.03122378   0.02274821 -79.89  0.003303824    1.589    0.371
        78  -9.8969     92.0788    120.1261   2.9146163018e+02   5.8633313930e+00   0.01848181   0.01255629 -31.40  0.001781864    1.689    0.408
        79  -9.5905     41.6793    118.2979   2.9208130312e+02   6.1716491817e+00   0.01215537  0.008648621  37.93 0.0005831456    1.332    0.249
        80  -9.1683     39.3045    115.6320   2.9209654984e+02   6.2161614955e+00   0.01333187  0.008969543  83.74 0.0008969081    1.942    0.485
        81  -9.2034    118.6729    115.8914   2.9110659763e+02   5.7607665707e+00   0.01234807   0.00927129   8.11  0.001315098    1.379    0.275
        82  -9.9107    106.1575    116.1955   2.9126450815e+02   5.8287026470e+00   0.02558728  0.009888344  17.11    0.0018222    3.055    0.673
        83  -9.8407     97.8692    114.8153   2.9136052032e+02   5.8920581656e+00   0.01667483   0.01397983  13.67  0.001012867    1.162    0.140
        84 -10.3631    132.6290    111.2215   2.9090702636e+02   5.7353056430e+00   0.03628495   0.01538519 -56.59  0.003037424    2.338    0.572
        85  -9.4248    133.9834    102.4979   2.9084273770e+02   5.8289760684e+00   0.01546661   0.01021091  46.32  0.001557484    1.542    0.351
        86  -8.6752     45.4577    113.0407   2.9200563482e+02   6.2113071708e+00   0.01130233  0.008404495  24.49 0.0009556512    1.261    0.207
        87  -8.9203     93.2513    111.3604   2.9139945333e+02   5.9585807800e+00   0.01635076    0.0102787  -1.04  0.001517434    1.958    0.489
        88  -9.4110     34.8750    109.1257   2.9211669005e+02   6.3170186346e+00   0.01715694   0.01575943 -41.93  0.002062686    1.139    0.122
        89  -8.8337     38.6358    107.2564   2.9205957189e+02   6.3173788656e+00  0.009723203  0.007579325 -32.19  0.000817721    1.392    0.282
        90  -9.6612    105.6875    109.3399   2.9123317986e+02   5.9111021969e+00   0.01632332   0.01493821  31.10  0.001755524    1.036    0.035
        91  -9.7694    120.4907    108.7051   2.9104489487e+02   5.8339370874e+00   0.01476347   0.01055513  48.86 0.0009938816    1.446    0.308
        92 -11.6002     38.7556     90.6546   2.9196817287e+02   6.5097619471e+00   0.07075994    0.0432374 -37.41   0.00677413    1.864    0.464
        93  -8.8831     97.5097    103.8594   2.9130557631e+02   6.0215041831e+00    0.0153009  0.007275216  41.32  0.001311062    2.043    0.511
        94  -8.7368    183.6397    101.6724   2.9021865252e+02   5.5542830024e+00  0.007386562  0.004979026 -23.31 0.0007042105    1.790    0.441
        95  -9.1548    151.0925    100.4831   2.9061823758e+02   5.7545190929e+00   0.01156536   0.00943546  66.04  0.001286332    1.369    0.269
        96  -8.8647    140.8436    101.1109   2.9074956711e+02   5.8058631106e+00   0.01053863  0.009095601  49.62 0.0007370677    1.178    0.151
        97  -9.9345    114.6677     96.2923   2.9105020838e+02   6.0115124661e+00   0.01240891   0.01097173  28.36 0.0006362359    1.059    0.056
        98  -9.1758    114.5153    100.4779   2.9107483838e+02   5.9637242098e+00   0.01391548   0.01183698  81.70  0.001025024    1.328    0.247
        99 -10.4475    117.5348     98.4822   2.9102629588e+02   5.9696749337e+00   0.02708264   0.01595793  22.22  0.002055943    1.624    0.384
       100  -7.8462     55.6306    101.2808   2.9181482082e+02   6.2901877894e+00   0.00736851  0.004721438  51.19 0.0007013362    1.692    0.409
       101  -9.8739    159.1351     96.7472   2.9049756148e+02   5.7518979305e+00   0.01731252   0.01519792  17.33  0.001375086    1.087    0.080
       102 -11.1563     81.3846     69.0511   2.9131812586e+02   6.5181440724e+00   0.04920664   0.01983115  18.48  0.001685643    2.723    0.633
       103  -9.6956    188.0957     93.3618   2.9011786139e+02   5.6253002807e+00   0.01918845   0.01500935  79.84  0.001690007    1.511    0.338
       104 -11.3428    118.7984     86.2859   2.9094426817e+02   6.1042267905e+00   0.04261427   0.02252224  39.04   0.00235019    1.786    0.440
       105 -10.1457     89.6656     78.1388   2.9126397323e+02   6.3652792140e+00     0.029738   0.01369575  18.11   0.00243286    2.302    0.566
       106 -11.5216     96.6353     62.7304   2.9109318173e+02   6.5045803289e+00    0.0450238   0.02881457 -18.24  0.003512807    1.997    0.499
       107 -11.2790    105.8581     53.7449   2.9092908112e+02   6.5563164906e+00   0.07006168   0.02981967  14.55   0.00425418    2.885    0.653
       108 -10.0237    141.9910    243.5842   2.9150756107e+02   4.1424027267e+00   0.01446175   0.01218479  -0.27 0.0004752965    1.226    0.184
       109 -12.4868    102.7411     81.5680   2.9111921858e+02   6.2507889425e+00   0.07106751   0.04891958  73.00  0.005754874    1.849    0.459
       110  -9.2700    211.3907    240.3988   2.9062621783e+02   3.7828286299e+00   0.01293412  0.006181085 -58.85  0.001126466    2.117    0.528
       111 -10.3566    147.6643     35.1043   2.9030530645e+02   6.5336795500e+00   0.05354405   0.01298498  22.85  0.003143944    4.353    0.770
       112 -10.7219    130.6968     40.2956   2.9054553568e+02   6.5705323314e+00   0.04564141   0.01511389 -55.95  0.003443337    2.879    0.653
       113 -10.5808    135.2308     34.1037   2.9045517931e+02   6.6164901605e+00   0.01749341   0.01285977  17.11 0.0004822646    1.329    0.248
       114  -8.9907    206.5634     91.2941   2.8987633488e+02   5.5433894587e+00   0.01292513  0.007028232 -72.88  0.001116224    2.169    0.539
       115 -10.6602    102.3159     70.7490   2.9106576220e+02   6.3789610900e+00   0.02601016   0.01828704  77.47  0.002004291    1.802    0.445
       116  -9.0637    194.1638     90.2505   2.9002525412e+02   5.6266474565e+00   0.01212201  0.009081515 -47.29  0.001037251    1.399    0.285
       117  -9.2106     74.2647     88.9659   2.9151518880e+02   6.3272397512e+00   0.01576249  0.009817576  22.79   0.00139182    1.524    0.344
       118  -9.1094     76.8907     85.0973   2.9146138458e+02   6.3572470717e+00   0.01651809  0.009814744 -65.63   0.00113643    1.804    0.446
       119 -10.0354    152.9836     87.4592   2.9052382643e+02   5.8950547513e+00   0.01548685   0.01255689   8.10 0.0009176735    1.246    0.198
       120  -9.1364    237.9691     86.5218   2.8945897949e+02   5.4184787496e+00   0.01094521  0.006411643  24.49   0.00103675    1.604    0.377
       121  -9.7347    161.1052     82.3417   2.9039462698e+02   5.9080135956e+00   0.02775061   0.01583838  48.97  0.002565819    1.894    0.472
       122 -10.5940    134.3318     80.8074   2.9072051066e+02   6.0790887808e+00   0.02856318   0.01584838 -65.01  0.002672985    1.923    0.480
       123  -9.8475    217.5371     79.7626   2.8967673937e+02   5.6143272764e+00   0.03461978   0.00920711 -48.65   0.00222737    3.976    0.749
       124  -9.7702     17.2076     82.3287   2.9219249933e+02   6.7290097870e+00   0.01728964    0.0104665  15.97  0.001464519    1.688    0.408
       125  -9.3207    123.1581     81.0892   2.9086158138e+02   6.1397086857e+00   0.01655513  0.009694813   7.39  0.001394377    2.004    0.501
       126  -8.2350    188.3252     79.6958   2.9004060992e+02   5.7827430146e+00  0.007216966  0.004862233  54.24 0.0005219367    1.643    0.391
       127 -10.4080    150.1353     75.0802   2.9049205037e+02   6.0552031822e+00   0.03262743   0.01413717 -52.15  0.002736071    2.330    0.571
       128 -10.5703    144.3073     76.5121   2.9057260052e+02   6.0719263703e+00    0.0285097   0.01740788  -4.53  0.002569288    2.139    0.532
       129  -9.9687    132.4548     68.2647   2.9067575120e+02   6.2355743341e+00   0.02758037   0.01188236  36.54  0.002127942    2.103    0.524
       130 -10.1722    138.6517     74.0802   2.9062998992e+02   6.1325485628e+00   0.02439706  0.009452343 -64.83  0.001905697    2.743    0.635
       131  -9.6178    155.3115     69.8982   2.9039923818e+02   6.0857696117e+00   0.03087491   0.01018409 -58.43  0.002318752    2.903    0.656
       132 -10.2344    150.7754     67.1166   2.9044073210e+02   6.1440609716e+00   0.02333262   0.01434673   3.69  0.002162598    1.943    0.485
       133  -9.6266    143.7573     71.0022   2.9054949702e+02   6.1390945446e+00   0.01299692   0.01250422 -35.98 0.0007464748    1.089    0.082
       134 -10.2981    139.6264     68.1759   2.9058570576e+02   6.1955741206e+00   0.02302296   0.01997015 -31.92  0.001874547    1.216    0.178
       135  -8.9646    113.0018    239.2133   2.9184512339e+02   4.3586376982e+00   0.01023642  0.007568143  70.84  0.001059356    1.622    0.383
       136 -11.2771    141.3958     40.6207   2.9041364666e+02   6.5055198870e+00   0.03776486   0.02832185  32.43  0.003568066    1.241    0.194
       137  -9.6004     36.9679     75.6134   2.9190902758e+02   6.6948051713e+00   0.01265824   0.01141015 -18.82 0.0006499657    1.153    0.133
       138  -9.5125     18.2271     73.9998   2.9213464956e+02   6.8200550015e+00   0.01561873   0.01304189 -82.39  0.001778169    1.340    0.254
       139  -8.9230     20.6300     71.7846   2.9209259911e+02   6.8321602491e+00   0.01250264   0.01080325  76.28  0.001269295    1.292    0.226
       140  -8.8286    192.5868     73.7206   2.8995491927e+02   5.8277007428e+00   0.01251336  0.006409739 -60.09   0.00112358    2.002    0.500
       141  -9.5649    214.9864     71.5228   2.8966363813e+02   5.7246553493e+00     0.016227   0.00975393 -57.43  0.001142055    1.713    0.416
       142 -11.7495    125.0716     66.3873   2.9075775987e+02   6.2996140787e+00   0.05906086   0.02896796 -56.43  0.005284823    2.057    0.514
       143  -9.8743      3.1937     57.6861   2.9223435136e+02   7.0950046015e+00   0.02603503   0.01829246  71.89  0.002633541    1.775    0.437
       144 -10.0027      4.7144     70.4623   2.9228450762e+02   6.9378721198e+00   0.02554921   0.01619026  49.87   0.00141199    1.688    0.408
       145  -9.0490      8.3211     50.6298   2.9213196974e+02   7.1479205664e+00   0.03186134   0.01453611  47.41  0.002587689    2.444    0.591
       146 -11.8735     16.0493     61.9497   2.9209661641e+02   6.9724937598e+00   0.05095022   0.02379153  13.86  0.003386535    2.514    0.602
       147 -10.7052     12.9365     56.5922   2.9210652996e+02   7.0524335814e+00   0.01947848    0.0112343  33.06  0.001870813    1.586    0.369
       148 -10.3237    250.2434     67.2210   2.8920088159e+02   5.5719778833e+00   0.03042073  0.008118899 -60.39  0.002082957    3.506    0.715
       149  -8.8339    202.0727     68.4980   2.8980816748e+02   5.8339195971e+00   0.01003898  0.009449366 -64.32 0.0007258037    1.134    0.118
       150  -9.7022    149.5671     59.7657   2.9041581472e+02   6.2363736420e+00   0.02833354   0.01506414  84.69  0.002150615    3.317    0.699
       151  -9.8908    173.7778     48.7369   2.9005351420e+02   6.2257245235e+00   0.04860364   0.02121808  15.79  0.003742325    2.662    0.624
       152  -9.5950    178.1301     60.3702   2.9006256545e+02   6.0656726216e+00   0.01421727   0.01123121 -35.97 0.0006193815    1.357    0.263
       153 -11.2823    174.1595     56.2721   2.9008979635e+02   6.1360328618e+00   0.02675784    0.0250015  -1.41 0.0009754521    1.074    0.069
       154 -11.8550    142.0217     51.4594   2.9046483263e+02   6.3760567987e+00   0.04999714   0.02121042  15.44  0.003085188    2.815    0.645
       155 -11.6772    164.3744     62.5880   2.9024631874e+02   6.1187684005e+00   0.03424477   0.02724072 -41.14   0.00225426    1.330    0.248
       156 -10.4370    164.4703     57.0451   2.9021494259e+02   6.1825986302e+00    0.0253817   0.01801042 -27.03  0.001963928    1.622    0.383
       157  -8.6602    189.2960     64.9896   2.8994841291e+02   5.9479805124e+00  0.009264712  0.008879413 -77.30  0.000559815    1.121    0.108
       158  -8.7576    135.5494     63.8849   2.9061327927e+02   6.2687567250e+00  0.009936933  0.006819736 -65.66 0.0008096192    1.561    0.359
       159  -9.9542     78.2092     61.7139   2.9131797848e+02   6.6215245474e+00    0.0236173   0.01803596 -73.86  0.002538119    1.452    0.311
       160  -8.7773     75.7990     46.4114   2.9126499547e+02   6.8130796392e+00   0.01095454  0.008096996 -55.66 0.0006842244    1.410    0.291
       161  -9.7800     71.7784     54.6644   2.9136009704e+02   6.7401086359e+00   0.02613732    0.0162247  56.20  0.001900123    1.889    0.470
       162 -10.5066     76.3018     52.1900   2.9129010053e+02   6.7430720783e+00   0.02801022   0.01642868  57.16  0.001759746    2.090    0.522
       163 -11.2225     48.1640     25.4200   2.9149664279e+02   7.2143648609e+00   0.02589567   0.01168264  25.57  0.001903515    2.051    0.512
       164 -10.7546    150.5641     51.0880   2.9035612882e+02   6.3314570510e+00   0.02220834   0.01421946 -37.06   0.00108697    1.762    0.432
       165 -10.7472    222.1531     48.4476   2.8944850605e+02   5.9513608262e+00     0.024078   0.02014832  89.41  0.002336388    1.357    0.263
       166 -10.0419    222.1620     57.2002   2.8949612325e+02   5.8497170107e+00   0.01958674   0.01617756 -76.28  0.001642855    1.336    0.252
       167  -8.8188    185.6618     61.2993   2.8997365032e+02   6.0116850686e+00  0.007274249  0.004825665  53.42 0.0005693964    1.661    0.398
       168  -9.7320     13.0174    238.6850   2.9308865541e+02   4.9335699554e+00   0.01003804   0.00849969  20.31 0.0006760519    1.119    0.107
       169  -8.9669     24.4952    235.4932   2.9292837232e+02   4.9055717297e+00  0.006823666  0.006412487  19.64 0.0008106148    1.011    0.011
       170 -10.7167     99.6364     38.9352   2.9092631874e+02   6.7638945072e+00   0.04636684   0.01613293 -56.53  0.000906299    2.763    0.638
       171  -9.6300     12.3459    232.5372   2.9306395312e+02   5.0089291903e+00   0.01407331  0.009888479  64.00  0.001084509    1.690    0.408
       172  -8.2409    227.3066    231.3427   2.9037907722e+02   3.7970046427e+00  0.007210511   0.00498316 -26.93 0.0007042598    1.689    0.408
       173 -10.7864    107.4475     30.2061   2.9078118525e+02   6.8206512844e+00   0.05181578   0.02282476  20.67  0.004220649    2.293    0.564
       174  -9.3841    136.5129    225.0157   2.9147538468e+02   4.3896557374e+00   0.01296895  0.007063878 -73.40 0.0009534359    2.176    0.541
       175  -8.1996    244.5209    204.5093   2.9001927886e+02   4.0102396923e+00  0.006821292  0.006417187  15.26 0.0008101341    1.024    0.023
       176  -8.8907    234.3684    200.8014   2.9012546359e+02   4.1115006302e+00  0.009983948  0.005956621 -52.14 0.0009562431    1.727    0.421
       177 -10.2697     26.6360    192.0006   2.9266733021e+02   5.3995872105e+00    0.0205233   0.01695854 -62.79   0.00234407    1.284    0.221
       178 -11.2727     18.0277    186.2299   2.9274364251e+02   5.5156232775e+00   0.02390921   0.01790358 -13.38  0.001033826    1.518    0.341
       179 -10.7839      5.8104    185.8085   2.9289385586e+02   5.5898521239e+00   0.03239602   0.01223528  46.93  0.002325319    3.112    0.679
       180  -9.2112      1.7020    177.5722   2.9290074689e+02   5.7090044481e+00   0.01135594  0.008164915  75.46 0.0008950612    1.722    0.419
       181  -9.3219     38.9724    176.6514   2.9243053913e+02   5.5081189178e+00   0.01309317   0.01039761 -82.21   0.00113648    1.430    0.300
       182  -9.5638     62.7928    167.7915   2.9208534096e+02   5.4757202864e+00   0.01486514   0.01262435 -88.10  0.001106919    1.323    0.244
       183  -9.1885      8.9205    167.4076   2.9275582015e+02   5.7863498610e+00   0.01440021  0.009174551   7.83  0.001072313    1.741    0.426
       184  -9.3991     13.4506    164.9862   2.9268619544e+02   5.7888213392e+00   0.01456347  0.009969704  26.78  0.001509098    1.357    0.263
       185 -10.4665      2.5281    159.8877   2.9279507758e+02   5.9101164599e+00   0.03251233   0.01587247 -74.79  0.002697921    2.581    0.613
       186 -10.3526     21.7952    138.4637   2.9243877292e+02   6.0500555106e+00   0.02109557   0.01210864 -11.26  0.001762762    2.535    0.605
       187  -9.1727    158.3740     58.7257   2.9030019656e+02   6.1980099454e+00   0.02180564   0.01155231 -34.18  0.001844995    2.414    0.586
       188 -10.2559    201.2506     57.3542   2.8975769794e+02   5.9680359216e+00   0.02749771   0.01536787 -41.00   0.00241012    2.016    0.504
       189  -9.7683     60.7719     54.4133   2.9149636578e+02   6.8057433057e+00   0.01736338   0.01527884 -73.27  0.001391881    1.232    0.189
       190 -10.2155    186.5968     53.2043   2.8991788309e+02   6.1003214677e+00   0.02123974   0.01182687 -34.15  0.001868635    2.227    0.551
       191  -9.9616    188.8800     48.9000   2.8986594032e+02   6.1371953923e+00   0.01562083   0.01331951  83.80 0.0003482699    1.324    0.245
       192 -10.0315    236.9392     50.9378   2.8927780480e+02   5.8374594971e+00   0.03267198  0.009098816 -61.94  0.002249211    3.495    0.714
       193 -12.1221      4.8868    116.1670   2.9252956057e+02   6.4054075997e+00   0.04778434   0.02005417 -49.25  0.003906186    2.472    0.595
       194  -8.8734    192.8857     53.9128   2.8984328267e+02   6.0560063053e+00   0.01062888  0.007321239  51.53 0.0003846039    1.551    0.355
       195 -10.6279    157.2165     51.5054   2.9027533555e+02   6.2885016422e+00   0.04786832   0.02567769 -23.55  0.003818015    2.829    0.647
       196  -8.5805     65.4882     50.0289   2.9141358173e+02   6.8298209439e+00   0.01090081  0.008511833  27.51 0.0009313056    1.193    0.162
       197 -10.1646    207.1133     44.2117   2.8961293623e+02   6.0869380592e+00   0.03225347    0.0207633  42.21  0.003248426    1.516    0.340
       198 -10.0056    194.6849     30.9415   2.8969560980e+02   6.3123345644e+00   0.01693319   0.01261619 -46.61 0.0009779346    1.410    0.291
       199 -10.7939     16.5930    158.6804   2.9261292643e+02   5.8443626014e+00   0.02787229   0.01646443 -25.71  0.002483805    2.222    0.550
       200 -10.4106    199.9053     31.3995   2.8963297643e+02   6.2770388257e+00   0.02010238   0.01283437  48.71 0.0003905797    1.646    0.392
       201  -9.8851    105.1940     44.5362   2.9088730845e+02   6.6670889705e+00   0.01942888   0.01647701 -34.69  0.002238733    1.247    0.198
       202  -8.7659    248.6949     44.8529   2.8909814648e+02   5.8404464772e+00   0.01124511   0.00837488 -37.84  0.001035144    1.451    0.311
       203  -9.3990    232.4722     43.4971   2.8929288189e+02   5.9494900681e+00   0.01848692  0.009592836 -28.23  0.001121515    2.833    0.647
       204  -9.8802    233.7581     39.8218   2.8925680344e+02   5.9847408489e+00   0.02838935   0.01473707 -29.32  0.002271646    2.768    0.639
       205 -11.9469     19.7166    147.9280   2.9251586207e+02   5.9517423157e+00   0.04082366   0.03291442 -25.18  0.003054919    1.348    0.258
       206  -8.9379     55.5854    155.2354   2.9210742899e+02   5.6628340870e+00  0.009810416  0.006004638 -50.12 0.0009490245    1.696    0.410
       207  -9.1933     67.6242     44.9910   2.9135950807e+02   6.8761824801e+00   0.01113977  0.009107132   8.23 0.0004812705    1.230    0.187
       208  -9.1037     67.3821     41.2503   2.9134221590e+02   6.9210215124e+00   0.01529258  0.006985311 -72.73  0.001219489    2.716    0.632
       209  -8.4787     49.0177     45.7948   2.9159659454e+02   6.9728159208e+00  0.008776532  0.005157163  25.01 0.0003585259    1.590    0.371
       210  -8.7037    167.5032     44.0817   2.9010647668e+02   6.3157547865e+00   0.01003703  0.006810176 -63.90  0.001024287    1.565    0.361
       211  -8.0769      1.5552     44.4403   2.9218310002e+02   7.2582276619e+00  0.006807284  0.006330337   0.19 0.0001146632    1.073    0.068
       212  -8.7635    219.1730     60.8449   2.8955325213e+02   5.8245814428e+00   0.01342735  0.009852021  13.05 0.0005850113    1.374    0.272
       213  -8.9715    214.9702     42.0896   2.8950338477e+02   6.0664300564e+00   0.01133541  0.007802845 -24.47  0.001063962    1.722    0.419
       214  -8.9772    196.5287     41.5210   2.8973029291e+02   6.1789547522e+00   0.01195578  0.008960455 -73.78  0.001280644    1.485    0.326
       215 -10.4464    191.5857     39.5417   2.8978117224e+02   6.2303066736e+00   0.02585809   0.01661498 -31.44  0.001102509    1.838    0.456
       216 -10.8926    162.1288     38.7625   2.9014459638e+02   6.4083243398e+00   0.02395761   0.01301749 -60.79  0.002234704    1.903    0.475
       217  -9.8344    180.6893     39.0301   2.8991435767e+02   6.2987788355e+00   0.02027839   0.01438541  56.49  0.001788884    1.568    0.362
       218  -9.2265     77.0669     41.3018   2.9122137779e+02   6.8652111689e+00   0.01287617  0.008032344  38.16 0.0009324704    1.512    0.339
       219  -8.8209    173.1472     38.8231   2.9000736772e+02   6.3444452018e+00   0.01062615  0.008492333  49.78 0.0007253448    1.283    0.220
       220  -9.6790    168.6523     36.2622   2.9004952562e+02   6.3999531416e+00   0.01389804   0.01295994  59.40  0.001092865    1.123    0.110
       221  -8.4807    221.8514     36.1132   2.8938498843e+02   6.0962347206e+00  0.009701989  0.007874982 -22.16  0.001071442    1.343    0.255
       222 -10.1638    210.8371     32.6371   2.8950336850e+02   6.1998754877e+00   0.02818192   0.01323849 -50.54  0.002315306    2.189    0.543
       223 -11.1886    237.7796     32.4955   2.8916670630e+02   6.0466083096e+00   0.03378987   0.01863431  23.37  0.002754427    1.724    0.420
       224 -10.2365    246.3290     33.1016   2.8906348636e+02   5.9903856958e+00   0.02337457   0.01465464  -1.79 0.0005749384    1.996    0.499
       225  -8.7833     52.9649    151.3541   2.9211916089e+02   5.7229023995e+00   0.01003509  0.008475913  22.31  0.001072994    1.115    0.103
       226 -10.7016     34.8600    150.0248   2.9233806129e+02   5.8413217338e+00   0.02044156   0.01536058  25.69   0.00107102    1.243    0.196
       227 -10.8370     38.9442    145.7958   2.9226419775e+02   5.8673106269e+00   0.02269409   0.01800657 -67.52  0.001570938    1.355    0.262
       228  -9.5393      1.0000    145.4525   2.9273627897e+02   6.0867492687e+00   0.02523222  0.006698044 -63.76  0.001667105    3.797    0.737
       229  -9.8659      4.9247    147.3375   2.9269742880e+02   6.0425576941e+00    0.0180795   0.01120652  15.38  0.001375914    1.652    0.395
       230  -9.9144      6.7968    142.7843   2.9264946556e+02   6.0849155613e+00   0.02778658   0.01419534  36.02   0.00252253    1.796    0.443
       231 -12.1169     36.7843     27.5870   2.9165081155e+02   7.2539405441e+00    0.0201116   0.01246535  27.36  0.001994538    1.490    0.329
       232  -8.7575     60.2684    147.6386   2.9200786868e+02   5.7245655604e+00  0.009561342  0.006265392  12.26 0.0005272392    1.595    0.373
       233  -9.7287     67.0505    148.4841   2.9192776083e+02   5.6761173824e+00    0.0128844  0.009721604  80.35 0.0008992371    1.600    0.375
       234  -9.4578     48.5188    138.1506   2.9210327572e+02   5.9018083790e+00   0.03222797  0.008163515  38.06  0.002124516    3.415    0.707
       235 -10.4407     19.0048     25.9955   2.9186469348e+02   7.3734738216e+00     0.017491   0.01239706   1.67 0.0003221046    1.563    0.360
       236  -9.5491     54.5880    137.7619   2.9202537120e+02   5.8717996448e+00   0.01331539   0.01028725  56.77 0.0009845747    1.403    0.287
       237 -11.1171     55.1783    131.4902   2.9198406001e+02   5.9413987478e+00   0.03488088   0.01496449 -61.95  0.002912457    2.383    0.580
       238  -9.1203     64.6790    138.4439   2.9190303809e+02   5.8064229791e+00   0.01405139  0.005800575  30.10  0.001145849    2.141    0.533
       239 -10.0851     12.6490    117.2599   2.9243845639e+02   6.3486513519e+00    0.0242676   0.01228406  35.22  0.002181914    1.802    0.445
       240  -9.0022     27.8665    115.9232   2.9224105587e+02   6.2777851294e+00   0.02566344  0.009045154 -62.72  0.001619668    2.877    0.652
       241  -9.8117     18.7376    119.9517   2.9237692068e+02   6.2827764126e+00   0.02892506   0.01645491 -37.60  0.002122701    2.049    0.512
       242 -10.5744     26.6052    127.3855   2.9231880403e+02   6.1516162667e+00   0.03432204    0.0225422 -48.33  0.003498877    1.592    0.372
       243  -9.5396     38.9012     32.8725   2.9165301565e+02   7.1805047593e+00   0.02287967   0.01014554  11.50  0.001681881    2.987    0.665
       244 -10.5061    226.5315     28.7546   2.8928649023e+02   6.1547035647e+00   0.02882909   0.01851961  80.66  0.002697114    2.139    0.532
       245 -10.4493      3.9845    135.6727   2.9264620140e+02   6.1836106229e+00    0.0262829   0.02040768  60.64  0.002473433    1.429    0.300
       246  -8.7528    170.5221     27.5155   2.8997851103e+02   6.4907653185e+00  0.009397849  0.005990968  34.97 0.0002718972    1.453    0.312
       247 -10.7384    177.2765     29.2485   2.8990363641e+02   6.4319040090e+00   0.02445455   0.02074298 -58.67  0.001876583    1.245    0.196
       248  -9.6128      9.1031    134.8558   2.9257784076e+02   6.1640772599e+00   0.01404095  0.009959918  24.58 0.0004768135    1.321    0.243
       249  -9.1491    141.4540     30.9493   2.9036025184e+02   6.6174889284e+00    0.0103377  0.008721277  26.03 0.0005217781    1.108    0.097
       250  -8.5696    120.2066     28.6523   2.9061324385e+02   6.7657523402e+00   0.01451681  0.009053553  81.07  0.001310789    2.269    0.559
       251 -11.5963     13.1221    128.8840   2.9249536670e+02   6.2107451267e+00   0.04069554   0.02744647  85.47  0.003998792    1.923    0.480
       252  -9.1884    192.7605     25.1632   2.8968810921e+02   6.3904424220e+00   0.02040537  0.009515643 -32.07  0.001488384    3.286    0.696
       253 -10.6388     20.2032    128.4996   2.9240481525e+02   6.1750168361e+00   0.02478286   0.01838518  18.02  0.001053183    1.306    0.235
       254  -9.5644    241.1264     23.7448   2.8907723358e+02   6.1288557472e+00   0.01587757   0.01203842  77.31 0.0009303237    1.585    0.369
       255  -8.6206     86.6649    134.6486   2.9160794287e+02   5.7252991050e+00  0.007395723  0.004946675 -25.98  0.000704607    1.786    0.440
       256  -9.0086    239.6191     19.1570   2.8907097031e+02   6.1907378195e+00   0.01414227  0.006811521 -63.89  0.001226404    2.190    0.543
       257  -9.0730    219.5567     25.2341   2.8935423968e+02   6.2356523477e+00   0.01326355  0.008774729  27.53 0.0006922309    1.400    0.286
       258  -8.6107    201.3441     25.2934   2.8958172060e+02   6.3396315672e+00   0.00880597  0.006551663 -79.76 0.0005816785    1.546    0.353
       259 -10.0236     97.9722     22.3492   2.9085690072e+02   6.9660211576e+00   0.01463761   0.01155958  22.60 0.0006260792    1.194    0.162
       260  -8.5318     98.4834    135.5170   2.9146509335e+02   5.6477936894e+00  0.006831743  0.006406598  22.98  9.25948e-05    1.000    0.000
       261 -11.1847     65.1110    130.3654   2.9185390927e+02   5.8979377971e+00   0.02630089   0.01489162  25.75  0.002491964    1.641    0.391
       262  -8.5738     78.5271    127.5315   2.9167100503e+02   5.8544703908e+00  0.009633032  0.006746938 -85.43 0.0009670226    1.734    0.423
       263 -10.5941     72.3087    128.8269   2.9175568195e+02   5.8748356869e+00   0.02126199   0.01826676 -66.15  0.001652104    1.245    0.197
       264  -9.5663     74.4937    124.9946   2.9170763511e+02   5.9069624019e+00   0.01832396   0.01092718  25.18  0.001269874    1.565    0.361
       265  -8.7551     95.5004    130.9423   2.9147753987e+02   5.7180196395e+00   0.01043275  0.006749798 -62.34  0.001041798    1.625    0.385
       266  -9.8728    214.8992     21.0070   2.8938925230e+02   6.3114679962e+00   0.02125364   0.01418643  28.36  0.001576878    1.385    0.278
       267 -10.5679     38.3187    127.0864   2.9217084188e+02   6.0885276115e+00   0.01688283   0.01183643 -12.39 0.0009219325    1.693    0.409
       268 -10.7507     67.5758    122.5944   2.9178103986e+02   5.9742895341e+00    0.0381862   0.01700924 -37.50  0.002895314    3.003    0.667
       269 -10.1166     67.9789    115.7716   2.9173904409e+02   6.0513487062e+00   0.01863793  0.008262984  43.33  0.001527096    2.285    0.562
       270  -9.3523    197.7538     16.8405   2.8958040028e+02   6.4583340907e+00   0.01533149   0.01032168  13.45 0.0009619967    1.526    0.345
       271  -9.8873    177.9209     20.0855   2.8984563147e+02   6.5345511831e+00   0.01459572   0.01303707  81.86  0.001207422    1.236    0.191
       272 -10.6165     48.1112    125.7482   2.9204126341e+02   6.0484048638e+00   0.01737033   0.01078415  22.83  0.001709037    1.529    0.346
       273  -8.8027     61.5676     15.8143   2.9127672887e+02   7.2495842451e+00  0.008012064   0.00661562  84.64 0.0001361345    1.390    0.281
       274 -11.2379     70.6035    107.9569   2.9166390819e+02   6.1272807233e+00    0.1030844   0.02188589  25.06  0.006058102    4.297    0.767
       275  -8.3452    192.4291     12.4825   2.8962306942e+02   6.5394783341e+00  0.006756875  0.006405663  15.77 9.213531e-05    1.022    0.021
       276 -11.8806     86.4951     94.3138   2.9139137817e+02   6.1953300610e+00   0.08164143   0.05578768 -56.75  0.006077509    1.518    0.341
       277 -11.2363     26.9122     52.1001   2.9190733591e+02   7.0252638282e+00   0.02960579   0.01669107 -31.84   0.00260973    2.245    0.555
       278 -11.4199      4.8083     99.4767   2.9244031724e+02   6.5999766905e+00   0.06758229   0.03910322  59.77  0.006023381    2.229    0.551
       279 -10.6750     27.8577    102.0220   2.9216594958e+02   6.4395165583e+00   0.02942311    0.0259349   1.99  0.002953231    1.142    0.125
       280 -12.0273     12.2092     87.7380   2.9228428093e+02   6.6944900974e+00   0.03593788   0.02001046  49.38  0.002893911    1.969    0.492
       281  -8.9289     11.1934    248.7842   2.9316570866e+02   4.8263828594e+00   0.01226285  0.006012935  56.24  0.000948789    2.795    0.642
       282 -12.3629     53.3635     87.5158   2.9176855712e+02   6.4631498840e+00     0.108926   0.03974079 -46.65  0.008104935    3.014    0.668
       283 -10.9855     78.5539     75.6014   2.9138906644e+02   6.4581506939e+00   0.04695064   0.02028803  26.24  0.001840072    2.122    0.529
       284 -10.5782     68.2834     76.1815   2.9152059007e+02   6.5099494960e+00   0.05131689   0.01909913 -56.88  0.004068139    2.612    0.617
       285  -8.6895     25.2789    248.6226   2.9298925992e+02   4.7483233846e+00  0.009408263  0.006310833  12.24  0.000497825    1.547    0.353
