#   1 NUMBER                 Running object number                                     
#   2 MAG_AUTO               Kron-like elliptical aperture magnitude                    [mag]
#   3 X_IMAGE                Object position along x                                    [pixel]
#   4 Y_IMAGE                Object position along y                                    [pixel]
#   5 X_WORLD                Barycenter position along world x axis                     [deg]
#   6 Y_WORLD                Barycenter position along world y axis                     [deg]
#   7 A_WORLD                Profile RMS along major axis (world units)                 [deg]
#   8 B_WORLD                Profile RMS along minor axis (world units)                 [deg]
#   9 THETA_WORLD            Position angle (CCW/world-x)                               [deg]
#  10 FWHM_WORLD             FWHM assuming a gaussian core                              [deg]
#  11 ELONGATION             A_IMAGE/B_IMAGE                                           
#  12 ELLIPTICITY            1 - B_IMAGE/A_IMAGE                                       
         1 -13.5730    207.1006     35.5059   5.2942535629e+01   2.8134991874e+01     1.207498    0.8720782 -22.46  0.004836532    1.322    0.244
         2 -13.6838      5.9918      9.8988   1.0666395866e+02   7.5273424323e+01     1.710675    0.6769764 -51.26  0.008507598    1.892    0.471
         3 -14.0557    227.2729     17.1887   4.5844507875e+01   2.5251097950e+01     1.125383    0.9103924  12.41    0.0013091    1.430    0.301
         4 -11.6314    104.6620    230.0003   1.1314903979e+02   1.7319650171e+01    0.2953832    0.1636405  32.74   0.00153377    1.584    0.369
         5 -11.4164    161.2977    250.0531   1.0522507087e+02   7.2772159682e+00    0.3112336    0.1068155  33.61  0.001627943    2.328    0.570
         6 -11.7626    154.5058    247.4186   1.0608160154e+02   8.4639280887e+00    0.2385102    0.2161063 -32.09  0.002096804    1.517    0.341
         7 -13.8237    142.9176    249.0337   1.0820002335e+02   9.8066103741e+00      1.61478    0.7658007  53.24  0.009223381    2.529    0.605
         8 -14.4428    102.4168    238.2822   1.1426913817e+02   1.6445482639e+01     2.426824    0.3968937  38.37  0.009415735    4.007    0.750
         9 -12.0598     86.5415    248.5822   1.1783843334e+02   1.6995593432e+01    0.8249717    0.2361535  41.27  0.004404445    2.283    0.562
        10 -12.8540     87.7416    239.5376   1.1698313351e+02   1.8104698142e+01     0.809294    0.4982811  61.15  0.005791861    1.543    0.352
        11 -12.7550    114.3364    249.3129   1.1310392877e+02   1.3467838599e+01     1.481211    0.2402281  39.41  0.005956705    3.869    0.742
        12 -12.8496    122.9429    248.9922   1.1159932031e+02   1.2408698027e+01    0.7653639    0.4164521  29.70  0.004800675    1.662    0.398
        13 -14.5436     64.3601    242.7013   1.2131570493e+02   2.0404168689e+01     3.168383    0.9942353  32.41     0.015766    2.997    0.666
        14 -11.2632    244.5967    241.7872   9.1156338951e+01  -2.5888819282e+00    0.1391123   0.08438699 -13.99  0.001071893    1.652    0.395
        15 -10.8587    113.8107    229.9452   1.1147021156e+02   1.6116949885e+01    0.2387051    0.1335142  24.50   0.00139255    2.095    0.523
        16 -13.6897      3.5131    193.2508   1.3035992882e+02   3.4671566714e+01     2.164111    0.5656132  89.77   0.00966989    3.827    0.739
        17 -11.2601     98.6158    230.8447   1.1433012700e+02   1.7983300617e+01    0.3096485    0.1643239  23.69  0.001561871    2.483    0.597
        18  -8.9362     58.7871    226.0167   1.2131690362e+02   2.3558599471e+01    0.1169142   0.07842213 -84.11 0.0005234912    1.655    0.396
        19 -10.4442     99.3497    224.7832   1.1366616331e+02   1.8776247438e+01    0.1880381     0.127951  60.95  0.001310683    1.426    0.299
        20 -11.4946    101.4596    220.3560   1.1286520388e+02   1.9160969500e+01    0.2734776    0.2157075  50.04  0.001190394    1.060    0.057
        21 -11.6982    180.4900    243.2703   1.0129748089e+02   5.4548579764e+00    0.2612222    0.1343565  37.28  0.001719149    1.426    0.299
        22 -10.3350    198.2596    245.3833   9.8679794193e+01   2.9051242304e+00    0.1448663    0.0734253  40.24 0.0005325142    1.618    0.382
        23 -10.5504     72.7626    219.8291   1.1827598685e+02   2.2901670724e+01    0.3347764     0.181687  44.24  0.002171141    1.376    0.273
        24  -9.4907     60.0916    220.2869   1.2070999351e+02   2.4324918916e+01    0.1484338    0.1167913  44.36 0.0004430678    1.183    0.155
        25 -10.4933     50.8324    218.7906   1.2236588892e+02   2.5612349529e+01    0.2962336    0.1270629  62.35 0.0009300648    2.224    0.550
        26  -9.2509     46.5502    214.5351   1.2293048334e+02   2.6787698531e+01    0.2778467   0.05412345  46.97  0.001224114    3.180    0.686
        27  -9.4122     88.1585    213.4463   1.1479066202e+02   2.1989636800e+01    0.1938923    0.1127828  76.66  0.001127177    2.232    0.552
        28 -11.3135     99.4477    248.6612   1.1561649280e+02   1.5416218750e+01      0.41315    0.2677327  45.32  0.003042184    1.103    0.093
        29 -10.3732     63.1740    209.0838   1.1934047989e+02   2.5821541162e+01    0.3038041   0.08095802  46.47  0.001394785    2.715    0.632
        30  -9.7152     56.0919    208.1238   1.2067094744e+02   2.6811047736e+01    0.1562164    0.1316161  46.56 0.0006545795    1.213    0.176
        31  -9.9210     67.4005    206.1989   1.1828258381e+02   2.5806291548e+01     0.263049    0.1055432  60.19  0.001259167    2.780    0.640
        32 -14.7106      6.7398    244.3443   1.3115689190e+02   2.5947017408e+01     2.260647    0.7701396  32.48   0.01398599    2.491    0.599
        33  -9.5950    106.6736    203.4740   1.1014629972e+02   2.1085179820e+01    0.1810199     0.142463 -62.10 0.0005511626    1.544    0.352
        34  -9.6102     88.3920    202.7332   1.1375251721e+02   2.3720926936e+01    0.2739057    0.1392956 -72.21   0.00151332    2.479    0.597
        35  -8.4945     73.6342    204.2635   1.1687401942e+02   2.5369178350e+01    0.1211905   0.06467324  55.91 0.0002507727    1.647    0.393
        36 -10.0414    250.5194    200.4983   8.4146638413e+01   1.8242569593e-01    0.1731703   0.08600505 -11.73 0.0005723199    2.062    0.515
        37 -13.0527      2.7683    224.7173   1.3136216486e+02   2.9330284544e+01    0.7751608    0.3044488 -79.94  0.002807406    2.575    0.612
        38 -10.2091     44.8579    198.3030   1.2227361469e+02   2.9796172785e+01    0.3440483    0.1084554  43.06  0.001745124    2.260    0.557
        39 -12.0232     21.5878    226.8186   1.2811248990e+02   2.7302477877e+01    0.2501239    0.1812277  58.59 0.0004365972    1.057    0.054
        40 -10.9852     38.9901    193.2524   1.2316108808e+02   3.1345922885e+01    0.4820921    0.2043734  65.64  0.002542944    2.333    0.571
        41  -9.6143     34.8830    192.1420   1.2394559655e+02   3.1978501395e+01    0.2447225    0.1418082  56.84  0.001236478    1.358    0.264
        42  -9.9732     30.5116    193.8959   1.2494592473e+02   3.2097221831e+01    0.1474687    0.0939124 -85.27  0.001009103    1.528    0.345
        43 -12.0975     48.2067    191.4940   1.2111999082e+02   3.0670658329e+01    0.2527682    0.2281086  65.07 0.0005442105    1.217    0.178
        44 -10.9390     19.8812    190.6422   1.2696207736e+02   3.3722029933e+01    0.4601666    0.1522596  75.81  0.002086594    3.440    0.709
        45  -8.8403    191.5282    191.5226   9.2246829205e+01   9.7933675852e+00    0.1210885   0.09623951  22.44 0.0001048437    1.008    0.008
        46  -9.4223     57.4443    190.4171   1.1908702008e+02   2.9809593597e+01    0.1151515   0.08960576  58.00 0.0001208567    1.013    0.013
        47 -15.1399     20.2562    219.0163   1.2806657402e+02   2.8699706229e+01     1.355135    0.9104968  53.97   0.01078436    1.064    0.060
        48  -9.4827     52.2269    231.6851   1.2284386840e+02   2.3403998281e+01    0.1676044    0.1449647 -74.59  0.001185745    1.519    0.342
        49 -12.1665     55.6700    183.9508   1.1894424679e+02   3.1231457077e+01    0.2535334    0.1984567  47.79 0.0003980093    1.140    0.123
        50  -9.6799     23.9752    184.2749   1.2579433571e+02   3.4537452240e+01    0.1586585    0.1179847  53.40  0.001162585    1.117    0.105
        51  -9.3611     29.9370    183.5052   1.2448111792e+02   3.4105870329e+01    0.1608694   0.09324235  37.64 0.0006240225    1.549    0.355
        52 -10.1694     36.8630    180.1401   1.2276999918e+02   3.4051142861e+01    0.2290386    0.1999097 -82.07  0.001102733    1.298    0.230
        53 -11.7714     11.9563    171.9921   1.2778431928e+02   3.8011453973e+01    0.3038276    0.1678212  66.76  0.001942671    1.462    0.316
        54 -10.3774     45.5363    177.8081   1.2068686821e+02   3.3574394579e+01    0.2047056    0.1743091  51.70 0.0004362022    1.166    0.143
        55 -12.8285     34.4797    205.4586   1.2476727012e+02   2.9618812397e+01    0.6941945    0.4936154  61.03  0.004150949    1.062    0.058
        56  -8.5145     82.4710    176.4798   1.1227501387e+02   2.9236710732e+01    0.1249252    0.1010543  58.49 8.389955e-05    1.058    0.055
        57 -10.7746    249.1036    172.7445   7.9581560954e+01   3.0842893881e+00    0.2771055    0.1644977  22.38  0.001712898    1.484    0.326
        58 -10.8648     68.2993    172.0056   1.1500720183e+02   3.1994004463e+01    0.2204168    0.1944522 -89.61 0.0004028553    1.173    0.148
        59 -10.6354      3.0931    172.9813   1.2975896036e+02   3.8541596703e+01    0.2269906    0.1532981  50.98 0.0007348984    1.221    0.181
        60 -13.0066      8.1729    165.7469   1.2834376207e+02   3.9575035996e+01    0.7790282    0.4722102  21.82  0.004994767    2.016    0.504
        61 -10.8560     52.7665    170.6932   1.1845707703e+02   3.4162525611e+01    0.2523833    0.2465722  68.29 0.0009769194    1.295    0.228
        62  -9.7805     27.0834    171.3466   1.2437522815e+02   3.6768612471e+01    0.2443821    0.1763315  14.65 0.0009849685    1.921    0.479
        63  -9.4165     18.3330    172.3165   1.2638975839e+02   3.7389738403e+01    0.1633771    0.1402157  79.17 0.0007609162    1.183    0.155
        64 -10.9689     19.9557    168.5033   1.2581874407e+02   3.8007096922e+01    0.2074933    0.1770705  73.68 0.0006381857    1.144    0.126
        65 -10.7598     40.6385    168.1169   1.2104630080e+02   3.6041282040e+01    0.2805738    0.2462493 -60.48  0.002021681    1.419    0.295
        66 -11.0891    245.4226    162.2742   7.8184938285e+01   4.7416485703e+00    0.2573595   0.09998395 -27.55     0.001248    2.420    0.587
        67 -11.5057    249.5906    160.0523   7.7145890134e+01   4.3421260373e+00    0.4205102    0.1431152 -31.00  0.001946377    2.758    0.637
        68 -12.1060     76.4766    164.2631   1.1223701955e+02   3.2452708945e+01    0.4867128      0.39962  46.43   0.00211179    1.128    0.114
        69  -9.3595     49.9196    161.2861   1.1826492023e+02   3.6413636685e+01    0.1642382    0.1314066  53.58 0.0001663462    1.111    0.100
        70  -9.1215     42.9265    160.9796   1.1991802487e+02   3.7261934843e+01    0.1908128    0.1098506  61.96 0.0003495713    1.573    0.364
        71 -11.1652     26.2007    155.9560   1.2356274497e+02   4.0019640922e+01    0.2828825    0.1805242  54.35 0.0009513811    1.324    0.245
        72 -11.9936     21.8491    156.1443   1.2462821667e+02   4.0382597872e+01    0.2842797    0.2129491 -87.00  0.001700301    1.212    0.175
        73 -13.2762     15.3006    120.4660   1.2372995774e+02   4.8817748025e+01    0.6436626    0.3161793 -74.03 0.0007866406    1.742    0.426
        74 -13.3441      6.1793    112.7087   1.2580804373e+02   5.1266178456e+01    0.7042534    0.4845077  46.53  0.004546193    1.435    0.303
        75 -11.5242      2.9831    132.2745   1.2795965449e+02   4.7055006923e+01    0.4538637    0.2877697 -89.19  0.002916011    1.298    0.230
        76 -13.8083      4.2558    122.3680   1.2702929900e+02   4.9184369649e+01     1.029636    0.5748472  62.86  0.006075582    1.583    0.368
        77 -13.3413      9.3218    142.7258   1.2690133934e+02   4.4304175818e+01    0.8116727    0.2321153 -73.65   0.00362607    2.917    0.657
        78 -11.0166     91.6135    149.6475   1.0659571522e+02   3.3241465951e+01    0.3068044    0.2604818  49.28 0.0009900688    1.084    0.077
        79 -11.5393     23.2961    149.6816   1.2383232008e+02   4.1625433894e+01     0.255584    0.2329596  73.69   0.00118284    1.192    0.161
        80  -9.8769     38.8519    148.9087   1.1984904245e+02   4.0264273897e+01    0.1681826    0.1534819 -76.23 0.0003480671    1.244    0.196
        81 -10.3525     79.4614    148.5338   1.0946940566e+02   3.5280287045e+01    0.2181525    0.1867718  56.38 0.0001314818    1.056    0.053
        82  -9.2830    236.1712    145.8692   7.6364751857e+01   8.0840930988e+00    0.1758244     0.123486   6.32 0.0005777614    1.317    0.241
        83 -11.4521     68.3953    143.4928   1.1161220212e+02   3.7901221510e+01    0.5718017    0.2967702  65.53  0.001757865    2.394    0.582
        84 -12.5445    241.3313    120.4514   7.0204399278e+01   1.0236777298e+01    0.8537906    0.4118888  51.99   0.00412299    2.365    0.577
        85 -12.8035    248.2977    134.0526   7.2132791580e+01   7.4323574862e+00     1.039323    0.4020383 -19.26  0.004372273    2.837    0.648
        86 -13.0859    248.2884    101.6618   6.5014200446e+01   1.1228055805e+01     0.996565    0.4627996 -23.16   0.00470637    1.927    0.481
        87 -12.3540    247.5620    112.8869   6.7654839721e+01   1.0028972853e+01    0.5758179    0.4099335  30.41  0.003317296    1.415    0.293
        88 -11.0562    249.7284    151.1936   7.5408475161e+01   5.2789489231e+00    0.2837816    0.2006723 -12.37  0.001835464    1.211    0.175
        89 -10.1425    105.7906    135.4046   1.0064736269e+02   3.3894785275e+01     0.409123    0.2820459  -1.84  0.001775388    2.668    0.625
        90 -11.6571     15.9009    132.8388   1.2453201984e+02   4.5961202691e+01    0.2540367    0.1618947  33.18  0.001042444    1.641    0.391
        91  -9.0612     44.2314    129.9747   1.1642505868e+02   4.3896335894e+01    0.1623225    0.0959571 -74.75  0.000489181    1.573    0.364
        92 -13.1243      3.8154    142.6853   1.2828943089e+02   4.4724746100e+01    0.7991549    0.3801137 -78.32  0.004556238    1.819    0.450
        93 -12.1951    248.0922    142.5285   7.3910987554e+01   6.5028287774e+00    0.4997792    0.3380583  -6.33  0.003038931    1.312    0.238
        94  -9.4288     95.1206    145.3716   1.0505677600e+02   3.3580065996e+01    0.1885598    0.1519183  47.67 0.0005184794    1.143    0.125
        95 -12.3850      2.8567     94.8813   1.2544163750e+02   5.5641920371e+01    0.7723342    0.2166179  88.98  0.002666229    4.162    0.760
        96  -9.6669     45.0214    139.7432   1.1732398184e+02   4.1607610206e+01    0.1726008    0.1460298  62.61 0.0003479388    1.077    0.072
        97 -13.0411     11.0574    154.6398   1.2713200954e+02   4.1626249441e+01      0.51489    0.4747681  62.40  0.004036248    1.262    0.208
        98 -11.8742      8.3290     96.5858   1.2376378165e+02   5.4905580145e+01    0.2474748    0.1643628 -62.64  0.001503586    1.393    0.282
        99 -10.2547    249.8320    117.7926   6.8432504070e+01   9.0523037996e+00    0.2268376    0.1853622 -33.83 0.0007651434    1.351    0.260
       100  -9.8306    162.5062     80.4854   7.3555709444e+01   3.2771153175e+01    0.1500321    0.1456175  -2.04 -2.996905e-05    1.001    0.001
       101 -11.8802      2.8156     68.6879   1.2274579340e+02   6.1892061813e+01    0.3334242    0.1766953 -72.30  0.001826964    1.499    0.333
       102 -10.2661    191.2326    249.5943   1.0030254565e+02   3.4131550339e+00     0.155198    0.0697745  30.56 0.0009565629    1.695    0.410
       103 -12.3955     89.8646    224.3467   1.1540318606e+02   2.0067966455e+01    0.5418677    0.4452328  -9.38  0.003965896    1.910    0.476
