#   1 NUMBER                 Running object number                                     
#   2 MAG_AUTO               Kron-like elliptical aperture magnitude                    [mag]
#   3 X_IMAGE                Object position along x                                    [pixel]
#   4 Y_IMAGE                Object position along y                                    [pixel]
#   5 X_WORLD                Barycenter position along world x axis                     [deg]
#   6 Y_WORLD                Barycenter position along world y axis                     [deg]
#   7 A_WORLD                Profile RMS along major axis (world units)                 [deg]
#   8 B_WORLD                Profile RMS along minor axis (world units)                 [deg]
#   9 THETA_WORLD            Position angle (CCW/world-x)                               [deg]
#  10 FWHM_WORLD             FWHM assuming a gaussian core                              [deg]
#  11 ELONGATION             A_IMAGE/B_IMAGE                                           
#  12 ELLIPTICITY            1 - B_IMAGE/A_IMAGE                                       
         1 -13.5714    206.4232     28.9882   4.8337299417e+01   2.9664028400e+01    0.8242098    0.6675779 -63.01  0.004202444    1.211    0.174
         2 -13.2589    213.6836     21.8078   4.5525839547e+01   2.8697866703e+01    0.6764669    0.4059324  34.88  0.001379401    2.305    0.566
         3 -14.8637      9.4247     19.0428   1.0105031435e+02   7.0456970543e+01     1.661619    0.7573306 -35.70  0.009473407    1.731    0.422
         4 -13.5466    225.2050      8.9732   4.1051967626e+01   2.7298820995e+01     0.712755    0.5764474 -63.49  0.002666417    1.115    0.103
         5 -12.6963    247.0149    230.1518   8.8512909233e+01  -8.7881180174e+00    0.8298078    0.4871176 -11.86  0.005012498    1.761    0.432
         6 -11.9216    218.3083    249.8407   9.6468719593e+01  -6.7131127004e+00    0.5688519    0.2463331  33.08  0.003053437    1.885    0.469
         7 -11.3164    224.5019    250.0000   9.5444197844e+01  -7.6467158753e+00    0.3626491    0.1341553  42.13  0.001809675    2.303    0.566
         8 -12.5328    207.1264    248.3685   9.8167988366e+01  -4.8580300793e+00    0.5588638    0.3965563  27.55  0.003831714    1.101    0.092
         9 -11.7239    210.0107    238.6523   9.6226321586e+01  -4.1521340078e+00    0.4383782    0.2941023  -3.67  0.002032257    1.737    0.424
        10 -11.2243    196.7014    248.9521   1.0005555042e+02  -3.3212319103e+00    0.2883074    0.2046569 -17.85  0.001578408    1.707    0.414
        11 -11.9085    181.1604    249.0617   1.0278506122e+02  -9.0518236124e-01    0.5158626    0.2570136  51.72  0.002710706    2.147    0.534
        12 -11.3102    174.4681    244.0195   1.0329314207e+02   8.1642447042e-01    0.3874373    0.2658233  74.05  0.002147109    2.557    0.609
        13 -10.9561    149.9233    250.1928   1.0842503160e+02   3.8650066236e+00    0.3640553    0.1291722  44.71  0.001734163    2.192    0.544
        14 -14.0925    125.8933    243.5399   1.1192642342e+02   8.5946239212e+00    0.9442343    0.7468415 -34.82  0.006430577    1.838    0.456
        15 -14.2644      8.6023    204.9975   1.2964661437e+02   3.0673840722e+01     2.037914    0.7438495 -86.51   0.01090738    2.380    0.580
        16 -15.2056     62.2855    163.4080   1.1524823040e+02   3.3578580750e+01     1.433192     1.109246  89.52  0.002061447    1.136    0.120
        17 -13.5612     34.6074    213.8874   1.2563285284e+02   2.6312638505e+01     0.380117    0.2997973  41.57  0.001023666    1.532    0.347
        18 -13.7557     37.2008    205.9854   1.2460640879e+02   2.7557372400e+01      0.60519    0.3300924  61.72  0.002632866    1.534    0.348
        19 -14.4678     68.0908    223.7680   1.2039630852e+02   2.0372623903e+01     1.052579    0.5992643  71.29  0.006297825    1.661    0.398
        20 -16.1061     70.0198    206.8669   1.1848810434e+02   2.3331986927e+01     1.851603     1.581069 -54.81   0.01231576    1.545    0.353
        21 -17.1128     52.8262    193.0593   1.2053633471e+02   2.8339506021e+01     4.172523     2.584877  82.33   0.02497415    1.483    0.326
        22 -13.1232      1.8411    228.1792   1.3185253787e+02   2.7000894902e+01    0.5502999    0.1397151 -83.26  0.002644532    3.544    0.718
        23 -13.4880    239.4945    224.9574   8.8906252100e+01  -7.0830809372e+00     1.831057    0.7057121  28.27   0.00806797    2.790    0.642
        24 -14.2544    244.6199    209.9530   8.5399002829e+01  -6.0781097800e+00     1.831525     1.249872   2.65   0.01124342    1.370    0.270
        25 -11.5956    167.9033    236.5364   1.0346216616e+02   2.9143868381e+00    0.5262554     0.312789  21.35  0.002756548    2.184    0.542
        26 -12.1890     26.4758    234.1609   1.2823658086e+02   2.3471918553e+01    0.1782373    0.1213278  65.76  0.000311706    1.071    0.066
        27 -11.9888    199.3934    230.4999   9.6861178783e+01  -1.4252277649e+00    0.6440798    0.3842205 -15.03  0.003429563    2.342    0.573
        28 -12.7799    205.7718    217.6683   9.3638478216e+01  -7.5781270629e-01     1.050061    0.4994282 -46.14  0.004991637    2.820    0.645
        29 -12.2795    159.0188    228.4810   1.0399236106e+02   5.5740862872e+00    0.6062024    0.4428191 -32.62  0.003291967    1.749    0.428
        30  -9.4671     91.2898    233.3342   1.1708081327e+02   1.5455207037e+01   0.09782041   0.09207209   0.38 0.0007020245    1.632    0.387
        31 -14.8959     37.5977    191.3667   1.2339097578e+02   3.0464681632e+01    0.9872846     0.592061  53.07  0.006217786    1.481    0.325
        32 -15.5308     54.9976    239.2495   1.2386704714e+02   1.9283003856e+01     1.513656     0.689203  47.69  0.008837529    1.720    0.419
        33  -9.7815      5.5107    224.5045   1.3111631084e+02   2.7315915331e+01      0.10524     0.069306  72.86 0.0008102693    1.039    0.038
        34 -10.8644    125.7666    222.6674   1.0951216394e+02   1.2017455918e+01    0.3119626    0.1875652  42.75  0.001761469    1.418    0.295
        35 -10.4700     28.7977    222.6678   1.2719834393e+02   2.5298004245e+01    0.1682668    0.1055204  47.70 0.0008568139    1.464    0.317
        36 -12.3248    150.6968    212.1357   1.0324466105e+02   9.6244716142e+00     0.461743    0.4221778 -33.17  0.002805788    1.296    0.228
        37 -12.9341    143.7294    216.1814   1.0518998003e+02   1.0137322509e+01    0.8031798    0.4837419  71.14  0.003768067    2.597    0.615
        38 -12.7048    132.7471    217.4926   1.0750326906e+02   1.1762189833e+01    0.4458034    0.3624393  84.74  0.002833341    1.376    0.273
        39 -15.0599     78.8260    248.3825   1.2055360541e+02   1.4659681069e+01     1.368131    0.5335864  44.28  0.006313205    2.000    0.500
        40 -13.4535    118.5875    212.8637   1.0966481263e+02   1.4915047487e+01     1.167323    0.5926497  49.39  0.005778108    1.713    0.416
        41 -14.2225     66.1407    249.1833   1.2271980140e+02   1.6198825051e+01    0.7075233    0.2820844  43.45  0.003581462    2.011    0.503
        42 -13.0762     37.9318    249.3013   1.2724862183e+02   1.9603089909e+01    0.5122905    0.2433103  59.65  0.002502077    1.566    0.362
        43 -15.9487     13.1915    157.3413   1.2557796242e+02   4.0144485357e+01     5.365597     1.412106 -82.55   0.01891227    4.365    0.771
        44 -12.9690    100.2409    207.2964   1.1260215180e+02   1.8868430272e+01     0.724843    0.5945249 -78.29  0.003710881    1.254    0.202
        45 -11.9957    111.8243    203.5907   1.0981264151e+02   1.7744873492e+01    0.5582521    0.4942464  -7.04  0.003199795    1.612    0.380
        46 -13.5896    197.2573    196.6002   9.1559077178e+01   3.8160817724e+00    0.9351332    0.7366821  47.56  0.004382737    1.318    0.241
        47 -13.3235    237.6104    190.7287   8.3009426658e+01  -2.4398115649e+00    0.6908787    0.3737358  19.46    0.0032433    2.194    0.544
        48 -13.5175    239.9297    163.6920   7.7094578870e+01   1.0476369782e+00    0.7965841    0.4919413 -58.50  0.003321377    3.237    0.691
        49 -13.8262    249.0392    180.2268   7.8955790694e+01  -2.9220572638e+00     1.209652    0.4661746 -28.49  0.005105853    2.608    0.616
        50 -12.0751    219.0632    194.9300   8.7148662664e+01   1.6583913240e-01    0.5262169    0.3035136  20.46  0.002539774    1.974    0.493
        51 -12.0161    150.1019    180.3534   9.8188509829e+01   1.5500171493e+01    0.4935677    0.2192568 -52.07   0.00200231    2.535    0.606
        52 -11.9900    126.9455    173.7282   1.0208159595e+02   2.1131773423e+01    0.3353865    0.1911841  44.40  0.001561079    1.649    0.394
        53 -11.1913     77.4732    167.6349   1.1233944263e+02   3.0558138862e+01    0.2219633    0.2008074 -79.55 0.0004969197    1.134    0.118
        54 -12.2383     83.4889    161.5351   1.1006466150e+02   3.1047986314e+01    0.4072794    0.3093211 -46.66  0.001216362    1.521    0.343
        55 -13.0842     93.4355    154.3241   1.0654020492e+02   3.1147087373e+01    0.9128646    0.7671896 -10.24  0.005010555    1.694    0.410
        56 -13.9772    243.0092    134.5169   7.0090749617e+01   4.9793857697e+00     1.027046    0.2794439 -36.73  0.003400564    3.275    0.695
        57 -13.1288     29.9157    249.3068   1.2849041770e+02   2.0500002038e+01    0.5035181    0.2036599  52.75  0.003208424    1.773    0.436
        58 -10.7706    179.6158    148.1963   8.5304789704e+01   1.5793067204e+01    0.2099862    0.1406851 -29.37 0.0006913373    1.628    0.386
        59 -11.8607     33.8261    129.6200   1.1773489231e+02   4.4612406292e+01    0.3289637    0.1594468  64.00  0.001484804    2.702    0.630
        60 -12.2454     86.7253    144.2261   1.0644771391e+02   3.4533281494e+01    0.2822099    0.2443208 -61.80 0.0004593576    1.127    0.113
        61 -10.8170     96.8362    129.4987   1.0100216635e+02   3.6342715886e+01     0.260376    0.2097941 -31.86  0.001002065    1.461    0.316
        62  -9.7630    106.9066    120.9799   9.6444245873e+01   3.6557343244e+01    0.1704603    0.1656135 -82.15 0.0003977315    1.037    0.036
        63 -13.0909      5.5950    249.5841   1.3214050143e+02   2.2974938699e+01     0.373763    0.2272809  42.79  0.002000688    1.702    0.413
        64 -10.3342    168.1171    113.2308   7.9271814358e+01   2.5295082791e+01    0.3074523    0.2066245 -66.72  0.001225794    2.116    0.527
        65 -13.5508      3.0558    238.9326   1.3210269842e+02   2.5009858798e+01    0.6343986    0.4067395  83.23  0.004980736    1.186    0.157
        66 -11.0985     52.8541     89.8787   1.0506097146e+02   5.1953854556e+01    0.2132897    0.1649615 -39.96 0.0008913149    1.246    0.198
        67 -13.0271     15.1983     44.7184   1.0713510543e+02   6.5193727740e+01    0.4319789    0.2310808 -52.72  0.002517663    1.414    0.293
        68 -13.0319    199.0760     34.3763   5.0819688348e+01   3.0860148752e+01    0.5275173    0.3510724  41.55  0.001733186    1.708    0.414
        69 -10.1677     18.0200    248.9716   1.3028004246e+02   2.1826531284e+01    0.1233924    0.1086696  86.13 0.0006510758    1.549    0.354
        70 -10.8755    163.9685    246.7146   1.0551426974e+02   2.1281465811e+00    0.3024687    0.1810327  41.62  0.001841501    1.306    0.234
        71 -11.3061    183.5443    243.2833   1.0157711907e+02  -5.3855446562e-01     0.292668    0.2617508  86.62  0.001848282    1.596    0.374
