#   1 NUMBER                 Running object number                                     
#   2 MAG_AUTO               Kron-like elliptical aperture magnitude                    [mag]
#   3 X_IMAGE                Object position along x                                    [pixel]
#   4 Y_IMAGE                Object position along y                                    [pixel]
#   5 X_WORLD                Barycenter position along world x axis                     [deg]
#   6 Y_WORLD                Barycenter position along world y axis                     [deg]
#   7 A_WORLD                Profile RMS along major axis (world units)                 [deg]
#   8 B_WORLD                Profile RMS along minor axis (world units)                 [deg]
#   9 THETA_WORLD            Position angle (CCW/world-x)                               [deg]
#  10 FWHM_WORLD             FWHM assuming a gaussian core                              [deg]
#  11 ELONGATION             A_IMAGE/B_IMAGE                                           
#  12 ELLIPTICITY            1 - B_IMAGE/A_IMAGE                                       
         1 -12.3980    210.0307     28.4038   4.0902324732e+01   2.9934158315e+01    0.8528435    0.7141863  15.69  0.002145382    1.546    0.353
         2 -12.3395    199.1497     39.4605   4.5056628170e+01   3.1100317795e+01    0.9704306    0.9216743 -15.39  0.003790789    1.167    0.143
         3  -9.4926     32.6183     12.2388   7.7145323324e+01   6.9368202610e+01    0.1720939   0.09176262 -22.73 0.0009503421    1.662    0.398
         4 -10.6488    237.6488      3.7271   3.2748630756e+01   2.6562760266e+01    0.5236917    0.3619615  41.37  0.003173415    2.036    0.509
         5 -10.6792    232.1028      3.8660   3.3167720069e+01   2.7713687811e+01    0.4018569    0.3586002  80.69  0.002886884    1.206    0.171
         6  -7.9757     54.4411    221.4599   1.1721158515e+02   2.1369274681e+01    0.1683512   0.09216154  48.24 0.0001000155    1.608    0.378
         7 -11.2596     14.4843    190.2615   1.2267903024e+02   3.2160631873e+01    0.2787999    0.2132647  80.27 0.0002420077    1.056    0.053
         8 -13.8394    113.3223    230.6866   1.0645125369e+02   1.1643316923e+01     6.748903     1.933291  33.34   0.02366795    3.878    0.742
         9 -12.0653     54.8855    189.5513   1.1396412168e+02   2.8144858532e+01     2.271275     1.239842 -72.05   0.01178604    1.701    0.412
        10 -14.4011      6.5072    203.5876   1.2514093241e+02   2.9997401155e+01     3.656216     1.215838 -68.26   0.01832546    2.501    0.600
        11 -11.3211     84.7196    222.0869   1.1122926081e+02   1.7367143457e+01    0.7803097    0.3232037  45.96 0.0008734141    2.156    0.536
        12 -11.5274     28.2379    215.7990   1.2181865944e+02   2.5420883577e+01       1.5343    0.4521922 -79.53  0.006249325    3.634    0.725
        13  -7.7875     48.7177    224.7152   1.1859439308e+02   2.1387399185e+01    0.1799287    0.1467162 -34.88 0.0008478612    1.848    0.459
        14  -8.8202     92.4155    216.6409   1.0902023355e+02   1.7383735774e+01    0.2291317    0.1787247  77.68  0.001396969    1.308    0.236
        15  -8.9248     65.8521    207.4663   1.1354266413e+02   2.2866292488e+01    0.2416107    0.1897472 -74.49 0.0009458705    1.226    0.185
        16 -10.1888     49.5531    216.8342   1.1776773915e+02   2.2885265383e+01    0.4944657    0.3682561  69.21  0.003290728    1.150    0.131
        17  -8.1467     58.8408    220.7951   1.1628735576e+02   2.0974066398e+01    0.2727588     0.151111  34.32  0.001351554    1.861    0.463
        18  -9.0851    109.8961    201.2819   1.0322278146e+02   1.7944485073e+01    0.2110851    0.1743297 -74.74 0.0005471773    1.281    0.219
        19  -9.3894     63.3129    200.0559   1.1328131449e+02   2.4782168337e+01    0.4167853    0.1726857 -56.79  0.001021678    2.380    0.580
        20  -8.6886     66.7355    195.6657   1.1203852663e+02   2.5312839741e+01    0.2803081    0.1829815  70.26  0.001518423    1.606    0.377
        21 -15.0577      7.4096    244.1130   1.2712183766e+02   2.1980317237e+01     1.629707     1.401439  67.71   0.01397839    1.300    0.231
        22  -8.3702     99.1991    181.1459   1.0259925774e+02   2.3992448422e+01    0.2059049    0.1860565 -26.93 0.0006402826    1.278    0.218
        23  -8.3539    150.9285    179.4983   9.0263929999e+01   1.5587382477e+01    0.3664928    0.2061344 -67.92  0.001318897    3.305    0.697
        24  -8.1271    144.2992    179.5415   9.1776095793e+01   1.6767608042e+01    0.2658384    0.1734956 -27.34  0.001198846    1.890    0.471
        25 -10.2909     69.0410    175.1741   1.0890512763e+02   2.9688479476e+01    0.3867461    0.2544575 -38.38  0.001944743    1.937    0.484
        26 -10.3732     73.4396    170.1937   1.0712585518e+02   3.0277044221e+01    0.4183124    0.2782371 -44.13 0.0009689871    1.676    0.403
        27 -12.6807     57.7945    240.9664   1.1820498763e+02   1.7187229676e+01    0.7529059    0.3784949  59.18  0.002843548    1.835    0.455
        28  -8.5053    115.3064    174.6770   9.7666616676e+01   2.2863321525e+01    0.1456015    0.1104405  76.93 0.0003947135    1.643    0.391
        29  -9.5878    101.9878    169.9824   1.0006960237e+02   2.6113417052e+01    0.2636864    0.1926178  38.94  0.001350404    1.397    0.284
        30  -9.1643     33.9329    166.2378   1.1619326616e+02   3.5837933831e+01    0.3725946     0.265849  70.40  0.001914878    1.373    0.272
        31 -11.3762     57.8895    129.3313   1.0448822831e+02   4.2244668892e+01     1.056853    0.3654445 -68.37  0.003387129    3.600    0.722
        32 -10.9577     82.0464    161.2332   1.0356228527e+02   3.1213077699e+01    0.6972033    0.4016448  62.22 0.0004260797    2.294    0.564
        33 -11.9905     70.5282    156.4187   1.0572782837e+02   3.3974743615e+01    0.5884097    0.4777638 -22.61  0.001504991    1.560    0.359
        34 -11.9358     68.6687    144.3270   1.0417977940e+02   3.7179380317e+01    0.9985311    0.6480115  74.38   0.00322393    2.057    0.514
        35  -8.6441     32.6669    155.9086   1.1531473954e+02   3.8425786830e+01    0.2653634   0.08439168 -62.25 0.0009111051    2.451    0.592
        36  -7.7458    174.7217    149.3432   7.8494447524e+01   1.7279349918e+01    0.1475445     0.121437 -73.60 0.0003398436    1.627    0.386
        37  -9.3119    134.1445    146.6001   8.7368890898e+01   2.5868995118e+01    0.7578419    0.1570041 -51.11  0.001749614    5.692    0.824
        38  -8.9731     38.5805    146.3116   1.1257133023e+02   4.0176392627e+01    0.2890187    0.1873936  56.56 0.0008223983    1.708    0.414
        39  -9.7173    102.7653    139.8128   9.4008283665e+01   3.3132481806e+01    0.5437534    0.2836214 -32.23  0.001956339    2.781    0.640
        40 -10.6461     90.0849    139.5390   9.7400582013e+01   3.5262724387e+01     0.301683    0.2554168 -36.42 0.0004700666    1.220    0.181
        41  -9.0629     54.0716    147.9690   1.0871155390e+02   3.8096661526e+01    0.4734175    0.1353525 -59.60  0.001709034    2.799    0.643
        42  -7.5953    156.2737    157.6816   8.4532945779e+01   1.9171831006e+01    0.1444551    0.1213171 -84.03  0.000253939    1.567    0.362
        43  -8.9446    106.0309    130.8986   9.1122837856e+01   3.4697848782e+01    0.3226501    0.2441358 -55.46  0.001460058    1.277    0.217
        44  -9.7738     31.3436    130.3739   1.1226938783e+02   4.4769067664e+01    0.3541016    0.2536943  48.15  0.002047849    1.591    0.372
        45  -8.9811    111.4719    130.1860   8.9469893758e+01   3.3897272460e+01    0.2950807    0.2358017  -8.22  0.001025924    1.527    0.345
        46 -10.5920     88.9759    154.3999   1.0058029443e+02   3.1831704943e+01    0.5738236     0.432925  -9.10  0.002624646    1.860    0.462
        47  -9.3303     99.1975    126.0901   9.1900526280e+01   3.7023476312e+01    0.3396992    0.2448324 -23.08  0.001007747    1.696    0.410
        48  -9.9549    117.9548    123.7490   8.6144040198e+01   3.4198315168e+01    0.7393927    0.4222274  -7.62  0.001811818    6.466    0.845
        49 -11.1158     24.1093    119.6173   1.1273453138e+02   4.8013696088e+01    0.4804407    0.2848113   4.05  0.002468119    2.416    0.586
        50  -8.3282    108.1614    119.0948   8.7670986584e+01   3.7097859092e+01    0.2238164    0.1947275 -21.95 -0.0006383859    1.191    0.161
        51  -9.3188    135.0000    111.9879   7.8554426208e+01   3.3443889139e+01     0.443179   0.08626471 -43.80  0.001046661    4.892    0.796
        52  -9.8944    115.8026    108.4263   8.2724474911e+01   3.8100725225e+01    0.3640229    0.2173651 -46.34  0.001543338    1.586    0.370
        53 -10.2383     45.1638    105.9974   1.0375275830e+02   4.9399393527e+01    0.2991371     0.235807 -74.00  0.001698385    1.285    0.221
        54  -8.3072    206.3283    110.3142   6.2554514360e+01   1.8267274080e+01    0.1516055    0.1140191   4.26 0.0007044054    1.673    0.402
        55 -10.1409     32.7375     99.4909   1.0646790938e+02   5.2166760989e+01    0.4770161    0.1371089 -62.88  0.001713014    2.941    0.660
        56  -9.0378    238.5137     96.5052   5.3997180064e+01   1.3974692082e+01    0.1400901    0.1209067 -34.84 0.0008104519    1.017    0.017
        57  -7.8578    158.3204     82.3472   6.4438003788e+01   3.4214662772e+01    0.1607777    0.1194986   8.65 0.0004269837    1.735    0.423
        58  -8.0105     56.5215     66.5010   8.9257138844e+01   5.7026564463e+01    0.1363532    0.1197186 -33.76 0.0001690126    1.101    0.091
        59  -9.3105     59.5229    231.1601   1.1707402346e+02   1.8839304818e+01     0.248858    0.1793488 -81.12   0.00134063    1.341    0.254
        60 -11.9289    189.5140     46.5103   4.8303798584e+01   3.2449984574e+01    0.8818902    0.6374128   9.60  0.001549367    1.911    0.477
        61  -8.9911     44.3824    230.1590   1.1983976779e+02   2.0809643742e+01    0.2368313    0.1498894  74.76  0.001508258    1.423    0.297
        62  -9.3313    143.5156     48.4959   5.7041437666e+01   4.3225397023e+01    0.2795188    0.2418695 -79.03 0.0006837028    1.367    0.268
        63 -11.9729     44.2014    201.2762   1.1745588472e+02   2.6780923038e+01    0.8253261     0.581019 -81.78  0.002892211    1.261    0.207
        64  -8.3699    146.0814     42.9840   5.4701994777e+01   4.3377218283e+01    0.2155278    0.2018708  34.00 0.0004733611    1.037    0.035
        65 -13.6819     34.9863    249.5492   1.2282628488e+02   1.8216352468e+01     2.538013    0.7070752  28.72  0.008547482    7.149    0.860
        66  -8.1778     68.2608     52.2564   7.9876008934e+01   5.8068985918e+01    0.1688058    0.1613022 -43.85 0.0007438358    1.338    0.252
        67  -9.4763     32.4971     19.0509   8.0570954742e+01   6.8435232963e+01    0.1820856    0.1007973 -33.60 0.0007061827    1.574    0.365
        68  -8.4658     77.3936    226.4283   1.1315877111e+02   1.7495597627e+01    0.2033447     0.134893 -74.82 0.0003925518    1.553    0.356
        69 -14.9480      2.7748    114.2289   1.1822951948e+02   5.0753347170e+01     14.57355     1.089013 -71.01   0.03386626    8.130    0.877
