#   1 NUMBER                 Running object number                                     
#   2 MAG_AUTO               Kron-like elliptical aperture magnitude                    [mag]
#   3 X_IMAGE                Object position along x                                    [pixel]
#   4 Y_IMAGE                Object position along y                                    [pixel]
#   5 X_WORLD                Barycenter position along world x axis                     [deg]
#   6 Y_WORLD                Barycenter position along world y axis                     [deg]
#   7 A_WORLD                Profile RMS along major axis (world units)                 [deg]
#   8 B_WORLD                Profile RMS along minor axis (world units)                 [deg]
#   9 THETA_WORLD            Position angle (CCW/world-x)                               [deg]
#  10 FWHM_WORLD             FWHM assuming a gaussian core                              [deg]
#  11 ELONGATION             A_IMAGE/B_IMAGE                                           
#  12 ELLIPTICITY            1 - B_IMAGE/A_IMAGE                                       
         1 -12.3349    199.5265     36.0675   4.7645286105e+01   3.0764114893e+01     1.024184    0.9364577  42.47  0.004204238    1.223    0.182
         2 -12.4400    211.4528     24.0130   4.2993629924e+01   2.9320997205e+01     1.050627    0.7857262  25.47  0.005590386    1.842    0.457
         3  -9.8693     21.7114     17.0085   9.0411620671e+01   7.0122951409e+01     0.173468    0.1257429 -26.12 0.0007743143    1.071    0.066
         4  -9.9852     33.0000      8.4887   8.0620121438e+01   7.0146304816e+01    0.5997277   0.08150022 -38.29  0.001736547    6.737    0.852
         5  -9.8555    235.4644      1.7257   3.5455016599e+01   2.6155463113e+01    0.5696984     0.163678  75.52  0.002209136    3.355    0.702
         6 -10.2493     33.9708    166.2043   1.1920841690e+02   3.6179559977e+01    0.4531841    0.1894742  52.78  0.002119035    2.434    0.589
         7 -12.5723     47.6869    223.7075   1.2140740645e+02   2.2381701818e+01     1.298037    0.6411746  68.18 0.0001773747    1.931    0.482
         8 -11.3778     14.7217    190.4023   1.2532772598e+02   3.2710868611e+01     0.365105    0.2691281  74.15 0.0002614199    1.076    0.071
         9 -13.7548     45.0081    204.9547   1.2042998575e+02   2.6459926329e+01     3.457289    0.9050295  49.63  0.002676982    3.286    0.696
        10 -12.8281     53.1113    194.6621   1.1784470122e+02   2.7659223513e+01     1.473436    0.8477635  53.70  0.008078941    1.563    0.360
        11 -10.5667     88.1643    156.5506   1.0473481296e+02   3.1459260023e+01    0.5254764    0.3951012 -24.63  0.001423075    1.903    0.475
        12 -11.0745     81.6025    162.5397   1.0733771616e+02   3.1052424545e+01     0.783694    0.4758091  67.77 0.0007402031    1.974    0.493
        13 -11.8184     69.6618    158.8433   1.0973371064e+02   3.3630431627e+01    0.6287165    0.4012911 -42.30  0.001261025    1.939    0.484
        14 -11.8703     68.7492    144.3979   1.0771962608e+02   3.7208260217e+01    0.8657874    0.5870587  84.10  0.002692846    1.682    0.406
        15 -10.1645     32.5761    157.0867   1.1857896009e+02   3.8430110296e+01    0.3222451     0.167687 -68.70  0.001538346    1.611    0.379
        16  -7.6638    125.9983    155.2282   9.5042785464e+01   2.5195641125e+01     0.183629    0.1210582  41.98 0.0002300993    1.500    0.333
        17  -8.6892    134.1712    147.5999   9.1449147656e+01   2.5325038372e+01    0.2986257    0.1131514 -51.50  0.001000926    2.738    0.635
        18  -8.5780     38.7317    146.1051   1.1577474191e+02   4.0393370580e+01    0.2101027    0.1768544  55.44 0.0008094531    1.260    0.206
        19  -9.6953     32.0180    145.7496   1.1743075587e+02   4.1150091702e+01    0.2402426    0.1417995  89.46   0.00126838    1.645    0.392
        20  -9.4884    101.9692    141.0973   9.8302017878e+01   3.2847710948e+01     0.532921    0.3095738 -35.00  0.002161356    2.310    0.567
        21  -8.9067     84.3525    143.8994   1.0350368266e+02   3.5063070078e+01    0.2945184    0.2003607  67.28 0.0009972563    1.722    0.419
        22 -10.6174     89.7593    141.0166   1.0152781976e+02   3.4905455035e+01    0.2906121    0.2485105 -49.10   0.00041226    1.193    0.162
        23 -10.6526     59.0026    132.0254   1.0828639953e+02   4.1481403630e+01    0.4730118    0.2278166 -70.70  0.002021845    2.091    0.522
        24  -9.0189    111.4428    131.1937   9.3663494894e+01   3.3482354140e+01    0.2997195    0.2041506  20.67  0.001243515    1.966    0.491
        25  -8.5409    106.1530    130.8818   9.5017307578e+01   3.4526427527e+01    0.2740871    0.2387674  17.02   0.00142813    1.332    0.249
        26  -8.8729     43.5023    129.9949   1.1226106986e+02   4.3764817669e+01    0.2088625    0.1138254 -68.18  0.001026801    1.575    0.365
        27  -9.3809     98.8567    127.2087   9.6199788182e+01   3.6691755001e+01    0.3299604    0.2645467 -12.52  0.001622235    1.630    0.387
        28  -8.2460    107.9489    119.6893   9.1935141442e+01   3.6829846097e+01    0.2023565    0.1924289  36.97 0.0003269497    1.106    0.096
        29  -9.2788     74.6883    189.3539   1.1262152623e+02   2.5970262904e+01    0.2881519    0.1957401  70.76  0.001031937    1.444    0.308
        30  -8.6326     72.3237    186.7061   1.1282497313e+02   2.6881420707e+01    0.2345981    0.1929323 -89.57 0.0006997522    1.096    0.087
        31  -7.9658    168.5245    113.4851   7.4990616955e+01   2.5265621683e+01    0.1572429    0.1522051 -61.17 0.0008090281    1.070    0.065
        32  -9.6267     32.5969    109.0234   1.1205083875e+02   4.9889355768e+01    0.4037175    0.1184887 -69.48  0.001399987    3.380    0.704
        33  -8.3354    205.9726    110.2562   6.6490565086e+01   1.7271516979e+01     0.210916    0.1990389  37.34 0.0006181377    1.111    0.100
        34  -8.8715    115.0000    109.9828   8.7531213247e+01   3.7715115760e+01    0.2639883    0.0854258 -47.77 0.0008073166    2.976    0.664
        35  -9.0842    134.4282    105.6974   8.1142242881e+01   3.4616820092e+01    0.3113827    0.1495283 -47.88  0.001137461    2.097    0.523
        36 -14.3602     65.0062    247.8123   1.2010380621e+02   1.5784205958e+01     6.980667     2.501952  29.77   0.01044719    5.662    0.823
        37  -7.9021     99.6681    180.9359   1.0584123224e+02   2.4051843660e+01    0.1867272    0.1692268 -82.42 0.0005054685    1.088    0.081
        38  -9.0092     33.8114    100.3014   1.1011588427e+02   5.1856484976e+01    0.1936175    0.1607474  62.50   0.00119903    1.400    0.286
        39 -10.3382     68.5790    177.7828   1.1257018488e+02   2.9390020759e+01    0.4010941    0.2679766 -39.10   0.00206107    2.121    0.529
        40  -8.8576     41.6723     91.9477   1.0584065421e+02   5.3070154266e+01     0.190891    0.1478111 -55.18 0.0004374623    1.080    0.074
        41  -7.4342     74.3634     84.7067   9.2992302309e+01   5.0606908703e+01    0.1399284    0.1124781  79.31 0.0007029328    1.707    0.414
        42 -10.2955     73.0035    172.7354   1.1088403673e+02   2.9930326345e+01    0.3343411    0.2452762 -47.83 0.0008955529    1.583    0.368
        43  -8.1746     56.7125     66.6654   9.3835707225e+01   5.6999584711e+01    0.1415147   0.09249932 -25.70 0.0007017049    1.628    0.386
        44  -7.6229    100.7030     58.7074   7.6051852842e+01   5.1234710922e+01    0.1466807    0.1098589   4.06 0.0001996153    1.561    0.359
        45  -8.4564     39.9992    177.7184   1.1900388596e+02   3.2921449086e+01    0.1747248    0.1407849  75.43 0.0005865282    1.067    0.063
        46  -9.6615    145.9740     50.4427   6.1291515372e+01   4.2297410246e+01    0.5421543    0.3432256 -80.68  0.002024784    2.789    0.641
        47 -10.6048     93.3255    167.4163   1.0524397284e+02   2.8114752655e+01    0.6141133    0.1805816  49.68  0.001864088    4.187    0.761
        48 -11.3662    190.6469     42.8668   5.0799311239e+01   3.2085700057e+01    0.4613605    0.4220644 -88.02  0.001119953    1.052    0.049
        49  -8.3260    173.5040    244.9653   9.9826811493e+01   9.6137210945e-02    0.1562678     0.121164 -39.71  0.001029401    1.579    0.367
        50 -10.2137     73.6336    231.1027   1.1717393427e+02   1.7652278585e+01    0.3273661    0.1491132  40.70   0.00134453    1.916    0.478
        51  -8.6743    147.8772     44.0486   5.8760622295e+01   4.2767669027e+01     0.217421    0.2115919  78.05 0.0004312564    1.058    0.055
        52  -9.5578     32.7981     35.0030   9.2645150848e+01   6.5961464067e+01    0.4000107   0.09567481 -51.55  0.001287694    4.776    0.791
        53 -15.1518     10.4416    241.7877   1.2889771078e+02   2.3088664087e+01     2.251696     1.649558  43.53  0.003646137    1.530    0.346
        54 -15.4587      6.4330    204.0221   1.2772749682e+02   3.0651517291e+01       16.598      1.31464 -76.80   0.01497005    9.896    0.899
