#   1 NUMBER                 Running object number                                     
#   2 MAG_AUTO               Kron-like elliptical aperture magnitude                    [mag]
#   3 X_IMAGE                Object position along x                                    [pixel]
#   4 Y_IMAGE                Object position along y                                    [pixel]
#   5 X_WORLD                Barycenter position along world x axis                     [deg]
#   6 Y_WORLD                Barycenter position along world y axis                     [deg]
#   7 A_WORLD                Profile RMS along major axis (world units)                 [deg]
#   8 B_WORLD                Profile RMS along minor axis (world units)                 [deg]
#   9 THETA_WORLD            Position angle (CCW/world-x)                               [deg]
#  10 FWHM_WORLD             FWHM assuming a gaussian core                              [deg]
#  11 ELONGATION             A_IMAGE/B_IMAGE                                           
#  12 ELLIPTICITY            1 - B_IMAGE/A_IMAGE                                       
         1 -13.8402      5.3648     12.7112   1.3207636912e+02   7.3684909558e+01     4.674681    0.5709617 -60.02      0.01523    4.239    0.764
         2 -14.6882      8.4003    150.6554   1.5062845378e+02   4.1224377081e+01     11.70507     3.426236  59.14   0.04998134    3.387    0.705
         3 -13.6497    192.3648     23.6697   7.2808895731e+01   3.4094860702e+01     1.720723     1.437046  21.45   0.00766863    1.270    0.212
         4 -13.2946    206.6567      6.3137   6.6018499574e+01   3.2266094624e+01     1.020593    0.8942385  41.05  0.006167922    1.228    0.185
         5 -10.1423     20.2863    212.1186   1.5091278066e+02   2.8499546000e+01    0.2979758    0.2107424  16.32  0.001979814    1.874    0.467
         6 -10.5714    248.7735    249.0796   1.1411076390e+02  -3.2444165490e+00    0.2022091    0.1365769  28.15  0.001635068    1.468    0.319
         7 -10.8542    174.6710    249.6033   1.2597652209e+02   5.5436050859e+00    0.2253314    0.1572225  42.59  0.000948727    1.505    0.336
         8 -13.2120    135.7161    245.1120   1.3218650094e+02   1.0905578615e+01    0.9384027    0.3394228  32.01  0.004981294    2.259    0.557
         9  -9.6546      2.2817    249.3591   1.5503697677e+02   2.4124535826e+01    0.1827563    0.1187988  68.13  0.001202084    1.225    0.184
        10  -8.4984     66.5118    243.0530   1.4417386220e+02   1.9172633185e+01    0.1204882   0.09138392  89.76 0.0005109267    1.495    0.331
        11 -11.4501    184.5216    237.4949   1.2286100529e+02   5.6093461517e+00    0.3013052     0.240419 -73.73   0.00204106    2.876    0.652
        12 -10.0419     19.5378    247.3243   1.5225164791e+02   2.3009462460e+01    0.3149538    0.1564774  32.49  0.002189057    1.758    0.431
        13 -12.7903      9.9745    207.0792   1.5263110672e+02   3.0212486629e+01    0.8608499    0.5188637  35.87  0.004598767    1.504    0.335
        14 -11.0615     12.6811    197.2958   1.5177459375e+02   3.1726085281e+01    0.3501528    0.1832454  62.82  0.001576258    1.539    0.350
        15 -11.3415     64.7916    201.6548   1.4167230628e+02   2.5984648221e+01    0.2098681    0.1974375 -43.66 0.0005213235    1.377    0.274
        16 -10.3421     37.3657    213.6431   1.4780423163e+02   2.6709581958e+01    0.3018889    0.2237867  32.70  0.002056015    1.371    0.271
        17 -13.9952     45.5248    229.5558   1.4712445199e+02   2.3332733590e+01    0.8634952    0.8316584 -41.98  0.004752767    1.493    0.330
        18  -9.7294    192.4258    193.8659   1.1518593240e+02   9.7295056090e+00    0.4375511    0.2472389 -59.18  0.001502313    7.254    0.862
        19 -11.6644     70.7233    193.0600   1.3972789846e+02   2.6856091994e+01    0.2164151    0.2107586 -35.28 0.0004650807    1.291    0.225
        20  -9.9852     95.1596    241.1563   1.3900503491e+02   1.6292054532e+01    0.1478076    0.1191844  32.49 0.0003813324    1.176    0.149
        21 -11.4320      6.8062    188.0292   1.5258290662e+02   3.3880732767e+01    0.5390127    0.1639712 -75.32  0.002791137    2.985    0.665
        22 -10.6877     80.3573    179.8290   1.3634106000e+02   2.8172736362e+01    0.2019838    0.1849817  55.56 0.0003771368    1.057    0.054
        23 -13.1572     67.4489    177.9079   1.3902529647e+02   3.0087913723e+01    0.4467564     0.259982 -43.52  0.001989835    2.315    0.568
        24 -10.1515     28.7824    249.2896   1.5081832270e+02   2.1919390787e+01    0.2900334    0.1049189  45.53   0.00194597    1.801    0.445
        25  -8.8360     32.5817    228.7274   1.4938076651e+02   2.4684517150e+01    0.1262027   0.07423387  73.65 0.0005066787    1.559    0.358
        26  -8.4487    209.3563    179.7678   1.0969823037e+02   8.9851419289e+00    0.1082475   0.09065145  42.69 0.0002490779    1.574    0.365
        27 -11.5526     87.3343    170.2317   1.3364778061e+02   2.9141425196e+01    0.5309383    0.4684339 -23.08   0.00352261    1.388    0.280
        28 -10.0287      4.3769    227.5240   1.5420637346e+02   2.7264823388e+01     0.226208    0.1489755  29.99  0.001846494    1.589    0.371
        29  -9.8400    172.7681    222.1967   1.2294817709e+02   8.9377142976e+00    0.1642309    0.1101558  14.40  0.001086293    1.401    0.286
        30  -9.7926     99.2420    153.6733   1.2852172843e+02   3.0818525495e+01    0.2369746    0.2318908 -55.67 0.0007788693    1.089    0.081
        31 -11.8299     88.1898    153.1246   1.3116144107e+02   3.2489745253e+01    0.2565911    0.2287574 -23.91 0.0005997742    1.318    0.241
        32  -9.8942    134.5565    147.3499   1.1894343858e+02   2.6486752803e+01    0.5640489    0.2068369 -55.37  0.001915401    3.922    0.745
        33 -12.2824     67.1901    143.7543   1.3520751264e+02   3.7211527615e+01    0.6484493    0.4125538  62.58  0.002743608    1.709    0.415
        34  -8.9830    102.0761    149.4868   1.2716282164e+02   3.1259533540e+01    0.1872917    0.1733152 -58.51 0.0003248105    1.129    0.114
        35  -9.6083    110.3713    138.2796   1.2313249505e+02   3.2297168058e+01     0.392733    0.2356066 -25.13  0.001667467    2.598    0.615
        36  -8.7972     87.0250    136.9198   1.2896522044e+02   3.6116052182e+01    0.2090905    0.1468004  65.00 0.0007472013    1.650    0.394
        37 -10.3758     97.9312    135.5901   1.2585668523e+02   3.4807858194e+01    0.2339267    0.2022517 -40.50 0.0004183066    1.219    0.180
        38  -8.4068    192.2021    144.0516   1.0588591750e+02   1.6824570468e+01    0.1714083    0.1011749 -30.54 0.0004534972    1.665    0.399
        39  -8.4956    174.4624    137.9422   1.0813478038e+02   2.1031673513e+01    0.1829538    0.1214933 -59.63    0.0008084    2.483    0.597
        40  -9.1764    107.3557    124.6507   1.2125508108e+02   3.5674178660e+01    0.1738027    0.1520896 -12.93 0.0005459017    1.265    0.209
        41  -9.4455     27.8929    221.9976   1.4993005068e+02   2.6189406881e+01    0.1806126    0.1550044  10.44  0.001284865    1.644    0.392
        42 -10.0401    167.9544    112.9282   1.0365701547e+02   2.6585045369e+01    0.3294695     0.281658 -65.65  0.001003889    1.568    0.362
        43  -8.9355    203.2210    111.5785   9.6306772119e+01   1.9680679499e+01    0.1950383    0.1229884  31.85 0.0006706672    1.620    0.383
        44 -12.6249     39.6339    236.8790   1.4850851863e+02   2.2765126114e+01     0.237021     0.218704 -83.49 0.0007799072    1.418    0.295
        45  -9.0990    156.4579     75.5033   9.5749086096e+01   3.5653828649e+01    0.1555627    0.1421071  -3.72 5.747066e-05    1.031    0.030
        46  -8.3015      9.3197    249.2926   1.5393403159e+02   2.3573346604e+01   0.07055986   0.06785107  19.14 0.0003850362    1.606    0.377
        47 -10.3920     28.8378     60.6094   1.3359407638e+02   6.0992558959e+01    0.2545996    0.2265393  54.17 0.0004896908    1.320    0.243
        48  -9.4803     19.9794     57.5071   1.3678241076e+02   6.2400417638e+01    0.1707321    0.1298689  16.18 0.0009124017    1.577    0.366
        49  -9.7796     33.3714    218.3047   1.4877356076e+02   2.6300587960e+01    0.1770926    0.1587877 -16.72  0.001329934    1.685    0.406
        50 -10.2427    237.8140    246.8408   1.1546058201e+02  -1.8197771354e+00    0.1299135   0.09686036  19.77 0.0008240988    1.326    0.246
        51 -11.1779    141.0462    249.8078   1.3172264422e+02   9.6777258243e+00    0.3465441    0.1760127  37.59   0.00213162    1.448    0.310
