#   1 NUMBER                 Running object number                                     
#   2 MAG_AUTO               Kron-like elliptical aperture magnitude                    [mag]
#   3 X_IMAGE                Object position along x                                    [pixel]
#   4 Y_IMAGE                Object position along y                                    [pixel]
#   5 X_WORLD                Barycenter position along world x axis                     [deg]
#   6 Y_WORLD                Barycenter position along world y axis                     [deg]
#   7 A_WORLD                Profile RMS along major axis (world units)                 [deg]
#   8 B_WORLD                Profile RMS along minor axis (world units)                 [deg]
#   9 THETA_WORLD            Position angle (CCW/world-x)                               [deg]
#  10 FWHM_WORLD             FWHM assuming a gaussian core                              [deg]
#  11 ELONGATION             A_IMAGE/B_IMAGE                                           
#  12 ELLIPTICITY            1 - B_IMAGE/A_IMAGE                                       
         1 -14.1358    135.5809    126.0910   1.1002288048e+02   3.0417336998e+01     2.470982    0.3649694 -49.55  0.004862896    8.109    0.877
         2 -14.9247    161.7070     43.9343   8.0134861339e+01   3.9791250879e+01     1.403118     1.121664 -11.61  0.003632187    1.416    0.294
         3 -13.5952    172.9123     16.1360   6.9346761646e+01   4.0351006991e+01    0.8580902    0.4874618  87.93  0.002918867    2.046    0.511
         4 -14.7505    175.5706      9.8851   6.7040724549e+01   4.0304357521e+01      1.84815    0.9254821  79.88  0.006577128    2.091    0.522
         5 -12.4184    170.1657    183.3908   1.1419502425e+02   1.1840108886e+01    0.3358209    0.2841503  58.23  0.001030485    1.201    0.168
         6 -20.1480     77.1566    175.9463   1.3295386264e+02   2.9591201752e+01     16.54602     6.349246 -66.71   0.07033988    2.587    0.613
         7 -14.2075    173.0800    189.1787   1.1464538240e+02   1.0269174917e+01    0.8373744    0.4503646 -39.16  0.003930491    2.125    0.529
         8 -13.4256    175.3752    185.6475   1.1355964844e+02   1.0446947416e+01    0.7071815    0.3889852 -63.42  0.002727304    3.190    0.687
         9 -11.0212    139.7225    250.0005   1.2953975278e+02   6.2898625325e+00    0.2280391    0.1593015 -78.86  0.001479383    1.950    0.487
        10 -11.1127    146.3914    188.6526   1.1996161136e+02   1.5356242010e+01    0.2883716    0.2076337   0.89 0.0009214167    2.397    0.583
        11 -11.7644    136.2325    243.0010   1.2936942548e+02   7.8699167307e+00    0.5349173    0.3991925  22.47  0.002786926    1.726    0.421
        12 -11.4763    199.8049    162.0480   1.0414066454e+02   9.7445142615e+00    0.5705643    0.4194753  66.06   0.00284169    1.763    0.433
        13 -13.8084    204.5123    176.3311   1.0614299016e+02   6.4289131652e+00    0.9924114    0.6360126 -56.86  0.004706905    2.227    0.551
        14 -11.4475    202.3256    170.3117   1.0535653601e+02   7.8424502360e+00    0.2551323    0.1937487 -20.29 0.0006156505    1.419    0.295
        15 -11.7250    205.2653    169.0043   1.0453449782e+02   7.4844549748e+00    0.4738247     0.287024 -48.00  0.001825866    1.913    0.477
        16 -12.5403     30.6243    182.4698   1.4348804868e+02   3.3987608322e+01    0.2156856    0.1779744  68.76 0.0004051451    1.185    0.156
        17 -11.6946     27.8204    179.7949   1.4384197586e+02   3.4845167765e+01    0.2556494    0.2428575 -40.97  0.001724415    1.605    0.377
        18 -12.2161    159.8118    179.3043   1.1557215705e+02   1.4576926705e+01    0.4095086    0.1986601  30.96   0.00143177    2.783    0.641
        19 -12.2575    199.0511    178.5781   1.0761634419e+02   7.1082263500e+00    0.5670238    0.3490519 -64.22   0.00215187    3.023    0.669
        20 -13.3991    195.4515    168.7926   1.0637072902e+02   9.4546098697e+00    0.5222378     0.466367  63.87 0.0007303077    1.275    0.216
        21 -12.4104    173.1096    175.1346   1.1206701305e+02   1.2755997126e+01    0.2880742    0.1961236  48.80  0.000763975    1.397    0.284
        22 -12.3727    193.4736    164.4759   1.0587527343e+02   1.0598814100e+01    0.4016984    0.3153326  45.74  0.001606643    1.239    0.193
        23 -12.7758    177.0306    170.2101   1.1031681993e+02   1.2875686574e+01    0.4251624    0.2640955 -44.70  0.001608043    1.720    0.419
        24 -11.4545     18.0465    173.5157   1.4535149271e+02   3.7141233228e+01    0.1788694    0.1575431 -67.09   0.00109385    1.446    0.308
        25 -11.4416     26.0571    172.3404   1.4360001505e+02   3.6616359914e+01    0.2486381    0.1771198  64.48 0.0008382861    1.226    0.184
        26 -11.0436    165.6588    172.0492   1.1301155129e+02   1.4795440310e+01    0.1975093    0.1835974 -47.01  0.001150724    1.154    0.133
        27 -12.1607    230.2020    166.8784   9.9568227278e+01   3.0525122578e+00    0.2896626    0.1778926 -44.22  0.001443463    1.833    0.454
        28 -10.3845     20.4791    166.4942   1.4429577147e+02   3.8421952776e+01    0.1419947    0.1169204  17.53 0.0005884924    1.823    0.452
        29 -10.0066    151.3395    241.1238   1.2646312394e+02   5.7411299736e+00    0.1345591    0.1087066 -76.79 0.0003603921    1.584    0.369
        30 -11.0389     28.5891    239.2344   1.4753501148e+02   2.3269790145e+01    0.1481085   0.09030335  74.56 0.0005957427    1.217    0.178
        31 -11.0093    191.6625    157.9193   1.0486118106e+02   1.2129487611e+01    0.3381689    0.2160304  20.21    0.0014634    2.144    0.534
        32 -14.3512    143.4694    143.3289   1.1204562991e+02   2.5063811272e+01     1.222012    0.5336555 -59.27  0.004077591    3.210    0.689
        33 -14.6091    134.2985    146.4952   1.1484400053e+02   2.6241355950e+01     1.633171    0.5672491 -57.66  0.004890064    3.988    0.749
        34 -10.5989     15.5721    246.8193   1.4993119501e+02   2.3363497154e+01    0.1590066   0.06951237  84.43  0.001015533    1.948    0.487
        35 -12.7243    163.0331    155.0141   1.1016705458e+02   1.8615422465e+01     0.352836    0.3305693 -56.05  0.001055907    1.111    0.100
        36 -12.4816    160.3136    152.3258   1.1019159769e+02   1.9714734972e+01    0.3404505    0.2734793 -30.20  0.001066074    1.401    0.286
        37 -10.5116     22.9737    156.0815   1.4284948254e+02   4.0474172298e+01    0.1789277    0.1384244  87.43  0.000458323    1.016    0.016
        38 -11.7331     21.6558    237.6032   1.4856266506e+02   2.4304263729e+01    0.1680293    0.1131639  85.99  0.001308797    1.234    0.190
        39 -11.1365     17.6090    153.5577   1.4382667602e+02   4.1522284785e+01    0.2155977       0.1474  88.97 0.0005791085    1.145    0.126
        40 -12.3634    131.0758    234.8684   1.2936258456e+02   9.9495666226e+00    0.2050203    0.1693296 -74.20 0.0008827324    1.418    0.295
        41 -10.2173      7.0487    149.9890   1.4589290333e+02   4.3189734589e+01    0.1674803    0.1123895 -54.60 0.0006439208    1.700    0.412
        42 -11.6651    174.3171    148.7099   1.0641582574e+02   1.7480716957e+01    0.3415695    0.2700677 -75.28  0.001157356    1.608    0.378
        43 -11.6395     27.5364    145.6669   1.4076595619e+02   4.2382640655e+01    0.3122796     0.200119 -63.40  0.001287631    1.430    0.301
        44 -11.6411    126.9914    250.4131   1.3179161134e+02   8.1931916636e+00    0.1530119    0.1080659  48.38  0.001039575    1.093    0.085
        45 -10.3244    163.2789    249.9977   1.2545056575e+02   2.5949542790e+00    0.1528924    0.1295707  41.33 0.0004093123    1.097    0.089
        46 -12.5539    160.7272    128.2169   1.0466242672e+02   2.4529534014e+01    0.4588122    0.3592746 -58.85  0.001869073    1.366    0.268
        47 -10.1917     17.5830    222.8782   1.4849194343e+02   2.7367994949e+01    0.1118381   0.07470401 -61.18 0.0007829724    1.998    0.500
        48 -11.7026    140.4751    120.5951   1.0751245214e+02   3.0569526766e+01    0.3789512     0.251494  75.58 0.0009923766    2.197    0.545
        49 -10.8744    167.4888    112.5011   9.9231122082e+01   2.6175636364e+01    0.3473103    0.2359404 -80.79  0.001121114    2.348    0.574
        50 -10.8322    130.6800    213.2254   1.2675246510e+02   1.3644996751e+01    0.2972488    0.1834867 -84.04  0.001477458    2.411    0.585
        51 -10.9411    160.2359    247.5006   1.2567474901e+02   3.4155571057e+00    0.2922923    0.1702728  28.15  0.001186017    1.925    0.480
        52 -10.7895    205.2287    110.1761   9.1064499360e+01   1.7792097655e+01    0.3009578    0.2025855  40.37 0.0009126756    1.599    0.375
        53 -11.9957    207.0224    210.5219   1.1191739196e+02   8.0149138704e-01    0.2441901    0.1617928 -58.26  0.001276639    2.461    0.594
        54 -12.9336     11.7748    206.1561   1.4861161897e+02   3.1100418737e+01    0.4479421    0.2371161  39.19  0.002941418    1.950    0.487
        55 -11.5429    139.9486    200.2221   1.2308840338e+02   1.4379048054e+01     0.368235       0.2265  41.21 0.0008678918    1.477    0.323
        56 -13.8539    180.3665    193.4603   1.1396715863e+02   8.1793811818e+00    0.7468089    0.5267062  21.86  0.003975453    1.609    0.378
        57 -14.1226    165.1425    189.0173   1.1620216756e+02   1.1792224219e+01    0.7379529    0.5683932  57.01   0.00413913    1.304    0.233
        58 -10.6250    143.6848     80.9744   9.5831626475e+01   3.8016950816e+01    0.2222166    0.1988663 -40.43 0.0004706325    1.101    0.092
        59 -14.4525    150.2308     58.5346   8.7239903730e+01   4.0448457638e+01     1.233462     1.128008  19.06  0.000945596    1.167    0.143
        60 -13.3301    125.1800    240.9522   1.3110642618e+02   9.9182016164e+00    0.4891874    0.1748738 -54.67  0.002330397    3.401    0.706
        61 -13.0223    165.3739     35.6417   7.6775671054e+01   3.9986234364e+01    0.4194017    0.4033123  33.39  0.000889734    1.088    0.081
        62 -10.9836     13.3939     59.8667   1.3163253563e+02   6.2923424256e+01    0.1637393    0.1565906 -82.66 0.0004243087    1.261    0.207
        63 -10.1444    145.1483     34.1598   8.0061808927e+01   4.5359914952e+01     0.197399    0.1683565 -83.43 0.0003602835    1.312    0.238
        64 -11.7736     12.7907    242.1529   1.5015917762e+02   2.4440151139e+01    0.1530047    0.1162449  85.07   0.00103258    1.302    0.232
