#   1 NUMBER                 Running object number                                     
#   2 MAG_AUTO               Kron-like elliptical aperture magnitude                    [mag]
#   3 X_IMAGE                Object position along x                                    [pixel]
#   4 Y_IMAGE                Object position along y                                    [pixel]
#   5 X_WORLD                Barycenter position along world x axis                     [deg]
#   6 Y_WORLD                Barycenter position along world y axis                     [deg]
#   7 A_WORLD                Profile RMS along major axis (world units)                 [deg]
#   8 B_WORLD                Profile RMS along minor axis (world units)                 [deg]
#   9 THETA_WORLD            Position angle (CCW/world-x)                               [deg]
#  10 FWHM_WORLD             FWHM assuming a gaussian core                              [deg]
#  11 ELONGATION             A_IMAGE/B_IMAGE                                           
#  12 ELLIPTICITY            1 - B_IMAGE/A_IMAGE                                       
         1 -14.8042     13.7766     32.5106   5.1058466361e+01   7.2240101677e+01     5.762317     1.984499 -50.91    0.0235441    2.523    0.604
         2 -11.6020     65.3061     17.4004   1.3746662201e+01   6.5795948925e+01    0.7397018    0.3410864  52.17  0.001704146    1.898    0.473
         3  99.0000     69.6013     39.3621   2.2884361552e+01   6.1626246557e+01     4.339738     3.197771  43.98   0.02224539    1.280    0.219
         4 -12.7994     47.9751     40.5293   3.3179215252e+01   6.5764687068e+01     2.122552     1.335995 -12.86  0.009021446    2.428    0.588
         5 -14.1995     91.2250      5.7230   7.7633995334e-01   6.0662339972e+01     3.920599      1.23757  73.09   0.01345587    3.266    0.694
         6 -12.3487     75.9854     13.2169   8.1007877777e+00   6.3738977900e+01    0.4480098    0.2745483  61.49  0.001221851    1.464    0.317
         7 -12.1612    241.9018     23.0351   3.5048898726e+02   2.4368877811e+01     0.549701    0.2311357 -56.31  0.001641975    1.982    0.495
         8 -10.7148    166.1811      2.5469   3.5036891302e+02   4.2154461727e+01    0.6600755     0.289692  84.25  0.003094666    2.143    0.533
         9 -11.9870    172.0237     11.6120   3.5242886264e+02   3.9925196019e+01     1.159166    0.5360887 -80.86  0.004960361    2.334    0.571
        10 -11.4682    185.0084     11.2254   3.5132689998e+02   3.7005733013e+01    0.5636076    0.3239472 -76.45  0.003088506    1.635    0.389
        11 -11.7782    178.3982      3.5272   3.4978030654e+02   3.9239327351e+01     0.706166      0.41246 -72.81  0.003946963    1.536    0.349
        12 -11.6521    167.0142     15.7228   3.5401127749e+02   4.0679436980e+01    0.6822531    0.3305569 -88.51  0.002655808    2.177    0.541
        13 -11.4053    151.8117     19.8239   3.5679387644e+02   4.3906792384e+01    0.4722465    0.3672473  87.66  0.001660082    1.171    0.146
        14 -11.4680    208.0882     17.6481   3.5131817491e+02   3.1396848524e+01    0.4075007     0.233555 -52.10  0.001333022    1.404    0.288
        15 -11.8927    245.1131     14.5524   3.4862154158e+02   2.4699063230e+01    0.3293414    0.2284534  56.08  0.002301121    2.021    0.505
        16 -10.4885    201.6896     11.4705   3.5027202909e+02   3.3367828705e+01    0.2614132     0.181505  74.26 0.0008776684    1.506    0.336
        17  -8.6478    210.3824      9.2785   3.4925090334e+02   3.1794306592e+01    0.1064229   0.08540056  48.46 0.0007004522    1.718    0.418
        18  -9.8453    150.2513      7.6240   3.5320802284e+02   4.5520377370e+01    0.2424374    0.1854047  89.62  0.001169771    1.154    0.133
        19  -9.7662    147.0213      5.4617   3.5284781201e+02   4.6513621718e+01    0.3024832    0.2298996  51.60  0.001772719    1.484    0.326
        20 -11.5624    137.8707      4.4306   3.5343476725e+02   4.8881003372e+01    0.3588601    0.2775758 -66.42 0.0007891169    1.186    0.157
        21 -10.9317    164.2245     20.4435   3.5562785498e+02   4.0837662840e+01    0.5366399    0.3555346  59.17  0.002758601    1.594    0.373
        22  -9.9422    244.2268      3.6282   3.4649296142e+02   2.5947077192e+01    0.1295463   0.09034127  77.66 0.0009418599    1.644    0.392
        23 -10.7338    215.5962      2.3192   3.4742120091e+02   3.1429033958e+01    0.2037958    0.1519583 -62.13 0.0005186782    1.039    0.038
        24  -9.5159    191.7707      1.7112   3.4849807362e+02   3.6437559565e+01     0.178177     0.107464 -58.09  0.001052681    1.358    0.264
        25 -13.1287    120.8371     78.8958   2.1349191013e+01   4.2605408616e+01     1.337609     1.197052  68.57  0.005314042    1.128    0.113
        26 -12.9406     35.6760     99.2161   5.7810004922e+01   5.3546136216e+01     1.098412    0.8253138 -25.19  0.003770407    1.505    0.336
        27 -13.2240     30.3846     92.6166   5.8842402580e+01   5.5885466627e+01     1.373706     1.092947  48.85  0.007169089    1.333    0.250
        28 -10.8523    171.9151    101.7777   1.6602823156e+01   2.7038041229e+01    0.5165484    0.2937675  65.43  0.001870669    2.381    0.580
        29 -11.5839    192.1831    248.7993   4.0221908159e+01  -1.2053755674e-01    0.5394815    0.1739869  23.00  0.002481726    3.004    0.667
        30 -10.5797    200.0809    236.0173   3.7036801262e+01   6.9074470050e-01    0.2444732    0.1184865  37.21  0.001365565    2.393    0.582
        31  -9.0591    244.9745    181.4835   2.1117122797e+01   2.9695064107e+00     0.120873    0.1005965  63.85 0.0008097226    2.491    0.598
        32 -10.4570    145.1018     91.8862   1.9375110790e+01   3.4587529287e+01    0.4024233    0.3432706  29.45  0.001236718    1.333    0.250
        33 -12.0749    149.7144     92.7885   1.8633337427e+01   3.3398069493e+01    0.9431787    0.6846626  59.87   0.00464469    1.475    0.322
        34 -11.3043    152.8500     88.1506   1.6734480928e+01   3.3560006032e+01    0.6831526    0.4080262  68.23  0.002915245    2.125    0.529
        35 -11.1688    202.4477     93.0094   9.6241695014e+00   2.2483654975e+01    0.4594945     0.280663  70.99  0.001122393    2.208    0.547
        36 -10.6689    247.4400     93.4679   4.3576877165e+00   1.4737976512e+01    0.2011417     0.117386  58.87  0.001225004    2.223    0.550
        37 -10.2558    163.1717     92.5544   1.5891716434e+01   3.0512338205e+01    0.3078716    0.2405085  48.76 0.0009966232    1.369    0.270
        38 -10.4989    227.6012    178.9760   2.3255572698e+01   5.3527813438e+00    0.2599563    0.2099584 -37.54  0.001826161    1.420    0.296
        39  -9.1896    186.9345     92.4368   1.1779853565e+01   2.5591902508e+01    0.1909805    0.1356485  60.69  0.001018218    1.589    0.371
        40 -13.2606     16.9765    100.7789   6.6308599846e+01   5.4888210547e+01     1.005583    0.7719852 -17.84  0.005289511    1.457    0.314
        41 -11.8966    248.6638     84.3336   2.4164053422e+00   1.5772192013e+01    0.4785083    0.2481969 -44.88  0.002012909    1.536    0.349
        42 -11.0184    245.4277     79.5380   1.7587206508e+00   1.6917990407e+01    0.2869979    0.1996372  45.08  0.001312705    1.934    0.483
        43 -10.8000      2.4318    170.7011   7.7508027363e+01   3.7332183156e+01    0.2574775    0.1158139  88.70  0.001146561    2.138    0.532
        44  -8.6840    163.5121     86.5134   1.4247162838e+01   3.1502749821e+01    0.1424128    0.1335202 -50.18 -4.558208e-05    1.020    0.020
        45  -9.0618    242.2974     85.6222   3.2975828730e+00   1.6604832568e+01    0.1254807   0.07134988 -54.08 0.0003915841    1.754    0.430
        46 -10.3822    102.1677     84.2913   2.8272800234e+01   4.5727072745e+01    0.4659753    0.2307168  46.11 0.0007727335    2.001    0.500
        47 -11.1887    174.9761     81.4510   1.0947106720e+01   2.9877264236e+01    0.3573323    0.2345467 -43.39 0.0006131086    1.385    0.278
        48 -10.1597    178.1076     78.3494   9.6525765382e+00   2.9710253254e+01     0.242232    0.1969942 -67.36 0.0003762773    1.254    0.203
        49 -10.9439    138.8575     80.0966   1.7417914216e+01   3.8203957293e+01     0.381066    0.2656409 -39.08  0.000517912    1.421    0.296
        50 -11.5918    234.6734     74.9574   1.8463688850e+00   1.9305901543e+01    0.4193503    0.2597648 -56.07   0.00119379    1.557    0.358
        51  -9.8482    205.7129     75.4361   5.1262904328e+00   2.4516991682e+01    0.3034616     0.148506 -53.84  0.001393793    2.147    0.534
        52 -10.8386    249.8275     74.1329   2.7243738467e-01   1.6923661830e+01    0.2368487    0.1801421 -72.03  0.001066425    1.470    0.320
        53  -8.8524    176.5040     73.4708   8.6407463257e+00   3.0832023615e+01    0.1362926    0.1265594 -48.72 6.137406e-05    1.063    0.059
        54  -9.3499    143.9889     73.3230   1.4352966714e+01   3.8222069746e+01    0.1943252    0.1754431  74.70 0.0003343972    1.111    0.100
        55 -10.7389     95.2907     71.6558   2.6349314283e+01   4.9882747607e+01    0.5341697    0.3149431  32.83  0.002070945    2.073    0.518
        56  -9.2433    169.4844    157.4874   2.9558367915e+01   1.7219287753e+01     0.135483    0.1243874 -14.08 0.0005503142    1.047    0.045
        57  -9.5860    218.5989     71.4766   2.7435833768e+00   2.2638502617e+01    0.2127312    0.1233286  65.09 0.0007323068    2.028    0.507
        58  -9.3462    201.0673     68.0000   3.9353480012e+00   2.6513110015e+01    0.1961452    0.0739416  62.83 0.0008087911    2.987    0.665
        59 -11.9759    124.1486     59.1129   1.4221713785e+01   4.5400667300e+01     1.021188    0.7301375 -84.15  0.003220998    1.743    0.426
        60 -10.2183    104.1674     63.6311   2.0897502355e+01   4.9405132652e+01     0.433831    0.2191718  46.68  0.001720024    1.960    0.490
        61 -10.5456    109.3358     59.7636   1.8116817414e+01   4.8877019827e+01    0.5336972    0.4390562 -12.63  0.002681125    1.485    0.327
        62 -12.0872    214.6915     60.6993   7.2107165409e-01   2.4852030954e+01    0.4006571    0.3305011 -82.06  0.001084949    1.267    0.211
        63 -11.5434     28.3974     56.0600   5.0307059479e+01   6.5363579836e+01     0.668632    0.4755208 -77.61  0.003316223    1.756    0.431
        64 -11.0464    247.8680     54.5206   3.5649119288e+02   1.9709272770e+01    0.3413385    0.1621122  75.72  0.001900027    2.715    0.632
        65 -10.3781    169.9901     61.3197   6.3919323011e+00   3.4152164780e+01    0.2904574    0.2267548  83.97 0.0009121657    1.339    0.253
        66 -10.9433    208.8410     54.3785   3.5985398097e+02   2.6840506358e+01    0.3949595    0.2426281  79.66  0.002193435    1.859    0.462
        67  -9.6035    208.8433    101.8728   1.0733610931e+01   1.9926450185e+01    0.1745201    0.1367559 -55.41 0.0004433687    1.293    0.227
        68 -11.3552    133.7768     51.4413   9.6581606684e+00   4.4267411776e+01    0.4538536    0.3068211 -32.14 0.0005236228    1.564    0.360
        69 -10.7583    138.4902     45.0627   6.7125172213e+00   4.4045958220e+01     0.479337    0.3630655 -12.70  0.001813747    1.692    0.409
        70 -10.0566    174.1178     56.3013   4.4397098557e+00   3.3957988140e+01    0.2316561    0.2129232 -13.27  0.001313613    1.296    0.228
        71 -10.1044    241.4065     50.2018   3.5609510777e+02   2.1329585918e+01    0.1788478   0.07580876 -43.04 0.0009541415    1.741    0.426
        72  -9.7947    213.6462     50.2036   3.5842035832e+02   2.6437715466e+01    0.1917833    0.1469932 -75.08 0.0004358176    1.287    0.223
        73  -8.7659    126.5475     50.4825   1.0816876283e+01   4.6200548703e+01    0.1441378    0.1380431  76.66 5.899307e-05    1.054    0.051
        74 -10.9862    249.7863     46.9324   3.5482910094e+02   2.0304056540e+01    0.2999765    0.1606256 -40.75  0.001180471    1.379    0.275
        75 -11.0194    246.6707     42.7628   3.5420163727e+02   2.1318826734e+01    0.2500303    0.2202935 -36.70 0.0009657351    1.275    0.216
        76 -12.4205    121.2849     44.4477   9.8666376528e+00   4.8421653044e+01    0.4506064    0.3693746 -62.27  0.001086972    1.247    0.198
        77 -11.3142    157.3082     42.6162   2.9482846489e+00   3.9792154631e+01    0.3531962    0.2374656  62.78 0.0006432216    1.484    0.326
        78  -9.5281    203.8326     42.7872   3.5759807708e+02   2.9352721578e+01    0.1726271    0.1656992 -37.05 0.0006728097    1.255    0.203
        79 -11.0754    101.4420     99.8396   3.3052195199e+01   4.2443796779e+01    0.4616098    0.3285196  46.66   0.00147399    1.405    0.288
        80 -10.5294    235.4212     41.5990   3.5474080595e+02   2.3418297176e+01    0.1942781    0.1693155  56.11 0.0008288354    1.524    0.344
        81 -11.5575    229.0070     40.5303   3.5498169319e+02   2.4713113522e+01    0.2519647    0.2382077 -16.15 0.0007882926    1.382    0.276
        82 -10.9248    225.5343     39.4741   3.5501259461e+02   2.5486612106e+01     0.267631    0.1874749 -67.75 0.0004969384    1.319    0.242
        83 -13.0183    213.7138     39.0400   3.5584982301e+02   2.7820335347e+01    0.3402192     0.279955  78.20 0.0006618468    1.339    0.253
        84  -9.9460    179.9738     41.0000   3.5960435441e+02   3.4725601115e+01    0.2988378    0.1710488  83.70  0.001468907    1.911    0.477
        85 -10.7411    175.8478     38.7561   3.5947312394e+02   3.5949313235e+01    0.4863026    0.3580745  -9.39  0.002625754    1.848    0.459
        86 -10.5224    248.5654     37.9772   3.5311653849e+02   2.1552703137e+01    0.2053619    0.1288075 -70.23  0.001308298    1.569    0.363
        87  -9.7216    130.2503     37.2373   5.6056669215e+00   4.7186475976e+01    0.2461957    0.1711773 -46.82 0.0004051512    1.431    0.301
        88 -11.8089    240.1586     34.1511   3.5286788450e+02   2.3443018235e+01    0.3871148     0.254392  60.57 0.0009375297    1.927    0.481
        89 -11.0776    248.2854     31.3604   3.5181032232e+02   2.2348058255e+01    0.3674788    0.2243977  80.34  0.001903547    1.861    0.463
        90 -10.6950    159.9725     35.8483   5.9452914351e-01   4.0038566461e+01    0.2107774    0.1792239 -53.70 0.0003672302    1.100    0.091
        91 -11.1245    151.2372     31.7515   5.2759216762e-01   4.2667695486e+01    0.4431393    0.3137777  57.19  0.001284768    1.463    0.316
        92  -9.6203     44.7396     31.2283   3.0359655856e+01   6.8052978307e+01    0.3935463    0.1643626  33.17  0.001476244    2.733    0.634
        93 -10.2590    104.3899     29.4195   8.0058372479e+00   5.4755105595e+01    0.5219069    0.2461499  39.86  0.001978938    2.723    0.633
        94 -10.4958    217.3573     28.0652   3.5307544233e+02   2.8389291602e+01     0.329167    0.1701041 -63.09  0.001476605    1.818    0.450
        95 -10.6850    168.4884     27.1409   3.5708441862e+02   3.9073421731e+01      0.37115    0.2184394  78.02  0.001306405    1.660    0.398
        96 -10.2017    230.2176     17.8045   3.5003609987e+02   2.7049494620e+01    0.2747286    0.1256194 -56.66  0.001068369    1.799    0.444
        97 -10.6803     29.5634    152.7201   6.7810221123e+01   3.9711491910e+01    0.2777609    0.1247184 -68.51  0.001142428    2.107    0.525
        98 -11.3722    234.9897     20.5092   3.5034414261e+02   2.5881165472e+01    0.3242461     0.205894  72.77  0.001668353    1.784    0.440
        99 -12.7789     14.4978    143.3768   7.1983033333e+01   4.3507947787e+01    0.5648592     0.326853  59.76  0.002660594    1.712    0.416
       100  -9.1359    175.3280    144.6700   2.5752888039e+01   1.8586519919e+01     0.132156    0.1101848 -78.70 0.0007051267    1.710    0.415
       101 -13.0974      4.7466    142.1404   7.5200263211e+01   4.4526761358e+01      1.15737    0.4679663  73.21  0.004441328    2.705    0.630
       102 -11.1730     65.2299    128.5884   5.2075051666e+01   4.1780747698e+01    0.3683828    0.2567293 -88.65  0.001627908    1.742    0.426
       103 -11.2044    125.4002    128.9545   3.3617178715e+01   3.1029605695e+01    0.3522594    0.2118545  31.26  0.001482271    1.836    0.455
       104  -9.9190    147.3390     22.3461   3.5811669102e+02   4.4732002413e+01    0.2589271    0.1832684  41.19  0.001105414    1.746    0.427
       105 -11.5857    118.2082    126.5083   3.4974807875e+01   3.2974849031e+01    0.3063326    0.2193059 -49.20  0.001425637    1.402    0.287
       106  -8.8559    167.5144    119.4667   2.1698006608e+01   2.4687713639e+01    0.1414702    0.1317411 -32.31  0.000809566    1.003    0.003
       107 -10.1500    178.7666     18.4624   3.5371496232e+02   3.7661588417e+01    0.2400543    0.2061937 -67.32 0.0009640383    1.043    0.041
       108 -13.0712     59.1229    111.8010   5.0878690906e+01   4.7113026172e+01     1.280903    0.8789253  29.22  0.005879994    1.483    0.326
       109  -9.3657    201.0521     16.3109   3.5146942867e+02   3.3000333928e+01    0.1667767    0.1288333 -78.32 0.0005000154    1.165    0.142
       110  -9.1137    141.6950     15.3431   3.5657693184e+02   4.6886219359e+01    0.4836379     0.173614  47.09  0.001697341    3.743    0.733
       111 -13.6139     76.2391    105.1088   4.2928072340e+01   4.6045578133e+01     1.791339      1.42275 -34.12  0.006927202    1.377    0.274
       112 -12.2561     99.5976    111.8294   3.6814395501e+01   4.0026160755e+01    0.7136136    0.5600632 -49.43  0.003428669    1.279    0.218
       113 -11.9976     24.0776    108.7473   6.4438111875e+01   5.2128424905e+01    0.6036404    0.3136292 -84.24  0.002473956    2.100    0.524
       114 -10.3750    249.8209    107.8136   6.9323160640e+00   1.2431035114e+01    0.1617658     0.113309 -48.35  0.001075578    1.341    0.254
       115 -11.3217    118.8385    106.1421   2.9703344278e+01   3.7395717730e+01    0.6994143    0.5523664 -87.12   0.00326878    1.624    0.384
       116 -10.8902    102.0209     93.7450   3.1144429500e+01   4.3696451934e+01    0.4077727    0.3098274   8.25  0.001192482    1.809    0.447
       117 -12.3313    113.2641     96.0050   2.8469693187e+01   4.0790725109e+01    0.7383988    0.6253153  18.99  0.002490192    1.365    0.267
       118 -12.7143    114.1753     87.8634   2.5848504065e+01   4.2316944368e+01     1.138039    0.8468786  64.50  0.004109535    1.497    0.332
