#   1 NUMBER                 Running object number                                     
#   2 MAG_AUTO               Kron-like elliptical aperture magnitude                    [mag]
#   3 X_IMAGE                Object position along x                                    [pixel]
#   4 Y_IMAGE                Object position along y                                    [pixel]
#   5 X_WORLD                Barycenter position along world x axis                     [deg]
#   6 Y_WORLD                Barycenter position along world y axis                     [deg]
#   7 A_WORLD                Profile RMS along major axis (world units)                 [deg]
#   8 B_WORLD                Profile RMS along minor axis (world units)                 [deg]
#   9 THETA_WORLD            Position angle (CCW/world-x)                               [deg]
#  10 FWHM_WORLD             FWHM assuming a gaussian core                              [deg]
#  11 ELONGATION             A_IMAGE/B_IMAGE                                           
#  12 ELLIPTICITY            1 - B_IMAGE/A_IMAGE                                       
         1 -10.3015    249.9840      8.4318   3.4299684752e+01   2.3759636947e+01    0.5183601    0.1317003 -38.25  0.002151333    2.722    0.633
         2  -9.4259    248.5175      1.9308   3.3157177411e+01   2.4666518747e+01    0.1934046    0.1396501 -69.36 0.0003417222    1.108    0.097
         3 -11.1575    247.3962     23.7109   3.7377396660e+01   2.2627155709e+01    0.5712211    0.3789873 -61.57   0.00193022    1.249    0.199
         4 -10.5422    249.0664     18.0771   3.6183097878e+01   2.2929650558e+01    0.5388103    0.2963875 -61.77  0.003403805    1.561    0.359
         5 -11.0160    241.5446     36.5869   4.0359243287e+01   2.2249837759e+01    0.8457461    0.5501552   6.47  0.004210399    3.471    0.712
         6 -10.9912    170.2724     26.5387   4.5027576159e+01   3.8690497998e+01    0.5409232    0.3671436  64.01  0.001629921    1.377    0.274
         7 -10.0153     40.8680     13.8480   7.3814589029e+01   6.9626998840e+01    0.5241291    0.2837414  -7.43  0.002252767    2.434    0.589
         8 -10.4562     33.1391     13.6580   7.7883567015e+01   7.0890346340e+01    0.5424899    0.3688422  11.44  0.002433658    1.325    0.246
         9 -10.2836     51.4463     17.9483   7.0873179884e+01   6.7242436726e+01    0.3933848    0.3451745   0.86 0.0007348964    1.151    0.131
        10 -11.5142     15.8443     14.7520   8.9302966844e+01   7.2993374468e+01     1.227807    0.4679468 -43.52  0.005705709    2.522    0.604
        11 -10.4464     23.5465     17.5921   8.5767469164e+01   7.1641880254e+01    0.5856403    0.2193546  31.47  0.002622582    2.516    0.603
        12 -10.3318    137.2776     23.7260   4.8998948367e+01   4.7040837403e+01    0.6781237    0.3737646  -9.33  0.002988846    2.597    0.615
        13 -10.6331    132.9068     18.3681   4.7983708130e+01   4.8668741255e+01    0.8682024    0.3178196  51.20  0.002553323    2.441    0.590
        14 -10.8315    141.2801     12.7401   4.4874632607e+01   4.7131617092e+01      0.32624    0.3199358 -82.97 0.0004045642    1.135    0.119
        15  -9.5600     77.9269     24.1437   6.3465878039e+01   6.1145210951e+01    0.5035507    0.2588338 -32.24  0.002343045    2.113    0.527
        16 -10.6017     25.4595     10.1465   8.0446686157e+01   7.2492803843e+01    0.6335232    0.5227736  57.50  0.003209447    2.191    0.544
        17 -10.1181    196.4284     17.7262   3.9980680266e+01   3.3605409809e+01    0.5720884    0.2342667 -62.47  0.002395825    2.962    0.662
        18  -9.1108    193.0253     13.1592   3.9187126055e+01   3.4824818740e+01    0.2937119    0.1897945  44.63  0.001649527    1.963    0.491
        19  -8.5200    230.4619      1.4995   3.4007849053e+01   2.8109581778e+01    0.1619336   0.07870436 -46.17 1.150409e-05    1.660    0.398
        20  -9.8230    232.4502     11.0429   3.5811361165e+01   2.6786669594e+01    0.4064411    0.1654879  60.89  0.002118901    2.680    0.627
        21 -10.4606    242.6642      3.2199   3.3693686730e+01   2.5618168918e+01    0.4336103    0.2772591 -61.94  0.002222795    1.237    0.192
        22  -9.6216    234.1832      1.4222   3.3790462129e+01   2.7395997797e+01    0.2058189    0.1154829  86.24 0.0003846778    1.668    0.400
        23 -10.0433    233.2691      5.5679   3.4662860677e+01   2.7172546756e+01    0.4109818    0.2257713 -88.20  0.002071401    1.725    0.420
        24  -9.6737    239.4430      8.6934   3.4927795404e+01   2.5682735514e+01     0.277748    0.1880426 -87.65  0.001504588    1.366    0.268
        25  -9.1748    236.6150     15.7747   3.6502442650e+01   2.5496006233e+01    0.2485165    0.1607356 -66.91   0.00108598    1.328    0.247
        26 -10.1500    238.3971     12.8966   3.5817435782e+01   2.5454414667e+01    0.3638864    0.2530142 -87.13  0.002534871    1.338    0.252
        27 -11.0735     87.9692     16.3095   5.6948057292e+01   5.9755445233e+01    0.4737491    0.3893557 -72.34  0.001632957    1.625    0.385
        28  -9.1505     91.6542     12.6439   5.4400668957e+01   5.9252657219e+01    0.3090921    0.1891539  40.23  0.001592883    1.484    0.326
        29  -9.1669     70.7327     20.0327   6.4092096815e+01   6.3172117532e+01    0.2168867    0.1855486  76.23  0.001083617    1.569    0.363
        30  -9.9643     60.6727     12.5527   6.4215853719e+01   6.6090591415e+01     0.366402    0.3433256 -48.72  0.001699953    1.451    0.311
        31  -9.0886     77.9528      2.7936   5.3701594457e+01   6.3262746939e+01    0.1972962    0.1725885  17.72 0.0003928373    1.169    0.145
        32  -9.8018     63.8035     18.0553   6.5732381596e+01   6.4837281196e+01    0.3877712    0.2755083  26.15  0.002179761    1.271    0.213
        33  -9.7411     66.9073     13.6822   6.2437105672e+01   6.4683217302e+01    0.4016242    0.1957509 -26.20  0.001020174    2.224    0.550
        34 -12.0147     64.7738      6.3085   5.9532698469e+01   6.5862711865e+01    0.5172844     0.249882  45.82   0.00253477    1.681    0.405
        35  -9.3102     74.0067      5.4589   5.6104638507e+01   6.3930691450e+01    0.3132086    0.2780483 -53.64  0.001529979    1.469    0.319
        36  -9.4383    121.4438     17.5555   4.9741350611e+01   5.1583111301e+01    0.2465989    0.2188018 -66.99 0.0005739767    1.244    0.196
        37  -9.5254    120.8681     13.2816   4.8340829934e+01   5.2126256774e+01     0.250871    0.1712794 -59.32   0.00131196    1.756    0.431
        38  -9.2219    156.3661     15.9904   4.3816939331e+01   4.3130685030e+01    0.3338412    0.1800789 -38.22  0.001672281    1.893    0.472
        39 -11.2644    113.1153     12.2312   4.9419608860e+01   5.4127302158e+01    0.2863457    0.2533448  34.51 0.0003375912    1.157    0.135
        40  -8.3179    103.6182      7.8783   4.9684465873e+01   5.6815195209e+01    0.2263646    0.1861807  58.81 0.0008806171    1.047    0.045
        41 -11.6630    101.4732     13.7014   5.2449964022e+01   5.6821521434e+01    0.3019948    0.2371866  49.24 0.0002287536    1.095    0.086
        42  -9.7613    100.2883      9.7101   5.1127919727e+01   5.7463408862e+01    0.1982987    0.1953926  75.85  0.000204828    1.165    0.141
        43 -10.6408    204.5771     12.3093   3.8029604231e+01   3.2374349625e+01    0.5098901    0.2107847 -49.09   0.00190984    2.153    0.536
        44  -9.0613    209.3170     11.4505   3.7472714551e+01   3.1447322923e+01    0.2299626    0.1625062 -66.88 0.0008810149    1.224    0.183
        45  -9.2256      1.4884      3.0317   9.3459070549e+01   7.6249746794e+01    0.2723226    0.1364909 -36.32  0.001555167    1.699    0.411
        46 -10.8791      6.5827      9.0604   9.2873892483e+01   7.4837983500e+01    0.6852396    0.2462882 -41.17  0.003272514    2.403    0.584
        47  -9.6099      5.2057      3.3752   9.0670772353e+01   7.5863043065e+01    0.2153561     0.157586  -6.88 0.0006484821    1.036    0.035
        48  -8.8938     80.5290     11.9933   5.7183984370e+01   6.1877588345e+01     0.201606    0.1574307  47.63 0.0003410006    1.098    0.089
        49  -9.2834    182.2736      3.6047   3.7773269816e+01   3.8152066023e+01    0.2372369    0.1957507  -3.89 0.0009624298    1.610    0.379
        50 -10.2130    183.8855      8.8999   3.8953106538e+01   3.7301172949e+01    0.3635507    0.2174923  70.01  0.000795969    1.521    0.343
        51 -11.1523    186.4582      3.5894   3.7421936232e+01   3.7202546962e+01     0.302096    0.2301132 -31.45 0.0008902263    1.447    0.309
        52  -8.1850    149.7119     10.3733   4.3012221861e+01   4.5275876589e+01    0.1882961    0.1170553 -49.10 0.0009931108    1.694    0.410
        53  -8.3427    148.3134      7.3129   4.2273473986e+01   4.5885317203e+01    0.1960665    0.1326581  40.26 0.0007361218    1.670    0.401
        54 -10.1452    149.7673      2.8193   4.0765568871e+01   4.5904847663e+01    0.4302713    0.2356315  38.22  0.002105845    2.272    0.560
        55  -8.7060     84.3185     10.0394   5.5227209191e+01   6.1195395376e+01    0.1756256    0.1624819  23.71 0.0004677194    1.129    0.114
        56  -8.1463    128.4826      9.4637   4.5736709568e+01   5.0581770218e+01    0.1331509     0.114928  68.30  0.000115766    1.003    0.003
        57 -10.3043     32.3587      6.1214   7.3978613463e+01   7.1984592759e+01    0.2622138    0.2007838  17.77 0.0006429249    1.054    0.051
        58 -10.0331    223.7572      5.7909   3.5273232129e+01   2.9024779533e+01    0.3341284    0.1762643 -59.98  0.001306247    1.641    0.391
        59  -8.4871    224.2885      1.3142   3.4318052778e+01   2.9345651768e+01    0.1631718    0.1482151 -74.75 0.0005296841    1.215    0.177
        60  -8.8882    138.5064      6.3719   4.3257626696e+01   4.8369043467e+01    0.2141678    0.1322515 -20.32 0.0006749617    1.909    0.476
        61  -9.9025    113.1269      3.9914   4.6380307765e+01   5.4807960501e+01    0.5182542    0.2773204  49.56  0.002598942    1.636    0.389
        62  -8.6558    195.8829      4.9893   3.7012147691e+01   3.4971987642e+01    0.2054684    0.1122521 -63.57  0.001112169    1.735    0.424
        63  -8.5598    168.9756      4.9931   3.9341003506e+01   4.1118874691e+01     0.190295    0.1593237  88.17 0.0005505541    1.025    0.024
        64  -9.0664    217.9909      3.1872   3.5085025273e+01   3.0441994779e+01    0.1874847    0.1443552 -48.92  0.000493658    1.195    0.163
        65  -9.3087     14.6450      3.0937   8.3389188494e+01   7.4879768957e+01     0.244787    0.1545696   8.84  0.001140797    1.387    0.279
        66 -10.0178    202.9560      3.0770   3.6054005009e+01   3.3608160279e+01    0.3033582    0.1518705  82.97 0.0009594371    1.849    0.459
        67  -9.7816     94.3646      5.2817   5.0658335626e+01   5.9246659957e+01    0.4840618    0.2053586  67.65  0.002056092    2.273    0.560
        68  -8.5230     34.0203      1.5006   7.0252801513e+01   7.2240991807e+01    0.1804855    0.1037564  38.85 0.0003840501    1.510    0.338
        69  -9.3102    235.9326     83.4248   5.0737335469e+01   1.7139911867e+01    0.2995155    0.1585955 -34.15  0.001548223    1.660    0.397
        70 -11.2593    242.5796     91.4202   5.1645587534e+01   1.4801225056e+01    0.5793258     0.226418 -25.92   0.00215486    3.647    0.726
        71 -10.9323    241.5389     85.4875   5.0521960743e+01   1.5839042351e+01     0.427187    0.3257575  67.91  0.002727683    1.569    0.363
        72  -9.2697    164.9364     94.6795   6.4712073381e+01   2.9937121097e+01    0.2584045    0.2107059 -44.32 0.0005461223    1.213    0.175
        73  -8.5810     38.5117     95.4750   1.0513068902e+02   5.3567547255e+01    0.1434453    0.1305627 -39.44 2.848175e-06    1.016    0.016
        74  -9.3023    211.3740     91.7033   5.5825110972e+01   2.0565356562e+01    0.3478446    0.2280793 -51.55   0.00136424    1.526    0.344
        75 -11.0764    248.7500     89.5377   5.0543382544e+01   1.4014225244e+01    0.7005829     0.217647 -32.70  0.002770814    3.039    0.671
        76 -10.8837    245.8530     77.9937   4.8481049050e+01   1.6136189651e+01    0.6229391    0.3363291 -73.96  0.002274491    3.310    0.698
        77  -9.6776    248.9152     72.2410   4.6982044274e+01   1.6388399999e+01    0.2911582     0.207876 -13.65  0.001747292    1.826    0.452
        78 -11.1123    243.5497     71.1679   4.7306276318e+01   1.7482838736e+01    0.4408868    0.2608254 -53.28  0.001931158    1.572    0.364
        79  -9.5758     19.9341     91.0373   1.1197526354e+02   5.6305565635e+01    0.3343714    0.2435509 -32.88  0.001285546    1.306    0.234
        80  -9.7922    237.3423     90.7736   5.2138726799e+01   1.5816416652e+01    0.2332879    0.1469946 -28.70  0.001289474    1.518    0.341
        81  -8.5800     99.4768     90.5048   8.0747906166e+01   4.5188384260e+01    0.1562016    0.1475746   3.47 0.0008102139    1.004    0.004
        82  -9.5649     55.3230     89.2919   9.6684767938e+01   5.3063226577e+01    0.4480805    0.2590231  53.51  0.001787932    2.554    0.608
        83 -10.5174    188.9528     88.0310   5.8473454461e+01   2.5799535122e+01    0.2138915    0.2095357 -32.69  0.001286522    1.049    0.046
        84  -8.6826     27.5708     88.8593   1.0826815714e+02   5.6251211264e+01    0.2695778    0.1684169  41.15  0.001306195    1.877    0.467
        85  -8.2030      6.4920     87.4939   1.1707131918e+02   5.7994391206e+01    0.1371052    0.1098073 -49.30 0.0008098151    1.063    0.059
        86 -10.9394    195.7171     82.1643   5.5913357233e+01   2.5294289975e+01    0.2803269    0.2479396  77.14 0.0002371032    1.215    0.177
        87 -10.4427    188.8092     82.1929   5.7027908851e+01   2.6778952658e+01    0.2815256    0.2215338  52.08 0.0003103445    1.340    0.254
        88  -9.5125     87.8982     82.4824   8.2184643739e+01   4.9193204593e+01    0.3446151    0.2903677 -52.27  0.001211287    1.309    0.236
        89  -8.3896    135.4963     83.1112   6.8147812643e+01   3.8774995531e+01    0.2237422    0.1497738 -39.97 0.0007232197    1.513    0.339
        90  -9.9238     63.6991     82.1181   9.1219673113e+01   5.3512470731e+01      0.29348    0.2493581 -44.44 0.0003356567    1.176    0.150
        91  -8.8142     12.3100     82.3521   1.1362565845e+02   5.8957565135e+01    0.1508258   0.07881684 -39.87 0.0007044328    1.720    0.419
        92  -8.3615    174.4880     79.0068   5.8670238252e+01   3.0480627351e+01    0.2112884     0.136483 -37.57 0.0004732954    1.499    0.333
        93  -8.0506    151.6082     78.4699   6.3043475768e+01   3.5855194631e+01    0.1449383    0.1421346 -15.07 -4.554303e-05    1.030    0.029
        94  -9.4076    199.7306     76.5560   5.3930002488e+01   2.5308900029e+01    0.2614507    0.2194164  22.66 0.0007599331    1.467    0.318
        95  -9.0564     31.8365     77.0832   1.0356966907e+02   5.8727506548e+01    0.3586384    0.1968436   5.29   0.00134177    2.136    0.532
        96  -8.5367     86.1698     76.3675   8.0819197611e+01   5.0805847914e+01    0.2215483    0.1383376  47.36 0.0009555087    1.714    0.417
        97  -9.2798    234.2304     74.8572   4.9093277801e+01   1.8673587715e+01    0.2743906    0.1780664 -77.70  0.001351478    2.020    0.505
        98  -7.8825     50.4119     75.4535   9.4769968115e+01   5.6954654232e+01    0.1426428    0.1313606 -22.04 0.0001426764    1.058    0.055
        99  -9.5280     19.1176     73.9343   1.0870831107e+02   6.0556895571e+01    0.3644804    0.2790183  84.48  0.001555433    1.717    0.418
       100  -9.1055    106.8354     74.2089   7.3270977018e+01   4.6934306622e+01     0.376831    0.1731322  27.44  0.001073566    4.139    0.758
       101  -7.9088    189.2350     73.3454   5.4718830267e+01   2.8073334465e+01     0.131178    0.1063766  -0.57 0.0003072514    1.557    0.358
       102 -10.1722     72.5818     72.8657   8.4728414883e+01   5.4058521489e+01    0.3065257    0.2494222  41.03 0.0008137641    1.303    0.233
       103  -8.4125     64.1728     73.6524   8.8360172925e+01   5.5313400300e+01    0.2065998    0.1323885  19.66 0.0004680508    1.678    0.404
       104 -11.0762    128.7805     71.1602   6.6176007023e+01   4.2484499009e+01    0.2853033    0.2645275  14.16 0.0002740444    1.101    0.092
       105  -9.0854    133.5172     68.6129   6.4209101630e+01   4.1803588000e+01     0.283202    0.2401914  49.35 0.0006222936    1.139    0.122
       106 -10.1872    113.8426     70.4223   6.9956255029e+01   4.6069225661e+01    0.4500456    0.3765202 -82.09  0.001817556    1.565    0.361
       107  -9.6271     79.3293     72.1293   8.1899094014e+01   5.2981593840e+01    0.3967354    0.1736548  26.21  0.001263924    3.351    0.702
       108  -9.2061     59.6049     70.6497   8.9276989244e+01   5.6684067083e+01    0.3782028    0.1891558 -46.36  0.001585283    1.938    0.484
       109 -10.5338     37.5824     70.7056   9.9138565403e+01   5.9616295978e+01    0.4185774    0.2330705 -44.00 0.0005196218    1.608    0.378
       110  -9.8362     28.8556     71.5577   1.0348977137e+02   6.0312335404e+01    0.2469186    0.2008291 -41.41 0.0003023364    1.083    0.077
       111  -8.5673    160.9196     71.0146   5.9012050678e+01   3.4911299528e+01    0.2275982    0.1677156 -67.67 0.0005190342    1.635    0.388
       112  -8.5544    211.8603     70.1956   5.0743395652e+01   2.3716081632e+01    0.1620011    0.1497474  -0.47 0.0003406686    1.280    0.219
       113  -9.7246    234.8520     61.8391   4.6232781999e+01   2.0341640066e+01    0.3018772    0.2420229  25.08  0.001328215    1.770    0.435
       114  -9.6667    236.3073     66.6398   4.7106436787e+01   1.9422562477e+01    0.2109577    0.1477461  87.48 0.0006807793    1.683    0.406
       115  -9.7429    238.4896     64.4787   4.6422553504e+01   1.9308757729e+01     0.180569    0.1657683  62.87  0.000876163    1.296    0.228
       116  -8.7820    204.1890     68.8101   5.1425953031e+01   2.5516095676e+01    0.1924953    0.1628255 -61.12  0.000355148    1.129    0.114
       117  -8.4237    191.6650     69.5165   5.3379119436e+01   2.8117103625e+01     0.175167    0.1256758  46.08 0.0009158425    1.542    0.352
       118  -9.0215    139.3454     69.0889   6.2987956707e+01   4.0340002349e+01    0.4391958    0.2029077  51.41  0.001710052    2.073    0.518
       119  -8.8428    168.7862     68.1877   5.6763730703e+01   3.3515784469e+01    0.2133704    0.1834731 -60.66 0.0006962946    1.186    0.157
       120 -10.1741    149.3363     67.0037   6.0174835180e+01   3.8299211371e+01    0.2823415     0.216268  58.89 0.0004694047    1.291    0.225
       121  -9.4830    144.4009     64.1356   6.0357044203e+01   3.9937187489e+01    0.2795068    0.2624194 -66.92 0.0007260597    1.112    0.101
       122  -8.8664    173.1214     66.7635   5.5619141860e+01   3.2727183925e+01    0.2378913    0.1947365 -36.72 0.0006430809    1.213    0.176
       123 -10.5314     95.3519     66.1208   7.4179657415e+01   5.0932191946e+01    0.2839929     0.257459  26.37 0.0004306546    1.037    0.036
       124 -11.1193    100.9341     62.6606   7.1178072888e+01   5.0345946064e+01    0.5014398    0.4370367 -65.16  0.002628687    1.418    0.295
       125  -9.9826     15.6740     65.8660   1.0842255362e+02   6.2703716835e+01    0.4386878     0.207695 -19.07 0.0007175732    2.479    0.597
       126  -8.1196      3.3690     67.6716   1.1492063158e+02   6.2962267491e+01    0.1279467   0.09327962  57.72 0.0007033362    1.817    0.450
       127 -10.7990    243.8682     58.5856   4.4668072641e+01   1.9098843320e+01    0.3452628    0.2523845 -69.87 0.0005583192    1.372    0.271
       128 -10.7738    249.8693     58.2653   4.4054129495e+01   1.8063275137e+01    0.8395609    0.2519822 -29.02  0.003045146    4.248    0.765
       129  -8.7064    227.9775     64.9976   4.7646499006e+01   2.1229347626e+01    0.1821814    0.1504092   8.84 0.0004331826    1.665    0.399
       130  -8.2563    208.3799     64.7715   4.9913698701e+01   2.5212687998e+01    0.1637324    0.1184222 -28.10 0.0002373039    1.431    0.301
       131  -8.4422    126.8526     63.8229   6.4319169326e+01   4.4182343384e+01    0.1928811    0.1763174 -78.33 0.0007911093    1.234    0.189
       132  -8.0961     66.6315     64.5027   8.4226912188e+01   5.6813875718e+01    0.1448825    0.1311083 -11.02 0.0004073829    1.041    0.040
       133  -9.1671      4.9964     64.2333   1.1339505252e+02   6.3699671482e+01    0.1580891    0.1042882   4.25  0.000875944    1.619    0.382
       134  -8.2663    160.8342     63.0797   5.6774816932e+01   3.6171955729e+01    0.1954587    0.1708494  13.74  0.001063491    1.330    0.248
       135 -10.1044     39.6085     61.0394   9.5131991920e+01   6.1526567130e+01    0.4917321    0.3535438  78.27  0.002217928    2.735    0.634
       136 -10.0237     34.4591     59.8040   9.7247301024e+01   6.2393054054e+01    0.3690447    0.2854467 -28.74  0.001568436    1.141    0.123
       137  -9.2590     81.7023     61.9490   7.7444504988e+01   5.4513999994e+01    0.5102038    0.2444737  28.06  0.001835837    2.693    0.629
       138  -8.8993     28.6827     54.2553   9.8344254176e+01   6.4203837342e+01    0.3622015    0.1656656 -31.52 0.0009015736    2.330    0.571
       139  -8.9439     27.6794     61.6767   1.0123119765e+02   6.2681256702e+01    0.2030852    0.1344001  10.69 0.0003470427    1.543    0.352
       140 -10.2157     24.6835     58.9146   1.0191479119e+02   6.3574405674e+01    0.3874926     0.304972 -39.92  0.002271888    1.114    0.102
       141  -9.4878    134.5403     58.8019   6.0874960575e+01   4.3145893205e+01     0.460334    0.2345637 -48.47  0.001833836    2.300    0.565
       142 -11.0281     48.5273     65.5094   9.2437692036e+01   5.9410367621e+01      0.46101    0.2885667  17.11 -0.0001701961    1.674    0.403
       143  -8.0788    173.7835     59.3566   5.3499000218e+01   3.3673348031e+01    0.1877646    0.1227546  52.66 0.0004824313    1.545    0.353
       144  -8.3192    149.6941     58.9669   5.7705389851e+01   3.9461812946e+01    0.1894689    0.1782551 -56.27 0.0002282401    1.086    0.079
       145  -9.0891    158.3767     57.7096   5.5682134598e+01   3.7560196719e+01    0.4407798    0.2562829  87.12  0.001722308    2.733    0.634
       146  -9.9875     63.1652     55.9812   8.2543913630e+01   5.9079348067e+01    0.4580602    0.3550251  83.41  0.001633608    2.415    0.586
       147  -8.9980    235.3016     56.9009   4.5135156534e+01   2.0908198354e+01    0.2584246    0.1428885 -60.58  0.001368595    1.904    0.475
       148 -10.1224    192.3262     56.2827   4.9948878243e+01   2.9872929810e+01    0.4121369    0.2393185 -67.32  0.001879677    2.196    0.545
       149  -9.1002    185.3940     51.1196   4.9577660747e+01   3.2140576547e+01    0.3894063     0.246694  77.77  0.001846263    1.713    0.416
       150  -9.0026     89.2882     57.1986   7.3016514186e+01   5.3818242601e+01    0.1884872     0.172522  66.58  0.001023123    1.309    0.236
       151  -8.5315    173.3528     53.6960   5.2027024424e+01   3.4577026896e+01    0.2110552    0.1011508 -53.58 0.0006643109    2.486    0.598
       152  -8.6006    121.3670     56.3203   6.3224244089e+01   4.6691278559e+01    0.3009758    0.1304099  48.27  0.001143195    2.146    0.534
       153  -9.4143    125.0218     54.4501   6.1692214236e+01   4.6105748360e+01    0.3558765    0.1885492  61.18  0.001429619    1.992    0.498
       154  -9.9313    112.9954     54.7612   6.4888379104e+01   4.8913657055e+01    0.4066166    0.3387529  39.18   0.00181728    1.131    0.116
       155  -9.0039    207.2116     48.1409   4.6121494854e+01   2.7708867218e+01    0.1721047    0.1621264 -60.65 0.0003486619    1.104    0.094
       156  -9.0333    208.0466     54.9879   4.7641762792e+01   2.6630792607e+01    0.2112305    0.1866302  54.28  0.001251784    1.283    0.220
       157  -9.1822    204.8583     51.8678   4.7278025948e+01   2.7726040135e+01    0.2064648     0.173634 -39.41 0.0004318061    1.164    0.141
       158  -9.0031    142.6802     53.9528   5.7591297120e+01   4.1903598451e+01    0.2734482    0.1803493  43.92 0.0004766733    1.537    0.349
       159 -10.2394      9.7615     52.7478   1.0805473234e+02   6.6072457475e+01    0.2945762    0.2546092 -53.65  0.001891536    1.202    0.168
       160  -8.7735    226.2413    243.0191   8.3307605688e+01  -5.4081345007e+00    0.1711431    0.1215561  -3.79  0.001185726    1.044    0.042
       161  -8.7026    247.0285    240.7020   7.9339019938e+01  -7.3506519267e+00    0.1618281    0.1116014   2.68  0.001099185    1.096    0.087
       162 -11.5351    244.6079     50.2562   4.2892426672e+01   2.0024976335e+01    0.8310939    0.2958541 -34.45  0.003884367    2.410    0.585
       163  -8.3054    240.3265    240.6634   8.0467013473e+01  -6.6456046169e+00   0.09473636   0.08521955   1.96 0.0003671497    1.723    0.420
       164  -8.0754    230.6547    237.3046   8.1610843555e+01  -5.1695447693e+00   0.09817564   0.08734837  17.30 0.0007041218    1.690    0.408
       165  -9.8959    250.2079     40.8894   4.0553855158e+01   2.0153326282e+01    0.2963464    0.2679512  48.69 0.0008873277    1.484    0.326
       166 -10.9387    248.7269     36.8851   3.9873259169e+01   2.0892991423e+01    0.5311798    0.4221188  14.22  0.003530528    2.044    0.511
       167  -8.9913    197.5244     48.5294   4.7350328567e+01   2.9760417434e+01    0.2894859     0.195414 -76.16  0.001545293    1.635    0.388
       168  -8.7680    196.2323     52.9946   4.8613429911e+01   2.9454168457e+01    0.1811154    0.1527534 -53.08 0.0002552521    1.094    0.086
       169 -10.1677    192.7473     49.0235   4.8068736988e+01   3.0756896133e+01    0.3661109    0.2598827 -68.86 0.0008465418    1.472    0.321
       170  -8.4713     41.6576     53.1695   9.1359097681e+01   6.2911879419e+01    0.2068844    0.1090107 -37.41 0.0005308196    1.801    0.445
       171  -9.6681     92.7019     48.6472   6.8672661765e+01   5.4499673153e+01    0.5403543    0.2631139 -46.40   0.00193799    2.552    0.608
       172  -9.4156     87.9909     46.8164   6.9517491203e+01   5.5814510482e+01    0.3656618    0.2177103  37.83 0.0009325402    1.594    0.373
       173 -10.1565    120.1963     50.5248   6.1550517787e+01   4.7853008144e+01    0.2460319    0.2363901  15.97 0.0003046866    1.064    0.060
       174  -9.8555     79.5551     50.4448   7.3901332641e+01   5.6990837821e+01    0.3740709     0.286482   6.50  0.001023915    1.398    0.285
       175  -9.9604     72.0222     49.5452   7.6412370728e+01   5.8631873537e+01    0.4986354    0.4017966  34.68  0.001777431    1.182    0.154
       176 -10.0759    171.9913    233.6862   9.2391653248e+01   2.6583458132e+00     0.341121    0.3005496  -0.26  0.002289376    1.204    0.169
       177  -9.1993    213.5728     47.9560   4.5380829379e+01   2.6390825040e+01    0.2390543    0.1719539 -87.19  0.001068601    1.452    0.311
       178  -9.9458    237.6648     48.3406   4.3108125749e+01   2.1554581882e+01    0.2250355    0.1580297 -48.04  0.001343627    1.179    0.152
       179  -7.9245     14.5083     49.5151   1.0447114269e+02   6.6465500171e+01    0.1327617    0.1082594 -29.46 3.773926e-06    1.003    0.003
       180  -8.6379    164.6427     46.3964   5.1368459862e+01   3.7634362857e+01    0.2302025    0.1502328 -45.97 0.0005646256    1.544    0.352
       181  -8.4711    155.9828     44.2218   5.2159210398e+01   4.0010948204e+01     0.423241    0.2590723 -25.94  0.001079149    1.824    0.452
       182  -9.5946    152.8066     41.1155   5.1774435948e+01   4.1185909136e+01    0.3054804    0.2589341 -85.87 0.0008874213    1.202    0.168
       183  -9.1220    110.3211     47.2867   6.2968077458e+01   5.0679120517e+01    0.5602974   0.09289077  50.93  0.001447091    4.782    0.791
       184  -9.9095     40.5087     45.6364   8.9038140529e+01   6.4548658503e+01    0.3711198    0.3073956 -82.46  0.001628956    2.046    0.511
       185  -9.2850     20.7529     47.1369   1.0019866697e+02   6.6466973402e+01    0.2221226    0.1679895  -3.42 0.0002695619    1.232    0.188
       186 -10.2279    233.8868     45.0894   4.2762179604e+01   2.2678624422e+01    0.3478863    0.2245588 -21.23  0.001994747    1.896    0.473
       187  -9.4776    173.9225     44.6528   4.9479066436e+01   3.5656330639e+01    0.2631935    0.2163133 -14.21 0.0005286661    1.446    0.308
       188  -8.9816    135.8094     44.8222   5.6110918523e+01   4.4865747532e+01    0.4635627    0.2014372 -50.53  0.001661574    3.116    0.679
       189  -8.6701    139.0271     43.7785   5.5126268526e+01   4.4216386453e+01    0.2247046    0.1618533  31.47 0.0003221344    1.601    0.375
       190  -9.3812     84.0207     51.0076   7.2510499426e+01   5.5978479404e+01    0.2598165    0.2354389  51.79 0.0007549392    1.234    0.190
       191 -10.5763     33.8373     43.9679   9.1850820537e+01   6.5728391684e+01    0.6390229     0.314799  32.49  0.001812035    2.062    0.515
       192  -8.8205     29.6613     44.6844   9.4382182063e+01   6.6074934871e+01    0.2572407     0.181942 -40.43 0.0007290713    1.305    0.234
       193 -10.9217      4.1532     34.9480   1.0588652611e+02   7.0212821994e+01     0.710394    0.2141073 -44.56  0.003065235    2.425    0.588
       194  -8.8643    232.5089     41.5320   4.2130843617e+01   2.3380291462e+01    0.2546264    0.1121472  68.09   0.00128849    2.409    0.585
       195  -9.2814     97.0523     42.8129   6.5083287379e+01   5.4407877211e+01    0.4411114    0.2713315  12.76  0.001751318    2.398    0.583
       196  -9.7720     99.8425     37.2058   6.2109127200e+01   5.4548045385e+01    0.4148999    0.2110268 -42.54  0.001494309    2.294    0.564
       197  -9.0795    163.1800     41.9930   5.0346080439e+01   3.8557878424e+01    0.2232825    0.1817354  66.60 0.0003796868    1.166    0.142
       198  -8.7967    147.7721     41.8838   5.2885774337e+01   4.2318894971e+01    0.2593845    0.1770028  40.07 0.0009266329    1.598    0.374
       199  -9.4638    128.4283     41.7234   5.6648567859e+01   4.7089094859e+01    0.4053773    0.2449781  72.72  0.001785422    1.900    0.474
       200  -9.0632     88.1793     41.2818   6.7272610649e+01   5.6614431138e+01     0.709884     0.177187  39.80  0.001801744    5.408    0.815
       201  -8.7048     76.1726     41.8344   7.1695223694e+01   5.9074417838e+01    0.1972981    0.1536846   7.85  0.000433001    1.314    0.239
       202  -8.9301     67.1893     41.8406   7.5195262092e+01   6.0843951827e+01    0.3336702    0.1844458  44.00 0.0008976235    1.761    0.432
       203  -8.9480    223.8954     40.6071   4.2704791726e+01   2.5193425965e+01     0.249124    0.1508683 -46.33  0.001443738    1.413    0.292
       204  -9.7742     19.8409     40.3154   9.8258809447e+01   6.7948209150e+01    0.3001543     0.205283  31.42  0.001272265    1.668    0.401
       205  -9.5800    141.2747     39.7381   5.3409510195e+01   4.4189651832e+01    0.4828449    0.1798263  42.36  0.001617984    3.430    0.708
       206  -8.2631    106.5319     39.9268   6.1295468672e+01   5.2613542903e+01    0.1910806    0.1425534 -27.03 0.0003706888    1.449    0.310
       207  -9.5936    216.5077     38.5812   4.2949598896e+01   2.6946150727e+01    0.3186091    0.1931988 -68.06  0.000995181    1.703    0.413
       208  -9.1519    212.0389     37.5124   4.3140250464e+01   2.8008063273e+01    0.1977848    0.1608128 -49.85  0.000363119    1.112    0.101
       209  -8.9714    119.7564     38.9520   5.7641466736e+01   4.9569674785e+01    0.2355011    0.1859582  60.29 0.0004233442    1.192    0.161
       210 -10.1079     51.7727     37.2714   7.9967096959e+01   6.4345157499e+01    0.2582599    0.2134541  10.52 0.0002296134    1.049    0.047
       211  -8.5247     55.6791     36.3171   7.7742141080e+01   6.3835425167e+01    0.2195548    0.1280357  39.59 0.0008768172    1.646    0.392
       212  -9.7119     61.0642     38.0535   7.6133132979e+01   6.2594937249e+01    0.4300149    0.2825389  46.75  0.002169651    1.640    0.390
       213  -9.2317     58.9428     33.7606   7.5145795371e+01   6.3653691782e+01    0.2747588    0.2114118  14.20 0.0006599625    1.199    0.166
       214  -9.6492    112.6635     36.2669   5.8373608655e+01   5.1633050509e+01    0.5396838    0.2259031  51.13  0.002164404    2.085    0.520
       215  -8.8714    237.0779     36.3727   4.0668373646e+01   2.3118355940e+01    0.2554383    0.1053722 -47.96 0.0009270073    2.011    0.503
       216  -8.8973    232.9562     35.5503   4.0831437690e+01   2.4007806259e+01    0.3579094    0.2068177 -12.52   0.00159054    2.980    0.664
       217 -10.4528    124.6872     35.3048   5.5274048541e+01   4.8827410531e+01    0.4011151    0.2680481 -40.93 0.0009234559    1.629    0.386
       218  -8.2932    192.9031     36.5052   4.4922224764e+01   3.2296617732e+01    0.1832502    0.1197422  72.26 0.0005657822    1.495    0.331
       219  -9.4867     91.7919     35.7771   6.3921745472e+01   5.6585663086e+01    0.3282562    0.1751756  57.28  0.001430191    1.909    0.476
       220 -10.2914     70.0518     35.5293   7.1352028577e+01   6.1263896903e+01    0.4044539    0.3121917  20.58 0.0009681093    1.208    0.172
       221  -8.7727    185.0596     39.6527   4.6655997917e+01   3.3695600341e+01     0.238736     0.162254 -46.92 0.0007937319    1.403    0.287
       222  -8.7098     12.5108     35.9864   1.0102948322e+02   6.9437493990e+01     0.188783    0.1074602 -47.96 0.0008068199    1.541    0.351
       223  -8.3794    225.7547     35.6228   4.1454074738e+01   2.5417619581e+01    0.1528747    0.1033618 -88.46 0.0003141815    1.500    0.333
       224  -8.3817    165.7845     35.2708   4.8052957020e+01   3.8761895966e+01    0.2087808    0.1521877 -84.47  0.001117878    1.443    0.307
       225  -9.3161    153.7215     33.5796   4.9373069142e+01   4.1887491497e+01    0.3036262    0.2168727 -52.93 0.0008221727    1.472    0.320
       226 -10.6119     20.4098     31.7350   9.4469973114e+01   6.9556184578e+01     0.517289    0.3228144  44.92   0.00263618    2.428    0.588
       227  -9.7472     23.7871     30.9596   9.2090159715e+01   6.9342223792e+01    0.4224826    0.2315562 -56.60  0.001094973    2.460    0.593
       228 -10.5063     13.2136     30.5732   9.8471234444e+01   7.0442520975e+01    0.4245691    0.2359878  21.97  0.001298534    1.797    0.444
       229 -10.5251      8.4584     26.2672   9.9795058113e+01   7.1643996242e+01    0.3895049    0.3022339 -17.59  0.001765336    1.033    0.032
       230  -8.7000     33.3606     34.1587   8.7994708906e+01   6.7616001881e+01    0.2244796    0.1632337 -43.57  0.001276945    1.488    0.328
       231  -8.0588    139.4429     34.4801   5.2076552455e+01   4.5291469407e+01    0.1381918    0.1275133  76.38 0.0001210912    1.037    0.036
       232  -9.4841    134.0813     32.3318   5.2378598397e+01   4.6871151711e+01    0.2250678    0.1996504 -46.28 0.0003531162    1.214    0.176
       233  -8.9516     39.7581     32.6256   8.3848057582e+01   6.6999587511e+01    0.2353676    0.1754821  -1.50 0.0008307769    1.229    0.187
       234  -9.5769    211.9097     31.7639   4.1839222349e+01   2.8712899890e+01    0.2513094     0.178068 -78.04 0.0006463405    1.357    0.263
       235  -9.2029    239.7490     31.0060   3.9361909284e+01   2.3233574253e+01     0.206542    0.1465763  84.19 0.0002176878    1.432    0.302
       236 -10.3738    224.4108     28.1111   3.9947018039e+01   2.6553651126e+01    0.4126577    0.2191936 -38.99  0.001712857    1.644    0.392
       237  -9.1291     96.6558     29.8861   6.0135547460e+01   5.6226936316e+01    0.2249828    0.1692546  38.72 0.0004578321    1.209    0.173
       238  -9.2162     84.7791     29.3431   6.3470319978e+01   5.8998262253e+01     0.270998    0.2133637  27.52 0.0006730808    1.186    0.156
       239  -7.9495    249.3065    234.6251   7.7981867096e+01  -6.8466858634e+00   0.09475518   0.08403046 -19.42 0.0007030224    1.771    0.435
       240  -9.2149    156.9105     28.8295   4.7486058550e+01   4.1655880876e+01    0.3038827    0.1598931  55.36  0.001431697    1.773    0.436
       241  -9.5657    105.0336     26.6675   5.6664859885e+01   5.4627107590e+01    0.3543092    0.2015584 -17.00  0.000470484    2.124    0.529
       242  -9.4030     67.4689     28.5766   6.9263806629e+01   6.2766514663e+01    0.3181781    0.2158131  -0.78  0.001221757    1.679    0.404
       243  -8.7210    130.6575     27.6017   5.1456026291e+01   4.8259206798e+01    0.2841451    0.1361715 -49.24    0.0011394    2.576    0.612
       244  -9.4496    123.8010     26.8638   5.2539219755e+01   5.0034356455e+01     0.275968     0.216571 -15.76 0.0009597411    1.460    0.315
       245 -10.0173     51.4891     23.9226   7.3858070021e+01   6.6437919433e+01     0.601822    0.2486003 -39.40  0.002561952    2.718    0.632
       246  -7.8543    152.6747    234.3127   9.6614262668e+01   5.2088051390e+00    0.1229385   0.09479738  49.11 0.0007041238    1.662    0.398
       247  -8.4697     10.9876    235.0000   1.2825433910e+02   2.2367088732e+01    0.1771568   0.05650266  26.39  0.000798052    2.912    0.657
       248  -8.5536    248.4722    227.9547   7.7027023000e+01  -5.9281749398e+00    0.1368752   0.09299093 -46.61 0.0008097399    2.588    0.614
       249  -9.7826     44.6326     18.0266   7.4149970447e+01   6.8440619047e+01    0.4677674    0.2440124  24.03  0.001795977    2.032    0.508
       250  -8.2225    229.2928    228.6490   8.0437365983e+01  -3.8793894644e+00   0.09885122   0.09134267 -12.98 0.0005905839    1.676    0.403
       251 -10.4257    238.6200    219.8779   7.7333682093e+01  -3.7834451256e+00    0.4236014    0.2242019 -41.15  0.002358144    2.205    0.546
       252  -9.4949    234.3431     26.1634   3.8771083310e+01   2.4812478621e+01    0.2060955    0.1434653 -66.18 0.0003728366    1.249    0.199
       253  -9.6545    192.9346     24.5847   4.1973978740e+01   3.3656119794e+01    0.2811715    0.1957432 -13.61  0.001534342    1.889    0.471
       254  -9.1824     62.5376     26.1827   7.0129025709e+01   6.4065633685e+01    0.3039956    0.1857738  14.19  0.001333105    1.955    0.488
       255  -9.0765     37.9008     26.0954   8.1741371407e+01   6.8339499566e+01    0.2926408     0.162047 -23.93  0.001077205    1.891    0.471
       256  -8.4061    218.2743     25.4814   3.9876346026e+01   2.8097113052e+01    0.2011895    0.1416585 -65.71  0.000855947    1.260    0.206
       257  -9.0977    216.0000     21.4923   3.9182915344e+01   2.9003558734e+01    0.3711493    0.1295259 -30.69  0.001663666    2.777    0.640
       258 -10.1675    247.3799    216.8280   7.5337276572e+01  -4.3734023905e+00     0.329128    0.1696431 -31.26  0.001582214    1.654    0.395
       259  -9.4598    142.2375     23.4567   4.8097473030e+01   4.5842813630e+01    0.3739398    0.2565078 -32.98  0.002009894    1.573    0.364
       260  -8.4340    212.5051    219.4597   8.1965210711e+01  -5.4713526408e-01    0.1263396   0.09712483  -1.22 0.0002585512    1.016    0.015
       261  -8.4307    228.4697    215.4706   7.8351233124e+01  -1.9736559488e+00    0.1224384   0.09354286  -5.54 6.439802e-05    1.046    0.044
       262  -8.4901    155.8083    221.2273   9.3941594293e+01   6.9963675339e+00    0.2084198    0.1427085  62.90 0.0009575502    2.822    0.646
       263  -8.5893     30.9188     27.1362   8.6133737571e+01   6.9148326616e+01    0.1813679     0.159421  18.83 0.0004388934    1.293    0.227
       264  -8.7064     22.3631     23.6382   8.9569602536e+01   7.0792764603e+01    0.2600382    0.1617965 -55.59  0.001341984    2.309    0.567
       265 -10.4573    157.6923     22.9535   4.5662726655e+01   4.2104355938e+01    0.4322609    0.1974104  60.15 0.0007417342    1.936    0.484
       266  -8.6148    241.4014    210.1597   7.5184905568e+01  -2.7894529317e+00    0.1605056   0.09715468 -38.14 0.0009494014    1.757    0.431
       267  -7.8501     96.3500     23.6652   5.7720292177e+01   5.7024744165e+01    0.1377044    0.1063869 -75.18 0.0007047043    1.781    0.439
       268  -8.1491    113.5545     22.4558   5.3102376711e+01   5.3025899338e+01    0.1388537    0.1207809  50.04 3.179553e-05    1.032    0.031
       269  -9.4671    103.5357     21.0662   5.4862512305e+01   5.5598828454e+01    0.2923594    0.2536137 -29.46  0.001044856    1.299    0.230
       270  -8.6294    232.7983     20.7704   3.7772048206e+01   2.5702601061e+01    0.1600654    0.1444021 -71.15 0.0006916353    1.172    0.147
       271  -8.3380     64.6677    202.8421   1.1345507310e+02   2.3608446000e+01    0.1841369    0.1220117 -85.11 0.0009390062    1.737    0.424
       272  -8.5635    249.8808    201.5619   7.2270672483e+01  -2.6076738763e+00    0.2156351    0.1360942 -41.21  0.001298986    1.862    0.463
       273  -9.8495    239.2420     19.9723   3.7172850029e+01   2.4551061313e+01    0.2862468    0.1897001  67.65  0.001722969    1.649    0.394
       274  -8.8520    242.7022    201.1217   7.3369853889e+01  -1.6902825012e+00    0.1833485     0.133973 -34.11  0.001028959    1.469    0.319
       275  -8.4628     18.3020    201.6569   1.2485281415e+02   2.8778675150e+01     0.134919   0.07493931  60.06 0.0004588225    1.679    0.404
       276  -8.5162     29.5174    198.9160   1.2193328234e+02   2.8370298384e+01    0.1866631    0.1172198 -77.71  0.000907173    1.561    0.359
       277  -9.8975    246.9659    192.8341   7.1176281390e+01  -1.0421008080e+00    0.3180398    0.1524669 -40.49  0.001662594    2.086    0.521
       278  -8.6318    231.9872    194.1853   7.3932611312e+01   6.6046846726e-01    0.1695125    0.1514815  59.22  0.001085588    2.026    0.506
       279  -9.0433    215.4124    191.2283   7.6356682049e+01   3.3665542659e+00    0.1790059    0.1124319 -41.93 0.0006386891    1.724    0.420
       280  -9.3066    237.4882    187.5141   7.1760473823e+01   9.2976499169e-01     0.256864    0.1028725 -36.55  0.001208281    2.163    0.538
       281  -8.9799    249.8045    184.9295   6.9276781081e+01  -2.6910465125e-01    0.2226018    0.1486054 -40.50  0.001363678    1.634    0.388
       282  -9.6239    242.2938    180.1031   6.9580682307e+01   1.3959540941e+00    0.2265842    0.1885097 -14.64  0.001546018    1.150    0.130
       283  -9.3902    226.1869    178.4695   7.1982657340e+01   3.8502881837e+00     0.215104    0.1335067 -35.42  0.001190689    1.455    0.313
       284  -9.3935    225.5602    173.2590   7.1079882292e+01   4.7624996384e+00    0.2498602    0.1098247 -39.95   0.00114431    2.096    0.523
       285  -9.5321    169.5889     18.0382   4.2791462835e+01   3.9748728847e+01    0.4077406     0.164832  60.02  0.001626623    2.208    0.547
       286  -8.2953    151.6522     18.7454   4.5252886431e+01   4.4009305025e+01    0.1633918     0.116801 -41.84 0.0002052262    1.465    0.318
       287  -8.1955    250.6918    172.3175   6.6787565317e+01   1.4400693651e+00    0.1090376   0.08966637 -46.54 0.0007031159    1.635    0.388
       288 -10.0231    243.1077    168.2843   6.7200265070e+01   3.0521040043e+00    0.3012547    0.1315883  24.47  0.001275849    3.361    0.703
       289  -8.7334    234.4883    164.5121   6.7853103994e+01   4.8440091974e+00    0.1296092    0.1034365 -17.61 0.0008104554    1.001    0.001
       290 -10.1896    246.1654    158.0789   6.4747388968e+01   4.1676219797e+00    0.2827613    0.1572904 -33.28  0.001560196    1.465    0.317
       291  -9.2713    226.6234    156.8122   6.7619202410e+01   7.2394311128e+00    0.1906883    0.1069908 -42.24 0.0009561518    1.717    0.418
       292 -10.3881    249.9962    150.5079   6.2696896164e+01   4.7675175660e+00    0.4365252    0.1456347 -34.53  0.001860038    2.495    0.599
       293  -9.1983    185.5229     17.5056   4.0954682702e+01   3.6084415466e+01    0.2141135    0.1745241 -60.74 0.0008482694    1.133    0.117
       294 -10.7657    245.7100    143.2231   6.1881407707e+01   6.4901485576e+00    0.2743971    0.2476548  -5.59  0.001907629    1.181    0.153
       295  -9.0687    242.4696    153.0240   6.4316771750e+01   5.4649117407e+00    0.3315285    0.1544792 -34.83  0.001493835    1.773    0.436
       296 -10.0778    244.0990    148.6472   6.3200970414e+01   5.8982350327e+00    0.2963375    0.1569603 -34.19  0.001570084    1.547    0.354
       297  -9.5776    234.5820    146.3090   6.4188617591e+01   7.6925817890e+00    0.2542052    0.1045508 -40.43  0.001130212    2.129    0.530
       298  -8.6230      1.6545     20.0374   1.0188485964e+02   7.3292181112e+01    0.1751733    0.1281804 -28.89 0.0004438664    1.068    0.064
       299  -9.6450    113.3475     16.2998   5.0875878223e+01   5.3694552470e+01    0.2706815    0.1815501  49.04 0.0006916526    1.323    0.244
       300  -8.7316    224.3429    145.2983   6.5630464385e+01   9.4730588882e+00    0.1351693    0.0935931  -2.74 0.0003808354    1.670    0.401
       301 -10.9143    248.7341    134.9415   5.9792619199e+01   7.2976734997e+00    0.3861724    0.2000511 -40.68  0.001327747    1.647    0.393
       302 -11.5725    241.2625    125.4850   5.8917223939e+01   9.8992675326e+00    0.6366847    0.2311552 -47.57  0.002462939    3.211    0.689
       303 -11.0111    242.2217    133.5287   6.0430691511e+01   8.5073329369e+00     0.348104    0.1919586 -36.64  0.001466793    1.495    0.331
       304  -8.7829     13.5189    133.0458   1.2048359647e+02   4.5956645264e+01    0.1857402    0.1807936 -76.67 0.0005990722    1.098    0.089
       305  -9.3653    211.2546     19.4972   3.9122251178e+01   3.0210527534e+01     0.218967    0.1493652 -39.11  0.001358711    1.391    0.281
       306  -9.6725     65.2712    131.9402   1.0283806580e+02   4.1008602363e+01    0.2605661    0.2205609  15.74 0.0002813055    1.233    0.189
       307  -8.7373     25.5073    128.5133   1.1590174459e+02   4.6247298791e+01    0.1379656    0.1259783 -71.27 2.006627e-05    1.020    0.019
       308  -8.6949    225.4955    124.5081   6.1035285056e+01   1.2672571345e+01    0.1331286     0.113337 -29.19 1.218889e-05    1.010    0.010
       309  -8.2340     17.1351    124.3457   1.1824418709e+02   4.7960465825e+01    0.1807207    0.1164442  33.93 0.0004302965    1.672    0.402
       310  -9.9854     69.3438    122.9024   9.9585107919e+01   4.2744845908e+01    0.2601269    0.2303817  25.22 0.0003354317    1.149    0.130
       311  -8.2669      1.5381    123.4918   1.2347976434e+02   4.9099852820e+01    0.1317301    0.1121269 -70.60 0.0008093466    1.016    0.015
       312 -10.6493    249.2517    117.9641   5.6296258942e+01   9.7725692729e+00    0.3214916    0.2610098  -8.73  0.001996269    1.314    0.239
       313  -8.2602    170.8208     11.5733   4.0912601536e+01   4.0086895222e+01    0.1692811    0.1080018  89.84 0.0003870091    1.494    0.331
       314 -10.3194    249.5284     97.7279   5.2132856292e+01   1.2708384543e+01    0.2634557    0.1985719 -35.87  0.001457864    1.093    0.085
       315 -11.8763    244.3185    114.0825   5.6146393211e+01   1.1145643929e+01    0.9418401    0.2346966 -44.85  0.003138236    4.151    0.759
       316  -9.7508    247.9860    112.5016   5.5345968726e+01   1.0789081137e+01    0.2547996    0.2173339 -58.09  0.001388772    1.314    0.239
       317  -9.0252    133.8432     10.4163   4.5224206715e+01   4.9174717186e+01    0.1983047    0.1005307  57.50 0.0009438734    1.684    0.406
       318 -11.7589    248.2917    106.1280   5.4002480368e+01   1.1684453779e+01    0.7334055    0.3948604 -46.88  0.003923566    1.708    0.414
       319  -8.9425     12.0036    115.2237   1.1890205293e+02   5.0651114981e+01    0.2109527    0.1814909 -69.43 0.0004552289    1.037    0.035
       320  -9.2412     15.4646    112.2003   1.1722854672e+02   5.1213429873e+01    0.2450331     0.221707  86.81  0.000659586    1.151    0.131
       321  -8.8561    104.9205    111.8520   8.5062020232e+01   3.9342967256e+01    0.2486703    0.2110657  -2.11  0.000657262    1.264    0.209
       322  -8.7969     25.9674    112.0487   1.1328035907e+02   5.0487994433e+01    0.2054395    0.1886405 -58.02            0    1.026    0.025
       323  -8.1496     65.3194    110.6753   9.8249861250e+01   4.6414407272e+01    0.1527201    0.1185824  68.79 0.0004649854    1.676    0.403
       324  -9.1201    120.0098    103.0115   7.8107766847e+01   3.8235419707e+01    0.2344164     0.227977  19.91 0.0003118615    1.044    0.042
       325  -8.5280     25.5151    103.4555   1.1198840830e+02   5.2736249464e+01    0.1397528    0.1245941 -50.68 6.720936e-05    1.004    0.004
       326  -8.7108      9.9860    101.4822   1.1778834651e+02   5.4289705787e+01    0.1885024   0.08954397  43.70 0.0008101476    2.536    0.606
       327  -8.6896     56.2872    100.0582   9.9092969426e+01   5.0313776729e+01    0.2035463    0.1829062 -48.66 0.0002143093    1.089    0.082
       328  -7.9001    130.6600     97.7339   7.3661325986e+01   3.7028630405e+01    0.1580173    0.1203569  12.13 0.0002337895    1.597    0.374
       329  -8.0560     81.0045     97.0317   8.9002467173e+01   4.7218523289e+01    0.1856605    0.1689122 -32.13  0.000964286    1.069    0.065
       330  -9.8738     72.1309     95.8671   9.1928640942e+01   4.8985701385e+01    0.3864468    0.3079393  13.97  0.001054892    1.298    0.230
