#   1 NUMBER                 Running object number                                     
#   2 MAG_AUTO               Kron-like elliptical aperture magnitude                    [mag]
#   3 X_IMAGE                Object position along x                                    [pixel]
#   4 Y_IMAGE                Object position along y                                    [pixel]
#   5 X_WORLD                Barycenter position along world x axis                     [deg]
#   6 Y_WORLD                Barycenter position along world y axis                     [deg]
#   7 A_WORLD                Profile RMS along major axis (world units)                 [deg]
#   8 B_WORLD                Profile RMS along minor axis (world units)                 [deg]
#   9 THETA_WORLD            Position angle (CCW/world-x)                               [deg]
#  10 FWHM_WORLD             FWHM assuming a gaussian core                              [deg]
#  11 ELONGATION             A_IMAGE/B_IMAGE                                           
#  12 ELLIPTICITY            1 - B_IMAGE/A_IMAGE                                       
         1 -12.4162     26.8595     50.8086   8.9168291485e+01   6.5744094553e+01     1.690336    0.6037517 -76.10  0.005427974    3.955    0.747
         2 -13.1126     37.9728     49.5091   8.2310447233e+01   6.4934783990e+01    0.9709402    0.7783786 -38.30  0.003853931    1.205    0.170
         3 -10.1766     15.1052     13.7780   8.4933794590e+01   7.5452517110e+01     0.565555    0.1744116 -61.11  0.002158679    3.022    0.669
         4 -11.6131     13.6965     23.2034   8.9944352813e+01   7.3409581860e+01    0.5722782     0.240794 -33.10 0.0002543068    2.513    0.602
         5 -11.1139     19.8334     15.6150   8.1646240801e+01   7.4642321846e+01    0.3702213    0.3062666 -10.58  0.001294469    1.135    0.119
         6 -10.7981     23.0159     13.1879   7.7671778163e+01   7.4836863284e+01    0.3230416    0.2177453  43.40  0.001013091    1.794    0.442
         7 -12.7804    159.5680     23.1372   3.0824899319e+01   4.1823160137e+01    0.3586981    0.3069099  13.02 0.0004143568    1.365    0.267
         8 -11.1792     59.8457     21.0876   5.7465726786e+01   6.7444746667e+01    0.4118777    0.3580008 -62.04   0.00136564    1.435    0.303
         9 -11.1488     66.9754     19.9928   5.3408210922e+01   6.6124776875e+01      0.45511    0.3429274 -12.72  0.001689461    1.482    0.325
        10 -10.3226     74.2240      1.9895   3.9969012142e+01   6.6837064629e+01    0.3298284    0.2414625 -86.99  0.001482817    1.804    0.446
        11 -10.7058     73.9538      6.8785   4.2990806515e+01   6.6349035439e+01    0.2761874    0.2440713  -0.07 0.0006136817    1.173    0.148
        12 -10.1518     70.6050     13.2679   4.8037880262e+01   6.6315795965e+01    0.2549822    0.2170488 -13.34 0.0008188401    1.224    0.183
        13 -11.0821     75.7298     10.9665   4.4690739926e+01   6.5409944071e+01    0.5448053     0.278099  61.30  0.002266068    2.011    0.503
        14 -10.5750     48.7404     15.6125   6.0460310112e+01   7.0540717811e+01    0.7441815    0.5128996  -5.90  0.003617238    1.807    0.447
        15 -11.3227     29.9050     19.4071   7.5443478538e+01   7.2734482827e+01    0.4092895    0.2413901 -41.33  0.000475452    1.604    0.376
        16 -10.5019     34.6629     14.7965   6.9346797744e+01   7.3024721538e+01    0.5930075    0.2576071 -35.23  0.002369784    2.603    0.616
        17 -10.4170     40.9510     16.9484   6.6194062352e+01   7.1647119010e+01    0.8997886    0.4830388 -58.45  0.003702056    2.776    0.640
        18 -11.7719     39.9678     10.8913   6.3156484849e+01   7.2913310829e+01     0.610438    0.4260263  10.84  0.001930343    1.605    0.377
        19 -12.1533      4.0628     16.2730   9.5959293315e+01   7.5507739380e+01    0.4695097    0.2644604  36.29  0.002166936    2.080    0.519
        20 -12.6703    237.9957     17.5692   2.1879735015e+01   2.4141245273e+01    0.2967194      0.21404 -53.28 0.0004501071    1.215    0.177
        21 -10.7419    153.6837     16.6608   2.9439670866e+01   4.4082444530e+01    0.5332762    0.2670569  20.09   0.00178972    3.872    0.742
        22  -9.8605    224.5462     14.6218   2.2044493816e+01   2.7173949562e+01    0.2426082    0.1498722  38.03 0.0007903631    2.218    0.549
        23  -9.5514    118.5104     12.4972   3.3653838724e+01   5.4060815915e+01    0.2080308    0.1348733 -38.47 -7.809682e-05    1.619    0.382
        24 -10.8357    118.1998      7.7850   3.1684558266e+01   5.4628055335e+01    0.2861004    0.2261681  -4.57 0.0007570764    1.452    0.311
        25 -10.6027    118.7409      3.5344   2.9744024361e+01   5.4879398142e+01    0.4516549    0.2199629 -88.12  0.001193748    2.700    0.630
        26 -10.0460    131.6129     13.7129   3.1728903911e+01   5.0356249973e+01    0.3487484    0.2185221  13.80  0.001286162    2.202    0.546
        27 -12.0715    128.2139     10.7913   3.1145355265e+01   5.1586308175e+01    0.3290949    0.2868654 -57.34  0.000237765    1.188    0.158
        28 -10.1317     83.2699     12.6842   4.2948940947e+01   6.3337265976e+01    0.4788091    0.2276827 -46.31   0.00170234    2.648    0.622
        29 -11.1019     59.8306     12.9759   5.2784430884e+01   6.8759585237e+01    0.4057723    0.3544826 -85.85  0.001783772    1.537    0.349
        30  -9.6440     55.1998     13.8616   5.5723986352e+01   6.9583385523e+01    0.2710343    0.1564915 -48.59  0.001200699    2.143    0.533
        31 -11.2697    164.5433      8.5535   2.5389760672e+01   4.2019306855e+01    0.7301641    0.2255424 -18.71  0.002424119    3.769    0.735
        32  -9.7469     30.8850     12.5192   7.0853467272e+01   7.4001762046e+01    0.1912225     0.163634 -30.93 0.0004146085    1.120    0.107
        33 -12.0373    233.2285     10.6923   2.0557753397e+01   2.5743725939e+01    0.3604746    0.1663792 -52.31  0.001858811    1.937    0.484
        34 -11.9374    234.2319      5.6766   1.9323670705e+01   2.5994702240e+01    0.2742109    0.2079324  -6.70  0.001124572    1.553    0.356
        35  -9.8907     96.1617     12.2240   3.8776450217e+01   6.0088035675e+01    0.1963435    0.1675887 -79.37  0.000540546    1.323    0.244
        36 -10.1631    175.7475     11.2701   2.5094870352e+01   3.8875370874e+01    0.2502113    0.1638469  82.19  0.001272497    1.496    0.331
        37 -10.7296      4.8361     10.2015   9.3187874792e+01   7.6877741139e+01    0.2514831    0.2111018  55.64  0.001590271    1.480    0.324
        38 -10.7904      9.2902      8.9447   8.8226959575e+01   7.6928240289e+01    0.4580003    0.1923941  28.40  0.002099792    2.463    0.594
        39 -11.6364    146.2396      7.7563   2.7280149337e+01   4.6967090492e+01    0.4112689    0.3587621 -25.26  0.001487334    1.236    0.191
        40 -12.6356    213.1842      5.4736   2.0488478855e+01   3.0483677385e+01    0.8453379    0.4984849 -65.71  0.004615127    1.646    0.392
        41 -10.5229     24.6850      7.9658   7.3160863389e+01   7.5699226851e+01    0.4346553    0.1920677  43.71  0.001781069    2.967    0.663
        42 -11.0413    190.3964      6.4699   2.2367825982e+01   3.5689136990e+01    0.3630325    0.2997454 -32.28  0.002198133    1.202    0.168
        43  -9.0714    113.2882      7.2713   3.2409153494e+01   5.6021079342e+01    0.1480884    0.1011658  40.27            0    1.507    0.336
        44 -10.1133    100.2355      7.1150   3.5205604719e+01   5.9567978034e+01    0.2370548    0.1793028  34.15   0.00119871    1.365    0.267
        45  -9.4704    156.3219      6.2811   2.5534697497e+01   4.4397574862e+01    0.1429733    0.0987514  44.02 0.0002757751    1.588    0.370
        46 -10.7306     68.3957      4.7297   4.3841261330e+01   6.7942719614e+01    0.3301552    0.2085875 -37.86  0.001594057    1.745    0.427
        47 -11.2216     19.4134      3.6887   7.5233545436e+01   7.7155307497e+01    0.6779817    0.3437738   7.60  0.002959459    2.600    0.615
        48 -10.8991     11.1842      3.0234   8.3215509320e+01   7.8071868194e+01    0.3374726    0.2217325 -13.56  0.001286898    1.507    0.336
        49  -9.6141    109.4584      5.4864   3.2373443391e+01   5.7238625015e+01    0.1467856    0.1333985  61.88 0.0001847211    1.011    0.011
        50 -10.0185     97.7328      4.0013   3.4262524740e+01   6.0549100972e+01    0.3925987    0.2080406  23.17  0.001527874    2.616    0.618
        51  -9.0518     58.3088      5.3169   4.8694582190e+01   7.0180143943e+01    0.1468214   0.09953577  21.16  0.000447403    1.635    0.388
        52 -10.4750    178.6824      3.6301   2.2491431159e+01   3.8837079859e+01    0.2639685    0.2035245 -63.91 0.0006356345    1.206    0.171
        53 -10.2111    126.3773      2.9036   2.8224169716e+01   5.2835373519e+01    0.2588181    0.2312873 -46.00  0.001353786    1.180    0.153
        54  -9.1988     78.3968      4.2424   3.9879388876e+01   6.5552835418e+01    0.1560578   0.09239114  38.66 0.0005911552    1.673    0.402
        55 -11.7182     28.9002      2.5226   6.5804203232e+01   7.6133214799e+01    0.5445799    0.2665994  27.35  0.002022727    2.152    0.535
        56 -10.9475    243.1756      2.5150   1.8155294359e+01   2.4496901177e+01     0.211155    0.1355049 -32.80 0.0005630694    1.304    0.233
        57 -10.7422    194.9505      1.7849   2.0708665966e+01   3.5010257223e+01    0.3179723    0.1584594 -81.68  0.001467633    2.141    0.533
        58 -10.8804    148.6463      1.9136   2.4878658753e+01   4.6839575350e+01    0.2565258    0.1945002  75.56 0.0004379588    1.212    0.175
        59 -11.2351      9.5375    152.2239   1.0773909783e+02   4.1466801575e+01    0.4307524    0.1648728  43.58  0.002035899    2.094    0.522
        60 -10.6665    247.7007    250.0843   6.5509004409e+01  -2.8696051743e+00    0.1643949   0.09903978  21.95  0.001316997    1.364    0.267
        61 -11.2403    238.0101    246.0094   6.6442941036e+01  -1.5664967158e+00    0.1955162    0.1096609  28.92 0.0009277944    1.617    0.382
        62 -12.3087    232.6405    245.0015   6.7146553114e+01  -9.3089882816e-01    0.3971703    0.1905934 -18.00  0.002673248    2.018    0.505
        63 -11.7709     88.8772    249.3643   9.4394978613e+01   1.5035191238e+01    0.3446335    0.1857428  28.87 0.0009874624    1.359    0.264
        64 -10.2323     72.3735    250.1443   9.7813092984e+01   1.6719728295e+01    0.1942763    0.1244384  17.57 0.0009734831    1.549    0.354
        65 -12.9692     19.2255    237.1912   1.0813679716e+02   2.3901859468e+01     1.382091   0.02424318  46.51  0.005620191    3.900    0.744
        66 -11.1052      5.5530    234.8528   1.1086068986e+02   2.5401687760e+01    0.4190986    0.1388903  45.29  0.002454292    1.874    0.466
        67 -12.8362      6.1349    245.1213   1.1091419128e+02   2.3683728337e+01    0.6167678    0.3739347  62.07  0.003620347    1.399    0.285
        68 -12.7183     22.4567    248.7392   1.0779699001e+02   2.1766537217e+01    0.8064843    0.1820934  28.13  0.003823042    2.931    0.659
        69 -12.6654     15.8364    246.0219   1.0903334536e+02   2.2755880873e+01    0.6446447    0.2600251  47.41  0.002475534    1.663    0.399
        70  -9.4027    222.7146    152.3105   5.3789174263e+01   1.0572693687e+01    0.1050559   0.09478021 -40.66 0.0002951889    1.574    0.364
        71  -9.9970    176.9893    150.2837   6.1782959626e+01   1.8289939850e+01    0.2155444     0.197899 -68.45   0.00104553    1.570    0.363
        72 -10.6509    207.0367    146.5268   5.5304770214e+01   1.3801993721e+01    0.1965607    0.1546653 -14.23 0.0006795118    1.136    0.120
        73 -10.1833    220.1792    143.8270   5.2540925985e+01   1.2069624412e+01    0.1762118    0.1256764   0.90  0.000605182    1.311    0.237
        74  -9.7408      2.9927    143.5154   1.0935288735e+02   4.3887666145e+01    0.1687577    0.1146052  22.08 0.0003996148    1.497    0.332
        75  -9.1226      8.3193    157.6930   1.0829408045e+02   4.0307116616e+01    0.1345155   0.06899147  52.83 0.0007031416    1.636    0.389
        76  -9.3833    240.3000    140.3001   4.8750969663e+01   9.4617423536e+00    0.1205278   0.07722955   3.00 0.0003375531    1.581    0.368
        77  -9.7964     13.6694    139.7068   1.0592024877e+02   4.4113259103e+01    0.1230911    0.0913433 -40.36 0.0003800261    1.631    0.387
        78 -12.2302      9.1877    136.3898   1.0716576101e+02   4.5197546301e+01    0.2687699    0.2046586 -86.26 0.0002579282    1.248    0.199
        79 -10.9288     17.5105    137.0070   1.0455244925e+02   4.4490767568e+01    0.2527509    0.1751774  38.45 9.537374e-05    1.318    0.241
        80  -9.6684     21.0000    134.9466   1.0329403193e+02   4.4731152696e+01    0.1919777    0.1313524  62.60 0.0006699297    1.349    0.259
        81 -10.4992      2.5425    136.4729   1.0925318981e+02   4.5566685275e+01    0.3493115    0.1021808 -79.45  0.001379538    3.116    0.679
        82  -9.2896    143.6993    137.3064   6.6594005506e+01   2.6558564159e+01    0.1366581    0.1147876  72.05 0.0003271228    1.595    0.373
        83  -9.9240    249.0658    133.7078   4.6232766716e+01   8.9754801855e+00    0.1589927    0.1288605   1.75 0.0004131523    1.101    0.092
        84  -9.9066    240.7433    134.0089   4.7447682707e+01   1.0162401815e+01    0.1529483   0.08678458 -26.75 0.0004430799    1.507    0.336
        85 -10.7131     79.6198    132.4057   8.3767096937e+01   3.8724056116e+01    0.2518362    0.2304581  21.21 0.0004321588    1.111    0.100
        86 -11.3641     54.3132    132.2791   9.2003945476e+01   4.2155192490e+01    0.4087443    0.2312933  30.30  0.001020786    1.646    0.393
        87 -10.0249     47.8266    133.2485   9.4281596641e+01   4.2659411003e+01    0.2131894    0.1676151  50.02 0.0006972079    1.179    0.152
        88 -11.5266     36.8554    130.2630   9.7628994176e+01   4.4523289495e+01    0.4272515    0.3155836 -24.41  0.002280635    1.701    0.412
        89 -11.1093     74.0228    128.8902   8.4979798308e+01   4.0382269554e+01    0.3253165    0.3071229  79.85   0.00077035    1.086    0.079
        90 -11.0294     23.8243    125.9742   1.0167747227e+02   4.6718340649e+01    0.3704192    0.1829113  27.81    0.0012717    1.899    0.474
        91 -11.2867     10.9969    122.9920   1.0587666762e+02   4.8343664614e+01    0.3222747    0.2267917  57.89  0.001156357    1.299    0.230
        92 -10.1143     17.5013    125.4983   1.0380859557e+02   4.7301989498e+01    0.2229749    0.2068612 -76.40 0.0009245166    1.128    0.113
        93  -9.9772     14.4890    125.4818   1.0483442170e+02   4.7509367960e+01    0.2077881    0.1839523 -39.49  0.000985324    1.300    0.230
        94  -9.6056    220.0057    123.9758   4.8478776716e+01   1.4753393062e+01       0.1558    0.1281156 -12.43 0.0004298443    1.044    0.042
        95 -10.2896    243.7773    122.5793   4.4727087531e+01   1.1096076496e+01    0.1345622    0.1164665  48.71  0.000527938    1.521    0.343
        96 -10.4288     20.0616    121.6975   1.0264270226e+02   4.8065858811e+01    0.1771173    0.1683565  43.71 0.0006833362    1.102    0.093
        97 -10.4702     72.9736    117.3265   8.3286618228e+01   4.3334872231e+01    0.3693385    0.2147379 -79.24   0.00109353    2.279    0.561
        98 -11.6210     15.7135    115.6278   1.0373188047e+02   4.9885202258e+01    0.3337203    0.2255567 -73.38 0.0007501727    1.405    0.288
        99  -9.9838      1.3875    118.8538   1.0897709453e+02   4.9877691953e+01    0.1838967    0.1096008 -87.87 0.0005374233    1.526    0.345
       100  -9.9519     32.9736    117.6623   9.7648419475e+01   4.8037870404e+01    0.1959523    0.1695824  52.39 0.0007270228    1.092    0.084
       101 -10.6326     23.7042    117.5789   1.0100039821e+02   4.8829855579e+01    0.2690485    0.1893608 -53.15  0.001374786    1.496    0.332
       102 -10.1103     85.8220    115.7921   7.8624997121e+01   4.1684358342e+01    0.2149191    0.2021802  -1.84  0.000629147    1.134    0.118
       103 -10.2199    214.0222    115.1203   4.7499765263e+01   1.7005462507e+01    0.1992735    0.1687749  -2.27  0.000519265    1.062    0.058
       104 -11.1889    249.4145    112.1246   4.1851338724e+01   1.1485783819e+01    0.2334995    0.1771534 -24.49 0.0005816696    1.118    0.105
       105 -11.9675     54.9318    109.5892   8.8388643221e+01   4.7735825199e+01    0.3382055    0.2727021 -63.60 0.0003657557    1.249    0.199
       106 -10.8897     51.9403    103.6333   8.8497757283e+01   4.9617873882e+01    0.2957795    0.2298862  49.62  0.000939969    1.278    0.217
       107 -11.3562     36.2513    109.3525   9.5432121743e+01   4.9852163175e+01    0.4544615     0.231118  54.06  0.001884464    2.106    0.525
       108  -9.5127      9.6937    111.6330   1.0565362718e+02   5.1250871319e+01    0.1755061    0.1294566 -17.70 0.0007525375    1.625    0.385
       109 -11.7392     14.7549    108.4432   1.0354033677e+02   5.1762769587e+01     0.503736    0.3390753  -0.52  0.002694216    1.750    0.429
       110 -10.8148      1.9929    106.0377   1.0819701815e+02   5.3032252138e+01    0.4653391    0.1844034 -73.95  0.002054167    2.244    0.554
       111 -10.1896      5.3558    106.3415   1.0695018745e+02   5.2805218111e+01    0.2846212    0.1492689 -48.96  0.001380182    2.035    0.509
       112 -11.1051     23.4371    106.6866   1.0005568030e+02   5.1622049344e+01    0.3538281    0.2436016  63.02  0.001661771    1.442    0.306
       113  -9.1893     82.6959    107.6838   7.7954309567e+01   4.4140235726e+01    0.1515544    0.1172635 -16.87 0.0007025198    1.623    0.384
       114  -9.6726     27.6764    104.7369   9.8188871997e+01   5.1793496166e+01     0.195256    0.1660646  88.74 0.0002075815    1.120    0.107
       115 -10.5274     25.9986    102.0273   9.8540623744e+01   5.2625329892e+01    0.2042066    0.1893735  69.97 0.0003310163    1.031    0.031
       116 -10.4734     94.4921    112.3537   7.5030582231e+01   4.1001930177e+01    0.3073537    0.2840807   9.08  0.001173884    1.130    0.115
       117 -10.7713    119.5427    102.6424   6.4942561056e+01   3.8316846528e+01    0.6188149    0.2873933 -32.31   0.00206111    3.109    0.678
       118  -9.6180     74.4645    104.4329   8.0166452445e+01   4.6263928618e+01    0.1488818     0.140817  50.05  1.81225e-05    1.027    0.027
       119 -10.1361     37.4772    102.8931   9.4071916659e+01   5.1394578005e+01    0.3982825    0.2215737  48.07  0.001813198    1.824    0.452
       120 -11.4654     19.3819    100.8663   1.0106625052e+02   5.3404745184e+01    0.2454169    0.2120668 -14.35 0.0001206223    1.309    0.236
       121 -11.4177    144.0542     98.1699   5.7199062686e+01   3.3961056748e+01    0.4686371    0.3996742  54.29  0.001635933    1.220    0.181
       122 -11.1370     65.2447     93.2996   8.1184138467e+01   5.0430703128e+01    0.6211416    0.2477525  30.28  0.001873868    2.504    0.601
       123 -11.4295     61.9283     98.6459   8.3650374938e+01   4.9571700337e+01    0.3324616    0.3014207 -39.24  0.000845471    1.160    0.138
       124 -10.5463     66.0560     98.0000   8.1914737680e+01   4.9138430906e+01    0.3053189    0.2015501  28.50 0.0009389045    1.519    0.342
       125 -10.6283     51.2106     98.6612   8.7886893370e+01   5.0976160181e+01    0.3306242    0.2082844 -39.55 0.0006947213    1.807    0.447
       126 -10.7386      9.7705     98.4832   1.0471712833e+02   5.4584204466e+01    0.2552805    0.1431625  82.07  0.001247706    1.735    0.424
       127 -10.2590      5.3322     97.9952   1.0646013934e+02   5.4920083323e+01    0.2876527    0.1758375  21.15 0.0009524999    1.716    0.417
       128 -10.0628      1.3705     95.7880   1.0791603826e+02   5.5642147994e+01    0.2326705     0.112375  89.14 0.0006275504    1.906    0.475
       129  -9.6818    205.8418     97.1609   4.4670635459e+01   2.1063351344e+01    0.1846547    0.1469564   0.06 0.0006190704    1.292    0.226
       130 -11.2804     14.7739     95.8240   1.0245618375e+02   5.4993105209e+01    0.4714286    0.2004547 -59.08  0.002050109    2.160    0.537
       131  -9.8608    100.8223     95.6141   6.8865667401e+01   4.3648523494e+01    0.2255301    0.1378178  49.27 0.0004516741    1.680    0.405
       132 -12.4714    157.8217     88.1538   5.1278784623e+01   3.2701371607e+01     1.064922    0.5204743 -56.12  0.003530955    3.485    0.713
       133  -9.8729     31.1969     92.8287   9.5195091033e+01   5.4579503335e+01    0.1915687    0.1492175 -48.29  0.000388282    1.306    0.234
       134 -10.8813     37.7323     90.3000   9.1994164268e+01   5.4626398093e+01     0.454418    0.2294483 -44.22  0.001369226    2.147    0.534
       135 -10.2021     25.5600     90.6939   9.7315017114e+01   5.5595551526e+01    0.2415139    0.2189911 -85.07 0.0006695631    1.043    0.041
       136 -11.6302     21.8600     87.7157   9.8541947514e+01   5.6640440326e+01     0.522186    0.3695921 -53.82  0.002206968    1.374    0.272
       137 -12.5159     10.5085     90.6126   1.0377667531e+02   5.6567671400e+01    0.2945015    0.2633461  88.18 0.0002157477    1.026    0.025
       138 -10.3612    153.4603     90.5194   5.2900499783e+01   3.3271404430e+01    0.2721842    0.1309513  39.38  0.001026593    2.236    0.553
       139 -10.3571     96.9869     88.9953   6.8343168587e+01   4.5898399113e+01     0.303563    0.1976527  40.21  0.001334485    1.477    0.323
       140 -10.2870     83.0660     88.5025   7.3152024302e+01   4.8656530913e+01    0.2439083    0.2078901 -37.93 0.0005356176    1.233    0.189
       141 -10.8010     78.5457     87.4281   7.4561950866e+01   4.9714607353e+01     0.384737    0.3019193 -62.56  0.001888903    1.356    0.263
       142 -11.8471      5.3504     83.9298   1.0546762466e+02   5.8518176177e+01    0.5801759    0.2791388 -46.53   0.00269194    2.105    0.525
       143 -10.3754     65.2173     87.2162   7.9757099269e+01   5.1947064956e+01    0.2984112    0.2150709 -52.15 0.0009245229    1.391    0.281
       144 -10.3117     67.4822     84.0000   7.8024821056e+01   5.2388393028e+01    0.2716921    0.2089703  13.64  0.001159881    1.463    0.316
       145 -10.1314     47.6849     87.9985   8.7277889284e+01   5.4132215969e+01    0.2401799    0.1843116  57.14 0.0002772284    1.387    0.279
       146  -9.8235    120.9506     86.4949   6.0092618790e+01   4.1368983854e+01    0.2250542    0.2121636 -33.67 0.0004244949    1.097    0.089
       147 -11.2569    115.1435     85.6693   6.1562845147e+01   4.2818488774e+01    0.5343145    0.3730125 -18.95  0.001376736    1.896    0.472
       148  -9.8074     14.8718     83.8945   1.0120424490e+02   5.8072973831e+01    0.1971485    0.1684385 -44.42 0.0004890685    1.199    0.166
       149 -11.6068     30.8370     80.7000   9.3427941379e+01   5.7761553409e+01    0.4368621    0.3043499 -54.71  0.002260305    1.369    0.269
       150 -10.1913     73.8752     81.9370   7.4895122319e+01   5.1836595550e+01    0.2394555    0.2065152 -20.68  0.001222802    1.280    0.219
       151  -9.9829     62.8267     82.4944   7.9565660786e+01   5.3478842833e+01    0.2235788    0.1442892  32.37  0.001012315    1.531    0.347
       152  -9.6850     42.1397     82.1437   8.8524649610e+01   5.6271690877e+01    0.1978316    0.1605912  64.52 0.0003889085    1.323    0.244
       153 -12.4572    166.1262     83.5812   4.8273018902e+01   3.1587800371e+01    0.8386645    0.6664354  45.35    0.0037452    1.254    0.203
       154 -11.8685      6.6102     51.1615   1.0133925722e+02   6.6875411519e+01     1.488618     0.647413 -68.18  0.006755272    1.943    0.485
       155 -11.3297     12.8021     57.7817   9.8771509956e+01   6.4926948420e+01    0.4648498     0.231553  56.38  0.001444277    2.446    0.591
       156 -12.7304      7.1502     73.2687   1.0369674936e+02   6.1192271304e+01     1.444688     0.612318  28.89  0.005153106    2.388    0.581
       157 -12.1434     13.7232     76.8574   1.0092876740e+02   5.9960237439e+01    0.4379303    0.3569801  30.78 0.0004436634    1.297    0.229
       158 -14.2036     16.5592     67.4267   9.8251851556e+01   6.2244548837e+01    0.6628019    0.5468103  60.39  0.001180974    1.281    0.219
       159 -11.9700     12.9152     50.0621   9.7371026131e+01   6.6885376479e+01    0.8312014    0.3854754 -83.38  0.003559556    2.315    0.568
       160 -11.1058      6.9754     40.5955   9.9387990585e+01   6.9519777587e+01    0.3977299    0.2592543  88.64  0.000627733    1.624    0.384
       161 -11.9358      4.1582     64.4142   1.0431295640e+02   6.3574818069e+01    0.3258465    0.2761048  32.59  0.001159903    1.288    0.223
       162 -11.8621      2.4695     61.4672   1.0490850250e+02   6.4378439421e+01    0.2838741    0.2622661 -45.16 3.279214e-05    1.102    0.093
       163  -9.5255    183.6084     80.7029   4.4213833277e+01   2.8115362972e+01    0.1506397    0.1047311  21.16 0.0007010011    1.791    0.442
       164 -10.6058    122.5534     79.5695   5.7567990048e+01   4.2396065248e+01    0.2501185    0.2456724  21.93 0.0002547942    1.024    0.024
       165 -10.0959    114.3283     79.7063   6.0021559991e+01   4.4229258723e+01    0.4309334    0.1783157  46.12  0.001500471    2.331    0.571
       166 -10.7015     60.5717     77.9665   7.9353196589e+01   5.4936595872e+01    0.3524145    0.3182273 -23.76  0.001303964    1.163    0.140
       167 -12.8998     45.0277     75.0386   8.5638337741e+01   5.7758225913e+01     0.456438    0.3019727  52.20  0.000878297    1.689    0.408
       168  -9.2773    184.4493     76.5291   4.2954305262e+01   2.8554246803e+01    0.1394397    0.1326462 -29.72 0.0002911901    1.031    0.030
       169  -9.4474     70.4444     76.4538   7.4745340116e+01   5.3733392539e+01    0.1481157    0.1457986  14.42 4.762107e-05    1.005    0.005
       170 -10.5996     76.2518     74.2039   7.1705364460e+01   5.3249352817e+01    0.4202008    0.2580453  20.26 0.0005884886    2.070    0.517
       171 -10.9925     78.4022     69.8657   6.9485807915e+01   5.3853162052e+01    0.3157386    0.2637049  39.25 0.0004191009    1.171    0.146
       172 -10.2269     74.6849     70.6573   7.1249319113e+01   5.4357401352e+01    0.3822707    0.1959805 -39.68  0.001468284    2.203    0.546
       173 -10.1264     53.9824     93.0433   8.5666237536e+01   5.2061434179e+01    0.1733923    0.1680065 -82.55 0.0003618862    1.024    0.024
       174 -10.4502     51.8416     62.2866   7.8942834607e+01   6.0048181486e+01    0.3227916     0.250156 -42.13  0.001276735    1.283    0.221
       175 -10.2698     47.3945     60.5482   8.0640958363e+01   6.1079539518e+01    0.3802377    0.2609704  18.08  0.001110243    1.566    0.361
       176 -11.0790     54.0102     74.0230   8.1229871013e+01   5.6858283166e+01     0.305044    0.2022525  41.32  0.001432903    1.530    0.346
       177 -11.8823     50.5674     67.9873   8.1211407154e+01   5.8826545473e+01    0.4816046    0.2982708 -54.14   0.00121396    1.557    0.358
       178 -10.6944    207.6453     73.0941   3.8503067888e+01   2.4029498796e+01    0.2153543    0.1858687  41.27  0.000335684    1.242    0.195
       179 -10.6443    101.1860     71.8400   6.1727651283e+01   4.8766382752e+01       0.4622    0.2654281  66.66 0.0009218853    2.966    0.663
       180 -10.8436    129.5686     70.5850   5.2837784802e+01   4.2467087892e+01    0.3831803    0.2843431 -11.79  0.001310334    1.696    0.410
       181 -10.0104    127.7090     66.3598   5.1960483795e+01   4.3687278050e+01    0.2835453    0.2112119  63.25  0.001062518    1.436    0.304
       182 -10.2906     42.8177     68.0947   8.5010089200e+01   5.9775876639e+01    0.2790089    0.2081472  14.54  0.001419729    1.433    0.302
       183 -10.8273     36.1795     68.2181   8.8350464401e+01   6.0472569304e+01    0.4844987    0.1915955  34.53  0.001266688    2.451    0.592
       184 -10.0287    194.9571     69.8325   3.9491980803e+01   2.7188631732e+01    0.1980542    0.1774957  12.60 0.0003738778    1.181    0.153
       185 -10.2334    167.8361     69.5725   4.3979379993e+01   3.3433097916e+01    0.2190337    0.1930861 -11.92  0.000357532    1.181    0.153
       186 -10.8386     94.0705     66.2337   6.2323241403e+01   5.1485681813e+01    0.4074573    0.3074674   0.81  0.001066026    1.778    0.438
       187 -10.0034     99.6541     64.6689   5.9836963184e+01   5.0587472900e+01    0.3058902    0.1466907  40.85  0.001129031    2.086    0.521
       188 -11.8972     44.7825     38.2611   7.4240447418e+01   6.6661302818e+01      0.50466    0.3144686  44.54            0    1.780    0.438
       189 -12.1007     37.1204    243.0982   1.0467033755e+02   2.1345128906e+01    0.5090507    0.2492258  70.82  0.002342082    2.236    0.553
       190 -11.5403     30.6472    234.3042   1.0568274810e+02   2.3379835874e+01    0.4031273    0.1337126  69.52  0.001871235    3.721    0.731
       191 -11.0247     29.1661     65.7682   9.1400355420e+01   6.1761016141e+01    0.2703238    0.2332673 -50.15 0.0004454806    1.100    0.091
       192 -11.0832     32.4786     63.6058   8.9189060002e+01   6.2011542559e+01    0.3329626     0.220066  36.18   0.00113022    1.563    0.360
       193 -10.3916    184.6850     65.0926   3.9796540269e+01   3.0162962948e+01    0.3369304    0.2160928 -10.53  0.001536083    1.950    0.487
       194 -12.4462    122.3378     63.6682   5.2516931395e+01   4.5478925040e+01     0.498564    0.4106046  50.69 0.0002032217    1.173    0.148
       195 -10.8204     81.3438     65.2823   6.6797473992e+01   5.4315756908e+01    0.2525035    0.2151138   5.55 0.0006315083    1.312    0.238
       196 -10.0292     77.1375     62.6659   6.7604634502e+01   5.5714040273e+01     0.348239    0.2253018  59.00 0.0008808601    1.959    0.489
       197 -10.8743     69.4763     64.1959   7.1373114528e+01   5.6782621129e+01    0.3853677    0.1449204 -50.23 0.0009426586    2.650    0.623
       198  -9.9740    152.5527     63.4960   4.5185016110e+01   3.8082610377e+01    0.2943513    0.1210492  45.52  0.001033666    2.537    0.606
       199 -10.2342    202.3787     61.6796   3.6294136639e+01   2.6662906224e+01    0.2598276    0.1904529  -8.76   0.00138412    1.527    0.345
       200 -10.7058    113.1944     60.9066   5.4195220439e+01   4.8190946036e+01    0.2308357    0.2092208 -81.64 0.0005518472    1.242    0.195
       201 -11.2310     90.9330     60.9054   6.1598326620e+01   5.3273995241e+01    0.4729656    0.1681751  43.04  0.001537878    2.737    0.635
       202  -9.9064    169.0681     60.1525   4.0995546538e+01   3.4561730763e+01    0.2128135    0.1903312  21.57 0.0002537954    1.203    0.169
       203 -10.8329     96.5890     58.8917   5.8844273272e+01   5.2439047239e+01    0.4289802     0.291591  73.60  0.001082822    2.187    0.543
       204  -9.3969    143.8068     64.3728   4.7364918541e+01   4.0092497406e+01    0.2071458    0.1357871  44.99 0.0002828238    1.521    0.342
       205 -11.1498     59.2339     59.0394   7.4323784429e+01   5.9707784167e+01     0.360534    0.3526737  67.50   0.00131259    1.092    0.085
       206 -10.4655     61.6827     54.8143   7.1690241214e+01   6.0278731311e+01    0.3957179    0.2427234 -36.94  0.001735743    1.772    0.436
       207 -11.1523    147.1359     56.6268   4.4143866412e+01   4.0520453937e+01     0.271491    0.2372433 -42.98 0.0003310963    1.164    0.141
       208 -11.2283    132.0011     56.2569   4.7472598038e+01   4.4390072801e+01    0.4292433    0.3385892 -12.05  0.001226987    1.480    0.324
       209 -12.0623    129.6292     49.2654   4.5608069660e+01   4.6135863403e+01    0.4501169    0.3952242  12.62 0.0005191876    1.267    0.210
       210 -10.8759     75.3451     55.7553   6.5880833678e+01   5.7573864077e+01    0.2828689    0.2532483 -46.69 0.0003690674    1.153    0.132
       211  -9.8538     99.4880     55.4755   5.6590271667e+01   5.2448708456e+01    0.2865137    0.1370765  38.55 0.0009302274    2.272    0.560
       212 -13.0042    105.3562     52.3799   5.3507956140e+01   5.1648725511e+01    0.4459032    0.3694341  40.57 0.0005253255    1.173    0.148
       213 -10.3944    104.3121     47.0889   5.1802236763e+01   5.2851951739e+01    0.3919366      0.22434  33.48  0.001412638    2.118    0.528
       214  -9.5881     48.0635     55.5222   7.8735638433e+01   6.2205299433e+01    0.2149949    0.1411507  27.97   0.00101561    1.542    0.351
       215 -11.3311     88.1868     52.8460   5.9628872563e+01   5.5510569254e+01    0.4871059    0.2542824 -48.21  0.001917745    2.080    0.519
       216  -9.1668     82.2546     53.9734   6.2363596015e+01   5.6551942848e+01    0.1901072    0.1320987 -44.30 0.0005424373    1.484    0.326
       217 -10.4594    119.6571     52.5844   4.9373650570e+01   4.8107093849e+01    0.2843951    0.2321186  38.27 0.0005306603    1.233    0.189
       218  -9.7796     56.0058     52.8381   7.3756489232e+01   6.1660652349e+01    0.3404616    0.2112417 -18.52  0.001372772    2.389    0.581
       219 -12.1862     59.5136     47.8115   7.0126218910e+01   6.2215471341e+01    0.3959227    0.3325105  68.13 0.0004226909    1.466    0.318
       220 -10.1686    230.9334     54.7294   3.1226034629e+01   2.1602735082e+01    0.2301227    0.1588165 -32.24 0.0008237488    1.241    0.194
       221 -10.3743     46.0645     49.4345   7.7757020258e+01   6.3924230030e+01    0.4248208    0.2878974  -9.25  0.001955932    1.889    0.471
       222  -9.8618    237.4554     50.4706   2.9593141149e+01   2.0825272198e+01    0.1233356    0.1028031 -37.95 1.752903e-05    1.035    0.034
       223 -10.0183     52.8712     49.9077   7.4297377351e+01   6.2822999359e+01    0.2275173     0.190165 -18.59 0.0005269234    1.258    0.205
       224  -8.9880    167.3027     48.6807   3.7832303312e+01   3.6630582128e+01    0.1511766    0.1068555 -63.12 0.0007026367    1.627    0.385
       225 -10.5363    151.4729     46.0094   3.9788388520e+01   4.1011736181e+01    0.2458898    0.2377893  21.48 0.0007433221    1.085    0.078
       226 -10.1276    143.1392     45.3966   4.1229118771e+01   4.3248930077e+01    0.2301713     0.210265  -7.21 0.0005646412    1.185    0.156
       227 -10.2009    112.7326     45.2101   4.8545229896e+01   5.1090374994e+01    0.3874239    0.1731265  40.62  0.001338877    2.547    0.607
       228 -10.8649    100.1125     35.1758   4.8231673417e+01   5.5891040830e+01    0.4034127    0.2483255 -68.53 0.0008794076    2.813    0.645
       229 -10.8316     91.7696     43.5441   5.4583844387e+01   5.6474827012e+01    0.5275014    0.2512961 -45.19  0.001997804    2.282    0.562
       230 -10.3399     95.5309     42.9265   5.3010185273e+01   5.5700762510e+01    0.2911722    0.2310872  17.04 0.0003180149    1.458    0.314
       231 -10.8819     97.3395     38.6286   5.0600484657e+01   5.6007924451e+01    0.4312027    0.3780008  -7.13  0.001754089    1.242    0.195
       232 -12.8481     57.6607     34.1673   6.5253638533e+01   6.5422423647e+01    0.3403867    0.3131862  -6.35 0.0007378304    1.049    0.047
       233 -10.1717     51.3409     44.7826   7.3172528821e+01   6.4222304794e+01     0.241589    0.2006835 -59.94  0.000422565    1.297    0.229
       234 -10.4251     51.8264     40.7775   7.1297333890e+01   6.5032565012e+01    0.3266278    0.2507939 -65.02 0.0009520617    1.539    0.350
       235 -12.1525    158.2616     42.6879   3.7470320756e+01   3.9733794727e+01    0.3393762    0.2549884  72.64  0.000289107    1.361    0.265
       236  -9.5619    139.4182     43.7474   4.1433314299e+01   4.4455930578e+01    0.2058499    0.1491407 -13.72 0.0009451555    1.630    0.387
       237 -11.4716     82.3310     42.4802   5.7697439449e+01   5.8811798851e+01    0.4318897    0.2467464 -56.10  0.001693983    2.351    0.575
       238 -10.7019    131.3124     41.7029   4.2479431453e+01   4.6869328618e+01    0.3313155    0.2561383 -56.26 0.0007860988    1.423    0.297
       239  -9.8206     72.4203     42.0712   6.1681920266e+01   6.0994804218e+01    0.4106521    0.2482284 -67.58  0.000925707    3.033    0.670
       240  -9.8754    107.9484     42.0462   4.8690662390e+01   5.2815695289e+01    0.4595783     0.150228  44.51 0.0009433044    3.237    0.691
       241 -11.4021     23.9441     41.2213   8.8306263905e+01   6.8353566608e+01    0.6872656    0.3377555  55.58  0.002666239    3.170    0.685
       242 -13.0070     28.0143     37.7279   8.4523250703e+01   6.8824546760e+01    0.6793842    0.4377351 -22.74  0.001569554    1.713    0.416
       243 -11.5714     24.2999     34.5822   8.5951459569e+01   6.9917879231e+01    0.4083178    0.2303792  -3.64  0.001519526    2.160    0.537
       244 -10.0403     18.2117     42.2075   9.2314703863e+01   6.8542377283e+01     0.204287    0.1597812 -41.75 0.0004481579    1.177    0.150
       245  -9.9815    148.3448     40.6794   3.8590566888e+01   4.2569649745e+01    0.3261113    0.2014385 -19.20  0.001416591    1.876    0.467
       246 -11.0461     69.9807     37.0511   6.0558556613e+01   6.2473113343e+01     0.429317    0.2874846 -11.44 0.0003497911    2.115    0.527
       247 -11.4058     74.8401     35.4122   5.7659877230e+01   6.1761404372e+01    0.4892843    0.3471782  23.53  0.001438903    1.608    0.378
       248 -10.0309     55.4050     39.7311   6.8931765094e+01   6.4667303867e+01    0.2951263    0.1987257 -35.64  0.000849657    1.535    0.349
       249 -11.2891    225.1532     37.7859   2.7687096053e+01   2.4674411457e+01    0.3006137    0.2143176 -79.35 0.0004103117    1.586    0.369
       250 -11.3558    221.7508     31.9677   2.6549332868e+01   2.6012127383e+01    0.2837897    0.1785647 -34.58 0.0003111871    1.370    0.270
       251  -9.7853    152.3384     38.9077   3.7260835422e+01   4.1772115867e+01    0.2006503    0.1886017 -31.36 0.0004016481    1.099    0.090
       252  -9.3959     86.0611     38.5297   5.4543735648e+01   5.8697663778e+01    0.2157108    0.1446253  49.72 0.0003210591    1.438    0.304
       253 -10.7175     81.8396     36.6362   5.5333878719e+01   5.9996735137e+01    0.2999052    0.2374457  51.45  0.001500734    1.249    0.200
       254  -9.5271      1.4454     37.5212   1.0260360156e+02   7.0442906467e+01    0.1296675      0.11085 -57.03 5.872418e-05    1.018    0.018
       255  -9.8313     89.9149     35.5967   5.1833364825e+01   5.8306692172e+01    0.2075784    0.1912873  50.97 0.0005072933    1.065    0.061
       256 -11.4035     35.2371     42.2077   8.1487957740e+01   6.6995086938e+01    0.6169091    0.3511102  -3.73  0.002384524    2.478    0.597
       257  -9.5915    134.4894     34.9121   3.9289595580e+01   4.7005035061e+01    0.2283187    0.1482865 -31.62  0.001030113    1.590    0.371
       258 -11.9718      8.4562     32.0335   9.6565457669e+01   7.1573862814e+01    0.4179167    0.2998136 -79.86  0.001439589    1.410    0.291
       259 -11.1694     16.9010     30.9828   9.0044150416e+01   7.1359717474e+01    0.5735464    0.2516424  13.20  0.002446037    2.435    0.589
       260 -10.0394    184.3013     34.0201   3.0976642014e+01   3.4304951158e+01    0.1970476    0.1716433 -44.12 0.0003699988    1.089    0.082
       261 -10.2624    107.9185     34.2372   4.5500853457e+01   5.4063631110e+01    0.3079706    0.1769497  50.90 0.0007312846    1.621    0.383
       262 -10.1150    226.1363     32.8761   2.6399040581e+01   2.5000147554e+01    0.1915171    0.1422438 -48.85 0.0003655387    1.206    0.171
       263  -9.8607    205.6092     32.2273   2.8113836889e+01   2.9508258402e+01    0.1704728    0.1210991 -15.25 0.0002454991    1.518    0.341
       264 -10.1357    166.5664     32.2821   3.2809783354e+01   3.8942092613e+01    0.1957828     0.140638 -10.45 0.0009534327    1.631    0.387
       265 -11.1427    102.9866     29.2961   4.4802941196e+01   5.6065752661e+01    0.4416982    0.2693314  57.66   0.00092074    1.551    0.355
       266 -10.4644     49.9080     29.0961   6.7100221636e+01   6.7800783951e+01    0.5462281     0.247794 -32.71  0.002006204    2.860    0.650
       267  -9.4481     44.1829     31.4129   7.1611391630e+01   6.8237624300e+01    0.1797669    0.1285127  42.94  0.000256318    1.509    0.337
       268 -10.6363     79.6001     28.0998   5.2221603872e+01   6.1974245596e+01    0.4120702    0.2199604 -28.19  0.001282759    2.132    0.531
       269 -10.5232    237.6148     29.2051   2.4617045069e+01   2.3068037107e+01    0.1647867    0.1051436 -15.85 0.0006061784    1.645    0.392
       270 -12.0482    111.7896     27.3522   4.1548170170e+01   5.4054152483e+01    0.3504416    0.2897915 -17.49  0.001792458    1.324    0.245
       271 -10.9577     65.5723     28.0821   5.8322639518e+01   6.5046592421e+01    0.3761187    0.2589183  28.33 0.0005590229    1.534    0.348
       272  -9.9738     70.4524     25.4362   5.4725541371e+01   6.4471661452e+01    0.2816211    0.1812404  50.03 0.0006150185    1.524    0.344
       273 -10.7980    198.0253     27.9907   2.7726418081e+01   3.1714274388e+01    0.2161085    0.1548626  30.72  0.001140592    1.765    0.434
       274 -10.1473    174.8934     26.3837   2.9849098568e+01   3.7514529036e+01    0.2429675    0.1694487 -40.58  0.000582265    1.370    0.270
       275 -10.4446    129.0901     18.8042   3.4196242587e+01   5.0484653906e+01     0.259652    0.2172372  -6.59 0.0005800748    1.355    0.262
       276 -10.4683    128.4364     26.4613   3.7339783215e+01   4.9737156307e+01    0.2755158    0.2193643  81.81 0.0004942197    1.291    0.226
       277 -11.0053    128.5903     22.7683   3.5859982155e+01   5.0153732556e+01    0.5036443      0.30284 -64.21  0.002084996    2.142    0.533
       278 -12.3361    226.3988    245.2324   6.8169214495e+01  -3.0590087156e-01    0.6008239     0.262989   6.04  0.003226082    2.824    0.646
       279 -10.9459     22.5957     24.7093   8.3483650645e+01   7.2364118388e+01    0.3457951    0.2387116 -36.21  0.001694456    1.350    0.259
       280 -10.0297     24.3845     21.1680   8.0553938240e+01   7.2980878709e+01    0.2969098    0.2166298 -71.99  0.001596091    1.666    0.400
       281 -13.3241     74.3498    238.1628   9.6629220047e+01   1.8341463845e+01    0.6838848    0.6138379  61.42  0.005485766    1.303    0.233
       282 -10.4073      7.5956     24.8203   9.5392228926e+01   7.3351551795e+01    0.3612987    0.1711145  10.60  0.001675119    2.221    0.550
       283  -9.5419     98.1984    242.3360   9.1930094140e+01   1.5001229139e+01    0.1740585   0.07104566  36.14 0.0005398373    1.713    0.416
       284 -11.1338     88.4578    241.2664   9.3877902211e+01   1.6281781944e+01    0.1884464    0.1449337 -24.62  0.001334219    1.791    0.442
       285  -9.5593    117.5366     26.4723   3.9760368174e+01   5.2651614364e+01    0.1505831    0.1417483  62.23 -9.048308e-06    1.007    0.007
       286  -9.5225     16.7781     26.3594   8.8602019258e+01   7.2462025209e+01    0.1757274    0.1155762  -6.70 0.0003019483    1.607    0.378
       287 -10.0795      1.5862     25.5901   1.0039026992e+02   7.3361991682e+01     0.228419    0.1395773 -73.85 0.0006089081    1.502    0.334
       288  -9.2533    219.2799     25.3267   2.5094203076e+01   2.7233878820e+01    0.1190322   0.09442906  20.47 0.0003729272    1.596    0.373
       289  -9.5572    214.3058     25.3031   2.5501018285e+01   2.8314891575e+01    0.1215612   0.09539833  27.77 0.0002769194    1.599    0.375
       290 -10.2516    204.2990     25.8696   2.6539323763e+01   3.0494139711e+01    0.3656183    0.1259281 -45.02  0.001444213    2.652    0.623
       291 -10.0792    195.4615    238.3659   7.2480312826e+01   3.8038144228e+00    0.1965589    0.1220158   1.19   0.00135096    1.456    0.313
       292 -10.6283    244.1352    237.1382   6.4295619445e+01  -1.3914841793e+00    0.1682758    0.1127253 -14.18  0.001170305    1.400    0.286
       293  -9.8369    106.8995     22.7662   4.0828090573e+01   5.5957628877e+01    0.3058668    0.1672379 -40.52  0.001278701    1.948    0.487
       294 -10.7610     97.4808     23.5123   4.3820987843e+01   5.8302488518e+01    0.6767375    0.3353276  43.88  0.002683848    2.008    0.502
       295 -10.0983     94.2978     21.6857   4.3932217069e+01   5.9367241336e+01    0.2623262    0.2136396  70.69 0.0006526333    1.282    0.220
       296  -9.6676    186.2241     22.4345   2.7368680111e+01   3.5132433319e+01    0.1880371    0.1230187 -85.37 0.0009356168    1.644    0.392
       297 -10.3021     84.6014     21.6485   4.7140649070e+01   6.1788264095e+01    0.3744177    0.2067377  57.60  0.001588894    1.772    0.436
       298 -10.0837    120.3379     20.9804   3.6849549307e+01   5.2597705696e+01    0.1963469    0.1813413 -27.36 0.0002164606    1.159    0.137
       299  -9.6157    134.6200    238.2229   8.4048323883e+01   1.1202367502e+01    0.1393646   0.09985408 -25.36  0.000952734    1.731    0.422
       300  -9.9464     73.5669     16.3164   4.8533062646e+01   6.5194196975e+01    0.4674444    0.2182045  45.14  0.001890738    1.999    0.500
       301 -10.3010    159.9850    235.6988   7.8728698958e+01   8.3908502457e+00    0.1667585    0.1105246  23.08 0.0004211287    1.091    0.084
       302  -9.5932    177.2319    235.0085   7.5359645072e+01   6.3552653848e+00    0.1242946   0.08760461 -27.24 0.0008807094    1.643    0.391
       303  -9.5350    221.3212    234.3467   6.7523126753e+01   1.2878130405e+00    0.1128839   0.06003505   4.52 0.0007049455    1.735    0.424
       304 -10.8906     86.5972    232.8984   9.3620723281e+01   1.7789757473e+01    0.2557157   0.09906483  41.52  0.001315312    1.962    0.490
       305  -9.7689     51.1263     17.7972   6.0344789541e+01   6.9716093102e+01    0.2266378    0.1816491  -9.97 0.0003444924    1.298    0.230
       306 -10.1640     38.3913    232.4510   1.0397435899e+02   2.2972639764e+01    0.1663116    0.1387848  53.36 0.0003647203    1.178    0.151
       307  -9.9592     24.0999    232.1537   1.0698254029e+02   2.4324434253e+01    0.1488921    0.1267448  30.09  0.000570372    1.267    0.211
       308  -9.2148     58.4828    229.4779   9.9489241749e+01   2.1464411275e+01    0.1161159   0.08568055  38.79 8.646375e-05    1.004    0.004
       309 -11.1776      4.3031    226.4585   1.1097461962e+02   2.6921582829e+01     0.261928    0.1824625  87.60  0.001985026    1.569    0.363
       310 -11.4116    121.3046    226.3365   8.5540889239e+01   1.4568656370e+01    0.2579441    0.1637702  47.72  0.001579813    1.647    0.393
       311 -10.4674      9.6951     15.6454   9.0629087520e+01   7.5396878623e+01    0.2877399    0.1703165 -22.56  0.000807972    1.681    0.405
       312 -11.0358      6.2260     20.4109   9.5280625154e+01   7.4454975265e+01    0.2816934    0.2208334  15.49 0.0008137162    1.379    0.275
       313  -9.7604    124.3478    221.0450   8.4306646710e+01   1.4976584537e+01    0.2627974    0.1400288   0.51  0.001077592    3.834    0.739
       314 -11.4829     21.1588    220.6080   1.0724728349e+02   2.6582831076e+01    0.1973681     0.133543  54.79  0.001401663    1.191    0.160
       315  -9.5143    113.8186     20.1742   3.7975032957e+01   5.4448795360e+01    0.2078553    0.1682601  37.54 0.0007980737    1.265    0.209
       316  -9.9482    177.9991     17.9914   2.6920134942e+01   3.7636771134e+01    0.1982852    0.1861495 -71.00  0.001201134    1.024    0.024
       317 -10.0600    192.0000    218.0007   7.0318580910e+01   6.5497108116e+00     0.160466   0.06139831 -37.46  0.000806706    2.972    0.664
       318 -10.1534    108.3589     17.2136   3.7973575302e+01   5.6268867737e+01    0.2500605    0.2079702  29.62 0.0006085018    1.269    0.212
       319  -9.0380     54.6120     18.3318   5.8688024343e+01   6.8957658752e+01    0.1418978    0.1150438  86.39 5.927289e-05    1.888    0.470
       320 -10.5620    194.9774     16.7908   2.4901537295e+01   3.3603335919e+01    0.2029614    0.1751181 -40.39 0.0003142874    1.099    0.090
       321  -9.8409    143.7388     16.2329   3.0725613795e+01   4.6795798161e+01    0.2019993    0.1599515  41.04  0.001042474    1.350    0.259
       322 -10.6419    172.9889     19.9677   2.8089924980e+01   3.8697873344e+01    0.2381058    0.1482105 -61.29  0.000958676    1.697    0.411
       323 -11.7107     10.8053    216.6786   1.0939527687e+02   2.8142111890e+01     0.342831    0.1988898  19.76  0.002195199    1.711    0.416
       324 -12.5641    165.5106     22.5451   2.9829332950e+01   4.0340368231e+01    0.4259133    0.2813002  55.86 9.999913e-05    1.507    0.337
       325  -9.6082    116.3209     15.3259   3.5322670414e+01   5.4345440586e+01    0.2188231    0.1266665  15.38 0.0007330836    2.599    0.615
       326 -10.0503     38.0440    217.3000   1.0337089056e+02   2.5645499366e+01    0.1703388    0.1144764  38.00 0.0006944493    1.126    0.112
       327 -11.4450     29.3654    215.5359   1.0524789097e+02   2.6773536490e+01    0.2965925    0.1795487  25.38  0.001565844    1.470    0.320
       328 -11.2145    235.8972    214.3679   6.2278280249e+01   1.6694995612e+00    0.2072497    0.1244803 -13.41 0.0008426245    1.425    0.298
       329  -9.8809    136.4865    215.5188   8.1045459109e+01   1.4208315967e+01    0.2243502   0.09718057  23.17  0.001025237    2.275    0.561
       330  -9.5489    169.6239    213.1880   7.3901909871e+01   1.0078751576e+01     0.152948   0.09974963 -20.25 0.0008606131    1.685    0.407
       331  -9.3328     66.3240    226.3148   9.7565666029e+01   2.1156077833e+01     0.107184    0.0828583  -2.06 0.0007042139    1.664    0.399
       332 -10.2896     20.6270    212.0678   1.0708775383e+02   2.8177490698e+01    0.2087647    0.1125129  41.42  0.001303302    1.352    0.260
       333 -11.9744      5.4407    208.4534   1.1039563486e+02   3.0065496732e+01    0.3452846    0.2290131 -87.63  0.001947629    1.621    0.383
       334 -10.9254      1.4887    211.0173   1.1131571365e+02   2.9883800414e+01    0.2041676    0.1029353  67.84 0.0007598593    1.722    0.419
       335 -11.4420    238.6317    210.2855   6.1226320663e+01   1.7748718564e+00    0.2766235    0.2213349  39.44  0.002043771    2.109    0.526
       336 -10.5896     11.0091    207.7772   1.0913106940e+02   2.9763811880e+01    0.1761948    0.1682558  85.84 0.0005733541    1.335    0.251
       337 -10.4248    246.1798    202.1682   5.8797798722e+01   1.7427967930e+00    0.1702918    0.1337798 -35.94  0.001251283    2.074    0.518
       338  -9.4573    188.2349    204.9836   6.9097369165e+01   8.6582078455e+00    0.1346093   0.09203267 -27.63 0.0005446884    1.566    0.361
       339 -10.6183    175.3471    202.3501   7.1189292088e+01   1.0768627999e+01    0.2137889    0.1670489  22.95 0.0004478503    1.128    0.114
       340 -10.9005     20.1691    199.5570   1.0675797152e+02   3.0590461219e+01    0.3194426    0.1682255 -85.55  0.001869347    2.032    0.508
       341  -9.7176    117.2817    201.4317   8.3564647956e+01   1.9084362075e+01    0.1827493   0.09599405  38.54 0.0009409173    1.564    0.360
       342 -11.3082     16.1818    193.0007   1.0748204738e+02   3.2211906198e+01     0.436911    0.1923129  23.85  0.002304289    2.034    0.508
       343  -9.7713    107.3328     10.5913   3.5193195226e+01   5.7296200375e+01    0.1971561    0.1259571  55.46 0.0004022074    1.409    0.290
       344 -10.1648    244.7330    188.0378   5.6724158631e+01   3.3875812054e+00    0.1567973    0.1093442  -4.79 0.0004331689    1.086    0.080
       345  -9.3944      2.3207    187.3305   1.1068318167e+02   3.4390726706e+01    0.1035909   0.08335342 -40.56 0.0003847949    1.693    0.409
       346 -11.4359     15.7627    182.0071   1.0719414570e+02   3.4487742108e+01    0.4354298    0.1968592  61.61  0.002275039    1.966    0.491
       347 -10.5387    167.9582    183.3196   6.9682511928e+01   1.4588079157e+01    0.2009221    0.1906413  64.94  0.001169184    1.555    0.357
       348  -9.8419     58.8504    181.8356   9.5962656400e+01   3.0365254065e+01    0.1854733    0.1672018  16.37   0.00084067    1.222    0.182
       349  -9.0980      1.6842    180.2887   1.1068992487e+02   3.5873221982e+01    0.1258894   0.06126856  50.84 0.0003365573    1.591    0.371
       350  -9.7173    244.4905    178.0041   5.5061168462e+01   4.5081272773e+00    0.1677142   0.07710837 -10.06  0.000810337    2.701    0.630
       351 -10.5230     46.5973    177.4250   9.8859357257e+01   3.2634350604e+01    0.2665508    0.2063151  51.12  0.001116385    1.105    0.095
       352 -10.7533     18.3542    172.9201   1.0615414062e+02   3.6208984376e+01     0.306175    0.1203716  44.29  0.001497189    1.967    0.491
       353 -12.0234     52.0584    161.9959   9.6027777710e+01   3.5424996570e+01    0.8211107    0.4567921  41.05  0.004173277    1.527    0.345
       354 -12.1563     36.8549    165.5875   1.0066082606e+02   3.6196157414e+01     0.501871    0.3001011  62.65  0.002168506    1.604    0.377
       355 -10.5997     35.4686    161.4865   1.0075933306e+02   3.7249404039e+01    0.2695766    0.1635173  24.24 0.0009047838    1.579    0.367
       356 -10.4273      5.0122    168.5101   1.0954291137e+02   3.8142333625e+01    0.1772891      0.10454  24.99 0.0008961457    1.593    0.372
       357 -10.0894    187.0271    165.2759   6.2650069098e+01   1.4326293620e+01    0.1998591    0.1502515 -79.82 0.0009059474    3.589    0.721
       358 -11.8180     42.8807    162.4163   9.8703743199e+01   3.6309668245e+01    0.5640937    0.2131749  34.23  0.002479847    2.113    0.527
       359  -9.3293    111.7153    164.3240   7.9751442514e+01   2.6773002054e+01    0.1365334     0.101433  60.43 0.0003161159    1.599    0.375
       360 -12.2590     21.8793    157.2910   1.0440539249e+02   3.9395535458e+01    0.6454941    0.3855101  22.71  0.001023785    1.636    0.389
       361  -9.5886    216.2991    154.9811   5.5366129342e+01   1.1195630225e+01    0.1693231    0.1345021  -9.99  0.000368127    1.091    0.084
