#   1 NUMBER                 Running object number                                     
#   2 MAG_AUTO               Kron-like elliptical aperture magnitude                    [mag]
#   3 X_IMAGE                Object position along x                                    [pixel]
#   4 Y_IMAGE                Object position along y                                    [pixel]
#   5 X_WORLD                Barycenter position along world x axis                     [deg]
#   6 Y_WORLD                Barycenter position along world y axis                     [deg]
#   7 A_WORLD                Profile RMS along major axis (world units)                 [deg]
#   8 B_WORLD                Profile RMS along minor axis (world units)                 [deg]
#   9 THETA_WORLD            Position angle (CCW/world-x)                               [deg]
#  10 FWHM_WORLD             FWHM assuming a gaussian core                              [deg]
#  11 ELONGATION             A_IMAGE/B_IMAGE                                           
#  12 ELLIPTICITY            1 - B_IMAGE/A_IMAGE                                       
         1 -12.1438    185.7296     19.4151   6.6412926243e+01   3.6203693481e+01    0.4311683    0.1748602 -27.54  0.001618136    2.293    0.564
         2 -11.3070    199.8047     13.3176   6.2612934958e+01   3.3131490706e+01    0.5378601    0.1144239 -29.34  0.001645634    3.601    0.722
         3 -10.7478     38.4994      2.9633   9.9699044477e+01   7.0672323773e+01    0.1935599    0.1019507 -36.50 0.0006281857    1.574    0.365
         4 -10.5464      2.2294      2.7207   1.2012436217e+02   7.4017666069e+01    0.1957645   0.05031955 -50.27 0.0008932502    2.383    0.580
         5 -13.4321     58.9096    170.8155   1.3261639167e+02   3.3192576895e+01    0.3004172    0.2725237 -37.93  0.000992386    1.543    0.352
         6 -15.9153    240.1853    125.8835   8.7752348086e+01   9.5465206609e+00     11.70118     5.269678 -29.69   0.05230203    2.080    0.519
         7 -10.1045    132.6621    139.3494   1.1188856434e+02   2.8551970216e+01    0.2441184    0.1371521 -59.58  0.001096634    2.190    0.543
         8 -10.6989    144.2855    145.9136   1.1057452431e+02   2.5231783641e+01    0.3051188    0.2067043  68.58  0.001468169    2.064    0.515
         9 -12.7757    144.5307    100.4453   1.0028206803e+02   3.3745774926e+01    0.5375917    0.4741428  62.46  0.001389809    1.259    0.205
        10 -11.8946    131.3792     96.7293   1.0252697848e+02   3.7175028422e+01    0.3101606    0.2865785 -67.94 0.0006262414    1.184    0.155
        11 -11.0513    139.0947    104.1294   1.0253876310e+02   3.4157823702e+01     0.318624    0.2505365  10.24 0.0006580554    1.532    0.347
        12 -11.5605    135.8256    129.7107   1.0922606298e+02   2.9820767323e+01    0.9044946    0.1981593 -50.03  0.002430804    5.551    0.820
        13 -11.5805    134.9904    120.5564   1.0744026713e+02   3.1755086203e+01    0.5154436    0.1995577 -47.26  0.001515045    2.658    0.624
        14 -12.9974    134.6013    108.1233   1.0462549030e+02   3.4275490225e+01     1.167064    0.2959026 -45.47  0.003456229    3.983    0.749
        15  -9.8313    101.0723    135.5254   1.1855013074e+02   3.4615350987e+01    0.1850604    0.1248323  40.03 0.0004120009    1.480    0.324
        16 -14.4838    179.8538     77.0264   8.5870991420e+01   2.9882210342e+01     2.911108      1.77224 -52.43   0.01188463    2.124    0.529
        17 -11.0462    154.1368    125.8822   1.0424451056e+02   2.7009261125e+01    0.2107372    0.1977341  70.86 0.0005860925    1.193    0.161
        18 -11.0034    140.6646    121.1564   1.0624301536e+02   3.0546809755e+01    0.4183893    0.1658543  57.53   0.00115908    5.113    0.804
        19 -12.2831    153.8743    109.4746   1.0041504435e+02   3.0088419171e+01    0.3578402    0.2878192  73.89  0.001105752    1.603    0.376
        20 -12.3696    120.0253    111.5369   1.0905062338e+02   3.6363275399e+01    0.6420028    0.4016424  69.03  0.002686862    2.523    0.604
        21 -13.1836    120.9728    101.2364   1.0634184724e+02   3.8299875209e+01     0.742689    0.6132481  -5.74  0.003908933    1.455    0.313
        22  -9.8613    111.8047    113.1817   1.1150598418e+02   3.7491752564e+01    0.1826735    0.1639909  -3.25 0.0005390025    1.285    0.222
        23 -11.8602    159.4550    103.4548   9.7616977138e+01   3.0005773311e+01    0.3375025     0.239983 -80.72  0.001403098    2.483    0.597
        24 -11.2154    113.3100     95.1044   1.0680561099e+02   4.0999478608e+01    0.2338899     0.197197  23.61 0.0004818065    1.305    0.234
        25 -11.6314    112.8322    104.8054   1.0932722569e+02   3.9061007739e+01    0.3907007    0.3081563 -69.81  0.001944006    1.429    0.300
        26 -14.1763    160.1629     69.4538   8.7692030558e+01   3.5837499936e+01     1.242942    0.8190875  -5.81  0.001893197    1.947    0.486
        27 -12.3027    136.7742     89.8438   9.9302909557e+01   3.7413351774e+01    0.4066068    0.3221419  66.19  0.001287592    1.525    0.344
        28 -11.5548    126.5115     80.9202   9.9368583286e+01   4.1292080532e+01    0.2647333    0.2203422  39.38 0.0006159905    1.234    0.189
        29 -11.8178    224.1328     79.8629   7.8836250514e+01   1.9048490097e+01    0.2475065    0.2062091  33.52 0.0006109265    1.202    0.168
        30 -11.5821    142.7063     79.8837   9.4955784083e+01   3.8019992497e+01     0.286874    0.2471298  14.80 0.0006913703    1.216    0.177
        31 -11.9413    141.4754     76.4796   9.4227522799e+01   3.8921942293e+01    0.3298584    0.2907314  16.07  0.001130631    1.162    0.139
        32 -10.3317    207.6042     78.4944   8.1163184157e+01   2.3056695383e+01    0.2456778    0.1368512 -13.18 0.0007544732    2.093    0.522
        33 -10.2700    217.7508     76.3347   7.8883192155e+01   2.0993626477e+01    0.2714453    0.1451093  69.73 0.0009644729    2.762    0.638
        34  99.0000    162.8698     34.2152   7.5284819701e+01   4.0459376375e+01     10.10069     2.674985  51.61   0.03082465    3.303    0.697
        35 -15.6296    135.8833     18.1317   7.4601049271e+01   4.9350634325e+01     3.666676      2.39016  60.02   0.01710372    1.569    0.363
        36 -11.4358    189.8831     62.8919   7.9715997380e+01   2.9600455815e+01    0.6885819    0.5912615   0.92  0.002644573    1.150    0.130
        37  -9.3796    204.9207     64.5331   7.7614280803e+01   2.5676879907e+01    0.1914681    0.1494732  56.81 0.0007469177    1.361    0.265
        38 -12.3518     66.4927     64.0808   1.1252993873e+02   5.5228769553e+01    0.4192445    0.1997007  25.63  0.001764661    2.840    0.648
        39 -10.2544    134.0000    148.0583   1.1322309379e+02   2.6678226501e+01    0.3218709    0.1648907 -62.18  0.001124289    2.786    0.641
        40  99.0000    206.0980     57.8180   7.5445748517e+01   2.6306901063e+01    0.4488302    0.2416861 -65.22  0.001434432    3.948    0.747
        41 -12.7133    173.5978    153.8418   1.0599230827e+02   1.8434479839e+01    0.4120542    0.3168792  21.81   0.00141398    1.298    0.229
        42 -11.0975    226.9456     55.7993   7.1784911043e+01   2.1538081840e+01    0.2157714    0.1608069 -66.70  0.001053668    1.734    0.423
        43 -12.3766    202.3873     52.5394   7.4453325632e+01   2.7929346698e+01      0.53182    0.2964748  26.54  0.001806428    2.359    0.576
        44 -11.4982    192.4123    194.4118   1.0960603333e+02   9.2879132382e+00    0.7701261    0.4195499 -61.45  0.002537546    7.676    0.870
        45 -10.4686    216.5598     50.3522   7.1678171955e+01   2.4711954514e+01    0.1425549    0.1335764 -45.75 0.0007852166    1.136    0.120
        46 -12.6912    186.6323     44.9766   7.4670414369e+01   3.2916637861e+01    0.4808342    0.2188268 -38.14  0.001818236    2.169    0.539
        47 -11.5850    208.0955     36.1819   6.8642234378e+01   2.8538609892e+01    0.3122945    0.1615631 -43.05  0.001278399    2.009    0.502
        48 -15.3899     67.4344    163.1779   1.3006146387e+02   3.3665092639e+01     1.441563     1.051302 -24.62  0.008507227    2.389    0.581
        49 -10.4551    201.4999     34.5271   6.9051353579e+01   3.0410302459e+01    0.1661602    0.1392984 -30.38 0.0005087493    1.158    0.137
        50 -12.7593    167.9799    148.0139   1.0597961633e+02   2.0445039497e+01     0.447631    0.3245029  61.87  0.001967349    1.713    0.416
        51  99.0000    224.3356     30.3268   6.4858011088e+01   2.5156077791e+01    0.4816884    0.3538877  80.06  0.002471497    1.550    0.355
        52  -9.3125    189.2832    238.2964   1.1632622549e+02   4.6901832688e+00    0.1041104   0.06653909  20.50  0.000192019    1.542    0.352
        53 -10.0799    133.4903    143.9864   1.1258437317e+02   2.7527856358e+01    0.3032158    0.1321496 -55.75  0.001212548    2.807    0.644
        54 -13.2741     68.4490    145.0011   1.2769594364e+02   3.7201204649e+01     1.125842    0.4983291  54.74  0.004473818    2.483    0.597
        55 -10.5680    195.6265     11.5020   6.2534153984e+01   3.4396458066e+01    0.1409162    0.1350339  -5.89  0.000259744    1.035    0.034
        56 -15.9908     23.4186    193.1000   1.4099797923e+02   3.2733368209e+01     2.761074     1.987075  13.88   0.02021839    2.317    0.568
