#   1 NUMBER                 Running object number                                     
#   2 MAG_AUTO               Kron-like elliptical aperture magnitude                    [mag]
#   3 X_IMAGE                Object position along x                                    [pixel]
#   4 Y_IMAGE                Object position along y                                    [pixel]
#   5 X_WORLD                Barycenter position along world x axis                     [deg]
#   6 Y_WORLD                Barycenter position along world y axis                     [deg]
#   7 A_WORLD                Profile RMS along major axis (world units)                 [deg]
#   8 B_WORLD                Profile RMS along minor axis (world units)                 [deg]
#   9 THETA_WORLD            Position angle (CCW/world-x)                               [deg]
#  10 FWHM_WORLD             FWHM assuming a gaussian core                              [deg]
#  11 ELONGATION             A_IMAGE/B_IMAGE                                           
#  12 ELLIPTICITY            1 - B_IMAGE/A_IMAGE                                       
         1 -12.2276    193.6996     25.7268   6.3522203849e+01   3.2888897045e+01    0.7640545    0.4571657 -13.75  0.003488518    2.067    0.516
         2 -13.4260    204.0622     17.0221   6.0086680700e+01   3.1285936623e+01     2.369755     1.386144  25.84   0.01018897    2.907    0.656
         3  -9.1671     33.0000     11.0150   1.0474455444e+02   7.4456037332e+01    0.2155183   0.07025021 -45.00 0.0008072322    2.976    0.664
         4 -10.5684     16.3402      9.6142   1.1792669527e+02   7.6611980141e+01     0.293736    0.1282849 -47.77  0.001399907    1.927    0.481
         5 -11.0564    220.1912      2.1259   5.5041475795e+01   2.8972418408e+01    0.4925205    0.2842583  80.39  0.002063283    1.715    0.417
         6  -8.8726     29.6565      2.6857   1.0149137883e+02   7.6357753159e+01    0.1372171   0.08949139  -3.16 0.0007047522    1.710    0.415
         7  -9.0256    182.6848    248.6463   1.1439522778e+02   1.2069597462e+00    0.1172206   0.06911467   7.10 0.0002925504    1.738    0.425
         8  -8.7400    177.6744    250.3159   1.1553528804e+02   1.6477118687e+00    0.1050839   0.07452492  42.59 0.0007043908    1.670    0.401
         9 -11.2007    140.8612    249.7612   1.2256225110e+02   6.5038715260e+00    0.5050843     0.157601  31.44  0.002278844    2.447    0.591
        10 -11.0281    114.1384    248.4403   1.2779325241e+02   1.0194729928e+01    0.3659268    0.1906336 -48.05  0.002152875    2.617    0.618
        11 -11.8143    107.7921    244.9138   1.2876997081e+02   1.1547803355e+01    0.4619758    0.3429619  14.46  0.001899678    1.465    0.318
        12 -12.6183    101.8308    244.1231   1.2993031961e+02   1.2441845663e+01    0.7802939    0.2771751  34.19  0.003807497    2.014    0.503
        13 -11.0702     99.1633    249.7432   1.3094905820e+02   1.1921288583e+01    0.7014389    0.1768654  31.94  0.002865893    3.010    0.668
        14 -12.3347     93.0578    248.7557   1.3211288251e+02   1.2840101534e+01    0.6199482    0.5278416  28.27  0.004716242    1.235    0.191
        15 -11.4699     60.7706    249.3059   1.3869488498e+02   1.6614740110e+01    0.4647376    0.1804265  40.06  0.002589577    1.704    0.413
        16 -14.3336     34.3541    246.2072   1.4380991722e+02   1.9970837522e+01     9.136611     2.740304  21.43    0.0289342    7.129    0.860
        17  -9.0368    226.0892    201.4592   9.9542023481e+01   1.1624221785e+00    0.1916805    0.1521627 -33.33 0.0007917531    1.667    0.400
        18  -9.1844    195.1669    198.7752   1.0474158683e+02   5.8986867725e+00    0.1769553    0.1413361  74.35 0.0009436125    2.810    0.644
        19 -10.8009     67.3271    192.1118   1.3313188137e+02   2.6475187044e+01     0.428039    0.2515303 -46.31  0.001676436    2.295    0.564
        20 -10.8686     72.6460    184.8080   1.3106495164e+02   2.7343403442e+01    0.2850477    0.2431857 -38.16 0.0009417151    1.498    0.332
        21 -10.3625     81.5454    173.4126   1.2741975382e+02   2.8622214815e+01    0.2545604    0.2294883  39.22 0.0002621378    1.096    0.087
        22 -12.3540     68.9629    170.5975   1.3051636865e+02   3.1007765896e+01    0.4807807    0.2905651 -43.12  0.001369875    2.190    0.543
        23 -11.5464     86.8534    164.7947   1.2483121488e+02   2.9791480814e+01     1.105713    0.4956556  47.52  0.001527673    2.124    0.529
        24 -12.4043     67.9415    145.1287   1.2761201921e+02   3.7247449794e+01     1.191361      0.65155  78.82  0.003657218    2.542    0.607
        25 -11.7602     58.5763    132.5474   1.2881013952e+02   4.1678959418e+01     1.118189    0.4072879 -81.50   0.00315805    4.768    0.790
        26  -8.5401    103.4477    145.0777   1.1692628253e+02   3.1664240061e+01    0.2387957    0.1788428 -19.14  0.001100222    1.806    0.446
        27 -11.3172     89.4576    148.2604   1.2157973890e+02   3.3260864850e+01    0.2957453     0.267545  -9.53 0.0005935955    1.304    0.233
        28  -9.6556     40.5266    147.9736   1.3638088806e+02   3.9861087643e+01    0.2068153    0.1260788 -79.67  0.000664061    1.592    0.372
        29  -8.9339    111.0421    135.4711   1.1284465855e+02   3.2533433606e+01    0.2838423    0.2149566 -29.91  0.000973349    1.589    0.371
        30  -9.6408     98.6854    132.2198   1.1587780976e+02   3.5567891003e+01    0.2951352     0.249153 -21.50 0.0009190634    1.419    0.295
        31 -12.0893     42.6544    223.8213   1.4111491818e+02   2.3058724812e+01     0.384542    0.3517872  -1.07 0.0009627738    1.530    0.346
        32 -10.2827     33.3560    120.7960   1.3590996136e+02   4.7523676343e+01    0.2492345    0.1637427 -74.80  0.001267253    1.409    0.290
        33 -14.2415     51.6208    212.4217   1.3846664446e+02   2.4239157329e+01      2.78527     1.220478  37.02   0.01446984    1.719    0.418
        34  -8.7465    107.9285    122.6694   1.1100791976e+02   3.6147332705e+01    0.2158543    0.1865559  42.71  0.000313411    1.105    0.095
        35  -9.2670    100.5471    148.9827   1.1846511325e+02   3.1253066979e+01    0.2961708    0.2447658   9.68 0.0008169864    1.407    0.289
        36 -10.0219    167.9951    113.0230   9.2692801464e+01   2.5393748696e+01    0.3636061    0.2940132 -76.37 0.0009572227    1.667    0.400
        37 -10.8940     99.0295    236.5924   1.2985675056e+02   1.4000702667e+01    0.2889757    0.1935202  57.23 0.0006353144    1.529    0.346
        38 -10.0638     43.7273    109.6221   1.3064007545e+02   4.9442419402e+01    0.2775221    0.1559824 -58.58  0.001250725    1.679    0.405
        39 -10.6535     32.8479    108.1847   1.3456515462e+02   5.0894979308e+01      0.44016    0.1588776 -72.65  0.001650828    2.528    0.604
        40 -14.7089     20.2318    171.5275   1.4379733531e+02   3.6158359032e+01     6.642599     1.779024  76.03  0.004021901    5.548    0.820
        41 -10.5702    113.5769     45.4324   8.5063945645e+01   5.1598465480e+01    0.7141442    0.4064864  81.37  0.002283697    3.411    0.707
        42 -11.7824    127.2871    245.6410   1.2485264403e+02   8.8732911789e+00      0.39432    0.2422132  44.25  0.002485947    1.432    0.302
        43 -13.2798      5.2683    246.9126   1.4941396000e+02   2.2594351072e+01     1.276431     1.117522  23.11   0.01000045    1.541    0.351
        44 -15.2571      6.8629    209.6319   1.4833388071e+02   2.9212987876e+01     14.80009     1.536944 -83.29   0.04173414    9.080    0.890
        45 -10.5327    149.9299    229.1309   1.1833689681e+02   8.1586058252e+00    0.3199747    0.1317888  40.28  0.001550166    2.025    0.506
        46 -12.1131     82.5942    245.9026   1.3404090764e+02   1.4584901334e+01    0.5194643    0.3945697 -37.04  0.003591161    1.959    0.489
        47  -9.1739    164.0000    247.9980   1.1784556193e+02   3.6937164105e+00    0.1466015   0.06588659 -44.23 0.0008016826    2.937    0.660
        48 -10.7043     69.7395    228.5873   1.3551693860e+02   1.9080243104e+01    0.3164536    0.1489068  47.42  0.001060034    1.656    0.396
