#   1 NUMBER                 Running object number                                     
#   2 MAG_AUTO               Kron-like elliptical aperture magnitude                    [mag]
#   3 X_IMAGE                Object position along x                                    [pixel]
#   4 Y_IMAGE                Object position along y                                    [pixel]
#   5 X_WORLD                Barycenter position along world x axis                     [deg]
#   6 Y_WORLD                Barycenter position along world y axis                     [deg]
#   7 A_WORLD                Profile RMS along major axis (world units)                 [deg]
#   8 B_WORLD                Profile RMS along minor axis (world units)                 [deg]
#   9 THETA_WORLD            Position angle (CCW/world-x)                               [deg]
#  10 FWHM_WORLD             FWHM assuming a gaussian core                              [deg]
#  11 ELONGATION             A_IMAGE/B_IMAGE                                           
#  12 ELLIPTICITY            1 - B_IMAGE/A_IMAGE                                       
         1 -15.8651    242.6976    127.8300   5.2651025896e+01   8.2243550469e+00     4.153702    0.4660019 -41.35  0.009869589    6.912    0.855
         2 -15.6927    248.9407    125.8627   5.1339653398e+01   7.4991411545e+00     14.05008          nan -40.22   0.01829443   23.723    0.958
         3 -11.5973      7.7685     53.6810   1.0030297256e+02   6.5064601128e+01    0.6289572   0.04248027 -55.64  0.001999121    4.660    0.785
         4 -15.9507    248.5903     96.4932   4.5353171526e+01   1.2374391302e+01     3.304457    0.6604865 -39.68   0.01070062    4.003    0.750
         5 -10.0859     40.7788     14.3815   6.8603611234e+01   6.8301685056e+01    0.1657858   0.09393446  26.23 0.0002552684    1.573    0.364
         6 -10.8064    162.9122    225.0950   8.7340942042e+01   3.7906817138e+00    0.2510126     0.195864 -17.12  0.001423686    1.346    0.257
         7 -10.3571     84.3319    226.6686   1.0532938302e+02   1.5512068816e+01    0.1421819    0.0891279  62.17 0.0007052093    1.723    0.420
         8 -10.1641     99.5005    225.4839   1.0172693672e+02   1.3573502491e+01    0.1352642    0.1192388  48.51 0.0004105977    1.022    0.021
         9 -10.3369    182.8519    222.8183   8.2687177721e+01   1.1016671598e+00    0.1715378    0.1588389  38.05 0.0008175452    1.322    0.244
        10 -10.5688    148.8557    222.7561   9.0074295404e+01   6.4514917394e+00    0.2482225    0.1693174 -61.41  0.001255923    1.902    0.474
        11 -10.2102    114.3972    223.1922   9.7996388499e+01   1.1797974105e+01    0.1797537    0.1322991 -76.65 0.0009460463    1.685    0.407
        12  -9.8226    174.2751    222.6234   8.4474461784e+01   2.4603513898e+00    0.1239303    0.1085292  75.48 0.0004590456    1.696    0.410
        13 -10.6758    193.3945    221.1771   8.0215040707e+01  -2.1542936784e-01    0.1760348    0.1241095 -49.16 0.0009520255    1.754    0.430
        14 -10.6176    125.9987    220.6491   9.4954533860e+01   1.0506301318e+01    0.1994404    0.1599761  36.43 0.0005448292    1.125    0.111
        15 -12.1104    204.5117    217.9349   7.7396519602e+01  -1.3239655376e+00    0.2962947     0.201804 -23.91  0.001412129    1.394    0.283
        16 -11.0307    211.5033    217.9525   7.6020453124e+01  -2.3427347269e+00    0.1906429    0.1173125 -35.61 0.0007710626    1.570    0.363
        17 -10.5439    143.8841    216.3618   9.0177541691e+01   8.4980776029e+00    0.2647817     0.201897 -37.36  0.001434213    1.409    0.290
        18 -10.1717    111.7140    216.1347   9.7629854427e+01   1.3691826799e+01    0.2135479     0.174338  85.47  0.000937894    1.445    0.308
        19 -10.8813    199.1039    214.6971   7.7906848756e+01   2.6732697161e-02    0.2200515    0.1770858 -39.51 0.0009521536    1.381    0.276
        20 -11.5209    185.8247    214.0116   8.0530018960e+01   2.1915068558e+00     0.334274    0.2139771 -43.14  0.001208239    1.655    0.396
        21 -12.8429    186.2264    204.5090   7.8726213608e+01   3.8492187592e+00    0.6585239    0.3429858 -53.43  0.002793487    2.564    0.610
        22 -13.1192    226.2982    206.9828   7.1210348317e+01  -2.6765863930e+00    0.5060447     0.193638 -44.65  0.002102906    2.848    0.649
        23 -12.4376    217.9670    210.3312   7.3395873052e+01  -2.0312408376e+00    0.3548411    0.2271419 -48.65  0.001867387    1.962    0.490
        24 -11.2530    193.0376    210.0015   7.8303857492e+01   1.7748108285e+00    0.2142259    0.1856229  -2.97 0.0008445076    1.028    0.027
        25 -10.6696    177.1182    209.6904   8.1618606094e+01   4.3654126780e+00    0.2390147    0.1896856 -49.52  0.001321938    1.471    0.320
        26 -10.9160    116.2329    209.3975   9.5565386872e+01   1.4424742612e+01    0.3149627    0.1748694 -65.00   0.00137353    2.208    0.547
        27 -11.1281    205.8960    207.6610   7.5263205449e+01   2.0163747277e-01    0.2528943    0.1868052 -39.86  0.001113343    1.422    0.297
        28 -11.3939    198.6448    204.0185   7.6051282680e+01   1.9563836749e+00    0.3056178    0.2330702 -43.39  0.001032307    1.440    0.306
        29 -12.9849    164.7534    200.5331   8.2694141668e+01   8.1775292323e+00    0.8533016    0.4403782 -35.05  0.003612468    2.152    0.535
        30 -11.5521    162.3385    193.1836   8.1878978967e+01   1.0074373024e+01    0.4608485    0.2842187 -50.89  0.001773245    1.774    0.436
        31 -10.0194    154.4815    214.4910   8.7461676981e+01   7.1397545138e+00     0.139762    0.1260471  19.99 6.233194e-05    1.029    0.028
        32 -11.7551    211.8082    201.4604   7.2942889374e+01   3.6691688384e-01    0.2333157    0.2149636 -56.04 0.0008582029    1.507    0.336
        33 -14.3338    243.5231    180.8239   6.3193261003e+01  -8.7251328848e-01    0.9956878    0.8510848 -40.71   0.00576212    1.336    0.251
        34 -13.1872    246.6497    192.5453   6.4897654760e+01  -3.1961562066e+00    0.9550996    0.4528973 -52.29  0.003786726    3.801    0.737
        35 -11.3289    154.6419    240.1007   9.1457343041e+01   2.3823638931e+00    0.2668136    0.1251349 -48.61  0.001233634    2.441    0.590
        36 -10.4454    186.1252    192.7104   7.6521783863e+01   6.0780144969e+00    0.2556412    0.1873699 -47.55  0.001323572    1.493    0.330
        37 -10.8509    205.8957    190.7212   7.2055156965e+01   3.1822967097e+00    0.2652928    0.1888522 -40.44  0.000831942    1.398    0.285
        38 -11.2535    204.0522    183.8104   7.1063197915e+01   4.7439197880e+00    0.4968521    0.2147803 -48.43  0.001949695    2.628    0.619
        39 -10.5818    199.6214    190.7144   7.3318055830e+01   4.2041020141e+00    0.2694936    0.1221083 -37.87  0.001128744    2.125    0.529
        40 -11.9818    172.4153    190.3100   7.9051556750e+01   8.8993742529e+00    0.3402464    0.2496968 -52.45  0.001474941    1.549    0.354
        41 -10.2582    179.4759    190.0589   7.7443981692e+01   7.7251281792e+00    0.2161008     0.137064 -42.18  0.001026395    1.575    0.365
        42 -11.1898    138.9533    188.0390   8.6451474722e+01   1.5280474412e+01    0.4541082    0.2173715 -50.71  0.001805899    2.175    0.540
        43 -10.2500    210.5077    188.9736   7.0803961652e+01   2.7560128548e+00     0.206841    0.1245914 -39.82  0.001023264    1.578    0.366
        44 -10.3584    192.5282    187.2658   7.4106404671e+01   6.0313150443e+00    0.2592205    0.1337358 -46.05   0.00112232    2.002    0.501
        45 -10.6372    129.0138    187.4872   8.8801618307e+01   1.7145497944e+01    0.3411959    0.1944589 -59.37  0.001434994    2.009    0.502
        46 -10.2609    217.4992    186.9767   6.9065122628e+01   2.0026350874e+00    0.2081726    0.1208522 -37.43  0.001028873    1.578    0.366
        47 -11.3092    165.2094    185.4908   7.9744092694e+01   1.1150296975e+01     0.471114    0.2545276 -51.64  0.001980128    2.056    0.514
        48 -10.4825    155.6691    185.3405   8.1930266525e+01   1.2888389927e+01    0.4080124    0.1392847 -49.81  0.001351345    3.121    0.680
        49 -11.4014    120.1528    184.5519   9.0505526734e+01   1.9349554033e+01    0.5518402    0.2166887 -62.06  0.001747494    3.573    0.720
        50 -11.2610     95.7186    187.2309   9.7240233902e+01   2.2744689638e+01    0.3688498    0.1746849  52.72  0.001374132    2.570    0.611
        51 -10.4416    183.0705    183.6239   7.5395628345e+01   8.3649777996e+00    0.2550448     0.192461 -48.25   0.00115969    1.431    0.301
        52 -12.5352    174.0997    182.1594   7.7074513348e+01   1.0245320211e+01    0.5158016    0.4728059 -48.23  0.002897335    1.218    0.179
        53 -10.1265    210.9866    182.5108   6.9436086989e+01   3.8400085292e+00    0.1978555    0.1316223  32.69 0.0005160077    1.551    0.355
        54 -11.9511    147.6185    178.4346   8.2504856102e+01   1.5840493702e+01    0.4981427    0.2913432 -45.88   0.00216049    1.729    0.422
        55 -11.3991    137.9846    177.7483   8.4739273220e+01   1.7749723893e+01     0.447644    0.2282922 -48.32  0.001582907    1.988    0.497
        56 -10.2616    205.5085    178.0045   6.9608003512e+01   5.5747348606e+00    0.2144136    0.1285506 -40.21 0.0007377631    1.571    0.363
        57 -11.0640    192.0790    176.6716   7.2073416033e+01   8.1431055950e+00    0.3885491    0.2011926 -44.10   0.00167799    1.895    0.472
        58 -11.5466    183.1673    174.8109   7.3588248414e+01   1.0098579919e+01    0.4434574    0.2654859 -36.46  0.001763478    1.635    0.388
        59 -10.1601    218.4816    176.0016   6.6700862132e+01   3.7909946974e+00    0.2128906    0.1223295 -39.21  0.001029584    1.587    0.370
        60 -11.0285     78.0598    175.8727   1.0013249783e+02   2.8182124588e+01    0.3369429    0.1979033  67.07   0.00137425    2.320    0.569
        61 -11.8517    160.0012    238.9506   9.0138736352e+01   1.7753559400e+00    0.2743552    0.2018058 -56.70  0.001360889    1.767    0.434
        62 -11.6948    177.3202    170.3558   7.3943127196e+01   1.2070599147e+01    0.4330502     0.304204 -42.70   0.00135863    1.399    0.285
        63 -10.4571    134.4834    170.5304   8.4194502362e+01   2.0036358448e+01    0.3214625    0.1515474 -51.28  0.001210742    2.174    0.540
        64 -11.3340    205.9431    168.9400   6.7664844410e+01   7.1959523157e+00    0.3319674     0.194828 -47.55  0.001193608    1.771    0.435
        65 -11.5126    121.4692    168.1937   8.7097695780e+01   2.2956490148e+01    0.6141305    0.3286667 -62.70  0.002344745    2.296    0.564
        66 -12.7184    213.1079    163.3326   6.5115677193e+01   7.0010890919e+00    0.6156641    0.3276168 -27.87  0.002660513    2.042    0.510
        67 -10.2668    199.3092    169.1592   6.9033553253e+01   8.3182685609e+00    0.2327425     0.163439 -25.67 0.0008147982    1.409    0.290
        68 -10.8709    168.0064    167.6897   7.5481163305e+01   1.4367393326e+01    0.4181297    0.2159129 -47.52  0.001693064    1.963    0.491
        69 -10.9534    149.6206    168.6532   8.0037359517e+01   1.7634170452e+01    0.3266442    0.1921012 -54.34  0.001235008    1.869    0.465
        70 -10.9556    185.1529    166.1039   7.1339923521e+01   1.1485485949e+01    0.3444321    0.2050464 -42.97  0.001124559    1.625    0.384
        71 -11.4968    192.2529    163.6353   6.9316386884e+01   1.0668507787e+01    0.5827149      0.24063 -44.09  0.002211579    2.331    0.571
        72 -11.9766    138.8004    163.3719   8.1628883893e+01   2.0876199951e+01    0.6508161    0.3223215 -60.37  0.002286196    2.708    0.631
        73 -11.2824    234.3568    164.1072   6.1449590622e+01   3.3346671304e+00     0.280026     0.107582 -33.81  0.001101417    2.506    0.601
        74 -10.5716    159.3913    162.8038   7.6449989604e+01   1.7059619377e+01    0.3588711    0.1877719 -47.83  0.001434614    1.928    0.481
        75 -12.2591    206.0922    160.7385   6.5915901108e+01   8.7209421733e+00    0.5474395    0.3193405 -25.59  0.002425753    1.909    0.476
        76 -11.1867    177.3575    158.9497   7.1497955540e+01   1.4419509771e+01    0.4892524    0.2238353 -46.12  0.001874846    2.165    0.538
        77 -10.8195    151.5433    159.8042   7.7692419898e+01   1.9238173534e+01     0.376706    0.1515606 -49.67  0.001290363    2.570    0.611
        78 -10.4860     93.0238    160.5198   9.3380955436e+01   2.9723289464e+01     0.227354    0.1152053  54.39 0.0008103296    2.595    0.615
        79 -10.2926    128.2636    158.4127   8.3310075184e+01   2.4023024188e+01    0.2725469    0.1975677 -74.30  0.001184528    1.811    0.448
        80 -11.9390    224.8408    182.8871   6.6890188483e+01   1.5709102494e+00    0.4980825    0.2103485 -40.09  0.002158101    2.146    0.534
        81 -11.5302    196.5005    156.5463   6.6922138722e+01   1.1279445336e+01    0.4316702    0.2639284 -46.20  0.001345014    1.615    0.381
        82 -10.7130    188.2318    156.5527   6.8630104496e+01   1.2832436779e+01    0.2885068    0.1920902 -40.90  0.000952083    1.426    0.299
        83 -10.9567    167.5984    155.3431   7.2905005392e+01   1.7075235878e+01    0.5111006    0.1736449 -42.59  0.001652579    2.899    0.655
        84 -10.4573    105.3242    157.6650   8.9382183897e+01   2.8367375995e+01    0.1601713     0.120201  73.97 0.0007051027    1.713    0.416
        85 -11.1876    204.4702    154.1297   6.4818204984e+01   1.0275668075e+01    0.3702553    0.2061554 -35.05  0.001231823    1.706    0.414
        86 -10.9317    119.3708    154.7618   8.4917523624e+01   2.6553629413e+01    0.4563202    0.1555779 -58.68  0.001250814    4.079    0.755
        87 -10.6387     49.7802    155.1908   1.0491550571e+02   3.7125886557e+01    0.2525503    0.1305248  65.39 0.0009563793    2.831    0.647
        88 -10.3559    230.5182    199.5172   6.9045673269e+01  -2.0661408993e+00    0.1304275    0.1074983 -12.21 -1.312567e-05    1.027    0.027
        89 -10.5534    144.4966    153.9844   7.8166681218e+01   2.1925363115e+01    0.2449322    0.1525653 -48.11  0.001036954    1.606    0.377
        90 -10.4391     68.1778    153.7929   9.9325013899e+01   3.5156599048e+01    0.2601818    0.1437339  67.20 0.0009506321    2.862    0.651
        91 -11.0625    132.9294    151.8286   8.0661925323e+01   2.4680150587e+01    0.5180561    0.2633356 -60.45  0.001828489    2.563    0.610
        92 -11.6032    200.0752    147.1177   6.4146663528e+01   1.2450164875e+01    0.5287461    0.2034353 -39.54  0.001875233    2.442    0.591
        93 -11.9286    189.6709    148.6021   6.6575747746e+01   1.4154380033e+01    0.5911899    0.2815224 -41.25  0.001828611    1.982    0.496
        94 -11.1373    192.3397    138.3455   6.3717130657e+01   1.5677232732e+01    0.7277896    0.2276199 -37.62  0.002252839    3.349    0.701
        95 -10.4108    157.5799    155.0151   7.5183221921e+01   1.9118325292e+01    0.3494045    0.1479382 -46.22  0.001242223    2.335    0.572
        96 -12.0051    234.0983    146.8361   5.7951985295e+01   6.3937523597e+00    0.3819271    0.1902994 -45.61  0.001212517    1.879    0.468
        97 -10.4454    182.1774    149.5687   6.8373251396e+01   1.5420628888e+01      0.29873    0.1974338 -41.44  0.001130656    1.444    0.307
        98 -10.4310    142.4963    148.4915   7.7444575995e+01   2.3573699981e+01    0.2868528    0.1510562 -58.49  0.001034921    2.376    0.579
        99 -10.2618    215.4219    147.7635   6.1384708507e+01   9.4840093291e+00    0.2744243    0.1234587 -44.12   0.00105795    2.064    0.516
       100 -10.8319     39.5489    147.6751   1.0682027119e+02   4.0170539702e+01    0.3989567    0.1868196  60.60  0.001476103    3.174    0.685
       101 -10.4890    223.4007    145.7837   5.9541842000e+01   8.4240886460e+00    0.1999511    0.1180594 -30.63 0.0009411283    1.634    0.388
       102 -11.8825    148.5247    142.7811   7.4616547801e+01   2.3655029803e+01    0.8688344    0.3408432 -52.65  0.002777842    2.954    0.661
       103 -11.2203    107.0551    145.0547   8.6268405781e+01   3.1166917035e+01    0.5105924    0.3071004  73.37  0.001674321    3.446    0.710
       104 -11.2849     55.7296    145.4769   1.0162640577e+02   3.8908686208e+01    0.3715207    0.2219823  65.72  0.001570726    2.259    0.557
       105 -10.0775    175.4945    145.0571   6.8808665406e+01   1.7682434207e+01    0.2404053    0.1450375 -42.49  0.001034354    1.594    0.373
       106 -10.1634    208.5804    143.7632   6.1777781342e+01   1.1491424301e+01    0.2034583    0.1260903 -48.51 0.0009422168    1.618    0.382
       107 -11.1147    195.9127    143.0212   6.4058751778e+01   1.4051289500e+01     0.342569    0.2358969  23.48  0.001350838    1.769    0.435
       108 -11.4028    124.7903    142.5985   8.0765498570e+01   2.8435696448e+01     0.512107    0.3070514 -78.95  0.001620358    3.632    0.725
       109 -10.4424    165.5422    142.2832   7.0417405683e+01   2.0287788247e+01    0.3965998    0.1467956 -42.12  0.001314434    2.656    0.623
       110 -10.4377     88.3098    143.6719   9.1452483213e+01   3.4722212575e+01     0.156618    0.1187855  74.62 0.0004908175    1.662    0.398
       111 -10.5077    230.5108    142.0140   5.7536111714e+01   7.8576118771e+00    0.2928879    0.1527155 -39.45 0.0009280471    1.664    0.399
       112 -10.1372    229.6311    137.8700   5.6805052685e+01   8.7474723650e+00    0.2176905    0.1201534 -39.84  0.001034235    1.573    0.364
       113 -10.0174    203.4555    140.9049   6.2114411222e+01   1.3007027696e+01    0.2219879    0.1324946 -40.29 0.0006525402    1.538    0.350
       114 -10.0677    224.9956    138.9677   5.7813448154e+01   9.3735334557e+00    0.1813426    0.1347381 -37.32 0.0006642175    1.180    0.152
       115 -11.0836     23.3556    138.2505   1.1037212243e+02   4.4072728333e+01     0.363124    0.1831376  70.04  0.001479755    2.822    0.646
       116 -10.6743    235.4659    137.9576   5.5877519316e+01   7.7171759647e+00    0.2138156    0.1161407 -38.49  0.001026825    1.581    0.367
       117  -9.7399    209.0000    137.9550   6.0419284860e+01   1.2511302917e+01    0.2394188    0.0752792 -40.90 0.0007947018    2.889    0.654
       118 -11.3201    197.9265    135.2972   6.1917708619e+01   1.5168208150e+01    0.5593351    0.2027245 -40.51  0.001974188    2.573    0.611
       119 -10.7218    219.5763    135.7750   5.8051940558e+01   1.0937016100e+01    0.2768812    0.1238105 -35.67  0.001123642    2.116    0.527
       120 -10.6064    182.1301    140.5125   6.6327554173e+01   1.7286017753e+01    0.2995414    0.2047241 -41.40  0.001397533    1.392    0.282
       121 -10.2642    187.6927    134.4914   6.3774987485e+01   1.7378762763e+01      0.27597    0.1297492 -41.67  0.001071968    2.006    0.501
       122 -10.2576    162.4749    135.0150   6.9418537436e+01   2.2482042896e+01     0.247775    0.1494876 -43.02  0.001027577    1.613    0.380
       123 -10.6467    179.2943    132.3280   6.5025061264e+01   1.9539854725e+01    0.3520754     0.201163 -38.69  0.001484952    1.697    0.411
       124 -10.0452    226.5071    132.4808   5.6168085561e+01   1.0266550245e+01    0.1386113    0.1210846 -36.11 8.511736e-05    1.011    0.011
       125 -11.3930    131.9669    131.1152   7.6112118896e+01   2.9691976590e+01    0.4653657    0.2710027 -65.08  0.001683928    2.511    0.602
       126 -11.0439     83.6300    131.9068   9.0387105104e+01   3.8432405349e+01    0.3572248     0.245499  58.79  0.001578807    1.808    0.447
       127 -10.9901    142.6807    130.0320   7.3044552004e+01   2.7723083917e+01    0.4306434    0.1890375 -52.25  0.001461647    2.538    0.606
       128 -10.3683    204.5884    129.7702   5.9398529005e+01   1.4915187070e+01     0.211709    0.1264479 -48.95 0.0009496268    1.661    0.398
       129 -10.5416    192.9350    128.7812   6.1395446723e+01   1.7442821000e+01    0.3306004    0.1953591 -32.92   0.00132762    1.726    0.421
       130 -11.0262     12.7248    129.2355   1.1246260069e+02   4.7138104463e+01    0.3199979    0.1605023  81.53  0.001367745    2.587    0.613
       131 -11.4776    232.4944    128.4985   5.4350464901e+01   9.8945000608e+00    0.2816836    0.1182375 -39.30   0.00110391    2.062    0.515
       132 -10.5091    221.0502    128.6300   5.6240521166e+01   1.1963668497e+01    0.2956749    0.1683408 -18.32  0.001171069    2.756    0.637
       133 -10.1360    211.7020    128.5381   5.7833172830e+01   1.3758046295e+01    0.2611452    0.1177334 -40.91  0.001059408    1.999    0.500
       134 -10.4781    168.4146    128.6938   6.6539098437e+01   2.2572835572e+01    0.3092371    0.1433239 -47.67  0.001135144    2.180    0.541
       135 -11.0285    152.6302    127.5471   6.9951561158e+01   2.6172495889e+01    0.5126574    0.1815448 -48.96  0.001593211    3.008    0.668
       136 -11.1153     99.0604    128.2206   8.4809849154e+01   3.6729969396e+01    0.3842509     0.263443 -86.24  0.001528422    2.309    0.567
       137 -10.3672     73.3280    129.6540   9.3144864625e+01   4.0579829484e+01    0.1559343    0.1158568  73.59 0.0007050187    1.751    0.429
       138  -9.8923    186.4610    128.5335   6.2634705094e+01   1.8821301638e+01    0.1494411    0.1404283 -30.82 0.0001552374    1.010    0.010
       139 -11.6118    228.4546    124.7481   5.4185385826e+01   1.1285985683e+01    0.3592648    0.1219795 -37.39  0.001314225    2.706    0.630
       140 -11.2422     59.4852    124.2283   9.6501488459e+01   4.3862464673e+01    0.5255575    0.2962976  87.66  0.001797038    3.569    0.720
       141 -10.9217    117.5027    125.0011   7.8603087632e+01   3.4021925784e+01    0.3194537    0.1963744  73.01  0.001034196    3.425    0.708
       142 -11.8026     43.5804    122.2605   1.0139960917e+02   4.6234720904e+01    0.6642838    0.3581111 -89.35  0.002494025    3.047    0.672
       143 -10.7920    148.8022    197.2997   8.5781998828e+01   1.1570739807e+01    0.4231982     0.206868 -60.78  0.001555285    3.010    0.668
       144 -10.7728    179.7692    122.9413   6.2683429247e+01   2.1342731104e+01    0.3993842    0.1965413 -32.89  0.001493543    2.282    0.562
       145 -11.5570     28.0852    121.6434   1.0644933967e+02   4.7876121581e+01    0.6437216    0.3002208  76.97  0.001943268    5.253    0.810
       146 -10.1558    188.4774    122.9681   6.0912001759e+01   1.9502687248e+01    0.2363133    0.1397091 -42.14  0.001031015    1.592    0.372
       147 -10.4159    171.9697    136.9486   6.7711873137e+01   2.0098921749e+01    0.3642625    0.1868213 -54.58  0.001346094    2.363    0.577
       148 -10.1026    194.6306    120.8719   5.9215459487e+01   1.8629326935e+01    0.2231022    0.1268695 -49.56  0.000949899    1.776    0.437
       149 -10.5258    158.4764    120.0319   6.6682349309e+01   2.6524966271e+01    0.4297652    0.1503055 -43.41  0.001377751    2.794    0.642
       150 -11.3656    141.3391    117.7953   7.0309682421e+01   3.0714558385e+01    0.6724773    0.2893018 -56.71  0.002019184    3.497    0.714
       151 -11.0412    130.8528    118.7155   7.3302344380e+01   3.2739999444e+01    0.3117622    0.2149518 -73.54  0.001244605    2.159    0.537
       152 -10.8401      2.8848    116.6667   1.1399978449e+02   5.0843290447e+01     0.406353    0.1506483  86.66  0.001263033    5.042    0.802
       153 -12.3572    229.7338    187.2189   6.6843440608e+01   8.7030976208e-02    0.4554677    0.2060636 -46.92  0.001969866    2.475    0.596
       154 -10.3678    185.6043    114.6814   5.9493517923e+01   2.1727994690e+01    0.2940056    0.1392277 -37.09  0.001131186    2.100    0.524
       155 -11.1887    109.0700    113.7293   7.8186730794e+01   3.8300803656e+01    0.4763769    0.2643598 -67.66   0.00158476    3.136    0.681
       156 -11.1878     79.1590    112.7120   8.7366763686e+01   4.3876530915e+01    0.4490021    0.2935733 -85.90  0.001740296    2.664    0.625
       157 -10.9892     92.6983    112.3499   8.2875298849e+01   4.1679418728e+01    0.3973562    0.2860717  89.69   0.00166345    2.200    0.545
       158 -10.2921    192.7655    114.2263   5.7994849318e+01   2.0290718402e+01     0.274084    0.1696658 -42.78  0.001166093    1.513    0.339
       159 -10.3928    174.5278    110.1772   6.0638950882e+01   2.5015573209e+01    0.3781842     0.146535 -38.75  0.001298826    2.574    0.611
       160 -10.3657    172.4600    119.5651   6.3415435541e+01   2.3589966749e+01    0.3284937    0.1460879 -41.54  0.001208606    2.171    0.539
       161 -10.8857     66.4737    110.4969   9.1111411491e+01   4.6326063006e+01    0.2698542    0.1437937 -67.99  0.001034985    2.403    0.584
       162 -11.0005     14.0486    109.9608   1.0933839316e+02   5.1836754154e+01    0.3708023     0.198936 -81.44   0.00175449    1.984    0.496
       163 -10.0014    182.6175    108.2061   5.8499302664e+01   2.3623025429e+01    0.2139044    0.1382512 -31.91 0.0007655026    1.625    0.385
       164 -10.0252    189.0000    106.5061   5.6844550380e+01   2.2556182849e+01    0.3266966   0.08023766 -39.92 0.0009251653    3.858    0.741
       165 -12.2612     45.4820    102.1396   9.6610271333e+01   5.1012605984e+01    0.7074179    0.4030328  73.37  0.002435006    4.157    0.759
       166 -11.9461     22.0063    100.6157   1.0491547071e+02   5.3562484059e+01    0.8870159    0.4364988  89.50    0.0032194    3.796    0.737
       167 -10.7191    139.3493    103.8905   6.7137274411e+01   3.4114654329e+01    0.3211481    0.1390249 -49.83  0.001094344    2.553    0.608
       168 -10.5263    203.0428    197.4142   7.3915661372e+01   2.4374883530e+00    0.2429277    0.1889814 -50.88 0.0009505161    1.577    0.366
       169 -10.9942    149.7730    101.9035   6.4026010056e+01   3.2195874038e+01    0.4317414     0.167173 -49.91   0.00137813    3.004    0.667
       170 -11.2125    128.3656    101.8457   6.9463918992e+01   3.6946695777e+01    0.3355948    0.2286005 -68.84   0.00136732    2.110    0.526
       171 -10.2396      6.3467    102.6730   1.1090876761e+02   5.4068786134e+01    0.1277051   0.08991775  66.59 0.0007049989    1.751    0.429
       172 -11.4428    108.2295     98.1911   7.4199617448e+01   4.1945039985e+01     0.387527    0.2809647 -74.64  0.001554595    2.030    0.507
       173 -11.7131     63.5323     95.9157   8.8494826127e+01   5.0210893010e+01    0.4215474    0.2913812  89.55  0.001797084    2.511    0.602
       174 -11.4587    124.3419    197.1510   9.1640780508e+01   1.5781228508e+01     0.352126    0.2944461  65.34  0.001463838    1.355    0.262
       175 -10.6222    138.4948     91.4980   6.3915536394e+01   3.6811622440e+01    0.2883649    0.1388903 -51.30  0.001036843    2.435    0.589
       176 -11.3347     34.5345     88.6408   9.7623692120e+01   5.5346118847e+01    0.5615468    0.2331293 -65.52  0.002190266    2.695    0.629
       177 -10.7257      4.3455     90.8602   1.0976030537e+02   5.6989832901e+01    0.2587809    0.1094757 -77.93  0.001094487    2.608    0.617
       178 -11.0992     86.1388     86.2796   7.7788259319e+01   4.8719741659e+01    0.2786402    0.2044315 -76.02  0.001237965    2.115    0.527
       179 -11.7242     48.1510     83.7614   9.1033618728e+01   5.4996176947e+01    0.4409277    0.2697728 -79.71  0.001776589    3.034    0.670
       180 -10.2799    177.3423    197.6661   7.9364605692e+01   6.6081878460e+00    0.1370292    0.1153343  74.37 0.0007050756    1.758    0.431
       181 -11.5229    104.2973     82.4066   7.0734493391e+01   4.6025586374e+01    0.3784773    0.2331575 -58.75  0.001556404    2.184    0.542
       182 -11.6581     24.2701     78.1240   9.9238148556e+01   5.8657716938e+01    0.7596849    0.1833046 -59.27  0.002626596    3.430    0.708
       183 -10.5485     74.5167     80.5179   8.0108057196e+01   5.1938484274e+01    0.1443824    0.1347438 -12.06 0.0001571668    1.042    0.040
       184 -10.3796    112.3315    197.6471   9.4686810368e+01   1.7658524104e+01    0.1533782    0.1087366  68.10 0.0007046308    1.780    0.438
       185 -10.6298    127.5276     75.0289   6.1884634201e+01   4.2398280667e+01    0.2181303    0.1254152 -60.07 0.0008100159    2.644    0.622
       186 -11.1793     82.2916     72.4674   7.4797794524e+01   5.2226837015e+01    0.2462821    0.1849295 -63.85  0.001191778    1.820    0.450
       187 -10.3195    193.4736    195.5025   7.5509712923e+01   4.3303037940e+00    0.2779774    0.1306355 -42.22  0.001063689    2.094    0.522
       188 -11.2719    209.2580    194.5963   7.2138675172e+01   1.9559938218e+00    0.2538294    0.1721015 -36.37 0.0009192266    1.394    0.283
       189 -11.4473    124.4479     90.7885   6.7395118737e+01   4.0078841652e+01    0.3134912    0.2228001 -64.78  0.001205266    1.844    0.458
       190 -11.3614     51.1444     68.7314   8.5422596435e+01   5.7852480990e+01    0.5218174    0.2324455 -61.74  0.001790998    3.925    0.745
       191 -10.2919     16.3286     69.8268   1.0058306512e+02   6.1093931747e+01    0.2534227    0.1147514 -69.15  0.001088773    2.632    0.620
       192 -10.8596     37.1375     63.7036   8.9764213260e+01   6.0560707193e+01    0.2509403    0.1552667 -64.35  0.001221323    2.123    0.529
       193 -11.8563    226.3927    188.2363   6.7649191986e+01   4.1641878812e-01    0.2837789    0.1461602 -38.98  0.001107649    1.765    0.433
       194 -10.6060    215.4270    193.7352   7.0772507899e+01   1.1458527556e+00    0.2489255    0.1209176 -43.84  0.001102588    2.072    0.517
       195 -10.8105     73.1183     58.5691   7.3384491936e+01   5.6447661753e+01    0.3810477    0.1754905 -51.55  0.001457361    2.976    0.664
       196 -10.4407    144.7238    232.3346   9.2463742220e+01   5.2955956516e+00    0.2242523    0.1715575 -66.13  0.001247234    1.722    0.419
       197 -10.7500     45.2122     49.5592   8.1430867706e+01   6.2327771788e+01    0.2369278    0.1431132 -17.55 0.0008062124    1.816    0.449
       198 -10.6981     30.5305     50.5616   8.8475505799e+01   6.3857400099e+01    0.2240377    0.1221746 -60.76  0.001042451    2.509    0.601
       199 -12.1294    225.1310    192.4149   6.8687416005e+01  -1.0214180525e-01     0.257811    0.1767629 -39.86 0.0007695771    1.432    0.302
       200 -11.0734      4.7603     40.0623   9.7810447716e+01   6.7941489933e+01    0.4065259    0.1344774 -61.70  0.001646472    3.527    0.716
       201  -9.7019    113.7088     41.6722   5.4679725994e+01   5.0811799749e+01    0.1427682    0.1009899  23.04   0.00065816    1.621    0.383
       202 -11.8815    229.4935    228.9974   7.4543983633e+01  -6.5020074947e+00    0.2739229    0.2135049 -86.55  0.001226747    4.635    0.784
       203 -11.0892     27.4972     29.9987   8.2189994778e+01   6.7808583724e+01    0.3088011   0.07552099 -36.26  0.001043223    4.410    0.773
