#   1 NUMBER                 Running object number                                     
#   2 MAG_AUTO               Kron-like elliptical aperture magnitude                    [mag]
#   3 X_IMAGE                Object position along x                                    [pixel]
#   4 Y_IMAGE                Object position along y                                    [pixel]
#   5 X_WORLD                Barycenter position along world x axis                     [deg]
#   6 Y_WORLD                Barycenter position along world y axis                     [deg]
#   7 A_WORLD                Profile RMS along major axis (world units)                 [deg]
#   8 B_WORLD                Profile RMS along minor axis (world units)                 [deg]
#   9 THETA_WORLD            Position angle (CCW/world-x)                               [deg]
#  10 FWHM_WORLD             FWHM assuming a gaussian core                              [deg]
#  11 ELONGATION             A_IMAGE/B_IMAGE                                           
#  12 ELLIPTICITY            1 - B_IMAGE/A_IMAGE                                       
         1 -14.3240    135.7809    126.9126   2.9097340740e+02   5.4944370115e+00    0.1329107   0.02548335 -66.25  0.005683414    9.748    0.897
         2 -14.3697    151.2592     56.8886   2.9038627465e+02   6.1987926036e+00   0.05110766   0.03907213 -35.73   0.00098855    1.332    0.249
         3 -14.8940    162.5487     42.2843   2.9017065458e+02   6.3019706003e+00   0.06059945   0.04226355 -49.14  0.003357138    1.397    0.284
         4 -14.6251    175.9960      9.4445   2.8982338786e+02   6.5982363806e+00   0.05055796   0.04519161 -36.37   0.00376548    1.098    0.089
         5 -12.6421    197.0961      6.8791   2.8956496506e+02   6.5127450036e+00   0.01505207  0.008418831  44.70  0.001439638    1.953    0.488
         6 -10.6214    119.0000    239.8042   2.9182322193e+02   4.3134736092e+00  0.009696062  0.003658307 -62.47 0.0005128721    2.652    0.623
         7 -20.0253     75.7348    173.1436   2.9193492963e+02   5.2971147302e+00    0.8730457    0.3536555 -65.01   0.07161447    2.623    0.619
         8 -11.7793    168.8859    202.1951   2.9103019290e+02   4.4682609526e+00   0.01004241   0.00877232  61.84 0.0009004439    1.275    0.216
         9 -11.0298    139.1332    200.8475   2.9136506945e+02   4.6438317337e+00   0.01338098   0.01079965  71.35 0.0008383963    1.474    0.321
        10 -10.3109    135.6630    196.3442   2.9137887335e+02   4.7132464082e+00   0.01297696  0.008450365  75.84  0.001237523    2.227    0.551
        11 -10.4515    117.3471    201.6922   2.9162100974e+02   4.7516549799e+00   0.01180772  0.007060334  39.33 0.0007131685    1.707    0.414
        12 -12.0678    169.8501    195.3248   2.9097911618e+02   4.5404139272e+00   0.01263647   0.01070514  20.45 0.0008653894    1.173    0.148
        13 -13.1440    180.5584    193.4401   2.9084482842e+02   4.5038546927e+00   0.02137162   0.01842369 -87.48  0.001608616    1.304    0.233
        14 -14.1426    165.7434    188.6960   2.9098784345e+02   4.6372017206e+00   0.04102219   0.02063604  27.37  0.003516339    1.938    0.484
        15 -13.9025    174.6229    192.8504   2.9090974970e+02   4.5425228857e+00   0.03381498   0.01834842 -72.09  0.002603074    2.176    0.540
        16 -14.3967    175.4079    186.1695   2.9086182157e+02   4.6135026399e+00   0.05252188    0.0271737 -88.55  0.003876896    3.809    0.737
        17 -12.6250    153.8051    185.5037   2.9110679634e+02   4.7375343568e+00   0.01429072   0.01103183 -66.37  0.001324873    1.344    0.256
        18 -10.9662     13.8285    238.6492   2.9302822655e+02   4.8911656204e+00  0.006464886  0.004223318 -43.93 0.0006585598    1.526    0.345
        19  -9.9538    126.1955    237.3649   2.9172619837e+02   4.3022246736e+00  0.006629691  0.004349525 -40.85 0.0004272225    1.553    0.356
        20 -10.0579     25.5062    185.0457   2.9258334874e+02   5.4326595555e+00  0.008809741  0.006201659 -56.26 8.476969e-05    1.390    0.280
        21 -10.0995     25.4639    181.5746   2.9256371910e+02   5.4719997246e+00  0.009642075  0.007044035 -21.98 5.429467e-05    1.517    0.341
        22 -10.8221     28.3434    179.3121   2.9251738812e+02   5.4820553318e+00   0.01262111  0.009154982  -9.43 0.0009349692    1.570    0.363
        23 -13.8303    207.2885    178.1734   2.9044815310e+02   4.5313638447e+00   0.02940924   0.02513608 -40.86  0.002857976    1.149    0.130
        24 -12.0710    203.5079    171.3715   2.9045204026e+02   4.6283420022e+00   0.02044746   0.01636531 -11.40   0.00197298    1.337    0.252
        25 -10.9083    139.0764    250.1279   2.9165194370e+02   4.0891426024e+00   0.01120531  0.009256665 -54.75 0.0006709464    1.195    0.163
        26 -13.7170    195.6486    170.5837   2.9053794556e+02   4.6796666897e+00   0.03693774   0.02337816 -82.47  0.001816149    2.054    0.513
        27 -12.2703    193.7972    165.5691   2.9053004527e+02   4.7461089101e+00   0.01568368   0.01397816  11.62  0.001161886    1.116    0.104
        28 -12.4726      6.3366    177.2091   2.9275908882e+02   5.6236847613e+00   0.02057278   0.01446409  48.25  0.001596191    1.564    0.361
        29 -14.5995    138.7726    171.7575   2.9120004114e+02   4.9733746570e+00   0.04425872   0.03276308  17.42  0.004990821    1.371    0.270
        30 -14.7829    144.2007    168.9034   2.9112087051e+02   4.9762501373e+00   0.04336303   0.02747593  56.87  0.004297781    1.988    0.497
        31 -13.4104    177.6932    170.8617   2.9074636266e+02   4.7734985617e+00   0.02402489   0.01604762 -81.24  0.002460064    1.849    0.459
        32 -10.2777     11.8964    173.9100   2.9267582749e+02   5.6310804260e+00  0.009169098  0.007570171 -26.84  0.001074623    1.241    0.194
        33 -11.5849    170.4180    185.2276   2.9091381221e+02   4.6510326622e+00   0.01291311   0.01054049 -88.49 0.0006552815    1.421    0.296
        34  -9.9480    138.2143    245.6011   2.9163559842e+02   4.1447633978e+00    0.0184495  0.009709101  69.96  0.001323991    4.022    0.751
        35 -11.6548    201.2302    164.3538   2.9043736517e+02   4.7196297154e+00   0.02128592   0.01504522 -73.61  0.002303513    1.576    0.366
        36 -10.5446     25.7666    229.9487   2.9284033549e+02   4.9252519843e+00   0.01310537  0.005693003 -67.83  0.001072488    2.608    0.616
        37 -10.9795    222.4683    161.6879   2.9017731370e+02   4.6348308939e+00   0.01339062   0.00954813  71.84 0.0007756416    1.833    0.454
        38 -13.2213    164.0399    156.5276   2.9082017086e+02   5.0085639638e+00   0.01897832   0.01441107 -36.90  0.001051022    1.336    0.251
        39 -15.0113    134.5293    147.0790   2.9110531009e+02   5.2741403118e+00   0.08924147   0.03201971 -72.87  0.005576232    4.835    0.793
        40 -14.9241    143.6700    144.3525   2.9098404131e+02   5.2555435451e+00   0.05266391   0.03032162 -78.96  0.004862912    2.284    0.562
        41 -10.3215    160.1285    246.7206   2.9138981551e+02   4.0141274228e+00   0.01289356  0.006459115 -51.19 0.0008478089    1.905    0.475
        42 -10.5643     22.9708    156.1115   2.9244483942e+02   5.7722780266e+00  0.009646895  0.009174204 -13.49 0.0004497575    1.023    0.022
        43  -9.7378     19.3056    158.2444   2.9249951182e+02   5.7678949266e+00  0.006440802   0.00475607 -20.94 0.0002831397    1.497    0.332
        44 -10.2049    192.6418    153.3011   2.9047184468e+02   4.8904258415e+00  0.006864757  0.004794583  56.90 0.0006162165    1.713    0.416
        45 -12.9036    160.3485    151.4409   2.9083307824e+02   5.0857516025e+00   0.01695979   0.01180062 -47.95  0.001823621    1.404    0.288
        46 -11.0861     16.4591    250.1988   2.9306466259e+02   4.7469226619e+00  0.009005168  0.006315408 -61.35 0.0009737701    1.428    0.300
        47 -12.7083    173.9338    148.6439   2.9066022409e+02   5.0438968302e+00   0.01633454   0.01526723 -71.61  0.001534676    1.125    0.111
        48 -10.9348      8.0000    238.7621   2.9309604349e+02   4.9211059830e+00  0.008690883  0.003654142 -62.50 0.0007165004    2.379    0.580
        49 -10.3398     22.5365    221.0054   2.9282582385e+02   5.0433458618e+00  0.009041032  0.005938084 -51.47 0.0005138781    1.474    0.322
        50 -10.7215      8.2787    137.8313   2.9250838585e+02   6.0569709711e+00   0.01328273  0.008975287   3.48  0.001379977    1.686    0.407
        51 -12.8091    160.7182    128.1092   2.9069283853e+02   5.3463924458e+00   0.01811425   0.01556225  76.27  0.002172308    1.339    0.253
        52  -9.6523    131.3720    237.1322   2.9166523272e+02   4.2769798031e+00   0.01813308  0.006781981 -59.77 0.0008867835    2.542    0.607
        53 -11.9172    140.5109    120.6118   2.9088213516e+02   5.5398489069e+00   0.01668787  0.009158417  50.19  0.001023154    2.210    0.547
        54 -10.2467     23.3874    215.5898   2.9278467473e+02   5.0998166828e+00  0.006614598  0.005771476 -27.81 0.0002322423    1.146    0.128
        55 -13.0898     11.5621    205.9215   2.9286506173e+02   5.2721305140e+00   0.02737655   0.01692396   9.16  0.002728571    1.844    0.458
        56 -10.8506    205.3304    110.2356   2.9007441787e+02   5.3063890043e+00   0.01354392  0.009197017  15.01 0.0009363663    1.542    0.352
        57 -10.2655    180.7485    106.5668   2.9033626965e+02   5.4806013475e+00  0.009168893  0.005716196  37.85   0.00082255    1.619    0.382
        58 -12.8592    161.4796    197.5524   2.9108848467e+02   4.5604794646e+00   0.01885122   0.01445206  87.71  0.002064549    1.593    0.372
        59 -12.2141    163.8094    202.9806   2.9109322554e+02   4.4867946884e+00   0.01543469   0.01340914  66.87 0.0006378677    1.301    0.231
        60 -12.4040    157.6759    201.8125   2.9115707399e+02   4.5330209763e+00    0.0250795   0.01445873  52.18  0.001821053    2.137    0.532
        61 -12.0674    154.6699    196.2304   2.9115923403e+02   4.6120855029e+00   0.02300212   0.01290377  63.06  0.001958089    2.796    0.642
        62 -11.4046    133.8486    246.0617   2.9168853757e+02   4.1630800506e+00   0.00924196  0.008436146 -41.45  0.000380541    1.072    0.067
        63 -12.0219    125.0649    243.9151   2.9177722608e+02   4.2345353601e+00   0.01373895  0.008234317 -60.06 0.0009679948    1.648    0.393
        64 -13.0920    166.3983     33.8712   2.9007704411e+02   6.3757173691e+00     0.020114   0.01674156 -49.77 0.0008726506    1.178    0.151
        65 -11.0934     13.5416     59.9472   2.9199498173e+02   6.9058014960e+00   0.01181339  0.008561695  42.60 0.0004744576    1.445    0.308
        66 -10.4600    144.8607     34.0768   2.9032681286e+02   6.4898553587e+00  0.009631683  0.008462959  53.50 0.0002997766    1.234    0.189
        67 -11.3098     21.8374    241.2221   2.9295081170e+02   4.8192679191e+00   0.01088394  0.008122756 -62.43  0.001221317    1.354    0.261
