#   1 NUMBER                 Running object number                                     
#   2 MAG_AUTO               Kron-like elliptical aperture magnitude                    [mag]
#   3 X_IMAGE                Object position along x                                    [pixel]
#   4 Y_IMAGE                Object position along y                                    [pixel]
#   5 X_WORLD                Barycenter position along world x axis                     [deg]
#   6 Y_WORLD                Barycenter position along world y axis                     [deg]
#   7 A_WORLD                Profile RMS along major axis (world units)                 [deg]
#   8 B_WORLD                Profile RMS along minor axis (world units)                 [deg]
#   9 THETA_WORLD            Position angle (CCW/world-x)                               [deg]
#  10 FWHM_WORLD             FWHM assuming a gaussian core                              [deg]
#  11 ELONGATION             A_IMAGE/B_IMAGE                                           
#  12 ELLIPTICITY            1 - B_IMAGE/A_IMAGE                                       
         1 -12.4211     43.4119     20.4042   1.0604507212e+02   6.7474406021e+01    0.7703046    0.4092061  14.56  0.003167005    2.340    0.573
         2 -12.2852    216.6604     16.0995   6.3105894337e+01   2.8293488735e+01    0.5633184    0.4388576  81.37  0.002035075    1.179    0.152
         3 -12.1285     43.5552      8.4217   1.0017317857e+02   6.9173215904e+01    0.3116896    0.2229863  29.77 0.0006751419    1.412    0.292
         4 -12.8493    189.0169      7.9410   6.3906432333e+01   3.6248017352e+01    0.5613978    0.2833971 -72.27  0.002252087    2.577    0.612
         5 -10.3009     56.5130      9.4999   9.5047201338e+01   6.7102065304e+01     0.214051    0.1481149  21.01  0.001167172    1.307    0.235
         6 -11.8602     59.7766      7.4489   9.2688917579e+01   6.6814087683e+01     0.367305    0.2166068  47.07  0.002016337    1.844    0.458
         7 -11.6054    166.6022      1.9254   6.4879465378e+01   4.2698678563e+01    0.4510055    0.1595701  68.48  0.001715732    2.395    0.582
         8  -9.5732      5.7953      5.9442   1.1897670400e+02   7.3427065530e+01    0.1408986   0.06781164 -45.11 0.0004110993    1.649    0.393
         9  -9.4731    177.6786    237.3337   1.2054417613e+02   1.9943733493e+00    0.1189217   0.08740556  61.10 0.0007049862    1.703    0.413
        10 -12.2654    220.8440    248.2678   1.1433907296e+02  -6.2641817827e+00    0.4278062    0.2908957  51.58   0.00266967    1.941    0.485
        11 -10.9031     33.6771    242.1278   1.4728181522e+02   2.2457983127e+01    0.1949124   0.09994482  52.14  0.001312434    1.434    0.303
        12 -11.0219     12.4882    227.3221   1.5006901035e+02   2.7273037805e+01    0.1984047    0.1190898  66.12 0.0005682491    1.195    0.163
        13 -11.0565     76.1663    226.0210   1.3860370231e+02   1.9987335355e+01    0.3068606    0.1472742  47.92  0.001140055    1.643    0.392
        14 -10.0140    103.9953    224.9883   1.3315394234e+02   1.6084272734e+01    0.1658782    0.1489923   4.49 0.0009074224    1.621    0.383
        15 -11.4252     95.8882    223.6889   1.3459474319e+02   1.7553318601e+01    0.3716684    0.2580138 -81.27  0.002329275    1.589    0.371
        16 -11.3195    149.6404    221.4337   1.2370554069e+02   9.1475305714e+00    0.4273351    0.2338207 -43.09  0.002210082    2.317    0.568
        17 -10.2103    174.0004    221.2436   1.1889248625e+02   4.9226966897e+00    0.2181406    0.1640755 -18.84  0.001294757    1.683    0.406
        18 -11.6703    226.3890    220.8653   1.0900811847e+02  -3.9554575859e+00    0.2094138    0.1854817  13.86 0.0009453461    1.231    0.188
        19 -10.6230    211.2865    217.7461   1.1123322671e+02  -1.0512847537e+00    0.2467505     0.173768 -36.35  0.001468274    1.702    0.412
        20 -10.5220    218.8096    212.0551   1.0887176152e+02  -1.5766451934e+00    0.1858491    0.1665357  36.27  0.001139743    1.316    0.240
        21 -10.6202    232.6692    211.3036   1.0623147128e+02  -3.7926020643e+00    0.1096583   0.09823875  55.84 0.0003246839    1.654    0.395
        22 -10.5912    115.8115    209.9782   1.2901134825e+02   1.6893185611e+01    0.2143344    0.1358349  77.44  0.001086091    2.054    0.513
        23 -10.8928    185.7923    203.1361   1.1364018776e+02   5.5677136344e+00    0.3086287    0.1828723 -52.19  0.001506701    2.313    0.568
        24 -11.2429      4.7931    199.0719   1.5006231257e+02   3.3247100774e+01     0.331425    0.1172798  53.07  0.001729122    2.226    0.551
        25 -10.4116    112.7852    198.1903   1.2808968623e+02   1.9623061897e+01    0.2338813    0.1264202  70.74 0.0009595079    2.864    0.651
        26 -10.0124    132.9950    195.1938   1.2330898461e+02   1.6682794186e+01    0.1918903    0.1466556 -88.37 0.0009552895    1.616    0.381
        27 -10.0734    215.3150    193.8210   1.0622859974e+02   1.5563972661e+00    0.2429749    0.1149048 -43.54  0.001072486    2.620    0.618
        28 -12.3476    158.7492    190.6057   1.1704018682e+02   1.2747706007e+01    0.6784362    0.4828925 -72.93   0.00297504    2.055    0.513
        29 -10.6114    183.4931    182.4778   1.1036862675e+02   9.3680429933e+00    0.3580976    0.2264248 -22.97   0.00167901    2.022    0.505
        30  -9.9799    223.6365    183.1907   1.0262788850e+02   1.5837146725e+00     0.187702    0.1185611 -20.12 0.0009531623    1.697    0.411
        31 -10.3562    210.5025    182.5170   1.0498006107e+02   4.1333784244e+00    0.2704055    0.1334202 -34.85  0.001212049    2.175    0.540
        32 -10.2694    193.0302    188.2220   1.0951345357e+02   6.5688496615e+00    0.2241586    0.1579736  65.54  0.001082103    2.076    0.518
        33  -9.6870    137.3357    178.6542   1.1966037549e+02   1.9075940069e+01    0.1484018    0.1056187  73.28 0.0007048968    1.772    0.436
        34  -9.8277    217.6206    176.1933   1.0236179505e+02   3.7507597598e+00    0.1940482    0.1234739 -20.54 0.0009550222    1.718    0.418
        35 -10.3908    100.9876    175.9897   1.2755214207e+02   2.6101496885e+01    0.1906029    0.1678125  66.71            0    1.005    0.005
        36 -10.1250     38.6559    174.7050   1.4157581125e+02   3.4927272198e+01    0.1088451   0.08855849 -44.98 0.0006913043    1.665    0.399
        37 -10.6737     34.3986    173.2301   1.4237381309e+02   3.5697066897e+01     0.172093   0.09408432 -89.44 0.0009491736    1.694    0.410
        38 -11.9168    120.9305    166.7514   1.2137300898e+02   2.4577584806e+01    0.5993302    0.2256047 -49.18  0.002232657    2.867    0.651
        39 -11.4823     55.3262    167.0042   1.3700893736e+02   3.4674321173e+01     0.370467    0.2087805  88.64  0.001881458    1.911    0.477
        40 -11.7682    106.0589    157.3665   1.2332162086e+02   2.9275022818e+01    0.6380188    0.4206789 -89.40  0.002913588    2.035    0.509
        41 -10.1429     98.6540    166.3112   1.2661570600e+02   2.8569726127e+01    0.1473639   0.09784549  69.92 0.0007045808    1.708    0.415
        42 -11.0203    167.4283    157.0802   1.0872249175e+02   1.7254741136e+01    0.3785601     0.261047 -73.17  0.001611997    2.311    0.567
        43 -11.6189     28.2563    156.4122   1.4220711054e+02   3.9973910598e+01    0.3976955    0.1935775  88.56  0.001468631    2.079    0.519
        44 -10.1792    218.3131    156.6663   9.8143036576e+01   6.6805290287e+00    0.1342465    0.1157558 -77.74 0.0005090093    1.683    0.406
        45  -9.7466      6.7648    155.9603   1.4706494490e+02   4.1910939251e+01    0.1485655   0.07522829 -78.65 0.0005646497    1.577    0.366
        46 -11.4100    119.9540    156.9575   1.1983387083e+02   2.6852605385e+01    0.4907317    0.2443438  51.04  0.002008793    2.038    0.509
        47 -10.3071     39.8692    152.1584   1.3899466255e+02   3.9756988913e+01    0.2027421    0.1397789  72.82  0.001210894    1.373    0.272
        48 -10.7780    189.8860    149.8040   1.0228348363e+02   1.3804095931e+01    0.4779996    0.2331616 -49.73  0.001814973    2.563    0.610
        49 -11.0904    233.6208    147.2511   9.3281503554e+01   5.1067282684e+00    0.2732359    0.1242361 -36.83  0.001142473    2.154    0.536
        50 -11.4403    107.6151    145.8644   1.2081733799e+02   3.1559414346e+01    0.5608946    0.2790697  65.39  0.001782954    3.950    0.747
        51 -10.3598    148.4856    144.9886   1.1048292858e+02   2.3688230325e+01    0.2105024    0.1347562 -72.57 0.0008100012    2.506    0.601
        52 -10.2605    181.7104    141.7614   1.0219647393e+02   1.7075449290e+01     0.297743     0.182366 -60.72  0.001165684    2.447    0.591
        53 -11.0171     83.0248    131.7946   1.2465688252e+02   3.8894180117e+01    0.3105576    0.2176097  86.33  0.001516265    1.734    0.423
        54 -12.4667     98.4229    127.5712   1.1956762200e+02   3.7341050886e+01    0.9466288    0.5365708  88.95  0.002938811    4.448    0.775
        55 -11.3637     43.6127    123.4561   1.3424607060e+02   4.5949786281e+01    0.4726959    0.2415656  82.12  0.001958895    2.985    0.665
        56 -10.6147     58.8212    124.0145   1.3002424247e+02   4.4080494450e+01    0.2276121    0.1424057  83.68  0.001081718    2.030    0.507
        57 -11.0025     28.3495    123.6629   1.3853178806e+02   4.7366325320e+01    0.2746627    0.1319178  87.94  0.001228736    2.575    0.612
        58 -11.6532    193.2264    118.4661   9.4147307416e+01   1.8764469311e+01     0.653902    0.4658042 -63.75  0.002868417    1.891    0.471
        59 -11.0570     37.7333    121.0838   1.3555335950e+02   4.7095215789e+01    0.1854026    0.1799065  71.00  0.000347633    1.185    0.156
        60 -10.6523     70.6916    119.8490   1.2584464711e+02   4.3490994195e+01    0.3047075    0.1704483 -88.42  0.001167809    3.030    0.670
        61 -10.6359     14.7979    120.5546   1.4186441206e+02   4.9151939144e+01    0.2525985    0.1082333  28.31  0.001304644    2.661    0.624
        62 -10.0128    117.3356    125.6492   1.1400280697e+02   3.4270271657e+01    0.1591501    0.1179878  82.51 0.0007046212    1.786    0.440
        63 -11.8109    141.5084    114.1833   1.0486584585e+02   3.1670440831e+01    0.7242259    0.3457892 -31.20  0.002412473    2.944    0.660
        64 -10.5955    108.3038    112.7585   1.1342191821e+02   3.8903424211e+01    0.4895689    0.1368284 -55.80   0.00122379    5.218    0.808
        65 -11.1999    121.9871    111.9955   1.0943678659e+02   3.6350624590e+01    0.4017447    0.2109576 -59.27  0.001484266    2.426    0.588
        66 -10.8043     78.5286    112.3463   1.2199091817e+02   4.4097797584e+01    0.3739905    0.2226739  88.61  0.001420082    3.094    0.677
        67 -11.7677     15.6829    111.6582   1.4055700622e+02   5.1104833938e+01    0.4646442    0.1985837  51.69  0.002220321    2.839    0.648
        68 -10.8697    174.4077    111.2535   9.6284835352e+01   2.4579947835e+01    0.3883695    0.2684646 -46.97  0.001409313    1.531    0.347
        69 -12.2420    160.1263    110.9016   9.9449322887e+01   2.8051055189e+01    0.6629038    0.5160112 -66.68   0.00303997    1.576    0.366
        70 -10.3565     60.0524    109.9043   1.2705073435e+02   4.7220592705e+01    0.2046454    0.1845687 -62.13 0.0009153327    1.026    0.026
        71 -12.6569    141.3526    105.5287   1.0261614538e+02   3.3508170353e+01     0.581657    0.3151359  61.15  0.002093962    2.456    0.593
        72 -12.1740     44.2832    101.0301   1.3021920557e+02   5.1083802989e+01    0.6959821    0.3711795  80.89  0.002693148    3.619    0.724
        73 -11.9453    150.7687    103.1755   9.9617659957e+01   3.1803803253e+01     0.383836    0.2579352 -63.30  0.001569519    1.976    0.494
        74 -11.8791    127.6824    100.7502   1.0490551403e+02   3.7555215136e+01    0.4532239    0.2699988 -49.05  0.001893353    1.742    0.426
        75 -12.7664    108.7120     99.2913   1.0983428757e+02   4.1802222161e+01     0.902135    0.5276601  67.11  0.003238651    3.019    0.669
        76 -10.4892     81.7183    100.5595   1.1829512836e+02   4.6308952698e+01    0.2469762    0.1762963 -78.27 0.0009282139    1.763    0.433
        77 -10.5795     63.6658     96.9922   1.2315904460e+02   4.9736350260e+01    0.2231037    0.1119914 -79.13 0.0007051516    4.360    0.771
        78 -13.1417    170.4738     90.7523   9.1558414924e+01   2.9392965684e+01    0.4507952    0.4364157  73.60  0.001204676    1.062    0.058
        79 -11.3722     86.9405     87.4808   1.1322454979e+02   4.8364142810e+01    0.3832009    0.2264901  60.82  0.001546264    2.613    0.617
        80 -11.8880     42.2220     87.6498   1.2817881876e+02   5.4349340459e+01    0.3491278    0.2273549  -3.38  0.001592605    2.140    0.533
        81 -10.3653    151.2333     89.2371   9.5558150557e+01   3.4427926217e+01    0.2574979    0.1200579 -48.47 0.0008874741    2.451    0.592
        82 -10.9846    104.5774     83.3235   1.0651594209e+02   4.6014236004e+01    0.3731938    0.2303913 -66.84  0.001457192    2.541    0.606
        83 -11.6893     46.2425     81.1972   1.2532135314e+02   5.5378313975e+01    0.5262524    0.3033845 -58.24  0.001727922    1.525    0.344
        84 -10.3689    140.4961     82.9902   9.6372572660e+01   3.8206492000e+01    0.2443512    0.1548741 -39.96   0.00103582    1.606    0.377
        85 -10.3547    249.6645     81.3201   7.5394678820e+01   1.1868525006e+01    0.1445388   0.09933606 -62.25  0.000521166    1.704    0.413
        86 -11.5225     63.4586     71.8975   1.1671623901e+02   5.5308813688e+01    0.4502336    0.2396409 -49.99  0.001286216    1.701    0.412
        87 -11.0360     81.8604     72.7295   1.1055587220e+02   5.2343572569e+01    0.2755845    0.1929159 -73.89  0.001253159    2.194    0.544
        88 -11.7651    223.3858     71.0453   7.6518503281e+01   1.9429761273e+01    0.4082222    0.2966347  85.94 0.0006341251    1.629    0.386
        89 -10.3719    220.0632     65.7148   7.5622350041e+01   2.1032363408e+01    0.3583393    0.2755792  12.83  0.001760648    1.691    0.409
        90 -10.7751     51.6105     69.7798   1.2042545359e+02   5.7264283023e+01    0.2396038    0.1575077 -59.35  0.001051866    1.499    0.333
        91 -13.8014     31.1921     59.6461   1.2548602443e+02   6.1488233430e+01     1.028874    0.7409046  19.19  0.006011402    1.593    0.372
        92 -11.7320     39.9572     52.2893   1.1977776602e+02   6.2164713339e+01    0.5013784    0.2095948 -37.77  0.001737856    2.328    0.570
        93 -12.0464    231.8987     60.5676   7.2662007637e+01   1.8914836738e+01    0.3416535    0.2711731  59.12   0.00185498    1.303    0.232
        94 -10.5070     98.6541     60.1649   1.0087348824e+02   5.1727194469e+01    0.3204949    0.1048386  50.45 0.0009891749    3.743    0.733
        95 -12.3167     19.7019     59.0416   1.2992878679e+02   6.2507108165e+01    0.3398144    0.2157532 -55.15  0.002084623    1.257    0.204
        96 -10.3861     72.6698     58.3449   1.0909025732e+02   5.6705988302e+01    0.1324115    0.1111866 -87.59 0.0007050423    1.754    0.430
        97 -10.7910     47.6806     57.6209   1.1833834333e+02   6.0249673285e+01    0.2862092    0.1802477 -25.96  0.001274397    1.690    0.408
        98 -11.4939    149.6923     52.4853   8.4444364047e+01   4.1196889489e+01    0.3171198    0.2591818  75.32 0.0007175737    1.341    0.254
        99 -10.4532    157.1918     44.9574   8.0373307030e+01   4.0358508487e+01    0.2630256    0.2063123  57.82  0.000442029    1.200    0.166
       100 -10.1961      9.9781     44.0000   1.3018945869e+02   6.6209885485e+01    0.1606008    0.1489153 -60.25 0.0007993951    1.259    0.206
       101 -10.9003      5.9741     43.1550   1.3174047360e+02   6.6592880908e+01     0.317741    0.2255041  87.41  0.002017735    1.975    0.494
       102 -11.6509     71.8058     42.5736   1.0365145100e+02   5.9726412628e+01     0.573242    0.2705754  49.59  0.002382254    2.820    0.645
       103 -10.9059    120.0984     34.1704   8.5070558776e+01   5.1169982654e+01    0.2902296    0.2650803 -85.11 0.0009289625    1.324    0.245
       104 -12.3203     41.9835     38.7337   1.1426812099e+02   6.4545890219e+01    0.5002359    0.3294654  14.30  0.002336479    1.644    0.392
       105 -11.2180    104.4329     30.5171   8.7930910321e+01   5.5249782891e+01    0.5200626    0.2187666  57.41   0.00197145    2.666    0.625
       106 -10.4721     81.9051    248.3539   1.3944147100e+02   1.5359107405e+01    0.1900958    0.1449371 -50.40  0.001335504    1.966    0.491
       107 -10.5762    239.7471     20.6625   6.2014714038e+01   2.2163883181e+01     0.233418    0.1934622 -60.15 0.0005458699    1.075    0.070
       108  -9.6259    119.4734    247.5033   1.3261668898e+02   9.9756244387e+00    0.1201314    0.0897865  51.34 4.031103e-05    1.019    0.019
       109 -10.6362    134.7432     17.8009   7.5559005056e+01   4.9516183208e+01    0.2415276    0.1813747 -10.91  0.001258989    1.478    0.323
       110  -9.3905      3.0000     17.7888   1.2541587055e+02   7.1575790178e+01    0.1192088   0.08096819   3.20 0.0003176413    1.573    0.364
       111 -12.4598     24.3091    241.9216   1.4880852148e+02   2.3516437224e+01    0.3982883    0.1657125  65.40  0.002427751    1.942    0.485
       112 -10.5902      7.9734    240.4989   1.5135866664e+02   2.5421258978e+01    0.1401291   0.07722022  45.24 0.0006724733    1.566    0.362
       113 -10.4604      2.3769    239.7279   1.5220483314e+02   2.6086389489e+01    0.1607396    0.1010781 -85.10  0.001276311    1.457    0.314
       114 -10.2385    159.6737    237.4952   1.2394739662e+02   4.9816297487e+00     0.188175    0.1178663 -47.31  0.001103793    2.055    0.513
       115 -11.8169     29.9398    233.6881   1.4745239684e+02   2.4334791644e+01    0.5022655    0.1837061  63.63  0.002571862    2.421    0.587
