#   1 NUMBER                 Running object number                                     
#   2 MAG_AUTO               Kron-like elliptical aperture magnitude                    [mag]
#   3 X_IMAGE                Object position along x                                    [pixel]
#   4 Y_IMAGE                Object position along y                                    [pixel]
#   5 X_WORLD                Barycenter position along world x axis                     [deg]
#   6 Y_WORLD                Barycenter position along world y axis                     [deg]
#   7 A_WORLD                Profile RMS along major axis (world units)                 [deg]
#   8 B_WORLD                Profile RMS along minor axis (world units)                 [deg]
#   9 THETA_WORLD            Position angle (CCW/world-x)                               [deg]
#  10 FWHM_WORLD             FWHM assuming a gaussian core                              [deg]
#  11 ELONGATION             A_IMAGE/B_IMAGE                                           
#  12 ELLIPTICITY            1 - B_IMAGE/A_IMAGE                                       
         1 -11.6382     80.4574     23.3530   7.8648626903e+01   6.0734522290e+01    0.5736945    0.2743995  34.32 0.0004866484    2.221    0.550
         2  -8.9140     10.9308     18.9976   1.0693018128e+02   7.0685827359e+01    0.5105982    0.2226944 -11.77  0.002222573    3.748    0.733
         3  -8.2777    101.5516     18.8939   7.0360179987e+01   5.6982753166e+01    0.3438018    0.1798419  25.11  0.001430691    2.428    0.588
         4  -9.8417     77.2653     13.2522   7.5111276268e+01   6.2619696923e+01    0.7319739    0.2374342  43.50  0.002812094    2.849    0.649
         5  -9.8998    133.8833     13.6326   6.0871563515e+01   4.9984402512e+01     0.323861    0.2207568  42.29 0.0003297358    1.385    0.278
         6  -9.5693     64.5981     13.4009   7.9634045046e+01   6.4901318910e+01     0.446653    0.2727848  -9.33  0.001908009    1.708    0.414
         7  -8.8784     96.7127     12.3527   6.8864276309e+01   5.8761504411e+01    0.2979318    0.1870921  24.31  0.001073136    1.653    0.395
         8  -9.5559     30.9881     11.2871   9.3118667307e+01   7.0065490021e+01    0.5242187    0.3082817   2.24  0.001918467    1.955    0.488
         9  -9.4458     32.0285      6.2517   9.0015568554e+01   7.0670344821e+01    0.3329694    0.1909436  14.13 0.0003446774    1.888    0.470
        10  -8.4964    109.1298     11.1483   6.5190514304e+01   5.6126576405e+01    0.1777663    0.1636422 -63.37  0.000571051    1.333    0.250
        11  -9.4835    125.4988      9.9413   6.1124002192e+01   5.2390242922e+01    0.3382926    0.1760401  46.54 0.0005364027    1.736    0.424
        12  -8.7789     71.6240      8.9328   7.4945441981e+01   6.4178581224e+01    0.2515875    0.1401731 -16.57  0.000945188    1.793    0.442
        13  -8.2362    143.6659      9.1648   5.7497741029e+01   4.7980269189e+01    0.3040015    0.1353291  43.13 0.0009069433    2.260    0.558
        14  -9.5422     46.6728      6.1979   8.3197597912e+01   6.8686381673e+01    0.2665828    0.2164139  16.57 0.0003765382    1.171    0.146
        15  -9.1631     40.9089      6.0147   8.5668066285e+01   6.9539333589e+01    0.3820421    0.2117534 -13.27  0.001451553    1.887    0.470
        16  -9.2786    119.2895      6.8938   6.1200115261e+01   5.4161514318e+01    0.2554501    0.1957799  30.50  0.000221223    1.244    0.196
        17 -10.0263      7.7521      5.5806   1.0273391718e+02   7.3202425442e+01    0.5112054    0.2300643   1.29  0.002500868    3.207    0.688
        18  -7.7726    156.1782      7.3603   5.4910714410e+01   4.4982658210e+01    0.1856146    0.1235404  79.81 0.0002352221    1.538    0.350
        19  -8.8010    100.4300      6.6549   6.5407395973e+01   5.8521409690e+01     0.250737    0.2064243  64.22  0.001010805    1.340    0.254
        20  -9.2675     92.7824      4.8939   6.6608159096e+01   6.0353008958e+01    0.4397077    0.2155713  45.42  0.002105553    1.787    0.441
        21  -9.7347     84.8299      5.4984   6.9113193045e+01   6.1960616773e+01    0.2554648    0.2185288   4.66  0.001613448    1.085    0.078
        22  -9.0764     77.0056      5.2228   7.1366224167e+01   6.3552508136e+01    0.3658544    0.2334337 -36.15  0.001999079    1.789    0.441
        23  -8.7857    133.1657      4.0216   5.7441470622e+01   5.1050445889e+01    0.4183693    0.1773974  38.43  0.001010546    2.553    0.608
        24  -8.3317    104.8896      1.8957   6.2282504517e+01   5.7947620544e+01    0.2527754     0.163924  47.90  0.001357956    1.348    0.258
        25  -7.9848    111.4958      4.4963   6.1892815015e+01   5.6206707856e+01    0.2500902    0.1612329  40.06  0.000969109    1.406    0.289
        26  -8.6645    110.2022      1.6299   6.0985824560e+01   5.6751840113e+01    0.3220063    0.1887745  65.72  0.001405595    1.724    0.420
        27  -8.3234    125.6653      3.7270   5.8698069563e+01   5.2908691697e+01    0.2308649    0.1773983  34.89  0.000516121    1.230    0.187
        28  -8.4429     57.3832      3.4200   7.7337886551e+01   6.7316149932e+01    0.2523495    0.1601935  31.99  0.001119501    1.447    0.309
        29  -8.9899    152.5595      3.6635   5.4202940190e+01   4.6227281643e+01    0.3815482    0.0788834  61.30  0.001230903    3.421    0.708
        30  -8.5577    143.1813      2.0661   5.5070488949e+01   4.8724347599e+01    0.2246204    0.1758451  59.14 0.0003561433    1.144    0.126
        31  -7.9464      3.1199      1.3046   1.0335915385e+02   7.4230790917e+01    0.1871521   0.08832074   8.80 0.0008981564    2.449    0.592
        32  -7.5440     38.6587    109.8354   1.1950558647e+02   4.9010302578e+01    0.1884676    0.1060381 -76.35 0.0006400585    1.738    0.424
        33  -9.6075    212.0261    249.5453   1.0290065066e+02  -4.2748831590e+00    0.2127697    0.1555383  19.40  0.001309947    1.107    0.096
        34  -8.1192    204.3450    250.3148   1.0432126106e+02  -3.2457883906e+00    0.1183706   0.07202087  15.63 0.0007047682    1.714    0.417
        35 -10.7005    190.8553    249.1895   1.0649863726e+02  -1.1190549261e+00    0.4329261    0.2015015  44.66  0.002358807    1.907    0.476
        36  -7.8053    123.8380    107.1592   9.4238118325e+01   3.6664129666e+01    0.2125785    0.1812719  -2.10 0.0007166186    1.370    0.270
        37  -7.5826    108.8397    106.7776   9.8207222704e+01   3.9681254965e+01    0.2503041    0.1638921  -7.86 0.0009432313    2.831    0.647
        38  -7.4046     76.3142    107.3176   1.0773238778e+02   4.5013548498e+01    0.1425064    0.1046023 -27.52 0.0002927674    1.648    0.393
        39  -7.8829    134.0000    105.9776   9.1285368097e+01   3.4802806543e+01    0.2494985    0.1916032  -1.76  0.001131157    1.719    0.418
        40  -8.5018     61.2823    106.4181   1.1205533165e+02   4.7279202008e+01    0.2370329     0.138138  26.28  0.001136714    2.071    0.517
        41  -9.0766     14.4689    105.2820   1.2598605086e+02   5.2078724672e+01    0.2829543    0.1630703 -38.95  0.001392283    1.988    0.497
        42  -7.1151    140.3254     99.3447   8.7881322657e+01   3.4804717118e+01    0.1614693    0.1225954   2.06 0.0003552795    1.741    0.426
        43  -7.4072    129.7164     97.2403   8.9999750705e+01   3.7540076867e+01    0.2420324    0.1221898  35.16 0.0006753971    2.362    0.577
        44  -9.5498    242.2075     96.2298   6.7296181761e+01   1.2228379813e+01    0.3296911    0.1709401  53.83  0.001488631    2.122    0.529
        45  -9.9121     11.7159     94.3853   1.2528676572e+02   5.4763782683e+01    0.3777243    0.1907602 -38.40  0.001696051    2.232    0.552
        46  -8.5382    222.6890     93.7632   6.9652653685e+01   1.6810341774e+01    0.2502298    0.2024925  18.61  0.001306481    1.407    0.290
        47  -8.2999     43.6341     92.0522   1.1459789886e+02   5.2656804311e+01    0.2823644     0.197199 -24.06  0.001546301    1.755    0.430
        48  -8.3627     96.5898     90.3247   9.7339024759e+01   4.5550931667e+01    0.3709575    0.2479949   4.13  0.001544597    2.426    0.588
        49  -7.7224     63.2961     88.3434   1.0728755008e+02   5.1189291903e+01    0.1430367    0.0963667 -30.79 0.0007032646    1.666    0.400
        50  -9.9738     37.2095     81.4257   1.1444759507e+02   5.5726635447e+01    0.7182543    0.3563859 -28.59  0.003089714    2.924    0.658
        51  -7.7286     65.8167     84.5795   1.0549055923e+02   5.1696886222e+01    0.1773622    0.1297329  46.57 0.0005991907    1.584    0.369
        52  -7.8104    126.9353     83.5564   8.6747075115e+01   4.0920624597e+01    0.2212084    0.1289226  24.85 0.0008077908    2.558    0.609
        53  -8.7915     88.3720     78.8860   9.6550757443e+01   4.9449354165e+01    0.4605017    0.2844565   8.06  0.001807301    2.854    0.650
        54  -9.7310      8.4228     77.3901   1.2366635411e+02   5.8814023641e+01     0.484226    0.1903935 -37.64  0.002237514    2.844    0.648
        55  -7.9352    184.1628     78.1051   7.2148353436e+01   2.8423717025e+01    0.2327214    0.2023711   8.05 0.0006394392    1.270    0.213
        56  -9.1028     49.4681     76.9872   1.0908885625e+02   5.5441912340e+01    0.4702731    0.2605136   3.70  0.002001407    3.102    0.678
        57  -8.1330    249.2631     76.5529   6.1614240079e+01   1.3658824098e+01    0.1783975    0.1262446  44.85 0.0009463325    1.613    0.380
        58  -7.5939    120.0442     76.4527   8.6415507552e+01   4.3802843233e+01    0.2176228    0.1272146  24.26 0.0008084605    2.526    0.604
        59  -7.3852    105.5088     76.5087   9.0574682015e+01   4.6776551984e+01    0.1492533    0.1388606 -17.34 -2.031442e-07    1.038    0.037
        60  -7.1657    211.6218     75.2852   6.6614606677e+01   2.2265499419e+01    0.1525335    0.1104331 -69.89 0.0007014598    1.724    0.420
        61  -8.2906     74.9032     74.2244   9.9536318721e+01   5.2635599138e+01    0.2441255    0.1897473 -33.13 0.0007137234    1.222    0.182
        62  -9.7674     23.9722     73.8130   1.1745428285e+02   5.8579118686e+01    0.9285672    0.3128482 -34.77  0.003118312    4.911    0.796
        63  -8.1994     23.4676     69.4855   1.1667947842e+02   5.9579176230e+01    0.2525395    0.1696481 -62.85 3.784077e-05    1.264    0.209
        64  -8.5295     83.8460     64.2184   9.3370041311e+01   5.3231814685e+01    0.3713945    0.2328654  12.01  0.001594343    2.372    0.578
        65  -9.4011     16.8783     62.9866   1.1768956317e+02   6.1478784068e+01    0.4492987    0.2209649 -20.92  0.002158639    2.821    0.646
        66  -9.2817     37.1821     59.7209   1.0892905411e+02   6.0496409351e+01    0.4387345    0.1777685 -36.52  0.001824395    2.716    0.632
        67  -8.1780    123.7630     59.4323   7.9815709041e+01   4.6120036867e+01     0.262417    0.1942351 -32.66 0.0005440052    1.333    0.250
        68  -8.6008     97.1449     58.7515   8.7218430230e+01   5.1841748656e+01    0.4820007    0.2646154 -10.74  0.001535205    4.105    0.756
        69  -8.0273    111.2863     58.5962   8.2950848646e+01   4.8996584918e+01    0.3192485    0.2059259  22.47  0.001208198    1.976    0.494
        70  -9.5658     62.8237     61.4494   9.9763762306e+01   5.7071979206e+01    0.5503559    0.2641804  25.58  0.002125139    2.641    0.621
        71 -10.0224     74.7714     50.2188   9.1563925456e+01   5.7431067173e+01     0.459543    0.2998455 -26.96 0.0003970408    1.521    0.342
        72  -8.0407     88.4301     53.8030   8.8230156040e+01   5.4393092847e+01    0.2042126    0.1265827 -28.11 0.0007620455    1.644    0.392
        73  -8.5732    118.3980     50.9954   7.8292412417e+01   4.8740679864e+01    0.2746353    0.1984103  39.49 0.0005566977    1.377    0.274
        74  -9.2793     45.4143     48.8656   1.0223049209e+02   6.1830452854e+01    0.3766136    0.2277874 -22.44  0.001499447    1.862    0.463
        75  -8.1325    106.8200     48.7300   8.0695822014e+01   5.1630380238e+01    0.2904209     0.177594  26.51  0.001262136    1.980    0.495
        76  -9.3654     56.3226     43.3066   9.5864492357e+01   6.1499479212e+01    0.7247226     0.321053 -23.35  0.002347165    4.586    0.782
        77  -8.9659     13.9528     45.7334   1.1450571783e+02   6.5327414715e+01    0.4676192    0.1832685 -46.34  0.001656684    1.921    0.479
        78  -8.2230      2.2322     44.7557   1.1934205806e+02   6.6198196643e+01    0.2980776     0.111157 -58.49 0.0009179391    1.900    0.474
        79  -8.9233      3.6931     40.4818   1.1759601206e+02   6.7002704068e+01    0.3247766    0.1377209 -61.54  0.001378376    1.885    0.469
        80  -7.7745    219.5132     44.0917   5.7200844405e+01   2.4869651184e+01    0.2015378    0.1316454 -31.10 0.0004022398    1.479    0.324
        81 -10.9759     83.1645     40.0164   8.4739547633e+01   5.7739277198e+01     0.388116    0.2663803 -15.45  0.001985061    1.536    0.349
        82  -9.0122     87.5146     37.9783   8.2483231545e+01   5.7251035115e+01    0.2607179    0.2314089 -11.92 0.0006060514    1.045    0.043
        83  -7.9091    113.4753     42.0208   7.6331201308e+01   5.1248990893e+01    0.3134688    0.1578126  24.11  0.001037668    3.535    0.717
        84  -8.9971     35.7526     38.0090   1.0242011573e+02   6.4995150520e+01    0.4896779    0.1313763 -48.43  0.001889289    3.046    0.672
        85  -8.6879     38.4956     35.5079   1.0027581859e+02   6.5161399103e+01    0.2153398    0.1720197  -5.59 0.0005287488    1.214    0.177
        86  -7.9445    124.0550     39.9164   7.2806321169e+01   4.9149864950e+01    0.2290366     0.162574  22.23 0.0004462521    1.588    0.370
        87  -9.1177     93.9724     37.8496   8.0377595840e+01   5.6007922394e+01    0.3663476    0.2995271  45.01  0.001362734    1.285    0.222
        88  -9.3317     67.6883     37.7036   8.9297952649e+01   6.0788237696e+01     0.383759    0.2432247   5.09  0.001847763    2.066    0.516
        89  -8.5621     74.0022     34.4655   8.5660226427e+01   6.0266068973e+01    0.4302543    0.2077897  28.95  0.001656617    2.537    0.606
        90  -8.6227     55.1239     36.4993   9.3681054022e+01   6.2886219732e+01     0.353531    0.2038421  -7.89  0.001195496    2.570    0.611
        91  -8.2423    105.5818     36.9825   7.6589956742e+01   5.3725401351e+01    0.2777227    0.1818814  31.77 0.0008427807    1.584    0.369
        92  -8.6202     10.5184     47.0877   1.1635802572e+02   6.5264746278e+01    0.2719578    0.1554273 -54.43 0.0005411116    1.331    0.249
        93  -8.7080     23.6677     36.3093   1.0720742043e+02   6.6473247083e+01    0.2264729    0.1970983  83.55  0.001280394    1.733    0.423
        94  -9.8437     21.4778     32.8893   1.0700585342e+02   6.7310978864e+01    0.4801768    0.1919804 -33.79  0.001922887    2.504    0.601
        95  -9.2702      6.2532     34.1794   1.1461219266e+02   6.8127933369e+01    0.3795546    0.2478027 -48.41  0.002516394    1.150    0.131
        96  -9.3155      1.9497     29.0398   1.1509784243e+02   6.9368142497e+01    0.4983556    0.1620086 -58.73  0.002388675    2.389    0.581
        97  -8.5881     42.4366     27.6062   9.5325854556e+01   6.6089026920e+01    0.2750406    0.1534577 -14.29 0.0006699365    2.282    0.562
        98  -9.4414     61.9141     26.8792   8.6916171041e+01   6.3453426833e+01    0.4526618    0.1988137 -29.47  0.001702422    2.275    0.560
        99  -7.3575      5.2951    248.6871   1.3815189900e+02   2.3517690063e+01    0.1032007   0.04660076  63.90 0.0003984595    1.597    0.374
       100  -9.5630     69.3239     25.8983   8.3679234846e+01   6.2381505826e+01    0.5514277    0.3605203  66.48  0.002495618    3.078    0.675
       101  -7.3621    110.3405     26.3315   7.1082074865e+01   5.4131679352e+01     0.152712   0.09859499  22.75 0.0007051536    1.746    0.427
       102  -9.2408     28.3180     21.8339   9.9350892409e+01   6.8667493622e+01     0.369097    0.1909184 -10.57   0.00145059    2.793    0.642
       103  -7.3488    102.0227     25.2287   7.2872116067e+01   5.6106572984e+01    0.1777618    0.1089955  50.09 0.0004033163    1.581    0.368
       104  -8.7973    144.6287     23.3969   6.2346606519e+01   4.6268593765e+01    0.2479802    0.2210838  36.80 0.0002172007    1.084    0.078
       105  -7.5492    137.2854     23.2998   6.3742998607e+01   4.8107797313e+01    0.1458844    0.1011368  29.00 0.0001691847    1.553    0.356
       106  -8.2152    128.9943     22.4981   6.5172345517e+01   5.0227879397e+01    0.2178733    0.1311524  56.75  0.001013123    1.559    0.358
       107  -8.7534     46.1274     20.5848   9.0571912056e+01   6.6744121740e+01    0.3170602    0.1623445 -42.81  0.001585107    1.966    0.491
       108  -9.0760     92.4822     20.4451   7.3590198383e+01   5.8725946453e+01    0.2622493    0.2123375  13.15 0.0006022908    1.151    0.131
       109  -8.4047    140.2763     20.1082   6.2005940028e+01   4.7723006712e+01    0.2355547    0.1730109  45.31 0.0003856804    1.280    0.219
       110  -9.8513    163.6629    245.1316   1.1077671629e+02   3.5272390671e+00    0.2194065    0.1575728 -41.26  0.001471117    1.755    0.430
       111  -8.5161      5.4624     18.9389   1.0979074973e+02   7.1066654384e+01    0.1620456     0.138001 -42.16 0.0005080417    1.235    0.190
       112  -7.3463    111.9961     19.0096   6.7718552577e+01   5.4632791995e+01    0.1661578    0.1460135  36.25 0.0003323082    1.049    0.047
       113  -9.5043    246.5575    243.6680   9.6272761850e+01  -8.4823931126e+00     0.194316    0.1546531   7.26  0.001192305    1.177    0.151
       114  -8.5508    227.4852    245.4815   9.9695521102e+01  -6.0388415522e+00    0.1141064   0.08504015  20.09 9.416193e-05    1.014    0.014
       115  -8.8698    250.0139    107.9986   6.8949340381e+01   8.8768323511e+00    0.1706101    0.1497797 -22.89    0.0010161    1.003    0.003
       116  -7.7642    121.3426     15.2974   6.4074923328e+01   5.2853313496e+01    0.1500346   0.09332994  31.79 0.0006366612    1.667    0.400
       117 -10.1269    175.8237    249.6415   1.0919285558e+02   1.0827899801e+00    0.4276308    0.1360984  36.27  0.001820513    2.672    0.626
       118  -8.4842    127.4902     16.9071   6.3380519244e+01   5.1208904523e+01    0.2217375    0.1830232  68.19 0.0003043644    1.259    0.206
       119 -10.2832    188.2165    234.3644   1.0488621262e+02   1.1620476422e+00    0.3123784    0.2231842 -60.03  0.001848229    2.266    0.559
       120  -8.1731     88.0255     13.0355   7.1637104268e+01   6.0514274618e+01    0.2057589    0.1737635  18.39 0.0005313234    1.033    0.032
       121  -7.4002    104.5624    237.5045   1.2065783359e+02   1.3562643661e+01     0.114885   0.09276816  53.12 4.666055e-05    1.036    0.035
       122 -10.0979    140.5587    230.2621   1.1314195660e+02   9.2967593630e+00    0.2151347    0.1714912  43.46 0.0002623311    1.026    0.025
       123  -8.2874    249.3536    201.0442   8.8618134950e+01  -4.1051540812e+00    0.1898721    0.1349167  15.13 0.0003652839    1.193    0.162
       124  -8.5188    248.0282    183.3826   8.5510220103e+01  -1.6477327899e+00    0.2269529    0.1654156 -29.13 0.0006784577    1.381    0.276
       125  -8.8672    235.3622    177.9848   8.6604265269e+01   1.1782288542e+00    0.2361589    0.1713865  39.07 0.0003511171    1.410    0.291
       126  -8.5355    236.0984    173.0612   8.5492439763e+01   1.7518670193e+00    0.1921283    0.1620007   2.89 0.0002871828    1.004    0.004
       127  -8.0925    157.1811    168.8484   1.0008821551e+02   1.7170773951e+01    0.1972398     0.182982  62.61 0.0003189164    1.145    0.127
       128  -8.1793    236.7840    168.1651   8.4378865953e+01   2.3376450182e+00     0.184532    0.1686226   0.57  0.000817693    1.160    0.138
       129  -9.8916    204.3853    165.4884   8.9726356408e+01   8.6758548014e+00    0.2629183    0.2299274  28.64 0.0002013398    1.100    0.091
       130  -7.3005    157.5611    153.4982   9.6919915875e+01   2.0079643693e+01    0.1440294    0.1385052  22.75 0.0008074542    1.013    0.013
       131  -8.7697    224.1240    148.5171   8.2424708927e+01   7.6418290351e+00    0.2389497    0.1992843 -28.09 0.0003254423    1.166    0.142
       132  -7.8623    133.4250    147.7471   1.0128192889e+02   2.5992473241e+01    0.2040281    0.1370695 -38.04 0.0009462397    1.641    0.391
       133  -7.9387    209.9910    147.3221   8.4750751306e+01   1.0603863010e+01    0.2188323    0.1206055  67.09  0.000704962    4.299    0.767
       134  -9.1503     67.3410    144.7386   1.1722790079e+02   3.7521708014e+01    0.3826523    0.2486817  61.80   0.00180695    1.665    0.399
       135  -7.4639    175.6756    143.6699   9.0820474681e+01   1.8287210046e+01    0.1541424    0.1145569   5.04 0.0007050234    1.701    0.412
       136  -7.7205     69.3448    133.3393   1.1484886676e+02   3.9904522969e+01    0.1386092    0.1003112 -32.33 -3.26279e-05    1.779    0.438
       137  -7.4762    132.3161    125.3171   9.6587358737e+01   3.1023313275e+01    0.1522293    0.1203081  -4.29 0.0003647613    1.651    0.394
       138  -7.6676     85.9652    121.5282   1.0804276560e+02   4.0248943100e+01     0.194986    0.1287618   4.07 0.0007187434    2.664    0.625
       139  -7.5199    119.4916    119.4180   9.8462863674e+01   3.4847603804e+01    0.1461736    0.1443163 -75.81 0.0001854323    1.015    0.014
       140  -7.5807    100.7662    118.4214   1.0326117782e+02   3.8519592353e+01    0.1999041    0.1425807  25.34 0.0009094509    1.679    0.405
       141  -7.3309    131.2945    113.3270   9.3895493734e+01   3.3810708245e+01    0.1535397    0.1209187  -6.46 0.0003237194    1.626    0.385
       142  -7.4580    142.6874    111.6764   9.0615755055e+01   3.1750668729e+01    0.1569781    0.1222632   0.41 0.0007040145    1.658    0.397
       143  -7.9952      1.3752    110.7609   1.3038703646e+02   5.1648096719e+01    0.1732893   0.07870675 -65.43 0.0005403058    1.660    0.398
