#   1 NUMBER                 Running object number                                     
#   2 MAG_AUTO               Kron-like elliptical aperture magnitude                    [mag]
#   3 X_IMAGE                Object position along x                                    [pixel]
#   4 Y_IMAGE                Object position along y                                    [pixel]
#   5 X_WORLD                Barycenter position along world x axis                     [deg]
#   6 Y_WORLD                Barycenter position along world y axis                     [deg]
#   7 A_WORLD                Profile RMS along major axis (world units)                 [deg]
#   8 B_WORLD                Profile RMS along minor axis (world units)                 [deg]
#   9 THETA_WORLD            Position angle (CCW/world-x)                               [deg]
#  10 FWHM_WORLD             FWHM assuming a gaussian core                              [deg]
#  11 ELONGATION             A_IMAGE/B_IMAGE                                           
#  12 ELLIPTICITY            1 - B_IMAGE/A_IMAGE                                       
         1 -13.9020    225.2124     11.4095   4.0474070580e+01   2.7431165231e+01      1.58204     1.149394  23.13  0.002828576    2.056    0.514
         2 -13.5775    199.1593     36.3177   4.9953257510e+01   3.0867559032e+01      1.51853     1.138488  -1.72  0.004962672    1.761    0.432
         3 -13.3683    206.9865     30.7160   4.7390680047e+01   2.9615515017e+01     1.124344    0.8107209 -52.46  0.003793577    1.334    0.250
         4 -12.6184    214.2863     23.3318   4.4577105143e+01   2.8710207515e+01    0.6023007    0.4933197  33.04  0.001215039    1.535    0.349
         5 -10.4242      1.9973      2.7575   9.7475485385e+01   7.4080338651e+01    0.2285905     0.106672 -45.22  0.001385312    1.694    0.410
         6  -8.5216     96.5050    201.4662   1.1121436026e+02   2.0359931843e+01     0.130524    0.1100712  66.18 5.267166e-05    1.002    0.002
         7 -15.4263    104.2746    247.9355   1.1474936470e+02   1.0680218455e+01     8.976745      1.92886  38.63   0.03153873    4.371    0.771
         8  -9.3867     75.0625    190.0264   1.1439420524e+02   2.5937429844e+01    0.2141367    0.1288359  70.94 0.0006464875    1.720    0.418
         9 -14.7125      9.5751    207.2551   1.2875548859e+02   2.9991136121e+01      1.15916    0.9910607  86.36  0.003976622    1.328    0.247
        10 -12.8543     27.9443    214.8807   1.2590341046e+02   2.6641037108e+01    0.8632571    0.3883977  72.41  0.002162624    2.047    0.511
        11 -11.9525     62.4674    182.4940   1.1626946188e+02   2.9292416646e+01    0.3852175    0.2739024 -42.63  0.001175526    1.977    0.494
        12 -11.7737     67.7131    176.6872   1.1443108088e+02   2.9882420471e+01    0.2893448    0.2412202 -52.87 0.0009372762    1.435    0.303
        13 -11.4478     41.1143    178.8746   1.2052893555e+02   3.2691245132e+01    0.2580137    0.1890972 -62.45 0.0007157476    1.455    0.312
        14 -15.7642      9.3405    240.8028   1.3036944461e+02   2.3755316893e+01     2.421658     1.716523  66.14    0.0031564    1.115    0.103
        15 -10.9573    119.5373    174.5029   1.0224709564e+02   2.2190602845e+01    0.3055865     0.132257  40.88  0.001222376    2.205    0.546
        16 -12.1152     84.3360    233.1533   1.1699024985e+02   1.6099650023e+01    0.3572333    0.2280059  59.69  0.001494925    1.288    0.223
        17 -12.9281     57.3692    129.5714   1.1032868434e+02   4.2287538088e+01      2.81578    0.8140407 -73.00  0.005873403    9.354    0.893
        18 -13.3209     83.4376    159.8400   1.0842733446e+02   3.1479448761e+01     2.258752    0.9342292  58.34  0.002867078    3.531    0.717
        19 -13.3095     67.9303    144.0607   1.0985726037e+02   3.7435352961e+01     1.006016    0.5891047  87.39  0.003028579    2.154    0.536
        20 -11.3226     77.3225    166.5468   1.1088507677e+02   3.0835546190e+01    0.2539828    0.2289243  86.26 0.0004869457    1.069    0.065
        21 -13.3553     64.6772    162.6951   1.1336285315e+02   3.3478966917e+01    0.5013689    0.2930871 -48.48  0.001573064    2.002    0.501
        22 -10.5035    134.1932    147.1928   9.3616463730e+01   2.5437513303e+01    0.9548046    0.2436947 -56.44  0.001978357    7.804    0.872
        23  -8.9156    174.6818    149.6734   8.4820200671e+01   1.6511893764e+01    0.1549797    0.1184577   3.55 0.0007045924    1.678    0.404
        24 -10.2447     98.1663    144.8259   1.0216829558e+02   3.2645317211e+01    0.2738428    0.2506002 -46.50 0.0007370224    1.197    0.165
        25  -9.6551    101.2291    141.1715   1.0067584690e+02   3.2983909679e+01    0.3415026    0.2130695 -36.11  0.001478016    2.088    0.521
        26 -12.2472     86.6233    143.3793   1.0488674204e+02   3.4865712682e+01    0.2972253    0.2567178 -53.14 0.0004772851    1.204    0.169
        27  -8.9032     81.5750    137.5345   1.0515907485e+02   3.7040667425e+01    0.1425635    0.1263325 -83.35 4.724827e-05    1.035    0.034
        28 -11.1794    183.6069    216.2525   9.5655283348e+01   2.8796325491e+00    0.2174047    0.1672515 -23.41  0.001302753    1.491    0.329
        29 -10.0638    109.2439    132.5942   9.6812126173e+01   3.3575298992e+01    0.3237828     0.280655  17.76  0.001226933    1.379    0.275
        30 -10.0519    105.7664    131.0196   9.7394873773e+01   3.4577719824e+01    0.3264729    0.2192752 -60.41  0.001396054    1.472    0.321
        31 -10.5198    136.1273    129.3491   8.9148623919e+01   2.9031658073e+01    0.3143363    0.1754664 -55.71  0.001244242    1.939    0.484
        32 -10.8029     96.8138    128.8112   9.9333940485e+01   3.6672572819e+01    0.2846622    0.2498018 -18.37 0.0007420829    1.392    0.282
        33  -9.8829    160.5728    126.7657   8.2624435620e+01   2.4298754670e+01    0.2242601    0.1472433 -54.26 0.0009480544    1.659    0.397
        34  -9.8428    115.9608    126.0565   9.3575842522e+01   3.3838573937e+01     0.246001     0.190439 -14.36  0.001131044    1.778    0.438
        35 -10.0598    195.3141    169.0014   8.4645788184e+01   8.6253026341e+00    0.2985845    0.2270075  46.54 0.0007529564    1.330    0.248
        36 -10.0531    135.0000    120.9659   8.7401017531e+01   3.1143128989e+01    0.2640147   0.08767077 -46.61  0.000806532    2.971    0.663
        37  -9.7334    106.7983    120.6935   9.4801704346e+01   3.6818218245e+01    0.2338423    0.1918565 -44.13 0.0003789753    1.223    0.182
        38 -10.0740    167.9030    113.1929   7.7493728335e+01   2.5448087972e+01    0.3691975    0.2766628 -79.51  0.001266486    1.841    0.457
        39  -9.6370    205.4110    110.1946   6.8995065551e+01   1.7293770504e+01    0.2593838    0.2064226  38.06 0.0007171693    1.333    0.250
        40 -11.2738      7.0008     98.8508   1.2022593452e+02   5.4154414541e+01    0.3115845    0.2102932  -5.27  0.001942868    2.070    0.517
        41  -9.6399     13.6157     60.1844   1.1107550302e+02   6.2463746238e+01    0.1772483   0.08144339 -53.82 0.0005296672    1.599    0.374
        42 -13.3363     24.2216    224.9652   1.2715552714e+02   2.5106354009e+01    0.9933103    0.4423647  63.28  0.002431644    1.818    0.450
        43 -13.1258     35.3934    211.4248   1.2431264758e+02   2.6504000640e+01    0.4552075    0.3586912 -73.73  0.001018161    1.407    0.289
        44 -16.2682     43.0002    198.3765   1.2186144500e+02   2.8289953398e+01     9.681873     3.769083  77.04   0.03759791    3.843    0.740
        45 -11.7822    193.4651    194.7106   9.0024002139e+01   4.5651120262e+00    0.7064666    0.4267196 -59.16  0.003172787    2.684    0.627
        46 -10.1492    135.2693     42.0129   6.3276752692e+01   4.6392226060e+01    0.2626362    0.1585898 -78.73 0.0008972354    3.502    0.714
        47 -10.5698      2.0147     19.4339   1.0448344589e+02   7.1243021865e+01    0.1836522    0.1132479 -47.54 0.0005758954    1.240    0.194
        48 -10.1629    189.3278     15.0054   4.5193164194e+01   3.5950979026e+01    0.1931085    0.1761406 -54.24 0.0006601831    1.116    0.104
