#   1 NUMBER                 Running object number                                     
#   2 MAG_AUTO               Kron-like elliptical aperture magnitude                    [mag]
#   3 X_IMAGE                Object position along x                                    [pixel]
#   4 Y_IMAGE                Object position along y                                    [pixel]
#   5 X_WORLD                Barycenter position along world x axis                     [deg]
#   6 Y_WORLD                Barycenter position along world y axis                     [deg]
#   7 A_WORLD                Profile RMS along major axis (world units)                 [deg]
#   8 B_WORLD                Profile RMS along minor axis (world units)                 [deg]
#   9 THETA_WORLD            Position angle (CCW/world-x)                               [deg]
#  10 FWHM_WORLD             FWHM assuming a gaussian core                              [deg]
#  11 ELONGATION             A_IMAGE/B_IMAGE                                           
#  12 ELLIPTICITY            1 - B_IMAGE/A_IMAGE                                       
         1 -15.1812      6.3354     71.8510   1.0630378942e+02   6.1345331898e+01     1.968975    0.6261018 -56.14  0.008129125    2.239    0.553
         2 -14.5542    146.7846     29.2614   4.6408394387e+01   4.4737823511e+01      1.24102    0.8236974  64.03  0.006582312    1.353    0.261
         3 -13.2755    132.0334     32.7367   5.0231026670e+01   4.7839721995e+01    0.6993557    0.4988199 -39.35  0.002975401    1.508    0.337
         4 -13.6477      3.0181     10.4924   8.8797590780e+01   7.3151523318e+01    0.7476642    0.4010053 -47.86  0.004643972    1.889    0.471
         5 -13.4456      7.9398      2.5480   8.1973089741e+01   7.3855522890e+01    0.5456729    0.3893566  41.38     0.003712    2.174    0.540
         6 -16.0179     12.9695     21.1436   8.7754955684e+01   7.0666998643e+01     1.900285    0.9181165 -21.45  0.009903815    2.292    0.564
         7 -14.1382     24.8368     14.0574   7.8265261999e+01   7.0489265139e+01    0.7117513    0.2847937  30.55  0.003619524    2.416    0.586
         8 -14.2204    166.1381     29.1501   4.3311326030e+01   4.0087801993e+01    0.9184043    0.7065418  75.37  0.003476453    1.170    0.145
         9 -13.0457    119.8417     26.3777   5.0688764661e+01   5.1461903135e+01     0.766154    0.4642476  23.88  0.003553569    2.312    0.568
        10 -13.5733    187.9812     25.3737   3.9464516037e+01   3.5352086845e+01     1.067689    0.4410172 -65.18  0.003837951    3.704    0.730
        11 -15.1784     98.8725     11.7105   5.0215700895e+01   5.7739713416e+01     1.286424    0.7139113  59.79  0.005224806    1.614    0.381
        12 -12.7116     85.3247     14.0549   5.4632935138e+01   6.0393762922e+01    0.3792306    0.3277671 -11.31  0.001698098    1.243    0.195
        13 -12.3611     70.1366     16.5500   6.0324973299e+01   6.3132390632e+01    0.3390006    0.2912246 -79.70  0.001523327    1.757    0.431
        14 -12.2187    187.5301     10.0044   3.5742955256e+01   3.7178192907e+01    0.3167512    0.2208756 -71.09  0.001891928    1.312    0.238
        15 -11.7374     46.7705     13.1188   6.7562068682e+01   6.7576755205e+01    0.2215951    0.1871487  35.37  0.001532402    1.296    0.229
        16 -12.7135    214.6741     10.1918   3.3301420401e+01   3.1041978714e+01    0.3045708    0.2494204 -82.21 0.0007655038    1.068    0.064
        17 -14.0323     41.8126      4.5291   6.5522263783e+01   6.9318791000e+01    0.6482791    0.4624853  10.62  0.003553672    1.242    0.195
        18 -11.6952    224.3200      5.3259   3.1528181994e+01   2.9496434372e+01    0.1069626   0.08701417  51.00 0.0007046644    1.680    0.405
        19 -11.1328    120.1593      3.8276   4.3019067918e+01   5.3635210084e+01    0.1871008    0.1446921  65.10 0.0004875087    1.107    0.096
        20 -11.0505    117.4856      1.4806   4.2700925820e+01   5.4444140451e+01    0.1820444    0.1094915  76.86 0.0006538918    1.650    0.394
        21 -11.7839     81.5943      1.4289   5.0485653434e+01   6.2322369234e+01    0.3706858    0.1005382  58.22  0.001441721    3.115    0.679
        22 -11.5538     61.2686      1.5086   5.6607902267e+01   6.6293329912e+01    0.3128454     0.101103  52.52  0.001362388    2.726    0.633
        23 -10.9488    153.0184      8.7197   3.9451084392e+01   4.5449301191e+01    0.1843425    0.1490596  75.92 0.0007306252    1.056    0.053
        24 -13.2266     40.2509    195.4648   1.1321537118e+02   2.8479491737e+01    0.4367931    0.2188146 -89.30  0.002012347    2.124    0.529
        25 -13.3424    107.5956    246.1815   1.0374553695e+02   8.3558512441e+00     0.798996     0.531811 -88.01  0.004416243    1.970    0.492
        26 -14.5789     97.1519    239.4851   1.0517610651e+02   1.1175669356e+01     1.003125    0.7423015 -79.82  0.006029457    1.514    0.339
        27 -13.2114     55.0880    247.1611   1.1449795183e+02   1.5454530305e+01    0.8440058    0.4669292  22.62  0.004249455    2.604    0.616
        28 -12.7528      2.8657    248.4589   1.2435778491e+02   2.1080282353e+01    0.4360435    0.2462179  83.05  0.002882226    1.454    0.312
        29 -13.6763      9.3897    245.9921   1.2308082593e+02   2.0909641004e+01    0.7177015    0.3389938  63.37  0.003470536    1.691    0.409
        30 -11.8765    200.8965    192.0188   7.5735776547e+01   3.3460474991e+00      0.27862     0.220934 -21.78  0.001536489    1.222    0.181
        31 -11.8270     48.8426    181.8491   1.0970711032e+02   3.0714106576e+01    0.3791105    0.2000199 -51.46  0.001755698    2.085    0.520
        32 -12.2238    198.3471    181.7088   7.4259614986e+01   5.6744164503e+00    0.2349395    0.2266241 -89.06  0.001421805    1.269    0.212
        33 -12.2692     85.5584    180.6558   1.0026117658e+02   2.5896758994e+01     0.339747    0.2357738  58.02  0.001678935    1.457    0.314
        34 -12.8700    124.2121    166.9553   8.8040738032e+01   2.2566820814e+01    0.6335351    0.4232104 -73.11  0.002761191    1.870    0.465
        35 -11.5033      1.8566    159.0241   1.1927147802e+02   4.0885384902e+01    0.3061416    0.1500476 -79.04  0.001372285    1.669    0.401
        36 -12.0236     77.1576    156.9744   9.8694722708e+01   3.3045948266e+01    0.4139959    0.2806182  37.19  0.001274818    1.520    0.342
        37 -13.1599     73.2870    153.8048   9.9233188980e+01   3.4423377089e+01    0.6900435    0.4576195  29.88  0.003293293    1.666    0.400
        38 -11.3862    177.5073    167.5008   7.5698266270e+01   1.2259258522e+01    0.1443012     0.139972 -17.07 0.0008105758    1.019    0.019
        39 -11.5302    103.2574    150.3607   9.0267624462e+01   3.0389902532e+01    0.3287131    0.2472591 -23.90  0.001506338    1.750    0.429
        40 -12.2593    245.1414    148.5560   5.9321692100e+01   3.6654348379e+00    0.2808079    0.2075377 -40.04  0.001649745    1.166    0.142
        41 -11.5891     59.4952    148.5281   1.0226971856e+02   3.7691948100e+01    0.1435924    0.1298192 -83.31 0.0001445007    1.012    0.011
        42 -10.5863     62.7810    138.9358   9.9671142203e+01   3.9685291482e+01    0.1933822    0.1093077 -61.17 0.0005537768    1.622    0.383
        43 -12.5628      7.1579    146.1062   1.1672752317e+02   4.3639044722e+01    0.5587966    0.2972667 -61.33  0.002960262    1.615    0.381
        44 -12.2034     44.8839    134.3371   1.0427227308e+02   4.3094223802e+01    0.3683264    0.1895476 -76.23  0.001569613    2.065    0.516
        45 -11.9046    133.6288    126.3644   7.6796093083e+01   3.0206909101e+01    0.4040692    0.1415815 -43.16  0.001255937    2.978    0.664
        46 -13.1684     84.0288    115.3418   8.8233870755e+01   4.2332070903e+01    0.9823154    0.6583086  45.60  0.004580087    1.576    0.366
        47 -14.2290    108.3952    121.8460   8.2532801349e+01   3.6361712317e+01     1.258089     1.054313  -1.66  0.006161354    1.480    0.324
        48 -14.8391    106.9648    105.7151   7.8859231706e+01   4.0382988367e+01     2.081396     1.518925 -21.24  0.009366281    1.764    0.433
        49 -13.0464     28.8965    122.3312   1.0731333985e+02   4.7756885033e+01    0.4480927    0.2781609 -61.92  0.002350383    1.368    0.269
        50 -12.0127      4.1143    119.9335   1.1476442426e+02   5.0242187213e+01    0.4527888    0.1907986  16.01  0.002101096    2.974    0.664
        51 -14.3884     18.1709    110.8126   1.0898901666e+02   5.1496740051e+01     1.013506    0.5967036 -51.26  0.003769694    1.489    0.329
        52 -14.5197     11.2124    103.4468   1.1018594127e+02   5.3770883618e+01     1.258281    0.6934563 -56.66  0.006744981    1.471    0.320
        53 -13.7345      2.2360     97.0970   1.1232685667e+02   5.5813994532e+01    0.8416619    0.2783845 -74.01  0.003408082    2.800    0.643
        54 -14.6704     22.5282     95.6149   1.0482611459e+02   5.4804223412e+01     1.499685    0.8961947  17.54   0.00796908    1.954    0.488
        55 -12.3859    120.7701    112.1450   7.6645759046e+01   3.6126249434e+01    0.4043575      0.26627  67.04  0.001650168    2.049    0.512
        56 -12.1305     31.7744    111.1998   1.0449562216e+02   5.0237863609e+01    0.2436957    0.2142677 -64.04 0.0007767365    1.019    0.019
        57 -10.7359     46.3288    110.3176   9.9413084116e+01   4.8922546787e+01    0.1461805   0.09729569 -33.06 0.0007046569    1.682    0.405
        58 -13.3405     29.6668     89.7623   1.0099245793e+02   5.5558285859e+01     1.002347     0.517232  60.96  0.003859162    3.787    0.736
        59 -12.3922    136.1963    103.4307   7.0296306266e+01   3.4721577383e+01    0.6675903    0.2779862  48.67  0.002066823    2.439    0.590
        60 -12.3125     42.7357     91.1405   9.6451096932e+01   5.3904749040e+01    0.4448112    0.2720025 -74.25  0.001060697    2.006    0.502
        61 -11.9630     47.1618     99.6389   9.6827629022e+01   5.1401627240e+01    0.4063958    0.3233362  58.50  0.002247732    1.498    0.332
        62 -11.8535     52.7412     98.0885   9.4498777436e+01   5.1085952395e+01    0.3417825    0.2073574 -22.04  0.001496199    2.280    0.561
        63 -12.6257     49.1645     94.0690   9.4811457003e+01   5.2472022529e+01     0.445888     0.340558  84.91  0.001844711    1.725    0.420
        64 -12.0862     61.0922     97.7934   9.1504365000e+01   5.0042760590e+01    0.4228884    0.3029407 -82.13  0.002040565    1.835    0.455
        65 -11.6748    163.5637     98.1476   6.2543620935e+01   2.9600291717e+01    0.2400475    0.2154742  25.31 0.0006984425    1.284    0.221
        66 -12.6808    136.1456     95.2078   6.8078709927e+01   3.6447321702e+01    0.3845441    0.2739234  52.25  0.001138047    1.415    0.293
        67 -13.4237     95.6972    110.6900   8.3502220016e+01   4.1387653638e+01    0.9952763    0.8450842  82.60   0.00505639    1.370    0.270
        68 -11.6396     34.5496     86.7659   9.8475261376e+01   5.5780768557e+01    0.2456065     0.195062 -19.99 0.0009275215    1.317    0.241
        69 -12.8132    187.9952     84.4447   5.4328133038e+01   2.6533862125e+01    0.5070615    0.2321567  44.44  0.001928469    2.665    0.625
        70 -13.3253    164.1497     71.6846   5.5357068432e+01   3.4339743882e+01     1.140694    0.4244788  48.46  0.004015399    2.810    0.644
        71 -13.4798    160.8241     80.9614   5.8545588432e+01   3.3491960270e+01    0.8226573     0.541172  20.78  0.002458973    2.648    0.622
        72 -14.4147    169.4238     77.0034   5.5779516686e+01   3.2169047839e+01     1.211032       0.5785  53.34   0.00436329    2.075    0.518
        73 -13.4610     66.0808     48.9616   7.4725831820e+01   5.9283311687e+01     1.107522     0.580228 -29.95  0.004772273    2.098    0.523
        74 -13.3919     56.7253     66.5916   8.4330251142e+01   5.7461414871e+01    0.7529906    0.5297697 -24.95  0.004017779    1.474    0.321
        75 -12.8917     51.8990     69.6730   8.7158246975e+01   5.7501324944e+01    0.7097849     0.485776 -83.00  0.003238503    2.672    0.626
        76 -12.9990     54.4664     82.3216   8.9838408339e+01   5.4460667222e+01    0.5672715    0.3655749 -40.40   0.00199077    1.462    0.316
        77 -14.0596     60.9794     75.8210   8.5556956893e+01   5.4951734427e+01    0.7487111    0.4831228 -37.65  0.001439506    1.499    0.333
        78 -12.2267     47.3159     81.6650   9.2346010243e+01   5.5517402979e+01    0.3861581    0.2214494 -57.27  0.001796646    1.678    0.404
        79 -13.0214    214.3783     79.7062   4.9046290186e+01   2.1467516499e+01    0.6258516    0.3207285  85.35  0.002229209    3.718    0.731
        80 -12.7082    136.3088     79.9416   6.3726658443e+01   3.9410641091e+01    0.6362756    0.3362369  47.91  0.001800063    1.871    0.466
        81 -11.9228    131.5303     77.4969   6.4183572855e+01   4.0963703040e+01    0.2671207    0.2061033  53.11  0.000729032    1.276    0.216
        82 -12.0633    114.3136     80.2742   6.9546946423e+01   4.4255482156e+01    0.3851476    0.3122653 -71.74 0.0009472417    1.479    0.324
        83 -12.2102    237.3807     80.3729   4.6158118214e+01   1.6591309196e+01    0.3028948    0.1280512  67.23  0.001262943    2.970    0.663
        84 -11.8729     42.0076     77.5867   9.3293768853e+01   5.7040953672e+01    0.4682062    0.1877205 -60.42  0.001767548    2.680    0.627
        85 -13.3458     28.5388    246.0335   1.1954478457e+02   1.8855733983e+01    0.4611709    0.2729701  61.56  0.002907016    1.342    0.255
        86 -14.1089      4.3498     63.4423   1.0531015504e+02   6.3275846458e+01    0.5916361    0.4867013  -6.13  0.004116132    1.308    0.235
        87 -11.7271     27.3526     76.0433   9.8703571928e+01   5.8875586750e+01    0.3903262    0.2256636 -81.37  0.001751164    2.703    0.630
        88 -13.5894     91.5378     57.9905   6.9177513877e+01   5.3085504102e+01    0.5066257    0.4540472 -37.65  0.001846343    1.160    0.138
        89 -13.2748     87.2703     65.4977   7.3064790241e+01   5.2568980912e+01    0.6003261    0.4245514  15.87  0.002199098    1.731    0.422
        90 -12.2366     80.9219     69.8838   7.6608106713e+01   5.2906418905e+01    0.4881509    0.3147904  51.24   0.00232461    1.776    0.437
        91 -12.6741     70.8058     75.5035   8.1892387502e+01   5.3504940369e+01    0.5377267    0.3271349  18.24  0.002138454    2.120    0.528
        92 -12.0242     77.1259     73.4057   7.9026204760e+01   5.2876688115e+01    0.3786357    0.2538639 -28.26  0.001171257    1.634    0.388
        93 -13.2694    199.5789     69.9645   4.8892947335e+01   2.6342684994e+01    0.6238985    0.3205002  55.11  0.002353356    2.015    0.504
        94 -12.9797    133.5558     67.2572   6.0641997140e+01   4.2336976076e+01     0.744868    0.4732105  31.59    0.0032055    2.021    0.505
        95 -12.6050     40.3140     68.3226   9.1370016944e+01   5.9215139504e+01    0.6251152    0.2201894  31.72  0.002550733    2.942    0.660
        96 -11.9522    158.9027     64.9123   5.4503826478e+01   3.6727587711e+01    0.4964156     0.190257 -50.75   0.00166324    3.205    0.688
        97 -11.9466     31.5984     65.2085   9.4073685977e+01   6.0797884373e+01    0.3311289    0.1977582 -46.79  0.001790193    1.442    0.307
        98 -13.0557     78.3977     60.5360   7.4383530629e+01   5.5119161280e+01    0.5693681    0.4597341  32.71  0.003199276    1.216    0.178
        99 -13.1408     81.5492     54.6493   7.1275599385e+01   5.5582350110e+01    0.6374168    0.3767251  39.91  0.002796039    1.650    0.394
       100 -14.5983    119.9248     54.6541   6.0041623619e+01   4.7561900415e+01    0.8018466    0.6203223  37.30  0.004123208    1.321    0.243
       101 -12.2419     24.6055     59.8805   9.5542447334e+01   6.2561078683e+01    0.3846571    0.2245827 -45.69  0.001357917    1.442    0.306
       102 -10.7446     38.4909     59.9950   8.9605460269e+01   6.1122747430e+01    0.1712867    0.1152374 -78.04 0.0008105675    2.584    0.613
       103 -10.3173     47.2845     56.5907   8.4830866742e+01   6.0708493411e+01    0.1238861     0.104143 -87.59 0.0001512035    1.804    0.446
       104 -12.3168    109.9249     53.9146   6.2411404961e+01   4.9913442063e+01    0.3471379    0.2678291 -16.94   0.00181344    1.486    0.327
       105 -12.4671     99.9727     44.2841   6.1877412242e+01   5.3545618579e+01    0.5147374    0.2845157  47.19  0.001698242    1.682    0.406
       106 -13.5078    103.2632     50.7340   6.3184355640e+01   5.1860903035e+01    0.6089436    0.3886067 -40.19 0.0009996792    1.648    0.393
       107 -13.2649     97.8761     50.3526   6.4610693084e+01   5.3058867135e+01    0.4866974    0.3643296 -49.68  0.001955029    1.523    0.343
       108 -13.6120    177.6938     57.8147   4.9227636090e+01   3.3362166774e+01    0.8082632     0.540756 -57.59  0.002852584    1.524    0.344
       109 -11.7905     36.8244     53.0739   8.8082520771e+01   6.2663170967e+01      0.30602     0.168188 -17.13  0.001404881    2.440    0.590
       110 -11.9881    136.2758     49.7511   5.4681902144e+01   4.4509952873e+01    0.3047707    0.2434217  32.95 0.0007898674    1.399    0.285
       111 -10.5584     23.4957     50.4174   9.3176376714e+01   6.4545978760e+01    0.1246213    0.1002634 -25.98 0.0001244087    1.050    0.047
       112 -11.9064    154.2418     46.6166   5.0180680281e+01   4.0659040408e+01    0.4001837    0.1740355  57.10  0.001640744    2.105    0.525
       113 -12.3689    158.8181     43.3955   4.8447690750e+01   4.0006106353e+01    0.4487954    0.2588102  56.93  0.001833692    1.620    0.383
       114 -13.6901    217.5593     42.2385   4.0094710548e+01   2.6456156619e+01     1.048393     0.358889  65.04  0.004096218    2.824    0.646
       115 -13.2651    205.4710     40.4835   4.1054318463e+01   2.9387979751e+01     1.156923    0.4637781  88.36   0.00333675    5.797    0.827
       116 -12.3974     17.5400     40.5621   9.2751222253e+01   6.6932808093e+01     0.216578    0.1724955 -27.74 0.0002040683    1.018    0.018
       117 -13.0369      3.6778     43.2416   1.0042733261e+02   6.7425818389e+01    0.4641931    0.2983983 -16.24  0.002954302    1.500    0.334
       118 -12.5769     11.7071     43.7125   9.6632662874e+01   6.6804972556e+01    0.4321828     0.233198  -8.63  0.002075821    2.127    0.530
       119 -12.4557    109.7247     42.2556   5.8518576999e+01   5.1717781235e+01    0.4561477    0.1843116  53.28  0.001395126    2.288    0.563
       120 -13.7107    171.1004    242.8540   9.0277988784e+01  -6.9791923891e-01      0.58209    0.4318604  11.36  0.003517749    1.367    0.269
       121 -12.8360    138.0284     21.8340   4.5672124660e+01   4.7689990289e+01    0.7566387    0.2805956  66.56  0.002184402    2.550    0.608
       122 -12.2932    147.4097    239.2185   9.4585293864e+01   3.5392825624e+00    0.1617834    0.1263518 -69.99 0.0009479416    1.670    0.401
       123 -14.0033    122.0940     37.2281   5.3816318029e+01   4.9594562669e+01    0.9003953    0.4404748  40.33   0.00266252    2.282    0.562
       124 -12.6550    113.9928     38.2573   5.6072438291e+01   5.1313554302e+01    0.3416989    0.3107714  20.38   0.00106394    1.143    0.125
       125 -12.6279     75.6973     37.2814   6.6869832633e+01   5.9425412479e+01    0.3681029    0.2359081  44.64 0.0009793778    1.498    0.333
       126 -11.5851     70.7224     36.5676   6.8329167723e+01   6.0439575365e+01    0.2586316    0.1956999  49.30 0.0008320101    1.432    0.302
       127 -12.3944    241.7826     36.2129   3.6447652581e+01   2.2161116661e+01    0.4272564    0.1939932  73.78  0.002153315    2.260    0.557
       128 -11.5828    104.4915     36.5472   5.7897607311e+01   5.3659921678e+01    0.2614172    0.1341306 -32.08 0.0009356915    2.095    0.523
       129 -12.6589     24.4907    217.4652   1.1849755527e+02   2.5244169678e+01    0.5064441    0.3840975  67.93  0.003365346    1.060    0.056
       130 -12.3795     13.9817    222.6091   1.2096520230e+02   2.5225066657e+01    0.4496179    0.3081598  57.74  0.001957369    1.205    0.170
       131 -14.0561     16.4001     30.9622   8.9862464176e+01   6.8737904468e+01    0.7181996    0.4035785  26.56  0.002348315    1.868    0.465
       132 -13.7991     26.0619    226.8168   1.1881213195e+02   2.3063187842e+01    0.7204785    0.3526178 -58.54  0.003804597    2.349    0.574
       133 -13.0142     20.9062    224.8629   1.1972054140e+02   2.4031604901e+01    0.4842569    0.3980322 -25.22  0.002820103    2.004    0.501
       134 -12.8572     45.5203     32.7991   7.6743542344e+01   6.5067865472e+01    0.5260633    0.3954051 -37.68  0.003286348    1.381    0.276
       135 -14.3507     65.4373    223.2796   1.1026216690e+02   1.9010883772e+01     1.078702    0.6444395  50.45   0.00586574    1.452    0.311
       136 -14.2878     64.1378    214.6401   1.0967582127e+02   2.1074001190e+01    0.8173643    0.4339827  43.70  0.004119205    1.665    0.399
       137 -13.1257     94.1672    218.6744   1.0339343647e+02   1.5874855729e+01    0.3229707    0.2522653  51.99  0.001331973    1.135    0.119
       138 -13.0339     55.3657     27.2467   7.0326561245e+01   6.4388378644e+01    0.5568723    0.2847932  44.95  0.002816642    2.016    0.504
       139 -11.9782     63.5656     24.9486   6.6206092082e+01   6.3314893573e+01    0.4239586    0.2149701  25.95  0.001939914    2.392    0.582
       140 -11.1817     98.3598     27.2174   5.6145650974e+01   5.6179676666e+01    0.2644813    0.1705609  62.71  0.001002013    1.619    0.382
       141 -11.1683     88.5489     25.9868   5.8414244868e+01   5.8399013198e+01    0.1859103    0.1265848 -27.05 0.0006177653    1.578    0.366
       142 -11.5417     30.3616     25.7568   8.0752761342e+01   6.8130121111e+01     0.244311    0.1458424  16.43  0.001408978    1.684    0.406
       143 -11.8740     36.5794     23.3204   7.6740836747e+01   6.7710525286e+01    0.2403027     0.170674  -5.05 0.0004968037    1.321    0.243
       144 -12.2323     46.7875     20.3829   7.0880415293e+01   6.6662821295e+01    0.3207287    0.2156895  28.78  0.001615399    1.350    0.259
       145 -11.0997    223.3439     21.3246   3.4956215628e+01   2.7884587290e+01    0.1134139   0.09207938  44.69 0.0007050611    1.737    0.424
       146 -11.3206    156.6879    214.6781   8.8921329343e+01   6.5493235127e+00     0.137594    0.1032243  -3.00 0.0005036491    1.653    0.395
       147 -10.9765    136.5374    211.4839   9.2837549357e+01   1.0557087333e+01    0.1380207    0.1267911  41.35 0.0001857007    1.010    0.010
       148 -12.0818     72.5660    207.3875   1.0696498231e+02   2.1538586757e+01     0.363719    0.2833382  86.11  0.002102302    1.236    0.191
       149 -11.3453     59.9136     16.3919   6.3859975148e+01   6.5008482412e+01    0.2569824    0.1666901 -33.17  0.001508383    1.672    0.402
       150 -12.1116     41.1646    206.6466   1.1404412004e+02   2.5784639522e+01    0.2309223    0.1534701  85.65  0.001272098    1.380    0.275
       151 -12.7004     57.3245    203.0535   1.1001276172e+02   2.4602637949e+01     0.537685    0.2536464 -86.48  0.002237343    2.637    0.621
       152 -13.2563     15.7116    196.5865   1.1889352339e+02   3.0822820115e+01    0.5119031    0.3624965 -76.79  0.002408638    1.273    0.215
       153 -12.1051    248.9950    197.1323   6.8019243877e+01  -4.8099898552e+00      0.46491    0.1609477 -45.77   0.00185776    3.371    0.703
       154 -13.8162     29.7900    169.5173   1.1315436654e+02   3.5882618452e+01    0.9640512    0.9001731 -75.87  0.006332027    1.184    0.156
       155 -13.5767     22.2593    181.2862   1.1615658202e+02   3.3778795724e+01    0.8002223    0.3907339 -59.54  0.003790804    1.972    0.493
       156 -15.3403      8.0988    183.6954   1.1966986287e+02   3.4513358871e+01     1.313184     1.001178  88.50  0.008594001    1.055    0.052
       157 -15.3066     15.6103    175.4377   1.1724770584e+02   3.5808433581e+01     2.087543    0.9958428  65.33  0.009891653    2.189    0.543
       158 -12.9085    164.2308    194.9340   8.3893031200e+01   9.1180311809e+00    0.5527557    0.2571343 -59.52  0.001998631    3.257    0.693
