#   1 NUMBER                 Running object number                                     
#   2 MAG_AUTO               Kron-like elliptical aperture magnitude                    [mag]
#   3 X_IMAGE                Object position along x                                    [pixel]
#   4 Y_IMAGE                Object position along y                                    [pixel]
#   5 X_WORLD                Barycenter position along world x axis                     [deg]
#   6 Y_WORLD                Barycenter position along world y axis                     [deg]
#   7 A_WORLD                Profile RMS along major axis (world units)                 [deg]
#   8 B_WORLD                Profile RMS along minor axis (world units)                 [deg]
#   9 THETA_WORLD            Position angle (CCW/world-x)                               [deg]
#  10 FWHM_WORLD             FWHM assuming a gaussian core                              [deg]
#  11 ELONGATION             A_IMAGE/B_IMAGE                                           
#  12 ELLIPTICITY            1 - B_IMAGE/A_IMAGE                                       
         1 -14.9141     68.5908    144.2048   1.0884998547e+02   3.7197787013e+01     5.226151     2.038761  61.13  0.005070269    7.525    0.867
         2 -14.5566    213.9110     21.7301   4.2813639429e+01   2.8809045322e+01     1.780923     1.187708  26.65  0.008602433    2.275    0.560
         3 -14.3506    200.8960     34.9397   4.7873445492e+01   3.0412132489e+01     2.002347     1.340683  33.56  0.008672259    1.963    0.491
         4 -12.1423      2.4719     23.7489   1.0506661229e+02   7.0345856335e+01    0.4257356    0.1700476 -54.96  0.002283814    1.977    0.494
         5 -12.9452      4.1498      6.2147   9.7094302706e+01   7.3289641713e+01    0.9054708    0.3574928 -39.84  0.005084544    1.858    0.462
         6 -10.4508     66.0227      2.9841   6.5486887056e+01   6.5876324411e+01    0.1734077     0.155568 -54.27 0.0006000011    1.696    0.410
         7 -11.1032    238.0963      1.5371   3.5828404589e+01   2.5346658322e+01    0.5377022    0.1248314  74.21  0.001887253    4.051    0.753
         8  -9.1279    137.4682     13.9741   5.1414421770e+01   4.9074415427e+01    0.1795241    0.1060481 -52.20 0.0003947285    2.149    0.535
         9 -13.6861     47.9079    223.0294   1.2227273795e+02   2.2444408953e+01     1.057464    0.5155442 -72.52 0.0007910744    1.989    0.497
        10 -13.9811     87.6979    228.0055   1.1513182256e+02   1.6201327756e+01     1.060665    0.6461154  64.94  0.001707045    1.564    0.360
        11 -16.7555     67.5529    243.9070   1.2027587988e+02   1.6099343898e+01     7.319085     2.580826  34.51   0.01892542    3.155    0.683
        12 -14.9412     51.6103    195.7929   1.1927460327e+02   2.7538110126e+01      1.72036     1.090278  61.88  0.007581271    1.390    0.280
        13 -12.2781     67.3274    178.7962   1.1401856978e+02   2.9255308971e+01    0.4194341    0.2906481 -38.02  0.002211473    2.087    0.521
        14 -12.0311     71.9358    173.4725   1.1227731370e+02   2.9832694756e+01    0.3129334    0.2534302 -48.27  0.001252527    1.461    0.316
        15 -17.0355     11.1296    239.9516   1.2963488826e+02   2.3330818162e+01     7.987925     1.695689 -76.59   0.03613066    4.091    0.756
        16 -10.5113     38.9668    177.1187   1.2022370771e+02   3.3095983033e+01    0.1983933    0.1371636  69.56 0.0007652751    1.283    0.221
        17 -13.4632     57.7733    129.8219   1.0942781676e+02   4.2090780700e+01     2.355702    0.7388747 -73.57  0.005505198    7.368    0.864
        18 -13.0234     87.4146    157.0728   1.0607357378e+02   3.1369390286e+01      1.38275    0.7743002 -66.38  0.001452032    1.796    0.443
        19 -12.2571    183.5873    214.2740   9.4025897299e+01   2.8375595270e+00    0.3597313    0.3305998 -26.09  0.002335871    1.243    0.196
        20 -16.0114      7.8908    203.6899   1.2843087516e+02   3.0533406633e+01     4.061331    0.9557663 -79.05  0.004932425    3.663    0.727
        21 -11.0380     35.2871    167.1918   1.2008346402e+02   3.5736009604e+01    0.2651641    0.2032948  15.15  0.001635299    1.859    0.462
        22  -9.4252    161.8405    166.5923   8.9851285781e+01   1.5559186208e+01    0.2087855    0.1344539  52.90 0.0004403861    1.653    0.395
        23  -9.3804    192.5137    165.4663   8.2959455419e+01   9.5960015875e+00    0.1461564    0.1355331  12.53 0.0002190942    1.012    0.011
        24 -10.5124     72.4297    186.5366   1.1379619000e+02   2.6830434591e+01    0.2446407    0.1911622  79.97 0.0004962232    1.155    0.134
        25 -10.3880    134.3720    148.1790   9.2501323668e+01   2.5031372700e+01    0.3932742    0.2247304 -61.68  0.001212093    2.127    0.530
        26 -11.2621    133.5015    141.9899   9.1373002009e+01   2.6598860332e+01    0.7065878    0.2254079 -53.48  0.002071097    3.644    0.726
        27 -12.3053     54.5306    147.5391   1.1304308913e+02   3.8196650277e+01    0.5186866    0.3199609 -64.84   0.00272885    1.435    0.303
        28 -10.2982    174.9179    149.1053   8.3152477769e+01   1.6390423742e+01    0.2343805    0.2150082  88.04 0.0007061111    1.283    0.220
        29 -11.2543     39.1868    146.4034   1.1683176780e+02   4.0186011194e+01    0.2689499     0.225472  68.63 0.0008841552    1.172    0.147
        30 -11.7324    143.0454    144.1947   8.9492811893e+01   2.4155428365e+01    0.4729929    0.4041447  -7.44  0.002359437    1.385    0.278
        31 -10.9074    101.8419    141.4090   9.9467306291e+01   3.2711616791e+01    0.5414181    0.3551436 -22.64   0.00221206    2.515    0.602
        32 -12.4437     89.0971    141.4688   1.0288588344e+02   3.4824273262e+01    0.2898054    0.2516976 -52.22 0.0004237102    1.167    0.143
        33  -9.5467     83.8315    143.2176   1.0461804298e+02   3.5228622958e+01    0.2180561    0.1795343  76.05 0.0006466272    1.246    0.198
        34  -9.4484     36.2633    140.3661   1.1682829336e+02   4.1921862140e+01    0.1306748   0.08310785 -49.93 0.0002574753    1.647    0.393
        35 -11.6420     26.1469    137.6004   1.1912240751e+02   4.3526964609e+01    0.3588525    0.1887478  50.66  0.001229921    2.032    0.508
        36 -12.4999     80.9358    163.7832   1.0874871885e+02   3.0779097611e+01    0.6764042    0.3911224  54.09 0.0004227315    1.769    0.435
        37 -10.2637    150.1456    189.1116   9.6721565596e+01   1.3336657698e+01    0.3488789    0.1527245 -41.01  0.001363194    2.728    0.633
        38 -10.1433    111.0690    131.1922   9.4827762113e+01   3.3469535255e+01    0.3006716    0.2442552 -12.12 0.0009691264    1.587    0.370
        39 -10.2002    106.0349    130.6946   9.6086876086e+01   3.4513541277e+01    0.3883779    0.3005378  55.21  0.001172859    1.362    0.266
        40 -13.4865     68.4303    159.9539   1.1127990179e+02   3.3456943164e+01    0.5547316    0.4305778 -41.68  0.001204479    1.572    0.364
        41 -10.9299     75.0140    189.5186   1.1357689533e+02   2.5814787915e+01    0.3571412    0.2008362  70.32  0.001095756    2.027    0.507
        42 -11.0092     98.3346    127.5865   9.7533452897e+01   3.6620821133e+01    0.2819728    0.2394588 -24.61 0.0003866904    1.373    0.272
        43 -11.6627    135.4209    121.9718   8.6162680796e+01   3.0718149718e+01    0.6294206     0.153302 -50.10  0.001551944    4.743    0.789
        44 -14.8219    152.8719    112.2439   7.9243086482e+01   2.8982882607e+01     2.250305      1.67886 -52.25  0.007095034    1.403    0.287
        45 -10.7956    117.2213    125.7090   9.1902678853e+01   3.3580667870e+01    0.3536873    0.2208657 -55.60  0.001521224    1.627    0.385
        46  -9.7704     67.3467    125.3003   1.0588976859e+02   4.1960262605e+01    0.1414808    0.1039133 -30.64 0.0007037674    1.684    0.406
        47  -9.8131    107.7636    119.8647   9.3122789919e+01   3.6755354629e+01    0.2110397    0.1967006 -30.51  0.000345044    1.121    0.108
        48 -11.3893    126.2272    173.5357   9.9416572983e+01   2.0983305402e+01    0.3710534    0.1389551  37.64  0.001315142    2.696    0.629
        49 -11.1821     45.0152    117.9815   1.1109903502e+02   4.6427058344e+01    0.2107462    0.1781754 -71.74 0.0005203817    1.025    0.024
        50 -10.2124    126.0856    127.4859   8.9953634492e+01   3.1406836243e+01    0.2593061    0.2180592 -80.47 0.0005780911    1.357    0.263
        51  -9.8762    205.5527    110.1884   6.7319160636e+01   1.7124651454e+01    0.2658603    0.2178447  50.00  0.000610846    1.277    0.217
        52 -11.1263     22.3455    109.0433   1.1643262180e+02   5.0635426083e+01    0.2143211    0.1831769  51.36 0.0006972017    1.356    0.263
        53 -11.6357     18.2474    111.2881   1.1796932636e+02   5.0408035040e+01    0.3960178    0.1480561 -73.48  0.001728398    2.312    0.568
        54 -11.4277     41.5599    104.1058   1.0966984684e+02   5.0126144611e+01    0.4269075    0.2059723  41.64   0.00198894    2.384    0.580
        55  -9.8688     91.8908    102.9380   9.3567362554e+01   4.3577293275e+01    0.2150189    0.2013066 -71.34 0.0004754409    1.101    0.092
        56  -9.9819     32.9949    100.0429   1.1164537295e+02   5.1899951039e+01    0.2011265     0.144396  76.84 0.0009216694    1.659    0.397
        57 -10.3901     41.9016     91.9742   1.0711580875e+02   5.2969037466e+01    0.2009393    0.1720017 -54.10 0.0005721638    1.020    0.019
        58 -13.7628    102.9754     77.6774   8.2896439125e+01   4.7126988592e+01     1.426747     1.028146 -11.22  0.004221486    1.759    0.431
        59 -11.6392    115.1886     69.7137   7.6657856372e+01   4.6195842704e+01    0.5997418    0.4916639 -51.89   0.00205339    1.328    0.247
        60  -9.3614     54.2864     65.4184   9.5792560244e+01   5.7561369527e+01    0.1628034    0.1273047  39.30 0.0004069759    1.511    0.338
        61 -10.7724     13.4764     60.1062   1.1039734463e+02   6.2427409880e+01    0.2208117    0.1749961 -50.54 0.0004671909    1.029    0.028
        62 -12.8636     12.7681    189.3526   1.2666244430e+02   3.3046227454e+01    0.3136467    0.2338651  68.91  0.000452964    1.121    0.108
        63 -14.2105     42.6341    205.6391   1.2194530674e+02   2.6541856783e+01    0.9116949    0.6878611  57.10  0.002636141    1.180    0.153
        64 -11.2881    144.4499     49.2201   6.2172453470e+01   4.2861261323e+01    0.5611759    0.3550149 -81.97  0.001862363    2.856    0.650
        65 -10.2904      1.6392     44.2075   1.1151469337e+02   6.6386893008e+01    0.1759935   0.07330724 -53.76 0.0009481644    1.667    0.400
        66  -9.8642    146.8039     43.1510   5.9618282773e+01   4.3169260826e+01    0.2115386     0.199485 -78.05 0.0004104578    1.143    0.125
        67 -10.0722      5.5033     38.5499   1.0824203665e+02   6.7345066417e+01    0.1166178   0.08851065 -43.92 8.262774e-05    1.028    0.027
        68  -9.7670     95.0398    187.7109   1.0886558228e+02   2.3218631822e+01    0.1873565    0.1573186  56.97  0.000429014    1.082    0.076
        69 -10.2131    189.7010     14.9849   4.3783831617e+01   3.5621162835e+01    0.1906311    0.1758994 -61.44 0.0006210548    1.102    0.093
        70 -11.5409    113.3151    199.1043   1.0639842613e+02   1.7860380809e+01    0.4242193    0.2558929  86.61  0.001724833    2.552    0.608
        71 -13.2740    192.4233     41.4790   5.0892750842e+01   3.1691078493e+01    0.8425767     0.665836  30.24  0.001114752    1.522    0.343
        72 -11.8550    193.4331    194.0599   8.8479472617e+01   4.3819035754e+00    0.8297754    0.4196528 -53.73  0.003367367    3.034    0.670
        73 -10.6108     99.5795    180.8059   1.0683930264e+02   2.4002616375e+01    0.2317977    0.2146433   0.96 0.0005842635    1.381    0.276
