#   1 NUMBER                 Running object number                                     
#   2 MAG_AUTO               Kron-like elliptical aperture magnitude                    [mag]
#   3 X_IMAGE                Object position along x                                    [pixel]
#   4 Y_IMAGE                Object position along y                                    [pixel]
#   5 X_WORLD                Barycenter position along world x axis                     [deg]
#   6 Y_WORLD                Barycenter position along world y axis                     [deg]
#   7 A_WORLD                Profile RMS along major axis (world units)                 [deg]
#   8 B_WORLD                Profile RMS along minor axis (world units)                 [deg]
#   9 THETA_WORLD            Position angle (CCW/world-x)                               [deg]
#  10 FWHM_WORLD             FWHM assuming a gaussian core                              [deg]
#  11 ELONGATION             A_IMAGE/B_IMAGE                                           
#  12 ELLIPTICITY            1 - B_IMAGE/A_IMAGE                                       
         1 -13.5905     27.3016     59.6695   1.2756894759e+02   6.0277518422e+01    0.6826163     0.509505  53.22  0.004297372    1.637    0.389
         2 -11.0390    103.0776     29.9716   9.0983956339e+01   5.5303313229e+01    0.4921128    0.3653814 -80.87   0.00226003    2.320    0.569
         3 -11.8447     42.5829     20.1947   1.0883315007e+02   6.7032746205e+01    0.5301554    0.3450643  36.84  0.002029541    1.877    0.467
         4 -11.9614    216.8486     16.5366   6.4728317890e+01   2.8252237251e+01    0.3945573    0.3172355  52.76  0.001166358    1.265    0.210
         5 -11.6641     43.8776      8.3717   1.0257472218e+02   6.8957806045e+01    0.2790684    0.2260299 -26.07  0.001070616    1.057    0.054
         6 -12.6310    183.9867      3.6520   6.4363103641e+01   3.8086944454e+01    0.5349686    0.3291559 -82.22  0.002315781    2.039    0.510
         7 -11.2880     95.6626    224.9238   1.3281366699e+02   2.0245076022e+01    0.2578652    0.1208523  55.85  0.001604719    1.848    0.459
         8 -11.3127     18.9773    249.2467   1.4579941558e+02   2.5200918627e+01    0.1470791   0.09437065  76.80   0.00139119    1.261    0.207
         9 -11.3275    149.8704    223.2704   1.2367581219e+02   1.2973084152e+01    0.2059377    0.1550357 -82.54  0.001470746    1.961    0.490
        10 -11.1195    226.3938    221.2179   1.1106430699e+02   1.6808970698e+00    0.1254438   0.09960765 -28.98 0.0009518651    1.696    0.410
        11 -10.5717    211.5174    218.4913   1.1300183712e+02   4.1808661094e+00    0.1594261    0.1026205 -44.49  0.001030995    2.369    0.578
        12 -10.9238    222.3139    214.3321   1.1068800486e+02   2.9424723657e+00    0.1165705   0.06767422  18.98 0.0006090649    1.681    0.405
        13 -10.6923    116.0130    210.0288   1.2798821749e+02   1.9660609040e+01    0.1784302    0.1105999  65.81  0.001138263    1.738    0.425
        14 -10.8008    185.9968    204.0072   1.1510709610e+02   9.7671026254e+00    0.2235241    0.1521739 -57.21  0.001364058    2.371    0.578
        15 -10.6872     49.0000    202.0339   1.3895464222e+02   2.9282829684e+01    0.1484433   0.05066626 -73.21 0.0008041224    2.954    0.661
        16 -10.1597      5.2773    199.4486   1.4612444432e+02   3.3845240385e+01    0.1308819   0.05869912  50.83 0.0009435575    1.655    0.396
        17 -12.1272    159.6113    192.6911   1.1809060028e+02   1.5513570726e+01    0.5229806    0.3459125 -78.20  0.002747732    2.958    0.662
        18 -10.3030    193.0099    188.5049   1.1152687358e+02   1.0504798593e+01    0.1663373   0.09688398  59.91 0.0008106111    2.584    0.613
        19 -10.3710    109.3906    186.2085   1.2654589437e+02   2.4308314238e+01    0.1516656    0.1035394 -80.20 0.0009159576    1.739    0.425
        20 -10.6290    183.4675    183.5501   1.1240528435e+02   1.2765229822e+01    0.2278467    0.1210777 -37.69  0.001221802    2.212    0.548
        21 -10.5699    223.5415    183.5017   1.0550297399e+02   5.9341798753e+00    0.1223438   0.09602688  22.33  0.000191692    1.010    0.009
        22  -9.8637    210.5051    182.4925   1.0751053258e+02   8.2581344334e+00    0.1241318    0.0984308  24.89 0.0001596102    1.010    0.010
        23 -10.2353    137.5906    178.7989   1.2018793853e+02   2.1173959626e+01    0.1563767    0.1144691 -70.19 0.0009508638    1.726    0.421
        24 -10.1793    101.0022    175.9921   1.2693790711e+02   2.7249363748e+01    0.1598804     0.136671  61.37  0.001133689    1.017    0.017
        25 -12.0579     35.7197    174.0289   1.3945987743e+02   3.5504722408e+01    0.3614741    0.1247184  55.76  0.001886143    2.611    0.617
        26 -11.5155    120.8969    168.1835   1.2193554778e+02   2.5611553087e+01     0.292991     0.138662 -63.36  0.001365592    2.771    0.639
        27  -9.9209     88.3215    167.9913   1.2850843178e+02   3.0452578479e+01    0.1842138   0.08749808 -87.51 0.0007049085    4.290    0.767
        28 -10.0552     55.3144    167.6695   1.3513416934e+02   3.4618189374e+01    0.1178769    0.0671109  68.36 0.0004798984    1.678    0.404
        29 -10.5896     98.5960    165.8332   1.2614385018e+02   2.9404147512e+01    0.1614061    0.1071369 -79.18  0.000947338    1.696    0.410
        30 -10.5630     79.6770    164.0206   1.2980964320e+02   3.2342836179e+01    0.1873511   0.08569211 -88.72 0.0007050438    4.371    0.771
        31 -11.7600    106.0817    157.8505   1.2349332246e+02   2.9759982443e+01    0.4902123    0.2853023  71.65  0.002386137    2.420    0.587
        32 -10.5458    218.2498    156.9758   1.0144161569e+02   9.9871930330e+00    0.1616308    0.1053222 -25.54 0.0008898029    1.593    0.372
        33 -10.8552    167.6524    157.3345   1.1082117364e+02   1.9357568679e+01    0.1974061    0.1585101  79.23  0.001116543    1.719    0.418
        34 -10.2064      6.7850    155.9526   1.4391521853e+02   4.1410187629e+01    0.1345773   0.06480909 -81.80 0.0006516528    1.679    0.404
        35 -10.8341    189.9218    150.2957   1.0519787510e+02   1.6228772368e+01    0.2859219    0.1910106 -51.37  0.001466494    2.018    0.504
        36 -11.1804    107.0155    145.2718   1.2137243415e+02   3.1987942693e+01    0.3643927    0.2027716  81.61  0.001385549    3.909    0.744
        37 -10.5882    148.4945    145.0019   1.1237824475e+02   2.4921991025e+01    0.1809791    0.1168284 -72.10 0.0008105331    2.570    0.611
        38 -11.5161     83.0000    127.5051   1.2403852600e+02   3.9128854249e+01    0.3645418   0.06726128 -58.96  0.001080147    5.199    0.808
        39 -10.5263    131.4095    130.6228   1.1326955299e+02   3.0659265342e+01    0.2646442    0.1219533 -61.33 0.0009594957    3.414    0.707
        40 -11.8913     98.5095    128.0271   1.2040586989e+02   3.6731505193e+01    0.5739437    0.3060147 -79.85  0.002242854    3.395    0.705
        41 -11.3298     42.9122    122.4174   1.3311398058e+02   4.5029694897e+01    0.4338366    0.1763278 -87.60   0.00171645    3.650    0.726
        42 -11.4600     27.2279    121.1303   1.3680457184e+02   4.6762417496e+01     0.586582    0.2122138  82.65  0.001961309    5.572    0.821
        43 -10.9578     13.4904    121.4881   1.4013731550e+02   4.7781078677e+01    0.2394074    0.1253417 -47.77  0.001388106    2.407    0.585
        44 -11.6967    193.4671    119.0564   9.7672392087e+01   2.0195088643e+01    0.4973565    0.3959796 -71.85  0.002368924    1.900    0.474
        45 -10.2891     37.7090    121.0787   1.3423403114e+02   4.5824659546e+01    0.1581714    0.1243543 -81.70 0.0003511167    1.056    0.053
        46 -10.8204     70.7119    119.7317   1.2580565499e+02   4.2420484302e+01    0.2624468    0.1431947 -87.04  0.001184025    2.557    0.609
        47 -11.6168    141.0785    115.8161   1.0789060400e+02   3.1624315541e+01    0.5580026    0.2084173 -43.63  0.002068914    2.734    0.634
        48 -10.7309    107.9948    112.2396   1.1500491871e+02   3.8426438892e+01    0.4231722    0.1842831 -62.93  0.001513445    3.329    0.700
        49 -11.0277     78.8688    113.0138   1.2257397306e+02   4.2766266640e+01    0.3155135    0.1654305 -82.68  0.001252848    3.183    0.686
        50 -10.1942    117.3392    125.6592   1.1550753999e+02   3.4116446047e+01    0.1402392    0.1025705  80.89 0.0004045999    1.768    0.434
        51 -10.6821    174.5638    111.2554   9.9518436686e+01   2.5493349155e+01    0.3758685    0.1770235 -39.53  0.001520252    2.172    0.540
        52 -11.8960    159.8354    111.2087   1.0261717379e+02   2.8641401655e+01    0.4127281    0.2718897 -47.60  0.001959128    1.652    0.395
        53 -11.4100    121.6363    111.0453   1.1138117443e+02   3.6254253771e+01    0.3296642    0.1293378 -47.91  0.001263233    2.539    0.606
        54 -11.6732     14.4828    109.7736   1.3883559598e+02   5.0184846768e+01    0.5626902    0.2639805  88.43   0.00305919    2.019    0.505
        55 -12.4728    140.9076    105.0994   1.0536828414e+02   3.3680342333e+01    0.4113001    0.2994125  62.00  0.002021752    1.600    0.375
        56 -12.2644     44.2764    100.8913   1.2978821199e+02   4.9565982795e+01    0.5834066     0.299301  85.37  0.002651392    2.737    0.635
        57 -11.8735    149.9999    102.4810   1.0261408546e+02   3.2286472280e+01    0.2938482    0.2048537 -54.67  0.001389115    1.661    0.398
        58 -11.5795    127.7295    101.3093   1.0757836382e+02   3.7033399358e+01    0.4353411    0.1858948 -51.67   0.00162728    2.606    0.616
        59 -10.1523     59.5756    109.7929   1.2706690106e+02   4.5938539879e+01    0.1713885    0.1067363 -78.53 0.0005052803    1.595    0.373
        60 -12.3937    108.4349     98.8850   1.1186595540e+02   4.1105746515e+01    0.7206818     0.449715  79.13  0.002824999    3.123    0.680
        61 -10.6300     81.1698     99.9911   1.1941538331e+02   4.5248734418e+01    0.2237666    0.1463355 -86.77  0.001079281    2.050    0.512
        62 -10.7565     19.7541     97.8526   1.3615296198e+02   5.2379722210e+01    0.3267768    0.1183967 -83.10  0.001400819    2.963    0.663
        63 -10.9434     62.5038     95.0080   1.2362358060e+02   4.8833374808e+01    0.1874604    0.1040662 -85.53 0.0008106718    2.620    0.618
        64 -12.9452    170.1674     90.8725   9.5089670406e+01   2.9896026566e+01    0.3783463    0.3491112 -82.83 0.0008811017    1.306    0.234
        65 -10.1924    137.6133     89.2505   1.0199506529e+02   3.7366660073e+01    0.2044818    0.1371311 -29.46 0.0004462061    1.591    0.371
        66 -11.6527     41.5066     87.8826   1.2843239806e+02   5.2728162467e+01    0.2388805    0.1870915   6.17  0.001283601    1.753    0.429
        67 -11.1374     85.9846     86.2584   1.1493465410e+02   4.7496888157e+01    0.3834023    0.2168069 -68.55  0.001668387    2.269    0.559
        68 -10.2830    173.4684     86.4658   9.3167049317e+01   2.9870960596e+01    0.2274806    0.1806622 -15.83 9.817877e-05    1.281    0.219
        69 -10.5463    140.5979     82.8343   9.9456473419e+01   3.7932362526e+01     0.223362     0.134743 -48.50  0.000956768    1.774    0.436
        70 -11.4157    104.3078     83.0264   1.0891513760e+02   4.5120574076e+01    0.4025358    0.2108771 -65.64  0.001439827    3.239    0.691
        71 -11.0285     23.9935     80.0077   1.3244797809e+02   5.6006442894e+01    0.3190748     0.130756  89.29  0.001150995    4.370    0.771
        72 -11.4599     81.9740     72.6931   1.1257241740e+02   5.1019868165e+01    0.3846571    0.2226437 -73.98  0.001520769    2.979    0.664
        73 -11.0961    223.6151     71.0195   7.9821257790e+01   2.0266656612e+01    0.2630203     0.222478  53.46 0.0004389181    1.278    0.218
        74 -10.0584    194.6586     68.3295   8.3792357121e+01   2.7600744100e+01    0.1565039    0.1174343 -61.58 0.0007051412    1.743    0.426
        75 -10.9671     51.4960     69.9360   1.2159180717e+02   5.5681210235e+01    0.2944393    0.1163736 -64.37  0.001205468    2.539    0.606
        76 -12.2296     20.7469     51.0907   1.2808490980e+02   6.2665322900e+01    0.4903684    0.2175317 -68.98  0.002452659    1.956    0.489
        77 -12.0736    220.8712    248.7436   1.1559982093e+02   8.6895135729e-02    0.3687859    0.1585149  50.04  0.002042413    2.741    0.635
        78 -10.3133     39.3092     52.9650   1.2155590188e+02   6.0685446528e+01    0.1820228     0.130189 -54.61 0.0003001158    1.129    0.114
        79 -10.5129    149.5025     52.5034   8.7705129481e+01   4.1140590606e+01    0.1536905    0.1455865  -6.34 0.0008105872    1.022    0.021
        80 -11.3248    236.5002     63.4947   7.5894907224e+01   1.8213952079e+01    0.1451126     0.129657  -7.08 0.0008106737    1.003    0.003
        81 -11.3470     81.9595     44.2391   1.0338415504e+02   5.6810865039e+01    0.3526704    0.2794976 -66.49  0.001894724    1.618    0.382
        82 -10.2129    157.1140     44.8922   8.3413020977e+01   4.0415295281e+01    0.2236261    0.2080884 -62.86 0.0004160861    1.227    0.185
        83 -11.5729      8.4041     56.4280   1.3373964860e+02   6.2269297288e+01    0.4866139    0.2361726 -85.61   0.00252078    2.182    0.542
        84 -11.5536     70.2108     41.7701   1.0653546920e+02   5.9171494440e+01    0.3688144    0.2593392 -70.49  0.001817182    2.128    0.530
        85 -10.8846      5.3075     42.2724   1.3222297754e+02   6.5534972363e+01    0.3025065      0.16344  88.85  0.001627213    2.256    0.557
        86 -11.2204     43.1244     39.0089   1.1586400262e+02   6.3258899508e+01    0.3143961    0.2278522 -68.78  0.001467828    1.567    0.362
        87 -11.3518     30.3144     35.9776   1.2015249780e+02   6.5157617557e+01    0.1827463    0.1285853 -51.66 0.0003722272    1.117    0.105
        88 -10.6857    119.9021     33.8189   8.7909989595e+01   5.1033879510e+01     0.280164    0.2152562 -42.22   0.00140324    1.373    0.271
        89 -11.9331     24.7990    241.4200   1.4471041259e+02   2.5737630782e+01    0.3229896   0.08378585  62.92  0.001747514    3.482    0.713
        90 -10.2083    239.7596     20.9818   6.3668061051e+01   2.2135504745e+01    0.1952913    0.1690263 -18.01 0.0005262868    1.077    0.072
        91  -9.9447     76.9958    226.0000   1.3593323934e+02   2.2396348687e+01    0.1604172   0.04425061  39.89   0.00079644    2.901    0.655
        92 -11.4725     29.8616    233.0844   1.4364474102e+02   2.6440535734e+01    0.3485813   0.09992972  60.68  0.001912457    2.923    0.658
        93 -10.9417     12.7946    227.1813   1.4594725776e+02   2.8880812525e+01    0.1384056   0.08043991  64.86 0.0006407759    1.174    0.148
