#   1 NUMBER                 Running object number                                     
#   2 MAG_AUTO               Kron-like elliptical aperture magnitude                    [mag]
#   3 X_IMAGE                Object position along x                                    [pixel]
#   4 Y_IMAGE                Object position along y                                    [pixel]
#   5 X_WORLD                Barycenter position along world x axis                     [deg]
#   6 Y_WORLD                Barycenter position along world y axis                     [deg]
#   7 A_WORLD                Profile RMS along major axis (world units)                 [deg]
#   8 B_WORLD                Profile RMS along minor axis (world units)                 [deg]
#   9 THETA_WORLD            Position angle (CCW/world-x)                               [deg]
#  10 FWHM_WORLD             FWHM assuming a gaussian core                              [deg]
#  11 ELONGATION             A_IMAGE/B_IMAGE                                           
#  12 ELLIPTICITY            1 - B_IMAGE/A_IMAGE                                       
         1 -13.8236    245.1388    100.1545   6.1589578537e+01   1.0015719186e+01     4.792573      1.19954 -46.19    0.0116414    6.200    0.839
         2 -13.1660    232.1145     19.0409   4.2922984538e+01   2.4524297081e+01    0.8690931    0.5393066 -14.94  0.004271631    2.039    0.510
         3 -13.7290    234.7357     37.0259   4.7155196347e+01   2.1690084840e+01     1.531343    0.6048649 -39.49  0.006298047    2.190    0.543
         4 -12.8154    226.5865     53.2591   5.2308365199e+01   2.1419635063e+01    0.9444389    0.4162894 -38.92  0.003852567    2.029    0.507
         5 -13.8894    246.6561     28.2916   4.3802932877e+01   2.0030434280e+01      3.06986    0.8071102 -32.47   0.01107683    3.164    0.684
         6 -10.0027    140.4904     21.5164   5.6326778622e+01   4.7517255846e+01    0.2603142    0.1152405 -37.48  0.001032101    2.364    0.577
         7 -13.1903    247.3175     70.1129   5.3915115553e+01   1.4166330597e+01     1.933599     1.045908 -26.20   0.00864308    1.869    0.465
         8  -9.0362    147.9733      8.0217   5.0176828283e+01   4.7010257414e+01    0.1685197    0.1574484  49.46 0.0009541381    1.028    0.028
         9 -10.6376    116.5292      5.3256   5.5078323457e+01   5.4965641557e+01    0.2329458    0.2153398 -45.33 0.0006839726    1.274    0.215
        10  -9.7220     50.8698      3.5671   7.4024248760e+01   6.8142216780e+01    0.1977406    0.1341771  -9.31 0.0003323563    1.270    0.213
        11 -10.6079     14.3950      2.4603   9.0831091436e+01   7.2758219451e+01    0.3317916    0.1433909 -21.68  0.001629279    2.633    0.620
        12 -13.1760    242.1725     53.4915   5.0432333237e+01   1.7727306424e+01     1.365982    0.9082182 -26.92  0.006923568    1.503    0.335
        13  -9.3097    159.1965      2.1808   4.6494432688e+01   4.4663859501e+01    0.1923996    0.1549489 -69.85  0.001069598    1.349    0.259
        14 -10.2168    110.9684      5.1145   5.6218242153e+01   5.6274979765e+01    0.2306871    0.1799589   6.99 0.0003709316    1.276    0.216
        15  -9.8664    230.2296    236.5691   9.2401278894e+01  -7.0154405341e+00    0.2104702    0.1841461  74.82  0.001411139    2.143    0.533
        16 -10.2457    210.5157    249.1101   9.7692394566e+01  -5.4595377016e+00    0.2570384    0.1820417 -18.38  0.001754848    1.617    0.382
        17 -10.7243    193.7511    249.5007   1.0064486324e+02  -2.9296115888e+00    0.2494809    0.2018095  46.02  0.001781841    1.303    0.233
        18  -9.0503    244.0409    236.5253   9.0061808334e+01  -9.0487703087e+00    0.1681074   0.09248769  35.98 0.0006420118    1.535    0.348
        19  -9.0761    237.3066    235.6751   9.1054854802e+01  -7.9712246337e+00   0.09888896    0.0897271  45.67 0.0003611996    1.647    0.393
        20 -10.2153    217.0098    234.7380   9.4395684105e+01  -4.7741503701e+00     0.310718     0.181527  45.53  0.001794787    1.711    0.416
        21  -9.5954    240.5084    232.0138   8.9915418638e+01  -8.0382017523e+00    0.1948364    0.1460853  69.18  0.001032896    3.381    0.704
        22  -9.2506    245.3871    231.1762   8.8956265699e+01  -8.6631106479e+00     0.146379    0.1020397 -34.48 0.0009496755    1.800    0.445
        23  -8.9914    225.5176    231.5140   9.2399456455e+01  -5.7113693608e+00    0.1191072   0.09476815  22.30 0.0002036072    1.067    0.063
        24  -9.9553    235.5938    229.4858   9.0331980961e+01  -7.0160640591e+00    0.2375723    0.1740513 -37.17  0.001557364    1.778    0.437
        25  -9.6699    229.8117    228.6939   9.1194711171e+01  -6.0404856538e+00    0.1846087    0.1599411 -63.17  0.001083381    2.077    0.519
        26 -10.3941    247.1879    226.4062   8.7851774966e+01  -8.3979979439e+00    0.3021847    0.1800797  48.57  0.001674557    2.216    0.549
        27 -10.7150    240.4880    221.7473   8.8187934928e+01  -6.8588997616e+00    0.3398749    0.2742145  65.85  0.002068511    2.361    0.576
        28  -9.9316    199.0145    227.0367   9.6389436767e+01  -9.0302387674e-01    0.1799568    0.1475057  64.47 0.0009824181    1.707    0.414
        29  -9.7386    206.0535    225.6394   9.4893588888e+01  -1.8751624372e+00    0.2048488      0.17507 -53.99  0.001353685    1.689    0.408
        30  -9.7851    228.7007    222.2698   9.0313062786e+01  -5.0933684644e+00    0.2722553    0.1655492  44.30  0.001565143    1.686    0.407
        31 -10.0820    193.7265    219.7534   9.6199601978e+01   9.8706679129e-01    0.2226492    0.1597915 -68.24  0.001183033    2.532    0.605
        32 -10.6727    248.1427    217.6828   8.6181450599e+01  -7.5429625195e+00    0.3339419    0.2920983 -44.31  0.002294884    1.808    0.447
        33  -9.0397    211.4650    219.4751   9.2905302470e+01  -1.9508758993e+00    0.1254387    0.1022461  22.85 0.0003709659    1.014    0.013
        34 -10.6784    219.6737    217.1824   9.1041356271e+01  -2.9997838145e+00    0.2578231    0.1674919 -44.29  0.001429794    2.036    0.509
        35 -10.0788    233.2548    213.8548   8.8060916269e+01  -4.7698991651e+00     0.242259    0.1932336 -50.33   0.00133381    1.949    0.487
        36 -10.2910    241.0374    209.0520   8.5850534401e+01  -5.4041579784e+00    0.3968454    0.2753621 -57.39  0.002028198    3.072    0.674
        37 -10.2579    235.4610    203.6206   8.5827060019e+01  -3.8125985647e+00    0.3340049    0.2690365 -67.06  0.001217555    2.416    0.586
        38  -9.7872    231.4961    199.4342   8.5749184023e+01  -2.5987185107e+00    0.2711512    0.1750607 -45.19  0.001228633    2.063    0.515
        39  -9.6100    231.1992    194.2204   8.4816572144e+01  -1.8338521087e+00    0.2111897    0.1631843 -15.72 0.0008288464    1.239    0.193
        40 -10.0138    246.9856    207.2895   8.4510918161e+01  -6.1191579569e+00    0.2638407    0.2043197 -44.55   0.00112204    1.887    0.470
        41  -9.9417    243.7387    201.5251   8.4000179353e+01  -4.8816258493e+00     0.317599    0.2748218 -50.27  0.002041812    1.783    0.439
        42  -9.3890    229.5104    207.9866   8.7672529766e+01  -3.4098223579e+00    0.1771422    0.1167726 -28.72 0.0008176543    1.580    0.367
        43  -9.2228    217.4958    204.9881   8.9291604777e+01  -9.9172797561e-01    0.1779296    0.1221651 -31.78  0.001020146    1.564    0.360
        44  -8.8825    202.4672    204.5151   9.1990335070e+01   1.6831925817e+00    0.1302001    0.1123326  25.42 0.0001097191    1.048    0.046
        45  -9.2828    172.8607    203.8026   9.7569580168e+01   7.0874531775e+00    0.1747171    0.1514284  64.91 0.0006306954    1.328    0.247
        46  -9.9145    250.1515    201.2476   8.2854594050e+01  -5.8634901021e+00     0.247498    0.1602606 -29.94  0.001073989    1.573    0.364
        47  -8.9474    223.5218    201.5158   8.7564473729e+01  -1.5369088831e+00    0.1288591    0.1087335  15.83 0.0002045547    1.038    0.037
        48  -9.2866    197.4884    204.9908   9.3013410536e+01   2.4907284030e+00    0.1657241    0.1164954 -66.65 0.0008104941    2.572    0.611
        49 -10.7235    225.1983    194.0633   8.5865206464e+01  -7.8021309049e-01    0.4537612    0.2210343 -50.38  0.001805015    3.681    0.728
        50  -9.4333    202.3147    197.6506   9.0784840841e+01   2.7402891522e+00     0.123753    0.1067186  80.83 0.0005630122    1.725    0.420
        51  -8.7478    176.3394    197.6610   9.5836460684e+01   7.4721735096e+00    0.1334567    0.1043487  74.16 0.0007050438    1.764    0.433
        52 -10.4796    247.0623    193.7417   8.1954420948e+01  -4.4092107236e+00    0.3190113    0.2738473 -63.93  0.001689285    2.045    0.511
        53  -9.7560    244.1194    188.6707   8.1475402332e+01  -3.2507932439e+00     0.217951    0.2038827 -38.79 0.0009482527    1.488    0.328
        54  -9.0120    219.3220    194.6393   8.7046206074e+01   1.6249884665e-01    0.1203159     0.107374 -89.49 0.0007042769    1.775    0.437
        55  -9.0326    241.3406    191.6814   8.2542585175e+01  -3.1950945838e+00    0.1121522     0.105745 -84.86 0.0007049427    1.713    0.416
        56  -9.9158    230.5254    187.9996   8.3734637565e+01  -8.4243266616e-01    0.3352625    0.2093671 -47.22  0.001693523    2.161    0.537
        57 -10.0526    237.3127    187.4024   8.2412177723e+01  -1.9288016571e+00    0.2780166    0.2163045 -40.67  0.001465367    1.571    0.364
        58  -9.3072    215.1851    186.9199   8.6331585498e+01   2.0462314210e+00    0.1865129    0.1819773 -33.04 0.0006852042    1.307    0.235
        59 -10.0217    249.7836    185.0946   7.9802193910e+01  -3.7069912196e+00    0.3160848    0.1810979 -38.48  0.001652287    1.917    0.478
        60 -10.3323    248.0113    179.0426   7.8891482757e+01  -2.5857694317e+00    0.4150212    0.1722482 -37.19  0.001836013    2.426    0.588
        61  -9.8062     77.6857    185.8289   1.1464611713e+02   2.6568505011e+01    0.1981272    0.1658348  44.55 0.0005638311    1.297    0.229
        62  -9.6392    224.0598    184.3588   8.4188660710e+01   8.2937214630e-01     0.217476    0.1879396 -58.48 0.0007014954    1.661    0.398
        63 -10.3179    241.7652    181.5200   8.0465094528e+01  -1.8678713862e+00     0.318448    0.2689765 -58.73  0.001759609    1.841    0.457
        64  -9.5608    197.5184    182.9692   8.8940143285e+01   5.9521765869e+00    0.2005738    0.1346443 -38.39 0.0008004377    1.591    0.371
        65  -9.7270    235.9806    181.3175   8.1438207300e+01  -8.3773698112e-01    0.2471505    0.2082539 -56.07 0.0009306673    1.749    0.428
        66  -9.3976    231.9407    178.8235   8.1653732048e+01   2.3783344884e-01    0.1903587    0.1726663 -84.18 0.0009375472    1.717    0.417
        67  -9.5073    219.2763    178.5932   8.3917149556e+01   2.5719285508e+00    0.2392801    0.1588577 -42.58  0.001040419    1.708    0.415
        68  -9.6571    210.5692    176.2452   8.5079775948e+01   4.5709192238e+00    0.2396358    0.1299638 -40.98  0.001000095    1.973    0.493
        69  -9.3369    197.5448    176.9527   8.7747014267e+01   6.9476310664e+00    0.2017521    0.1358141 -37.91 0.0008659153    1.563    0.360
        70  -9.3415    232.7902    174.7779   8.0675958726e+01   6.8383885166e-01    0.1658599    0.1637335   6.77  0.000803533    1.329    0.248
        71  -9.9420    223.7174    173.4453   8.2044794589e+01   2.5448674111e+00     0.278183    0.1967717 -56.65  0.001112118    2.142    0.533
        72  -9.7455    188.2773    172.1681   8.8634503867e+01   9.5824235254e+00     0.310649    0.1242952 -43.23  0.001179941    2.670    0.625
        73  -9.6078    227.9632    171.6045   8.0888252541e+01   2.0424487141e+00    0.2604742    0.1739075 -49.79  0.001291782    1.990    0.498
        74 -10.7992    237.6137    169.6395   7.8755377367e+01   5.7874027418e-01    0.3971519    0.2290628 -44.26  0.001316503    2.062    0.515
        75  -9.5666    234.3492    164.2410   7.8191260475e+01   1.9890354848e+00    0.2678813    0.1785925 -44.41  0.001061372    1.742    0.426
        76 -10.3163    246.3790    169.4642   7.7201619623e+01  -9.5235193902e-01    0.2774735    0.2690954 -19.35    0.0014337    1.346    0.257
        77 -10.0150    218.7369    168.4499   8.1926080008e+01   4.2674515189e+00    0.2962522    0.2200274 -45.82  0.001164493    1.577    0.366
        78  -9.0282    212.2841    169.6477   8.3393783061e+01   5.3116578217e+00    0.1308534    0.1131677 -72.72 0.0003459309    1.660    0.398
        79  -8.9078    229.5033    166.5105   7.9540250250e+01   2.5405084636e+00    0.1377032     0.121823   1.91 -4.403401e-06    1.030    0.029
        80  -9.4495    199.5393    165.2582   8.4945121437e+01   8.5520994498e+00    0.2589988    0.1366771 -42.77  0.001118127    2.010    0.502
        81  -9.2117    191.5101    166.4987   8.6812917238e+01   9.9418900838e+00    0.1435901    0.1330293  17.94 0.0001818036    1.009    0.009
        82  -9.3818    240.4545    164.3132   7.7135663006e+01   8.5921314136e-01    0.1994049    0.1738099  70.76 0.0009496996    1.698    0.411
        83 -10.1207    212.9115    162.5874   8.1777638108e+01   6.3526097851e+00    0.5019089     0.177125 -40.71  0.001817847    2.909    0.656
        84 -12.5221    243.6255    150.8299   7.3667981420e+01   2.3181280711e+00     1.744193    0.8470472 -28.45  0.007708291    1.977    0.494
        85  -9.5083    224.7926    248.7087   9.5202450600e+01  -7.5501461967e+00    0.1679944    0.1524615 -72.95  0.001081713    2.043    0.510
        86  -9.5780    168.0230    249.5191   1.0515453382e+02   1.1071811585e+00    0.1792565   0.09175435  40.23 0.0004204355    1.521    0.343
        87 -11.1959    243.0692    136.9598   7.0641684309e+01   4.5819266444e+00     1.073076    0.2519043 -41.55  0.003080204    4.578    0.782
        88 -13.0827    240.6927    125.4653   6.8363980427e+01   6.8857220581e+00      1.80812     1.062163 -53.27  0.007817997    2.274    0.560
        89 -12.1116    248.4437    120.7402   6.6009211589e+01   6.0804897965e+00     1.769384    0.6081102 -45.84  0.005781558    3.646    0.726
        90  -9.0683    242.5051    248.4689   9.2210234415e+01  -1.0075440204e+01    0.1132171   0.08296645  19.22 0.0002152478    1.021    0.020
        91 -11.1524    249.9249     54.0776   4.9680477897e+01   1.5896016515e+01     1.027802    0.1298009 -39.59  0.002841118    4.766    0.790
        92 -10.3306    205.5259    161.8120   8.3033364757e+01   7.9488757159e+00    0.3332499    0.1359412 -40.30  0.001276907    2.501    0.600
        93  -9.1276    221.5815    161.7804   7.9976297176e+01   4.7929973929e+00    0.1924572    0.1271381 -43.37 0.0009423532    1.668    0.400
        94 -10.0466    237.5569    158.8736   7.6472782480e+01   2.2160301174e+00    0.3115776     0.257908 -54.21  0.001318212    1.611    0.379
        95  -9.7792    233.6273    154.0696   7.6113491077e+01   3.7050043808e+00    0.3257265    0.2492339 -64.08  0.001641761    2.032    0.508
        96  -9.4056    231.0506    159.6868   7.7799773978e+01   3.3124275090e+00    0.1936998    0.1685621  16.40 0.0005008138    1.081    0.075
        97  -9.5150    226.8088    157.1140   7.8003710008e+01   4.5327461534e+00    0.2082189    0.1946481 -43.28   0.00123062    1.284    0.221
        98  -9.6442    216.2320    156.7323   7.9875478719e+01   6.6706962006e+00    0.2570338    0.2186891 -58.92  0.001139133    1.516    0.340
        99  -9.5125    196.9724    157.2591   8.3735812310e+01   1.0477895916e+01    0.2084944    0.1923286  21.74  0.001171186    1.035    0.034
       100  -9.3308    187.5818    155.6665   8.5297304704e+01   1.2707245129e+01    0.2814487    0.1417077 -35.07   0.00113311    2.111    0.526
       101  -9.7557    205.8225    154.0448   8.1276346730e+01   9.2301593776e+00     0.216175    0.2008617 -54.66  0.001066208    1.269    0.212
       102  -9.0640    157.6465    153.3205   9.1233400496e+01   1.9389937675e+01    0.1537219    0.1183368  82.78 0.0007046987    1.751    0.429
       103  -9.3912    228.4822    151.5212   7.6465564189e+01   5.1073062791e+00    0.2684566    0.1276698 -38.45  0.001131293    2.054    0.513
       104  -9.8243    229.4565    148.4512   7.5603540392e+01   5.4126446647e+00    0.2556913    0.1916088 -17.87 0.0007425384    1.287    0.223
       105  -9.3860    221.5005    152.0412   7.7853395794e+01   6.4011873412e+00    0.2181619    0.1337101 -35.14  0.001027028    1.584    0.369
       106 -10.1067    212.0086    151.0292   7.9408411152e+01   8.4866712086e+00    0.2157324    0.1797467 -67.10 0.0009421575    1.631    0.387
       107 -11.0584    235.4157    147.4747   7.4332151493e+01   4.4045231308e+00     0.439028    0.3454116 -54.74  0.001448445    1.647    0.393
       108  -9.5617    215.4165    148.6999   7.8236568639e+01   8.1889826999e+00    0.2761995    0.1170727 -48.53 0.0009474091    3.186    0.686
       109  -9.8859    250.4448    152.9933   7.3001057206e+01   7.3775185298e-01    0.3258719    0.1439709 -32.26  0.001237639    2.069    0.517
       110  -9.9471    223.8685    147.0115   7.6286978177e+01   6.7603782203e+00    0.2956173    0.2220413  60.54  0.001492878    1.699    0.412
       111  -9.4711    207.8994    145.1559   7.8862938282e+01   1.0356910507e+01    0.2184294    0.2058922 -56.81 0.0007432704    1.238    0.192
       112  -9.1177    219.0341    144.5015   7.6603464993e+01   8.1620504709e+00    0.2065087     0.142014  47.97 0.0009292084    1.536    0.349
       113 -10.4657    230.2153    140.4514   7.3648056090e+01   6.5657326438e+00    0.6329867    0.1810233 -37.85   0.00207889    3.252    0.693
       114  -9.4115    181.8802    142.0453   8.3415027810e+01   1.6492276767e+01    0.2529638    0.1770832 -66.85  0.001082111    2.058    0.514
       115  -9.7212    238.4281    140.2643   7.2179345882e+01   4.9648346341e+00     0.240846    0.1931241 -45.81 0.0007485315    1.398    0.285
       116 -11.1007    234.9047    135.7902   7.1753288846e+01   6.3837120360e+00    0.5428763     0.286701 -44.75  0.001660525    2.048    0.512
       117  -9.5477    198.3589    140.5342   7.9666632732e+01   1.3212926883e+01    0.2860272    0.1826137 -63.08  0.001135413    2.501    0.600
       118  -9.4506    209.0033    138.7961   7.7171234964e+01   1.1245977416e+01    0.2263083     0.177079  82.59 0.0007081027    1.908    0.476
       119  -9.5631    172.8223    138.0340   8.4425626335e+01   1.9249915661e+01    0.2563078    0.1800612 -69.75  0.001080872    2.061    0.515
       120  -9.7090    218.8267    138.3290   7.5211867483e+01   9.2558907934e+00    0.2598127    0.1886753 -39.72   0.00117863    1.375    0.273
       121  -9.9866    224.6270    133.5527   7.3033876184e+01   8.8574313453e+00    0.3589796    0.2596975  69.01  0.001698031    1.957    0.489
       122  -9.7242    198.4566    131.9080   7.7590478065e+01   1.4777183531e+01    0.2305645    0.1450373 -37.81 0.0006854519    1.557    0.358
       123  -9.5234    179.4905    132.5315   8.1664954322e+01   1.8866914163e+01    0.1519661    0.1486307   1.93 0.0001934168    1.017    0.017
       124  -9.5050    224.2313    140.2998   7.4682844667e+01   7.8051516200e+00    0.2485825    0.1950134 -32.94 0.0009609798    1.224    0.183
       125  -9.5454    220.8457    129.0703   7.2647468185e+01   1.0416576793e+01    0.2276485    0.1979655 -54.85  0.000984148    1.324    0.244
       126  -9.7189    200.0989    126.2474   7.5879820272e+01   1.5455214274e+01     0.287046    0.1909059 -60.16 0.0008156651    2.051    0.512
       127 -10.0995    228.1480    125.3389   7.0455094103e+01   9.5008787125e+00    0.3359925    0.2140237 -43.84  0.001271466    1.600    0.375
       128  -9.0742    186.3892    129.2026   7.9392166846e+01   1.7971802590e+01    0.2235911    0.1399422 -48.88 0.0009443794    1.726    0.421
       129  -9.6531    179.7634    124.9070   7.9726564391e+01   2.0300072306e+01    0.2979825    0.2153032 -57.84  0.001332796    1.634    0.388
       130  -9.8567    221.2226    122.2415   7.0925145644e+01   1.1507754983e+01    0.4423225    0.2029389 -55.32  0.001307958    4.373    0.771
       131  -8.8375    194.0000    120.9711   7.5776821414e+01   1.7812041414e+01    0.2528595   0.08584416 -37.70 0.0006020874    2.875    0.652
       132  -9.6952    140.5083    118.9953   8.7282184130e+01   3.0289247463e+01    0.2279982    0.1347516 -66.71 0.0008104931    2.611    0.617
       133  -8.8961     19.0232    119.2368   1.2026308523e+02   4.8315954450e+01    0.1317627    0.1045462  28.91 0.0005256594    1.600    0.375
       134 -11.0701    248.6716    129.9827   6.8123726797e+01   4.5866653592e+00    0.6306261    0.3212996 -39.55   0.00282999    1.851    0.460
       135 -11.2518    234.5668    111.8853   6.6106271704e+01   1.0373136014e+01    0.2919483    0.2157482  68.76  0.001441037    1.737    0.424
       136  -8.7929    188.4665    123.4663   7.7534458606e+01   1.8600694758e+01    0.1525427    0.1489539 -24.15 0.0001726061    1.042    0.040
       137  -9.2551    212.6749    122.4818   7.2541072745e+01   1.3337064306e+01    0.2705424    0.1332279 -35.49   0.00106969    1.938    0.484
       138  -9.4198    185.9984    114.9932   7.5880185654e+01   2.0787997601e+01    0.2529347    0.1943908 -71.95  0.001132451    1.727    0.421
       139  -9.1984     70.8440    115.1929   1.0516249187e+02   4.3726907326e+01    0.1838714    0.1548633 -36.31 0.0003309947    1.304    0.233
       140  -9.0361    170.2977    124.6263   8.1719672124e+01   2.2500383119e+01     0.160843    0.1240765 -75.96 0.0007027537    1.744    0.427
       141 -11.4254    229.3245    102.8114   6.4713362861e+01   1.3015494816e+01    0.4008676    0.2400998 -34.93  0.001815826    1.530    0.346
       142  -8.9557    218.5226    109.4870   6.8230346652e+01   1.4302083184e+01    0.1502089    0.1402894 -29.12 0.0001414867    1.033    0.031
       143  -9.2276    183.3756    109.2223   7.4909275794e+01   2.2506999097e+01    0.2354124    0.1402799 -46.80 0.0009539016    1.738    0.424
       144  -9.6385    160.6797    108.5260   7.9704662688e+01   2.7972532942e+01    0.2887262    0.1436201 -40.97  0.001075541    1.976    0.494
       145  -9.1328    189.6859    108.3564   7.3383577316e+01   2.1182098164e+01    0.1623234    0.1227149 -70.07 0.0007044489    1.742    0.426
       146 -10.4750    222.8130    105.1854   6.6398138127e+01   1.4072242051e+01    0.3469459    0.1877778 -46.69  0.001427231    1.938    0.484
       147  -9.3072    205.5977    105.2663   6.9482412375e+01   1.8008317418e+01    0.2938936    0.1374485 -39.71  0.001019144    2.032    0.508
       148  -8.4709    218.3235    104.6307   6.7029215391e+01   1.5183003470e+01    0.1587929    0.1141304 -63.98 0.0007034913    1.804    0.446
       149  -9.0648    200.8340    103.0320   6.9788692280e+01   1.9527607735e+01    0.2536314    0.1649934 -57.04 0.0008726445    1.893    0.472
       150  -9.5563    167.3531    101.1579   7.6171889768e+01   2.7878250532e+01    0.2412257    0.1401974 -47.82 0.0009508017    1.796    0.443
       151 -10.1214    236.0961    107.7214   6.4837865857e+01   1.0727880264e+01    0.2583651    0.1782089 -41.92 0.0006890401    1.384    0.278
       152  -9.1135    225.2946     99.6498   6.4575670674e+01   1.4444707806e+01    0.1537026    0.1107619 -60.37 0.0007032122    1.678    0.404
       153  -8.9512    215.5118     94.4968   6.4888544692e+01   1.7565661190e+01    0.1515871    0.1419635 -38.14 5.232105e-05    1.032    0.031
       154 -10.1328    212.9926     96.5004   6.5850215308e+01   1.7813308895e+01    0.4393883    0.2348444 -55.99  0.001612457    2.584    0.613
       155  -9.7701    210.6205     91.7887   6.5017413993e+01   1.9182157703e+01    0.3934712    0.2140674 -54.42  0.001435042    2.328    0.570
       156  -9.2476    202.8158     98.0345   6.8087790115e+01   1.9951263193e+01    0.2575665    0.1668268 -58.57  0.001063817    1.946    0.486
       157  -9.3697    194.9836     97.5487   6.9437354699e+01   2.1913479664e+01    0.2794699    0.1976772 -55.73  0.001237156    1.610    0.379
       158 -11.5235    236.4936     90.0466   6.0381120220e+01   1.3499789998e+01    0.9852643    0.2480917 -40.36  0.003018716    3.482    0.713
       159 -11.0562    235.0356     95.0450   6.1857115964e+01   1.3020903497e+01    0.4374124    0.2995775 -60.33  0.001431079    1.794    0.442
       160 -11.1614    231.5898     90.8773   6.1336973875e+01   1.4465421210e+01    0.4821267    0.2736209 -32.98  0.001528906    1.622    0.383
       161  -9.1963    135.6648     97.3416   8.2681870326e+01   3.5987536063e+01    0.1627404    0.1255443 -81.87 0.0007050753    1.759    0.431
       162  -9.1481    206.9920     94.4896   6.6379417652e+01   1.9579550014e+01    0.2030316    0.1375796 -89.66  0.000554311    2.335    0.572
       163  -9.3312    164.4138     94.2004   7.4868165508e+01   2.9942950610e+01    0.2351961    0.1441715 -48.43 0.0009508753    1.713    0.416
       164  -8.9384    225.2918     92.6743   6.2790295285e+01   1.5604459803e+01    0.1517095    0.1103649 -60.68  0.000565463    1.618    0.382
       165  -9.2991    157.9888     90.2022   7.5172604996e+01   3.2265088510e+01    0.2393402     0.172823 -58.17 0.0009410849    1.605    0.377
       166 -10.7699    226.0177     87.4995   6.1339805058e+01   1.6286171301e+01    0.3920537    0.2673445 -23.94  0.001846862    1.495    0.331
       167 -11.0312    225.4694     81.9751   5.9991518477e+01   1.7307473046e+01    0.3839976    0.2741116 -49.96  0.001869311    1.407    0.289
       168  -9.4362    188.3200     86.9151   6.7786656083e+01   2.5451477274e+01    0.2590825    0.1844909 -49.61  0.001057553    1.463    0.316
       169  -9.3240    163.9798     87.1741   7.2928766471e+01   3.1396921283e+01    0.2389199    0.1696255 -55.57 0.0007184048    1.592    0.372
       170  -8.8110    197.3165     86.6721   6.6013923545e+01   2.3281488730e+01    0.1610166    0.1190568 -67.06 0.0004070586    1.677    0.404
       171  -9.1622    206.1348     85.1106   6.4001304893e+01   2.1399190857e+01    0.2221067     0.173025 -54.27  0.000752234    1.352    0.260
       172  -8.7064    200.6413     83.3029   6.4476579537e+01   2.3048049347e+01    0.1608144    0.1185886 -70.89 0.0007038394    1.719    0.418
       173  -9.6287    159.2957     82.3913   7.2558488253e+01   3.3442048223e+01    0.2847309    0.1832659 -53.77  0.001133937    1.786    0.440
       174  -9.1303    209.9840     80.9878   6.2220943554e+01   2.1157585602e+01    0.2968647    0.1745392 -45.01  0.001242751    1.678    0.404
       175  -9.2226    211.3460     76.7834   6.0852896698e+01   2.1518176498e+01    0.2083082    0.1815545   3.09 0.0005584556    1.290    0.225
       176  -9.4641    150.9984     79.9783   7.3740927922e+01   3.5909035600e+01    0.2548701    0.1955657 -72.09  0.001130692    1.692    0.409
       177  -9.5389    166.5602     78.2508   6.9710712756e+01   3.2414952146e+01    0.3124996    0.1449936 -40.28  0.001134262    2.104    0.525
       178  -9.4542    201.1463     77.9923   6.2912348821e+01   2.3822369633e+01    0.2663993    0.1569623 -53.92 0.0008065471    1.973    0.493
       179  -8.9730    174.4170     78.1779   6.8038196209e+01   3.0468008770e+01    0.2329018    0.1398694 -46.14 0.0009454336    1.717    0.418
       180  -9.5801    130.5036     78.4997   7.8379625504e+01   4.0979994978e+01    0.1541186    0.1495183 -33.95 0.0001346173    1.037    0.036
       181  -8.8677    183.6631     77.3440   6.5948497297e+01   2.8296031404e+01    0.1664879    0.1201362 -68.55 0.0007049394    1.770    0.435
       182  -9.0356    223.4955     76.4514   5.8847679080e+01   1.8653553048e+01    0.1490055    0.1362051 -50.11 0.0001673355    1.054    0.051
       183  -9.8950    157.8664     75.5971   7.0813079620e+01   3.5048206344e+01    0.3339506    0.1962191 -50.53  0.001323234    1.916    0.478
       184  -9.4984    163.4777     72.4282   6.8602148033e+01   3.4223803166e+01    0.2948003    0.1327611 -45.28  0.001028755    2.358    0.576
       185  -8.8584    195.3235     72.6775   6.2439589770e+01   2.6158079278e+01    0.1614064    0.1167572 -66.72 0.0007046836    1.681    0.405
       186  -9.6141    222.0776     71.0421   5.7632632927e+01   1.9841999442e+01    0.2437695    0.1626653 -58.41  0.001042216    1.677    0.404
       187  -8.8078    187.3225     68.6618   6.2720998901e+01   2.8840591518e+01    0.1638479    0.1171657 -66.30  0.000680888    1.717    0.418
       188  -9.0056    182.4834     68.4994   6.3573379423e+01   3.0096204561e+01    0.1555815    0.1481651 -61.84 0.0001457954    1.063    0.060
       189  -9.2299    203.5659     66.7802   5.9364121926e+01   2.5047511823e+01    0.2230521    0.1305654 -44.27 0.0009421571    1.674    0.403
       190  -8.9520    212.4078     66.2003   5.7796501781e+01   2.2944147339e+01    0.2180524    0.1269187 -43.61 0.0009364489    1.649    0.394
       191  -9.6731    112.0045     64.5132   7.8874027561e+01   4.7698710553e+01    0.2031291     0.136615  74.44 0.0008101541    2.528    0.604
       192  -9.7268    158.0839     62.3533   6.6603490290e+01   3.7308159366e+01    0.3263353    0.1911658 -50.50  0.001136551    1.960    0.490
       193 -11.0308    192.7155     55.6761   5.7970746734e+01   2.9515705209e+01    0.4354566    0.2140122 -39.65   0.00172864    1.955    0.488
       194  -9.5072    153.2408     59.7683   6.6825366485e+01   3.8951117222e+01    0.2822612    0.1850294 -36.84 0.0007890814    1.514    0.339
       195  -8.8128     25.7000     60.2782   1.0723247268e+02   6.1188567709e+01    0.1094489   0.09128889  87.96 0.0001695748    1.540    0.351
       196  -9.4105    218.7839    248.5852   9.6202696881e+01  -6.6452391172e+00    0.1593224   0.08952106  44.00 0.0009273462    1.678    0.404
       197  -9.1514    221.2583     59.5950   5.4705953672e+01   2.1783673161e+01    0.2830902    0.1538273 -42.63  0.001223491    1.719    0.418
       198  -9.7736     95.5943     47.7577   7.7769675748e+01   5.4026889671e+01    0.2036306     0.127241 -43.97 0.0009495799    1.671    0.401
       199  -9.3863    122.6847     46.3398   6.9505161067e+01   4.8478624228e+01      0.14891    0.1169463 -66.98 0.0007047926    1.703    0.413
       200  -9.2386    139.6946     55.3339   6.8450126249e+01   4.3016845758e+01    0.1549734     0.119581 -67.50 0.0007039169    1.665    0.400
       201  -9.0702    140.3262     40.6610   6.3211108372e+01   4.5113423356e+01    0.1536311     0.115263 -66.35 0.0003527345    1.728    0.421
       202  -9.9141    168.5945     36.8203   5.6307091541e+01   3.8445094476e+01    0.2153882    0.1299404 -41.21 0.0009448163    1.696    0.411
       203  -9.5196    149.3322     34.4435   5.9132072565e+01   4.3709950720e+01    0.2508324    0.1370097 -27.61 0.0007800284    1.884    0.469
       204  -9.5810    116.7087     33.1600   6.6103555569e+01   5.1782449816e+01    0.2301385     0.178951 -44.97  0.001192063    1.457    0.314
       205  -9.6001    153.4646     52.9599   6.4540876529e+01   3.9992422029e+01    0.2233976    0.1177718 -52.76 0.0008088746    2.483    0.597
       206  -8.9325    125.5456     30.5026   6.2899381033e+01   5.0079781809e+01    0.1442149    0.1337073  22.20 0.0008089057    1.004    0.004
       207  -8.6078     42.2913     27.7088   8.9260468537e+01   6.5863382494e+01    0.1061114   0.09662458 -55.17 0.0002847777    1.548    0.354
       208  -8.7312      1.3243     31.3022   1.0926615211e+02   6.8658784761e+01     0.120678   0.05965902 -36.95 0.0004309581    1.636    0.389
       209 -10.5650    176.2937    247.6197   1.0344954514e+02   4.9284175562e-02     0.243335    0.1763238  61.99  0.001548623    1.735    0.424
       210  -9.2049    172.3901     25.1665   5.1955621363e+01   3.8913574940e+01    0.2082548    0.1242878 -40.31 0.0007462381    1.714    0.417
       211  -9.6588    136.6331     24.7568   5.8288375916e+01   4.8102296667e+01    0.2553661    0.1394607 -19.22 0.0006332233    2.011    0.503
       212  -9.6134    118.4719     24.8689   6.2431640153e+01   5.2451092593e+01    0.2080008    0.1364809 -23.89  0.001016657    1.547    0.354
       213  -9.2332    232.6672    247.3223   9.3668291947e+01  -8.5525978927e+00    0.1488099    0.1310049  51.34  0.001089808    1.746    0.427
       214  -9.9740    250.2882    245.2385   9.0428286683e+01  -1.0835527795e+01    0.1715615    0.1193443 -10.97 0.0006607988    1.386    0.279
       215  -9.1926    155.6758     16.5130   5.1818557485e+01   4.4204804035e+01    0.2439699    0.1321063 -23.46  0.001077184    1.968    0.492
       216  -9.0963    161.0000     20.9826   5.2431828293e+01   4.2348766871e+01    0.2265583   0.08252298 -24.49 0.0007981829    2.913    0.657
       217  -9.8033      8.8191     16.4371   1.0030356493e+02   7.0953873989e+01    0.2656566    0.1324197 -61.70   0.00100143    2.843    0.648
       218  -9.9132      2.4080     15.8101   1.0337044894e+02   7.1471726565e+01    0.1665719     0.069442 -43.50 0.0005317801    1.678    0.404
       219  -9.0944     23.4853     15.4979   9.2508502012e+01   6.9903208550e+01    0.1193671    0.0887225 -23.20  0.000810476    1.013    0.013
       220  -9.6374     29.7075     12.9888   8.8306706018e+01   6.9659674319e+01    0.1670933    0.1196442 -23.34 0.0002478892    1.085    0.078
       221  -9.5058    202.5775    242.7458   9.8140428225e+01  -3.4852623746e+00    0.2009536    0.1283166  51.07  0.001195024    1.770    0.435
       222  -9.6962    240.8954    241.0289   9.1311116641e+01  -9.0754504801e+00     0.224458    0.1671733  61.04  0.001338902    2.699    0.629
       223 -12.6468    246.0671     85.6802   5.7912991702e+01   1.2081965489e+01     1.499824    0.7870419 -56.48  0.006038752    2.523    0.604
       224  -9.7418    177.5195    242.0907   1.0248666234e+02   5.8504945604e-01    0.1477986    0.1194288 -37.33  0.000449701    1.542    0.351
       225  -9.6522    248.4118    240.2003   8.9931900212e+01  -1.0060629741e+01    0.1346273    0.1000199 -29.37 0.0008710838    1.672    0.402
       226 -10.6601    192.1012    237.1012   9.9167089935e+01  -1.1066173784e+00    0.4968555    0.3184212  68.31  0.002386493    3.299    0.697
       227 -10.0947    207.2048    237.5324   9.6548669486e+01  -3.5743827076e+00    0.2685373    0.1715338  54.33  0.001529588    2.042    0.510
