#   1 NUMBER                 Running object number                                     
#   2 MAG_AUTO               Kron-like elliptical aperture magnitude                    [mag]
#   3 X_IMAGE                Object position along x                                    [pixel]
#   4 Y_IMAGE                Object position along y                                    [pixel]
#   5 X_WORLD                Barycenter position along world x axis                     [deg]
#   6 Y_WORLD                Barycenter position along world y axis                     [deg]
#   7 A_WORLD                Profile RMS along major axis (world units)                 [deg]
#   8 B_WORLD                Profile RMS along minor axis (world units)                 [deg]
#   9 THETA_WORLD            Position angle (CCW/world-x)                               [deg]
#  10 FWHM_WORLD             FWHM assuming a gaussian core                              [deg]
#  11 ELONGATION             A_IMAGE/B_IMAGE                                           
#  12 ELLIPTICITY            1 - B_IMAGE/A_IMAGE                                       
         1 -13.3037    213.9845     30.0303   4.4259234377e+01   2.7977387923e+01    0.9512798    0.7018054 -72.52  0.004153219    1.341    0.254
         2 -13.0202    219.4643     23.5192   4.2015774309e+01   2.7453076158e+01    0.6321605    0.4338165  57.15  0.001578122    1.537    0.349
         3 -13.5021    235.8733      6.8657   3.6582368657e+01   2.5524257748e+01    0.7448147       0.5515 -64.73  0.002583997    1.161    0.139
         4 -12.5941    232.6259    232.4219   8.7121939808e+01  -7.3298330187e+00    0.8461055      0.65788  -5.29  0.005844146    1.177    0.150
         5 -12.0551    212.1699    248.3240   9.3267148300e+01  -6.2668876400e+00    0.7200869    0.3354167  40.19  0.003898068    1.849    0.459
         6 -12.3716    210.3043    241.6089   9.2576087992e+01  -5.1567273433e+00    0.3755503    0.2909357  -2.06  0.002354178    1.261    0.207
         7 -14.8737    181.1078    242.1155   9.8008790964e+01  -7.0324079493e-01     2.482402     1.211156  35.04   0.01299646    1.712    0.416
         8 -10.5650    124.1634    249.0768   1.0953347429e+02   7.1848942952e+00    0.4193707    0.2425719  34.48  0.002106508    1.621    0.383
         9 -10.1813    131.4526    247.2436   1.0797396453e+02   6.3578521229e+00     0.378782    0.1401646  35.62  0.001300719    2.566    0.610
        10  -6.6643    108.3037    242.2899   1.1175411251e+02   1.0692544076e+01    0.8796797    0.4741252  57.36  0.004839336    1.773    0.436
        11 -12.6658    115.9518    236.7422   1.0970037229e+02   1.0478802500e+01     1.279418    0.7156245  61.34  0.006765409    1.958    0.489
        12  99.0000    124.2854    230.0116   1.0728750676e+02   1.0339500013e+01    0.9277072    0.6065324 -44.04  0.005323326    1.952    0.488
        13 -12.1408    116.5261    227.4136   1.0849743652e+02   1.2025938906e+01     0.843462    0.4169503  49.44  0.003934206    1.769    0.435
        14 -12.8509     20.6519    221.5399   1.2615704468e+02   2.5813933545e+01    0.6471654    0.3608927  76.55  0.002888457    1.460    0.315
        15 -15.1818      5.0877    143.7589   1.2384707997e+02   4.3860281519e+01     5.331623    0.8882313 -77.31   0.01534722    5.972    0.833
        16 -13.7136     38.0115    200.5306   1.2145640053e+02   2.8185580638e+01     4.576071     1.912822  66.50   0.02124701    2.628    0.619
        17 -11.2451     94.2103    222.1077   1.1230528407e+02   1.6424744562e+01    0.5863485    0.5020682  65.39  0.003378084    1.050    0.048
        18 -11.4635     76.7393    217.0491   1.1524223305e+02   1.9919968227e+01    0.6566529    0.3435908  50.89  0.003187818    1.637    0.389
        19 -11.9928     63.9193    221.9242   1.1820271149e+02   2.0693185736e+01    0.6255472    0.4504679 -38.90  0.003739292    2.311    0.567
        20 -11.3999     69.2199    218.3751   1.1685341248e+02   2.0686217802e+01    0.4318628    0.2312241  87.92  0.001967907    2.158    0.537
        21 -11.9408    214.0229    234.1671   9.0728801177e+01  -4.7675023976e+00    0.4500185    0.2251299  27.47  0.002335298    1.854    0.461
        22 -12.7462    208.6991    216.8102   8.8816480431e+01  -1.5493507302e+00    0.5429749    0.2442502 -42.25  0.002542782    2.581    0.613
        23 -10.0191     77.6123    227.8333   1.1612075119e+02   1.7720098291e+01    0.2562491    0.1380847  43.20  0.001219801    1.599    0.375
        24  -9.6588    113.8497    209.9963   1.0683532162e+02   1.5708577493e+01    0.2055199    0.1514948 -27.54  0.001097257    2.056    0.514
        25 -10.5745     67.1982    208.4415   1.1629631755e+02   2.2952664697e+01    0.3609467     0.281965   2.43  0.001837061    2.241    0.554
        26  -9.5004    111.1949    204.6475   1.0667599410e+02   1.7193287264e+01    0.2390976    0.1042213 -61.29  0.001025785    2.589    0.614
        27 -10.3049    101.8866    236.8333   1.1239170892e+02   1.2590619655e+01    0.3353266    0.2214324  70.14  0.002018093    1.570    0.363
        28 -12.7178    194.5894    195.9726   8.7805983616e+01   4.0952282227e+00     0.641328    0.5166399 -75.17  0.003453028    1.971    0.493
        29 -10.0939     57.2558    200.4514   1.1754540554e+02   2.5908445653e+01    0.3394487    0.1511762  73.78  0.001396689    3.156    0.683
        30 -10.3400     89.4128    190.4919   1.0950860501e+02   2.3571112116e+01    0.5201365    0.1642135 -49.67  0.001818415    3.918    0.745
        31 -10.4031     48.0372    190.9642   1.1855531923e+02   2.9072194166e+01    0.1905297    0.1522299  77.70 0.0005252942    1.019    0.019
        32 -11.4901    218.2933    187.6056   8.1611317026e+01   1.2388199926e+00    0.3378639    0.2229494  -8.16  0.001711382    1.733    0.423
        33 -11.4631     57.0118    183.7704   1.1587906754e+02   2.9557365421e+01    0.3301753    0.2385881 -39.35  0.001259256    1.981    0.495
        34 -10.9778     38.9247    182.4188   1.1968937744e+02   3.1991803719e+01    0.3019939     0.151358  61.50  0.001207793    1.970    0.492
        35 -11.5116     63.0333    177.4760   1.1380214143e+02   3.0198771246e+01    0.2480762    0.2226339 -54.91 0.0006000343    1.330    0.248
        36 -14.6847      9.3718    207.4193   1.2737887951e+02   2.9698929763e+01     1.271862    0.9329531  80.77  0.004719957    1.046    0.044
        37  -9.7963    195.0315    168.9626   8.2372501523e+01   8.7075131612e+00    0.1792412    0.1629749  17.62  0.001010763    1.034    0.033
        38 -11.1388     73.5224    167.0720   1.0997716211e+02   3.1164855464e+01    0.2501729    0.2138428 -78.06 0.0004069476    1.084    0.077
        39 -13.2855     60.1960    163.6717   1.1272684457e+02   3.3747356650e+01    0.4844175    0.2831712 -47.05  0.001641337    2.015    0.504
        40 -12.2950     80.8480    159.7980   1.0709656660e+02   3.1807920541e+01    0.5834277     0.511169  48.70  0.001777983    1.186    0.157
        41 -13.7041     66.5642    142.8787   1.0804870899e+02   3.7870379573e+01     2.777165     1.329856  89.38  0.003787508    4.840    0.793
        42  -9.7487     98.6943    141.6897   9.9285773928e+01   3.3269103973e+01    0.2683296    0.2149758 -22.69   0.00127004    1.602    0.376
        43 -12.1092     83.8688    143.7807   1.0361017996e+02   3.5165914819e+01    0.3148021     0.250028 -57.97 0.0003934133    1.198    0.165
        44 -10.1826    133.4073    143.6044   9.0767458270e+01   2.6373253795e+01    0.3055715    0.1396417 -62.13 0.0009553662    3.389    0.705
        45 -15.5249      9.9040    239.5912   1.2888622851e+02   2.3534435237e+01     2.093185     1.271485  66.77   0.01299162    1.172    0.147
        46 -13.3788    168.7123    221.1951   9.7263934052e+01   4.4768896505e+00     1.265429    0.7188551  18.48   0.00569089    2.546    0.607
        47 -10.2963     35.0258    139.5108   1.1588518117e+02   4.2341503492e+01    0.1721996     0.125542  36.47 0.0008245466    1.568    0.362
        48 -11.2057    107.1961    132.2027   9.5027853280e+01   3.4025591696e+01    0.4302814    0.3616003  58.72  0.001767077    1.248    0.198
        49 -10.9986     94.8870    129.4450   9.7785866448e+01   3.6837437082e+01    0.2965999     0.265748 -10.27  0.000618354    1.324    0.244
        50 -10.8789     95.9823    145.0394   1.0065328062e+02   3.2928139141e+01    0.3555432    0.2959315 -31.31  0.001167468    1.423    0.297
        51 -10.4743    115.1538    125.9844   9.1467315612e+01   3.3998120784e+01    0.2634214    0.1756756 -25.83  0.001092945    2.038    0.509
        52  -9.7868    105.5437    120.9387   9.2902900574e+01   3.6981678476e+01    0.2093625    0.2045864  53.44 0.0003702802    1.069    0.064
        53  -9.6516    168.0555    113.0770   7.4988328752e+01   2.5456634730e+01    0.2556617     0.197649 -80.12  0.001126425    1.749    0.428
        54  -9.8192    204.4539    110.8590   6.6925976913e+01   1.7504653602e+01    0.3185123    0.1960407  32.84  0.001331555    1.992    0.498
        55 -12.9963     27.9320    212.8741   1.2430252486e+02   2.6756155117e+01    0.3776868    0.3509843  89.86 0.0007803857    1.406    0.289
        56 -10.0759     52.3414     89.8111   1.0174965869e+02   5.2403148193e+01    0.2145225     0.184683  43.81 0.0008641559    1.354    0.261
        57 -10.4707     13.4908     59.9958   1.0879447219e+02   6.2545406370e+01    0.1883146   0.09668792 -59.95 0.0005339154    1.555    0.357
        58 -11.8128     22.9340     54.4804   1.0347746102e+02   6.3049025203e+01    0.4151652     0.204816 -42.48  0.002197166    1.639    0.390
        59 -12.5088     18.6555     48.9527   1.0368238617e+02   6.4508374255e+01    0.6384585    0.1559214 -49.57  0.002625139    2.723    0.633
        60 -11.5664     13.7522     45.4630   1.0479148685e+02   6.5554831603e+01    0.3237294     0.138131 -38.80  0.001651311    1.961    0.490
        61 -12.3729     28.8203     37.9630   9.5555760723e+01   6.5811605494e+01    0.6008339    0.4095168   8.64  0.003717762    1.573    0.364
        62 -13.3112    206.2473     34.2403   4.6284546010e+01   2.9334605473e+01    0.7890978     0.643523 -31.00  0.003605156    1.284    0.221
        63 -12.4475    219.8099    239.3888   9.0524076653e+01  -6.3011822622e+00    0.5949312    0.3643414  49.00   0.00337102    2.088    0.521
        64 -11.6299    222.2174    235.5955   8.9485895874e+01  -6.1871231465e+00    0.3700486    0.2188585  32.87  0.001831672    1.413    0.292
