#   1 NUMBER                 Running object number                                     
#   2 MAG_AUTO               Kron-like elliptical aperture magnitude                    [mag]
#   3 X_IMAGE                Object position along x                                    [pixel]
#   4 Y_IMAGE                Object position along y                                    [pixel]
#   5 X_WORLD                Barycenter position along world x axis                     [deg]
#   6 Y_WORLD                Barycenter position along world y axis                     [deg]
#   7 A_WORLD                Profile RMS along major axis (world units)                 [deg]
#   8 B_WORLD                Profile RMS along minor axis (world units)                 [deg]
#   9 THETA_WORLD            Position angle (CCW/world-x)                               [deg]
#  10 FWHM_WORLD             FWHM assuming a gaussian core                              [deg]
#  11 ELONGATION             A_IMAGE/B_IMAGE                                           
#  12 ELLIPTICITY            1 - B_IMAGE/A_IMAGE                                       
         1 -12.6209    183.2323     65.4919   2.1700379061e+01   3.0797691186e+01     2.683014    0.4449818 -44.06  0.006426899    6.198    0.839
         2 -12.9165    233.9512     59.7600   1.3153832227e+01   2.0140240569e+01     1.917248    0.6455351 -42.44  0.007710008    2.507    0.601
         3 -13.4606    198.0588     47.1692   1.4722639452e+01   2.9985368518e+01     1.758543     1.065078  43.53  0.004644705    2.050    0.512
         4 -13.5303    193.7716     36.9949   1.2762373720e+01   3.2356356695e+01     1.598119      1.04039 -48.45  0.008514357    1.500    0.333
         5 -11.4448    211.2262     21.0824   6.9819872238e+00   3.0245010785e+01    0.4810171    0.3705244  42.36  0.002906723    1.713    0.416
         6 -11.6808    202.9965     18.8141   7.2951628555e+00   3.2379771913e+01    0.5297775    0.4556499 -66.83   0.00333651    1.107    0.096
         7 -12.6297    234.9607     47.6048   1.0402676868e+01   2.1658942466e+01    0.9695698    0.4463155 -65.11  0.002267491    2.764    0.638
         8 -14.0964    220.5412     57.1585   1.4178665217e+01   2.3419451964e+01     2.048139     1.053249 -38.69  0.006794413    1.824    0.452
         9  99.0000     30.8122     21.8533   5.1256672331e+01   6.8367576632e+01    0.9285986    0.6710512 -41.77  0.005970096    1.654    0.396
        10 -14.4356     43.1006     74.6215   6.4641101380e+01   5.7390509190e+01     1.548139      1.40459  38.35  0.007006677    1.343    0.256
        11  99.0000     10.7735     24.8762   6.2830181715e+01   6.9839380618e+01     1.403295    0.6912819 -23.39  0.005389984    1.896    0.473
        12  -9.3119     78.5943      9.3920   2.6618936312e+01   6.2106042142e+01    0.4506752     0.356111  37.73 0.0008893715    1.073    0.068
        13 -12.9084     50.7122     21.1468   4.1889711887e+01   6.5765979925e+01     1.723722      1.09318  29.04  0.007398152    1.409    0.290
        14 -13.3311     64.6736     33.4389   4.1556450549e+01   6.1859701811e+01     3.187063      1.57506 -22.82   0.01458654    2.311    0.567
        15 -13.7506     56.6628      4.0114   3.1576308878e+01   6.6696532007e+01    0.8031313    0.4123575  50.64 0.0009110172    1.976    0.494
        16 -11.6640     47.5794      2.0980   3.4191608920e+01   6.8401759908e+01    0.3834592    0.2627976  13.68  0.001613125    1.236    0.191
        17 -12.9899     46.1310     55.2167   5.7347000781e+01   6.0952861487e+01      1.43388     0.603343 -30.61  0.004404614    2.843    0.648
        18 -12.4345     72.7413     25.1191   3.5166867498e+01   6.1538648351e+01    0.7197512    0.3570594 -31.19  0.003125902    2.096    0.523
        19 -12.3923     80.0271     23.0983   3.1886579263e+01   6.0396541160e+01    0.5836194    0.4561174   9.84  0.001948485    1.211    0.175
        20 -12.6944     81.4324     49.7166   4.1788188404e+01   5.6436213381e+01    0.6622279    0.5042794   1.68  0.003360454    1.359    0.264
        21 -14.5685     10.5495     71.4298   7.6925935280e+01   6.0810168902e+01     3.691208     1.438309 -51.94   0.01796651    1.875    0.467
        22 -12.5081    221.5229      8.3260   3.2701811194e+00   2.9371078107e+01    0.6058341    0.2193655 -54.61  0.001845003    2.672    0.626
        23 -10.6623    233.0537      5.5610   1.8207388383e+00   2.7199860141e+01    0.7891208     0.574294 -51.69  0.005346186    1.261    0.207
        24 -11.1876    229.0063     10.5281   3.1324720066e+00   2.7520950343e+01    0.4944761    0.2323706 -68.94  0.002041181    2.188    0.543
        25 -12.4780    225.9369     22.7232   5.9478433041e+00   2.6793110059e+01    0.5621051    0.3672173  62.33  0.001719089    1.596    0.373
        26 -10.9230    229.4280     15.9292   4.2144675955e+00   2.6829069427e+01    0.2591844    0.2338243  88.67 0.0005348588    1.231    0.187
        27 -12.6833    249.7706     10.2205   1.5581635654e+00   2.3271735282e+01    0.5252538    0.2742609 -40.84  0.003115781    1.736    0.424
        28 -13.3673    242.3651      7.2262   1.4909052323e+00   2.5094433553e+01    0.6822823    0.2889307 -80.94  0.003231497    2.656    0.624
        29 -12.2639    176.3781     23.5766   1.1612562077e+01   3.8137416712e+01     0.331939     0.278725  16.29 0.0003125491    1.566    0.361
        30  -8.7375    243.8744     18.1266   3.5112054629e+00   2.3556273062e+01    0.3546122    0.1563821 -61.17  0.001773071    2.161    0.537
        31 -11.0915    241.0114     21.9569   4.4989676235e+00   2.3691724006e+01    0.5587829    0.2761017 -86.61  0.002836283    2.183    0.542
        32 -11.1857    171.4138     17.8317   1.0744007719e+01   3.9958531119e+01     0.380722    0.2466731  11.83  0.001801439    2.542    0.607
        33 -10.8483    150.1054     13.1097   1.2441726709e+01   4.5586874087e+01    0.2075554    0.1830905 -80.83 0.0007825033    1.160    0.138
        34 -10.6222    187.0764     12.8667   7.5706060001e+00   3.6732060531e+01    0.2641135    0.1531477 -75.44 0.0008407613    1.855    0.461
        35 -11.7723    115.8296     10.3287   1.7633195018e+01   5.3973122887e+01    0.4046983    0.2700033  12.90  0.001305741    1.819    0.450
        36 -10.2978    109.1869     10.2864   1.9036376168e+01   5.5492730031e+01    0.2975777     0.258727 -69.25  0.001879697    1.430    0.301
        37 -10.7028    131.9148      9.8205   1.4402058282e+01   5.0251743715e+01    0.4381716    0.3137683 -67.67  0.001574475    1.712    0.416
        38  -9.3896    124.8796      9.4249   1.5546001668e+01   5.1947399199e+01    0.2239152    0.2135004  81.13  0.001492779    1.150    0.130
        39 -10.2833     93.9093     11.7810   2.3277762613e+01   5.8723469324e+01    0.1903165    0.1399266  35.38 0.0003007113    1.181    0.153
        40 -10.3429     87.5688     11.4406   2.4857077380e+01   6.0091468687e+01    0.3081773    0.2067738  64.35  0.001711176    1.671    0.402
        41 -12.5041     26.4143     37.0329   5.9628948347e+01   6.6417541353e+01     1.090763    0.3010235 -43.26  0.003402962    2.967    0.663
        42 -11.7188    193.5110      7.3720   5.5661797599e+00   3.5780793056e+01      0.31115    0.2547282  -5.82  0.001971993    1.705    0.414
        43 -12.7743    173.0442      7.0603   7.6945405104e+00   4.0634380029e+01    0.3967138    0.3015019  -7.04   0.00194006    1.778    0.437
        44 -10.8134     26.3177      9.9059   4.7915452052e+01   7.0533336771e+01    0.2471959    0.1538373  -5.46  0.001544936    1.453    0.312
        45  -9.4058    165.1882      8.3673   9.0000453319e+00   4.2393919882e+01    0.1807336    0.1071169  81.46 0.0006113882    1.588    0.370
        46  -9.0407    156.4891      7.4312   9.8840533220e+00   4.4571854705e+01    0.1300253    0.1089656  81.36 5.824949e-05    1.062    0.058
        47 -10.0403     12.8805      7.4013   5.3920357229e+01   7.2306791145e+01    0.1442087    0.1036918  -2.58 0.0004941219    1.082    0.075
        48 -10.9924      2.8458      6.1293   5.9170300609e+01   7.3346709314e+01    0.2219825    0.1519256  -4.56 0.0008295404    1.171    0.146
        49  -9.6700    210.8038      5.9673   3.6539794185e+00   3.1981079984e+01    0.1634409     0.144493  66.22 0.0004934691    1.310    0.236
        50 -10.4587    146.4731      5.8385   1.0837052321e+01   4.7119015420e+01    0.2323574    0.1414217  52.10  0.001254878    1.480    0.324
        51  -9.2381     91.2828      6.6671   2.1940951832e+01   5.9734640726e+01    0.1138629   0.09720568 -68.92 0.0003118881    1.614    0.381
        52 -10.4084    120.8509      4.6241   1.4684483235e+01   5.3289594458e+01    0.2264295    0.1880694 -50.31 0.0008697598    1.435    0.303
        53 -10.5167    111.4854      4.4163   1.6438045820e+01   5.5461783703e+01    0.2570942    0.1673685  48.27  0.001107216    1.284    0.221
        54  -9.2341     97.6505      5.0217   1.9715880361e+01   5.8499655928e+01    0.1592764    0.1406753  40.32 0.0004802714    1.077    0.071
        55  -8.0816    183.5180      3.5835   5.6622870954e+00   3.8478133699e+01    0.3100568    0.1761763 -73.22  0.001038054    1.857    0.461
        56 -10.5435    187.0639      1.4541   4.7874337117e+00   3.7845322712e+01    0.4002839    0.1555831  77.48   0.00176998    2.355    0.575
        57  -9.4368     93.3170      3.8441   2.0308414403e+01   5.9531730888e+01    0.1528497    0.1053669   7.80            0    1.593    0.372
        58 -11.1665    217.1552      2.4080   2.3679101868e+00   3.0936763067e+01    0.3549182     0.186044  76.75  0.001818626    1.665    0.400
        59 -10.0177    207.3528      2.4541   3.1742847261e+00   3.3105417136e+01    0.1995482    0.1173565 -24.10  0.001103656    2.163    0.538
        60  -9.9016    143.2600      2.7062   1.0374477715e+01   4.8149415141e+01    0.1967066    0.1356503  81.50 0.0004781949    1.371    0.271
        61 -12.1446     86.0345      1.3857   2.1173223295e+01   6.1265783484e+01    0.4209776    0.1029979  57.00  0.001182763    3.235    0.691
        62 -10.1010    250.2524      1.4562   3.5988516311e+02   2.4131507463e+01    0.1395144   0.08590255 -80.53 0.0003260712    1.355    0.262
        63 -10.3061    180.7563    243.5847   6.1292951470e+01  -2.4285068970e+00     0.184825    0.1048065  41.47 0.0009541268    1.674    0.402
        64 -11.9909    210.7074     47.3023   1.3107923192e+01   2.7035607754e+01     0.536745     0.406204 -87.68    0.0021336    1.278    0.218
        65 -10.6585     88.3970    238.7969   7.9994024944e+01   1.2744909682e+01    0.1590603    0.1163743 -55.33 0.0002482458    1.599    0.375
        66 -11.9723    203.1820     32.6118   1.0529977811e+01   3.0704856907e+01    0.6018199    0.4184793  73.13    0.0014095    1.333    0.250
        67 -11.9207    195.9742     26.6557   9.9389484251e+00   3.3111041572e+01     1.042598    0.2428428  59.73   0.00367541    3.507    0.715
        68  -9.6166    101.1625    176.0161   6.8422361923e+01   2.4636789666e+01    0.1879402     0.177944 -89.11            0    1.032    0.031
        69  -9.4812    236.9239    145.9855   3.1695462087e+01   5.0988515257e+00    0.1646659    0.1423883 -28.37 0.0003821419    1.004    0.004
        70  -9.7998     96.6803    125.2013   5.9371991049e+01   3.7888528245e+01    0.2283397     0.131632 -44.95 0.0009376457    1.700    0.412
        71 -13.6126    194.7987     64.8897   1.9650667196e+01   2.8141283654e+01     1.227265    0.8245404 -80.99   0.00410317    1.816    0.449
        72 -12.8665    202.3208     59.6726   1.7216158630e+01   2.7180722519e+01    0.8638304    0.4268497 -54.68 0.0009085919    2.221    0.550
        73  -9.6887    152.7495    124.0357   4.3702320509e+01   2.6778593645e+01    0.2175684    0.1966507 -43.68 0.0003120346    1.094    0.086
        74 -12.2669    209.1197     58.4282   1.5962646538e+01   2.5800212843e+01    0.6423038    0.3790701 -71.99  0.002910421    2.115    0.527
        75 -11.6811    215.2429     41.9701   1.1321024104e+01   2.6734074783e+01    0.3288563    0.2451259  86.46 0.0005158209    1.270    0.213
        76 -12.9295    221.8869     38.8185   9.8661187969e+00   2.5670162657e+01    0.8961031    0.5272837 -79.17 0.0009875464    1.864    0.464
        77 -13.1767    177.7297     72.6189   2.4579069651e+01   3.0960955726e+01     2.216412    0.5854247 -40.09  0.006836109    3.549    0.718
        78 -11.9998    185.3212     92.2354   2.8324003604e+01   2.5727030345e+01    0.3522517    0.2810356 -53.01  0.001014663    1.242    0.195
        79 -10.7082    167.7348     89.9060   3.1239711425e+01   3.0293082520e+01    0.4370029    0.2294457  56.30  0.001046733    1.979    0.495
        80 -11.4784     96.4993     90.9498   5.0357477993e+01   4.5817132233e+01    0.5449882    0.4025461  48.21  0.001485915    1.471    0.320
        81 -10.3490     79.7101     90.9026   5.5866408304e+01   4.8795035792e+01    0.2334117    0.1891313 -12.23 0.0004468117    1.313    0.239
        82 -12.1858     48.2639     85.2779   6.5569421600e+01   5.4470488367e+01    0.3419134     0.244586  21.70  0.001582728    1.513    0.339
        83 -11.9075    238.1093     86.5623   1.8529675751e+01   1.5123003760e+01    0.5370083    0.2878105  67.06  0.001814329    2.247    0.555
        84 -11.3706    231.0305     83.5196   1.8804473154e+01   1.7069762508e+01    0.3582765    0.2466463 -87.81  0.001076026    1.793    0.442
        85 -11.8812    222.1730     88.4028   2.1177756446e+01   1.8130443712e+01    0.3574887    0.2400984  62.66  0.001604957    1.618    0.382
        86 -10.6124    225.8727     85.1930   1.9902231803e+01   1.7878751156e+01    0.2157448    0.1733743 -64.31  0.000681008    1.207    0.171
        87 -11.7983    161.3184     84.6176   3.1160231303e+01   3.2796645997e+01    0.8556214     0.518958  39.19  0.003613874    1.845    0.458
        88 -12.2390    168.4100     79.5495   2.8269426804e+01   3.2011680830e+01    0.5954953    0.4263788 -48.19   0.00130993    1.415    0.293
        89 -12.6666     72.3752     73.5645   5.3213031963e+01   5.3651219295e+01     1.159023    0.6621202  49.60  0.005067183    2.288    0.563
        90 -12.0223     85.4647     73.0261   4.8458240845e+01   5.1531603060e+01    0.6669894     0.466529  43.47  0.002477734    1.508    0.337
        91 -10.1219    220.2732    121.3890   2.9088710000e+01   1.2698401761e+01    0.2614228    0.1363809  45.42 0.0009738303    2.125    0.529
        92 -13.2688     66.9125     83.0560   5.8079587353e+01   5.2504716002e+01     1.034989    0.7281011  57.14  0.003216576    2.013    0.503
        93 -10.4986    181.8107    117.4432   3.5436307532e+01   2.1680131478e+01    0.5278479    0.1828038 -48.37  0.001619413    3.199    0.687
        94  -9.5295     73.0092    118.9779   6.5256747041e+01   4.3257530960e+01    0.1733184    0.1620231 -47.68            0    1.006    0.006
        95 -10.3240    203.7337    115.9248   3.0750978211e+01   1.7164166438e+01    0.4203588    0.2155434  65.22  0.001523201    2.986    0.665
        96  -9.6367    127.2765    114.6674   4.7881714697e+01   3.4384897736e+01    0.1571387    0.1268014 -84.30 0.0002156436    1.601    0.376
        97 -11.3774    137.5694    112.8148   4.4633103036e+01   3.2576824049e+01    0.5302749     0.262104  36.66  0.001913652    2.269    0.559
        98  -9.3934    242.4685    112.4084   2.3575098652e+01   9.9471295229e+00     0.134658    0.1179838 -43.43   6.4386e-05    1.015    0.015
        99  -9.7612    174.1693    111.2074   3.5484216732e+01   2.4655630013e+01    0.2252285    0.2048579   6.29 0.0002983359    1.216    0.177
       100 -12.9028     53.5088     69.6891   5.9086176190e+01   5.7174543164e+01     1.128324    0.6937545 -76.53  0.004242829    3.963    0.748
       101 -12.5223     60.6910     62.4030   5.3929628000e+01   5.7629699081e+01     1.082975    0.9098399 -78.71   0.00459137    1.825    0.452
       102 -13.3432     37.0698     54.5859   6.0989737609e+01   6.2120716323e+01    0.9205522    0.6797073  27.47   0.00228787    1.489    0.328
       103 -11.0324     62.9714    110.5060   6.6593788729e+01   4.6736593077e+01    0.2087283    0.1441413  28.47 0.0006921904    1.575    0.365
       104 -10.5737     38.3839    110.2073   7.4776564547e+01   4.9664440715e+01    0.1948028    0.1203544 -72.74 0.0006038581    1.662    0.398
       105 -11.1177    196.1275    107.9652   3.0239714707e+01   2.0334186290e+01    0.4232951    0.3125772 -56.94  0.001144556    1.425    0.298
       106 -13.1215     12.5990     37.6046   6.6581316621e+01   6.7489246129e+01    0.8716145    0.4512888  -3.14     0.001258    2.133    0.531
       107 -11.6781     18.7019     33.0480   6.1898226732e+01   6.7814742233e+01    0.3229514    0.2030062   9.79 0.0002705635    1.558    0.358
       108 -13.0624    192.0311     75.8393   2.2893922504e+01   2.7024164160e+01    0.6615487     0.656513  -6.66  0.001774381    1.130    0.115
       109 -11.5848    147.5651     83.1325   3.3850828371e+01   3.6335039131e+01    0.6886393    0.4284801 -41.89  0.002654902    1.626    0.385
       110 -11.7061    160.9141     54.1980   2.2601554197e+01   3.7950182558e+01    0.9912914    0.6223413 -32.72  0.004686418    1.703    0.413
       111  -9.6069    144.5707     56.3466   2.6561518711e+01   4.1601719284e+01      1.33549    0.8434494  25.91  0.005704025    2.203    0.546
       112 -12.9470     99.8904     79.5734   4.5835691229e+01   4.7515027913e+01     1.216537    0.7187136 -35.62  0.005332217    1.728    0.421
       113 -11.9933    145.0759     67.5253   2.9831732415e+01   3.9690024033e+01      0.97348    0.6700812   7.01  0.002730758    2.234    0.552
       114 -11.7201    154.3309     62.8683   2.6431318476e+01   3.8221041485e+01    0.7836539    0.4947756 -47.96  0.003587419    1.693    0.410
       115 -11.0435     87.9468     46.2776   3.8334057650e+01   5.5737151382e+01    0.2880012    0.2316473  17.27 0.0002932981    1.181    0.153
       116 -11.7780    134.8914     72.3326   3.3716028376e+01   4.1269431237e+01    0.9866738    0.7352991 -72.86  0.004535839    1.828    0.453
       117 -12.6815     96.1340     68.8725   4.3585600004e+01   5.0310062854e+01     1.269688    0.4159688 -45.87  0.004146327    3.394    0.705
       118 -12.2526     88.0792     64.8929   4.4885312727e+01   5.2589105284e+01    0.8499397    0.5403572  57.94  0.003786984    2.184    0.542
       119 -11.7316    123.9907     69.5652   3.5664308585e+01   4.4261940468e+01    0.5012779    0.3858054  79.23 0.0004659093    1.730    0.422
       120 -13.9967    116.7485     62.3648   3.5308098736e+01   4.7124265862e+01     1.157901    0.7841322  29.08  0.002474508    1.629    0.386
       121 -13.2222     80.0503     59.0097   4.5605983829e+01   5.5115036503e+01     1.217359    0.4626839  36.36  0.001744752    2.714    0.632
       122 -10.8851    191.6530    103.4333   2.9963000500e+01   2.2193208652e+01    0.5462088    0.2058681 -49.69  0.001770215    3.055    0.673
       123 -12.6366     81.7822     40.6421   3.8262588868e+01   5.7763764808e+01    0.5430064     0.362176  33.47  0.001695041    1.390    0.281
       124 -11.8958     75.4119     42.0177   4.1001243291e+01   5.8735795114e+01    0.4105616    0.3103187 -26.02  0.001081009    1.308    0.236
       125 -10.3019     30.9747     85.1844   7.2072114646e+01   5.6255262760e+01    0.2384563    0.1645013 -54.03  0.000673244    1.241    0.194
       126 -12.4750     83.3399     83.9985   5.2607570811e+01   4.9673560870e+01    0.2968628    0.2537007  24.64 0.0004185215    1.180    0.152
       127 -10.8860    250.4070     81.9402   1.5985202817e+01   1.3431621216e+01    0.2665047    0.1658863 -22.81 0.0008059577    2.123    0.529
       128 -11.7306    114.4179     80.9610   4.1888026116e+01   4.4254080304e+01    0.4736197    0.4243845  15.08  0.001410689    1.127    0.113
       129 -11.8977    221.9988     79.6644   1.9179543575e+01   1.9614669232e+01    0.4014925    0.2622248 -85.22  0.001909091    1.992    0.498
       130 -10.6012    232.5890     79.1652   1.7619609635e+01   1.7447546611e+01    0.3350168    0.1899994  76.10  0.001544361    2.261    0.558
       131 -12.0743    161.8095    107.1011   3.7161495579e+01   2.8316627323e+01    0.5489182    0.2946641 -55.78  0.002022352    2.321    0.569
       132 -10.2022    161.8506     77.3329   2.9007993161e+01   3.3976748943e+01    0.2287446    0.1842124  84.50 0.0008627588    1.418    0.295
       133 -10.5655    155.6718     76.5938   3.0123943889e+01   3.5590652432e+01    0.3603148    0.2696614  77.52  0.001142317    1.585    0.369
       134 -11.6388    249.8502     74.9639   1.4581975923e+01   1.4620873342e+01    0.2886172    0.2091006 -44.46 0.0004930132    1.193    0.161
       135 -11.0118    241.1381     71.8276   1.4934748969e+01   1.6837741003e+01    0.5437219    0.3181972 -55.47  0.002798468    1.607    0.378
       136  -9.2581    151.2597     72.6828   2.9966063752e+01   3.7331227155e+01    0.1480255    0.1155205 -70.91  0.000269088    1.541    0.351
       137 -10.3854    161.3720     67.8011   2.6408560260e+01   3.5712957067e+01    0.3337722    0.2724186 -41.22  0.001733777    1.253    0.202
       138 -11.5490    166.2152     64.7701   2.4593685347e+01   3.5028721768e+01    0.7362592    0.6439336  70.67  0.003144034    1.114    0.102
       139 -10.7585    249.3866     68.4173   1.3261337747e+01   1.5703947074e+01    0.3059809    0.2222141 -33.46  0.001628693    1.425    0.298
       140 -11.8794     75.9449     51.9986   4.4553454906e+01   5.7049443661e+01    0.3176607    0.2289948 -42.11 0.0003152797    1.497    0.332
       141 -11.3373      3.0481     48.3179   7.4478689624e+01   6.6030945079e+01    0.4118266    0.3331242 -80.50  0.002049337    1.658    0.397
       142 -12.6665      4.7678     56.1823   7.5757907165e+01   6.4355573640e+01    0.7324351    0.3362892 -36.75  0.002776321    1.807    0.446
       143 -10.8681      9.5125     55.4816   7.3464927325e+01   6.4235575742e+01    0.2557095    0.1525568 -31.49 0.0009632497    1.436    0.304
       144 -12.3250    128.0759     58.1411   3.0969223588e+01   4.5235418333e+01    0.4698651    0.2971916  36.65  0.002141781    1.664    0.399
       145 -10.8454     99.6043     47.2991   3.5062102929e+01   5.3221741405e+01    0.3494296    0.2626235  14.53  0.001275398    1.431    0.301
       146 -10.7450    100.8512     54.1184   3.7098173196e+01   5.1904189210e+01     1.027012    0.6017429  54.32   0.00465168    1.866    0.464
       147 -10.1610    107.3096     53.6390   3.5029696815e+01   5.0610526898e+01    0.2350519    0.1741356  77.01 0.0008801659    1.970    0.492
       148 -11.0774    174.7665     55.6127   2.0497424829e+01   3.4360377659e+01    0.3402358    0.2129924 -55.22 0.0006402242    1.747    0.427
       149 -10.1662    170.4691     56.2328   2.1420210554e+01   3.5314274452e+01     0.279407    0.2003867  71.14 0.0007271089    1.399    0.285
       150 -10.5399     69.9116     55.3152   4.7957773374e+01   5.7504480922e+01    0.2765294     0.244842  50.90  0.001408139    1.435    0.303
       151 -10.5390    136.1550     52.8410   2.7351543714e+01   4.4148048333e+01    0.4304927     0.199958  58.68   0.00170388    2.145    0.534
       152 -11.4562     90.4487     51.1032   3.9281084031e+01   5.4493908337e+01     0.233892    0.2010304  29.11  0.001340596    1.088    0.081
       153 -10.0191    248.0275     47.0000   8.9644068164e+00   1.9047301138e+01    0.2441413     0.150204  78.10 0.0008425046    1.683    0.406
       154 -11.0672    245.3476     50.0570   9.8569442960e+00   1.9167320102e+01    0.2396053    0.1905181 -84.52 -0.000275831    1.184    0.156
       155 -11.3646     21.0490     37.6791   6.2457058733e+01   6.6802057944e+01    0.2348732    0.1499003 -26.31 0.0002301324    1.308    0.235
       156  -9.9132    167.5683     41.9854   1.7948408314e+01   3.8033703166e+01    0.2519625    0.1722779 -40.32 0.0007565443    1.520    0.342
       157 -12.3578    173.0644     44.6652   1.7787482228e+01   3.6331658221e+01    0.6697816    0.4559086  30.47  0.001997331    1.986    0.496
       158 -11.5547    178.0188     37.6011   1.5108214629e+01   3.6057975247e+01    0.3165441    0.2572071   9.15 0.0008093548    1.667    0.400
       159  -9.4717    133.2152     39.9523   2.3894474998e+01   4.6652576656e+01    0.8065028    0.4851226 -85.48   0.00310705    3.138    0.681
       160 -11.4200    144.2926     45.3151   2.3238171997e+01   4.3269442337e+01    0.6331078    0.3588718  49.95  0.002162581    1.637    0.389
       161 -12.5884    148.9526     40.6542   2.0889450976e+01   4.2762105650e+01    0.6038482    0.3562342 -43.55  0.002855262    1.828    0.453
       162 -10.6051    126.2625     44.1093   2.6835946199e+01   4.7737418486e+01    0.4220505    0.2610939 -46.43  0.001986133    1.870    0.465
       163 -10.8572     41.0202     44.6858   5.5786631216e+01   6.3490942221e+01    0.3022587    0.2637835  24.73  0.001984485    1.351    0.260
       164 -10.9002     38.9034     40.1078   5.5002033030e+01   6.4534309340e+01    0.6654599    0.3280949  11.87  0.003002085    2.656    0.624
       165  -9.8493    121.0479     44.7738   2.8323536750e+01   4.8855939495e+01    0.2783699    0.1680665 -59.11  0.001008677    2.545    0.607
       166 -10.7974     93.5915     43.1075   3.5368306270e+01   5.5081507242e+01    0.3309126    0.2356022 -12.82  0.001149621    1.534    0.348
       167 -11.0593    246.7994     41.9878   8.0556930606e+00   1.9972498217e+01    0.3208018    0.1857173 -67.36  0.001480578    1.690    0.408
       168  -9.8623    105.1737     43.1872   3.1975496966e+01   5.2632308331e+01    0.1798055    0.1627666  72.07 0.0006670122    1.307    0.235
       169 -10.0581    100.2978     41.3482   3.2709714835e+01   5.3936217540e+01    0.3027542    0.2337247   6.03  0.001644506    1.394    0.282
       170 -10.5493    240.7074     40.5750   8.3381528088e+00   2.1408147951e+01    0.2711999    0.1874148  50.87 0.0004940654    1.840    0.456
       171 -11.0477    234.3180     37.1735   8.2384932473e+00   2.3194700568e+01    0.4565394    0.2157711 -64.04  0.001863201    2.351    0.575
       172 -10.0580    168.5642     36.4915   1.6255026045e+01   3.8500651853e+01    0.2322344     0.198296 -31.78 0.0006913976    1.302    0.232
       173 -10.7746    169.3495     32.7839   1.5106551508e+01   3.8768178989e+01    0.4374305    0.2283181  66.06  0.001955741    1.752    0.429
       174 -11.2040    161.1702     40.6148   1.8646842034e+01   3.9780255174e+01    0.4942148    0.2287567  44.36  0.001848354    2.414    0.586
       175 -12.0064    160.8623     36.4656   1.7508021016e+01   4.0387499639e+01    0.5410781    0.3212164  47.96  0.002602181    1.681    0.405
       176  -9.9965    250.2656     36.8492   6.7068633676e+00   1.9952112827e+01    0.2992335    0.1532017 -39.28 0.0008063182    1.767    0.434
       177 -10.3909    249.6373     93.9556   1.8624808371e+01   1.1663211263e+01    0.2789941     0.193956 -54.79 0.0009031927    1.327    0.246
       178 -10.3114    134.2786     35.7021   2.2296068741e+01   4.6940988280e+01    0.2074696    0.1835087  87.14 0.0001920415    1.221    0.181
       179 -10.4985    131.3775     33.2197   2.2105779543e+01   4.7937824643e+01    0.3147469    0.1948648 -49.71  0.001013641    1.949    0.487
       180  -8.1760    104.2989     27.2869   2.6445124393e+01   5.4861575610e+01    0.1942816    0.1278518 -17.41 0.0006395642    1.703    0.413
       181 -10.9231    114.5368     28.0007   2.4136562447e+01   5.2483621913e+01    0.2507543    0.1795618  36.56 0.0001784985    1.325    0.245
       182  -9.5381    110.0087     36.0384   2.8116093964e+01   5.2530651834e+01    0.1934698    0.1813236  51.81 0.0006210387    1.121    0.108
       183  99.0000    112.1880     32.5553   2.6321417154e+01   5.2477563865e+01    0.7350062    0.3155687  61.18  0.002904338    2.535    0.606
       184 -11.5958    122.6198     33.4725   2.4128133006e+01   4.9970859839e+01    0.3203247    0.2172201 -44.46 0.0005262005    1.700    0.412
       185 -10.3695    123.7666     26.7440   2.1594293394e+01   5.0489805377e+01    0.4219784    0.2536836 -41.98  0.002093623    1.912    0.477
       186 -11.1600     92.3894     33.7544   3.2230626027e+01   5.6611132535e+01    0.3394347    0.2368066  31.05  0.001242172    1.341    0.254
       187 -10.6319     75.0263     33.8318   3.7924781824e+01   5.9985939741e+01    0.2466887    0.1900873  32.85 0.0006487469    1.183    0.154
       188  -9.6844    250.4675     49.4924   9.2392308967e+00   1.8216501950e+01    0.2061764    0.1682461 -61.93  0.000778781    1.019    0.019
       189 -11.8359    222.9295     29.9956   7.8063540321e+00   2.6567711141e+01     1.463109      0.47836  75.80  0.005440964    3.620    0.724
       190 -10.3358    217.5718    108.0417   2.6466414401e+01   1.5680874593e+01    0.2512486    0.1996982  81.03 0.0006665355    1.511    0.338
       191 -11.1789    152.9257    108.1708   3.9533208936e+01   3.0130116625e+01    0.2402379    0.2353881 -70.67 0.0004883953    1.042    0.040
       192 -10.1823    210.1359    105.6401   2.7156364585e+01   1.7696589110e+01    0.2609656    0.2278047 -76.45 0.0009976535    1.232    0.188
       193 -11.0034    144.3249    103.5073   4.0385893244e+01   3.3057838254e+01    0.3707699    0.2940933 -31.18  0.001022081    1.315    0.240
       194 -14.3373    131.9441     97.4844   4.1906958551e+01   3.7093714171e+01     1.966219     1.781803  31.94  0.008097823    1.111    0.100
       195 -11.4126    141.0553     95.9044   3.9095059320e+01   3.5363839906e+01    0.5302817    0.4266497  79.97  0.001691194    1.547    0.354
       196 -11.9319    131.8017     88.5091   3.9356524123e+01   3.8946352029e+01    0.7075914     0.315519 -39.17  0.002578697    2.292    0.564
       197 -10.0684    239.3435     30.3690   6.3508369649e+00   2.3008567241e+01     0.421305    0.2123402  68.10  0.002247073    1.952    0.488
       198  -9.2165    154.3460     30.2650   1.6811090916e+01   4.2734047575e+01    0.1406513    0.0941342  41.00  0.000698121    1.607    0.378
       199 -11.1023     86.3343     28.6204   3.2101841446e+01   5.8489650487e+01    0.6062355    0.2137894  40.93   0.00228452    2.646    0.622
       200  -9.5142     90.4811     26.9406   3.0178786511e+01   5.7849116883e+01    0.1671383    0.1272606 -19.90 0.0003208732    1.383    0.277
       201 -12.7007    243.6201     61.0638   1.2347484774e+01   1.7947377133e+01    0.7685041    0.6890556  28.05  0.004427061    1.553    0.356
       202  -9.7387    162.7833     29.0787   1.5089229864e+01   4.0812070264e+01    0.2028552    0.1634014 -75.74 0.0005554373    1.286    0.222
       203 -10.0697    168.2302     26.5807   1.3564863652e+01   3.9772599163e+01    0.2840073     0.190116 -74.68  0.001453604    1.687    0.407
       204 -11.5274    136.7533     87.7733   3.7856392807e+01   3.7965196370e+01    0.6048049    0.5714883 -84.29  0.003216454    1.146    0.128
       205  -8.9865    159.3378     26.2953   1.4839160139e+01   4.1972215117e+01    0.1392999   0.09395251  40.16 0.0003001916    1.652    0.395
       206  -9.9798    150.9907     20.6624   1.4533373937e+01   4.4617510790e+01    0.1931541    0.1542781  68.84  0.001126321    1.104    0.094
       207  -9.7863    144.6567     26.3270   1.7322673760e+01   4.5543166826e+01    0.2732564    0.1436004 -82.97 0.0009521524    3.802    0.737
       208 -10.4743    148.4022     24.3298   1.6059269745e+01   4.4854266019e+01    0.2992158    0.2107132  40.39  0.001055808    1.494    0.331
       209 -10.4225    135.6992     25.0349   1.8585329725e+01   4.7846791094e+01    0.2644183    0.2041012   7.14  0.001465939    1.581    0.367
       210 -10.7433     20.6114     25.2595   5.7840132948e+01   6.8932607472e+01    0.3564459    0.2407036  28.43  0.002295929    1.678    0.404
       211 -10.8805    234.3498     24.2177   5.5176756067e+00   2.4812328466e+01     0.328939    0.2261123  78.73  0.001464495    1.364    0.267
       212 -11.7509    127.7799     89.8076   4.0810806875e+01   3.9587963193e+01    0.4800002    0.3203202  49.84 0.0009702195    1.518    0.341
       213 -10.9383    247.1426     22.6217   4.1440261700e+00   2.2360011425e+01    0.2084027    0.1540873  82.82  0.001388353    1.285    0.222
       214 -12.9436    121.6232     87.7602   4.1898042136e+01   4.1353901154e+01     1.470519     0.698732  53.95  0.005327626    2.453    0.592
       215  -9.3190    153.2928     25.2574   1.5513747942e+01   4.3562181388e+01    0.1322704   0.09319256  41.95 0.0001833576    1.493    0.330
       216 -10.6566    114.1995     23.3662   2.2581302059e+01   5.3075379368e+01    0.2775233    0.2257317  30.86 0.0007888298    1.186    0.157
       217  -9.2990    103.3626     19.2262   2.3698616411e+01   5.5945210163e+01    0.1988992    0.1221309 -21.66 0.0003091914    1.815    0.449
       218  -9.8478    102.7017     23.3166   2.5391594139e+01   5.5657990309e+01    0.1925922    0.1324226 -29.70  0.000563102    1.606    0.377
       219 -10.3700     98.6494     21.9620   2.5951060174e+01   5.6687057768e+01    0.3598933    0.1898098  44.68  0.000919356    1.635    0.388
       220  -9.9032    119.2240     21.9030   2.0934304124e+01   5.2073623919e+01    0.1904543    0.1721825  87.29 0.0007281942    1.246    0.197
       221  -9.6455    163.3864     20.7500   1.2655770100e+01   4.1594712478e+01    0.1430719    0.1309496 -11.70 0.0002432047    1.316    0.240
       222  -9.6566    123.9770     20.7495   1.9525015678e+01   5.1084433951e+01    0.1819836    0.1506734  60.47 0.0003272718    1.097    0.089
       223 -10.7452    130.2247     19.2813   1.7783105755e+01   4.9758690320e+01     0.238295    0.1795983  63.06 0.0003757867    1.182    0.154
       224 -10.4733     20.2441     19.3719   5.5501593513e+01   6.9878185845e+01     0.191913    0.1716664 -52.94  0.001359092    1.820    0.451
       225 -11.8007    124.1127     84.8709   4.0345632804e+01   4.1381435198e+01    0.5633743    0.4283109   0.40  0.002131226    1.686    0.407
       226 -10.9487    193.7120     17.5059   7.9737097495e+00   3.4680501770e+01    0.2647601    0.1723917 -64.79 0.0007541474    1.515    0.340
       227  -9.6756    138.9914     17.9237   1.5727806849e+01   4.7798995531e+01    0.1467809    0.1396779 -18.99 0.0003457801    1.207    0.171
       228 -10.1250    121.9056     17.0437   1.8697670288e+01   5.1941185708e+01    0.2324343    0.1674249  49.91 0.0004075798    1.198    0.165
       229 -10.8109     93.6584     16.2053   2.5077228488e+01   5.8353012613e+01    0.3646298    0.1572061  42.53  0.001235025    2.026    0.506
       230  -9.7152    153.9884     16.1787   1.2748951414e+01   4.4348082329e+01    0.2265981    0.1202834  45.89  0.001074218    1.928    0.481
       231 -12.1700    136.8883     81.0090   3.5830746391e+01   3.9227438589e+01    0.6092789    0.4626029  50.61  0.001840632    1.299    0.230
       232  -9.5435     11.0682     14.2490   5.8172722211e+01   7.1491877649e+01    0.1670097   0.09329744  -7.34 0.0002549284    1.715    0.417
       233  -9.1785     14.3860     13.2637   5.5880131262e+01   7.1340856864e+01    0.1818071    0.0885326  10.88  0.000634689    2.148    0.535
       234 -11.6208    132.9700     77.4946   3.5770807721e+01   4.0784009175e+01    0.4296802    0.2815201  58.65 0.0003200179    1.648    0.393
       235  -9.2504    159.9733     13.7744   1.1189490821e+01   4.3135817651e+01    0.1597328   0.09453284  67.74 0.0002127648    1.454    0.312
       236 -12.1781     75.4511    103.1913   6.0641176033e+01   4.6678621645e+01    0.4051367     0.264296 -74.55 0.0007417687    2.201    0.546
       237 -11.2647     96.2287    102.0673   5.3600199266e+01   4.3416107779e+01    0.3992113    0.2045549 -44.70  0.001591857    1.887    0.470
       238  -9.3922     33.5761     13.4497   4.6033811693e+01   6.9177445973e+01    0.1199034   0.09035856   0.10 0.0001371334    1.027    0.026
       239  -9.4087    141.4557     13.0379   1.3791555089e+01   4.7679046012e+01    0.1725687    0.1318731 -23.98  0.001006152    1.523    0.343
       240 -10.6389    165.0563    102.0009   3.5074819826e+01   2.8591568196e+01    0.2407226    0.2350543 -53.92 0.0007346345    1.012    0.011
       241 -10.1402    244.5492     97.9667   2.0154280178e+01   1.1980430841e+01    0.2116705    0.1153781 -40.04 0.0006755158    1.582    0.368
       242 -11.9377    158.9659     99.0177   3.5647216290e+01   3.0599861198e+01    0.7846803    0.3290534  38.47 0.0003420513    3.048    0.672
       243 -12.4707    156.5247     95.7299   3.5310040686e+01   3.1818104029e+01     1.042823    0.4447778  44.20  0.002377749    2.436    0.589
       244 -11.1570     34.0105    100.5215   7.4335205457e+01   5.2412152966e+01    0.2569221    0.1758927 -59.81 -3.816012e-05    1.272    0.214
       245  -9.5957    212.1732     11.3889   4.7267455194e+00   3.1108447691e+01    0.1721744   0.09855209 -88.98 0.0009238247    1.647    0.393
       246 -10.1285     89.2848     93.9277   5.3543463022e+01   4.6489813692e+01    0.2105762    0.1794968 -35.06 0.0003143707    1.121    0.108
       247 -12.6512     86.8630     98.4869   5.5613403499e+01   4.5895640633e+01     0.666587    0.4147331  24.43  0.002915273    1.856    0.461
       248 -11.8370    225.7480     97.5705   2.2752814870e+01   1.5816403800e+01    0.3912998    0.2300603 -51.39   0.00116348    1.650    0.394
       249 -10.9290    169.9081     97.6015   3.2845600252e+01   2.8320979190e+01    0.4822797    0.3539625  80.85  0.002155246    1.770    0.435
       250 -12.3773    116.7539     93.1846   4.4878088387e+01   4.1286555894e+01    0.4972389    0.4182169  15.18  0.002362926    1.294    0.227
       251 -11.6376    102.1614     96.1472   5.0091451581e+01   4.3611375266e+01    0.3849845     0.307593 -15.08   0.00141618    1.402    0.287
       252 -12.4139    106.8643     96.6487   4.8799225706e+01   4.2578668526e+01    0.5237011    0.3560195 -25.49  0.001394235    1.723    0.420
       253 -12.0682    107.8653     92.5270   4.7303563459e+01   4.3261235470e+01    0.5421354    0.2697633  39.47  0.001590026    2.046    0.511
       254 -12.9315     56.6705     94.9200   6.4997105199e+01   5.1252260129e+01    0.4670339    0.3689328 -75.24 0.0007077867    1.516    0.340
       255 -13.3275     61.7490     90.8867   6.2131477820e+01   5.1504788263e+01    0.8670338    0.3514767 -55.55  0.003318192    2.448    0.592
       256 -12.1072     57.9215     89.0645   6.3019846977e+01   5.2427630617e+01    0.3416141    0.2595687 -38.47 0.0009220281    1.190    0.160
       257 -12.4533     48.5513     95.7215   6.8094660472e+01   5.2047569016e+01    0.3880102    0.3127408 -29.57   0.00220775    1.195    0.163
       258 -11.6756     11.9987     97.3038   8.1441796938e+01   5.4850607717e+01    0.2933123    0.2028586 -49.35 0.0009617463    1.205    0.170
       259 -11.4612     13.5181     93.5523   8.0247363919e+01   5.5634386734e+01    0.2046618    0.2035972  -7.97 0.0004865501    1.227    0.185
       260 -13.9327    194.9614     89.3755   2.5823030281e+01   2.4011293459e+01     1.617094     1.311585  80.89  0.008410187    1.351    0.260
       261 -13.9952    201.1188     76.8211   2.1642996757e+01   2.4747657187e+01     2.104919     1.139087  80.49  0.007513511    2.909    0.656
       262 -11.2255    113.3946    246.6143   7.5665159432e+01   7.5364837063e+00    0.3512001    0.2483372 -29.68  0.001500854    2.058    0.514
       263 -12.5101    210.1319     77.2585   2.0347205565e+01   2.2624902271e+01    0.5923651    0.3922253 -89.29 0.0002044455    1.926    0.481
       264 -10.9726     36.2572    248.8870   9.1166870385e+01   1.7557841449e+01    0.2129242    0.1297127 -75.93  0.001354412    1.627    0.385
       265 -12.4077    185.1708     58.3456   1.9494733227e+01   3.1436297259e+01     0.820738     0.432385 -63.64  0.003189661    2.690    0.628
