#   1 NUMBER                 Running object number                                     
#   2 MAG_AUTO               Kron-like elliptical aperture magnitude                    [mag]
#   3 X_IMAGE                Object position along x                                    [pixel]
#   4 Y_IMAGE                Object position along y                                    [pixel]
#   5 X_WORLD                Barycenter position along world x axis                     [deg]
#   6 Y_WORLD                Barycenter position along world y axis                     [deg]
#   7 A_WORLD                Profile RMS along major axis (world units)                 [deg]
#   8 B_WORLD                Profile RMS along minor axis (world units)                 [deg]
#   9 THETA_WORLD            Position angle (CCW/world-x)                               [deg]
#  10 FWHM_WORLD             FWHM assuming a gaussian core                              [deg]
#  11 ELONGATION             A_IMAGE/B_IMAGE                                           
#  12 ELLIPTICITY            1 - B_IMAGE/A_IMAGE                                       
         1 -14.6008     68.4189    144.2651   1.0121842385e+02   3.7230813183e+01     5.011421     2.326623  67.52  0.006781787    3.858    0.741
         2 -14.5567    204.0395     38.9352   4.2801597738e+01   2.9698034752e+01     2.109093     1.472403  28.74   0.01070338    1.989    0.497
         3 -14.0403    221.3432     22.7652   3.6928500838e+01   2.7742525037e+01    0.9328757    0.8744067 -14.35  0.002691815    1.254    0.203
         4 -12.2150    246.3265      2.9961   3.0639303963e+01   2.4597207791e+01    0.4662189    0.3274983  60.51  0.002461795    1.776    0.437
         5 -12.1183    242.1685      2.3792   3.0693190937e+01   2.5483557929e+01    0.3823903    0.2255486  85.39  0.001783399    1.798    0.444
         6 -10.6341     50.9607      3.7715   6.1040808271e+01   7.1211525000e+01    0.3139692     0.221509  73.75  0.001101623    2.103    0.524
         7 -10.1633     46.3613      1.7117   6.1820396463e+01   7.2363550019e+01    0.2165398    0.1751955  56.11 0.0007740241    1.415    0.294
         8 -10.0717      2.0000      3.4825   9.5508997373e+01   7.8219223996e+01      0.26812   0.05896663 -58.48 0.0009458586    4.025    0.752
         9  -9.3973     79.4385    182.7640   1.0334329710e+02   2.6896559077e+01    0.2273639    0.1275524 -75.12  0.001110951    2.043    0.510
        10 -14.1759      4.8698    183.7374   1.2146824749e+02   3.4718081881e+01     1.847668    0.6386168 -80.63  0.008748651    2.628    0.620
        11 -15.3674      6.2267    143.5849   1.1926428174e+02   4.3843902795e+01     4.679253     1.496607  89.70   0.01601233    3.023    0.669
        12 -16.2129      7.7453    241.0119   1.2265066903e+02   2.3366463890e+01      4.72978     2.825487  14.53   0.03060569    2.360    0.576
        13 -13.4574     36.0742    203.2445   1.1531824123e+02   2.7758164804e+01    0.5547082    0.4811786 -33.26  0.001297599    1.633    0.388
        14 -15.2227     46.2130    192.9660   1.1230249726e+02   2.8804176475e+01     2.644915     1.410416  68.92   0.01140257    1.904    0.475
        15  -9.6577     99.3375    180.7046   9.8256134006e+01   2.4514134518e+01     0.219023    0.1818964  57.97 0.0006357419    1.160    0.138
        16 -10.1271    143.8755    178.8982   8.7700637311e+01   1.7912087807e+01    0.2082043    0.1748299   5.19  0.001233323    1.244    0.196
        17  -9.5387     72.6213    172.5159   1.0383733539e+02   3.0049688791e+01    0.1952757    0.1709663  62.42 9.054261e-05    1.020    0.020
        18 -12.1587     63.3188    176.3648   1.0663457222e+02   3.0394555499e+01    0.4133129    0.3338719 -25.14  0.001692622    1.701    0.412
        19 -12.0507     68.2365    171.2971   1.0481822047e+02   3.0901335129e+01    0.3071287    0.2667679  -7.14 0.0008213267    1.496    0.332
        20  -9.4505    149.4550    177.2195   8.6203404297e+01   1.7312108204e+01    0.1619237    0.1307542 -61.06 0.0003333756    1.520    0.342
        21  -9.8110    197.0291    174.6696   7.6241113763e+01   1.0080875029e+01    0.2189388    0.1888174 -56.65  0.001369933    1.635    0.388
        22  -9.7502    187.7872    173.5845   7.7762685937e+01   1.1705346147e+01    0.2588054    0.1499588 -59.35  0.001083866    3.436    0.709
        23 -12.7390     84.9247    155.3032   9.8271051447e+01   3.2237498203e+01     1.231822    0.7395582 -55.60  0.003128686    1.711    0.416
        24 -13.5552     65.0410    157.7351   1.0401925836e+02   3.4449938136e+01    0.5328437    0.4360988 -53.16  0.001323444    1.353    0.261
        25 -12.2508     77.6555    161.8340   1.0116005671e+02   3.1781959701e+01    0.4866435    0.3947031  58.70 0.0004366317    1.154    0.133
        26 -11.2832    192.4490    193.7778   8.0437776746e+01   7.9365822432e+00    0.8095089    0.4327911 -59.68  0.002764579    6.480    0.846
        27 -11.7115     32.4148    155.9415   1.1281685726e+02   3.8632493535e+01    0.4598917    0.2968405  31.31  0.002544363    1.578    0.366
        28 -10.2159    174.3398    148.8012   7.5554348854e+01   1.8156914493e+01    0.2757285    0.2505909 -86.64 0.0008595852    1.450    0.310
        29 -10.8904    133.4697    143.7321   8.3606228217e+01   2.6647932061e+01     1.024984    0.2729449 -54.96  0.002531561    6.131    0.837
        30 -11.7152     54.4921    147.2091   1.0564979518e+02   3.8317810014e+01    0.4484404    0.2703142 -71.27  0.002229167    1.596    0.373
        31 -10.6271     32.2392    144.0264   1.1177590064e+02   4.1553022118e+01    0.4034655    0.2400376  60.70  0.002067706    1.609    0.378
        32 -12.3863     86.9768    140.1590   9.5219585730e+01   3.5489314278e+01     0.291632    0.2591033 -50.23 0.0004053811    1.193    0.162
        33 -10.9990    107.4673    130.7502   8.7641326759e+01   3.4254810528e+01    0.6312705    0.3319643  35.49  0.002604899    1.969    0.492
        34 -10.6904     99.9736    140.3467   9.1618168997e+01   3.3331294824e+01    0.5485946    0.3527146 -21.04  0.002223582    2.650    0.623
        35 -10.5591    135.7572    128.3346   7.9715064788e+01   2.9461096985e+01    0.4214998    0.1926097 -49.33  0.001616363    2.239    0.553
        36  -9.6272    146.5156    172.0047   8.5942608159e+01   1.8754581071e+01    0.1769025     0.122294 -78.26 0.0008097956    2.498    0.600
        37 -11.3076     96.9214    126.7474   8.9783322040e+01   3.7052657920e+01    0.3037888    0.2706394  -8.76 0.0005973727    1.332    0.249
        38 -11.4763     44.0297    123.1975   1.0564290690e+02   4.5582739484e+01    0.3231432    0.1932247 -71.50  0.001077418    1.539    0.350
        39  -9.5611    135.0000    120.0083   7.7951194582e+01   3.1378695060e+01    0.2500086   0.08447456 -46.02  0.000641593    2.933    0.659
        40  -9.8608    106.8702    119.1368   8.5253291694e+01   3.7058543193e+01     0.211574    0.2068063  87.24 0.0003122683    1.006    0.006
        41 -13.8598     19.6937    219.8391   1.1963909733e+02   2.6109294700e+01    0.7097681    0.4983455  40.58  0.003152672    1.239    0.193
        42  -9.2873     82.9510    117.0484   9.1945409262e+01   4.1762112118e+01    0.2423044    0.1717808  71.72 0.0007375673    1.712    0.416
        43  -9.1948    168.0221    113.0371   6.8701821002e+01   2.5956491798e+01    0.2316009    0.1833225 -79.04  0.001127046    1.719    0.418
        44  -9.6270    135.0000    112.4763   7.6092623276e+01   3.2978692473e+01    0.3367067   0.08505604 -45.08 0.0009298198    3.895    0.743
        45  -9.9847    205.4148    110.1819   6.1104218969e+01   1.8879921629e+01    0.2786875    0.1947521  36.91  0.001028016    1.584    0.369
        46 -10.3923     59.9495    197.3213   1.0945187731e+02   2.6319254521e+01    0.1917953    0.1588469  80.12 0.0009968533    1.173    0.147
        47 -15.2623      9.5703    207.3613   1.2127898519e+02   2.9434794572e+01     2.388145     1.312742 -45.77   0.01118346    3.004    0.667
        48 -11.9815    241.4825     99.9551   5.3538837851e+01   1.3732163239e+01    0.3419271    0.1877492 -27.55  0.001090207    1.571    0.363
        49  -8.5761    164.6771     97.2896   6.5314079005e+01   2.9610376745e+01    0.1484988    0.1171939 -75.39 0.0002883821    1.607    0.378
        50  -8.9393     31.5017     95.5025   1.0581115302e+02   5.4073692169e+01    0.1395957    0.1231846 -78.49 2.177931e-05    1.008    0.008
        51 -10.1410     41.7991     91.5492   1.0104703877e+02   5.4032123584e+01    0.2786244    0.2118391 -61.87 0.0006774605    1.187    0.157
        52 -10.2768     52.9579     91.0045   9.6584354914e+01   5.2808419710e+01    0.2286397    0.2075762 -73.31  0.000585159    1.027    0.026
        53 -15.9971     42.2410    249.3740   1.1650448891e+02   1.8669548317e+01     10.40303     3.082716  21.86   0.02488947   13.270    0.925
        54  -9.3223    120.6884     98.6892   7.6196542312e+01   3.8947363811e+01    0.1543578     0.123681  -3.62 0.0003398848    1.627    0.385
        55  -9.4559     72.7826     83.6756   8.7207308053e+01   5.1667908922e+01    0.2981833     0.200508  70.51  0.000952947    2.096    0.523
        56  -9.2320    159.8134     82.3801   6.2150443277e+01   3.3443228044e+01     0.205841    0.1392005  42.53 0.0005208443    1.606    0.377
        57 -11.1902    242.9162     77.8247   4.8324094691e+01   1.6498951631e+01    0.2121309    0.1525877  46.30  0.001261146    1.682    0.405
        58  -9.5100    136.3288    166.5400   8.7273242972e+01   2.1507833127e+01    0.3329862    0.1806213  54.63   0.00140881    2.369    0.578
        59  -9.1092     92.2627     66.4435   7.4806111818e+01   5.1942233156e+01    0.2072248    0.1465239  58.39 0.0008610228    1.605    0.377
        60  -9.5467     48.8029     62.8188   9.0712771659e+01   6.0361858386e+01    0.2000218    0.1788596 -39.04 0.0003442948    1.075    0.070
        61 -10.5881     13.5018     60.0226   1.0713977843e+02   6.4620765817e+01    0.2481095    0.2072957 -71.22 0.0004461875    1.072    0.067
        62  -9.5783    173.2317    242.2875   9.1015104930e+01   3.9621580514e+00    0.1766657    0.1522114 -64.02  0.000933582    1.902    0.474
        63  -9.5356    137.0066     43.0404   5.4144853094e+01   4.5640144810e+01    0.2364234    0.1700793 -66.10 0.0004224515    1.607    0.378
        64 -10.4179    139.1058     37.0926   5.1577893518e+01   4.5972500037e+01    0.4269255    0.2613798 -70.89  0.001750365    2.213    0.548
        65 -12.2698    215.0966     29.1538   3.9097975479e+01   2.8389785053e+01    0.3729291    0.3050808  23.57  0.001084503    1.602    0.376
        66  -9.3794    171.3116    238.6841   9.0907847162e+01   4.6616007352e+00    0.1676815    0.1394896  28.52  0.001268068    1.212    0.175
        67  -9.7213    189.5104     15.0517   3.7485274869e+01   3.5900828883e+01    0.2023744    0.1240636 -28.98 0.0006312237    1.552    0.356
        68 -10.8803     64.7951    223.9088   1.1050413793e+02   2.0604189852e+01    0.2339384    0.1458371  87.32  0.001159615    1.826    0.452
        69 -10.7375     59.2196    220.6545   1.1144035459e+02   2.1845216273e+01    0.2707502    0.2384857  12.08  0.001347708    1.438    0.305
        70 -10.5908    109.5858    201.0043   9.8527645578e+01   1.9034428960e+01    0.2460267    0.2013749 -83.96 0.0009106459    1.457    0.314
        71 -13.8172     58.0498    241.6199   1.1305528660e+02   1.8275687206e+01    0.8598217    0.5960032  80.83  0.004208929    1.533    0.347
