#   1 NUMBER                 Running object number                                     
#   2 MAG_AUTO               Kron-like elliptical aperture magnitude                    [mag]
#   3 X_IMAGE                Object position along x                                    [pixel]
#   4 Y_IMAGE                Object position along y                                    [pixel]
#   5 X_WORLD                Barycenter position along world x axis                     [deg]
#   6 Y_WORLD                Barycenter position along world y axis                     [deg]
#   7 A_WORLD                Profile RMS along major axis (world units)                 [deg]
#   8 B_WORLD                Profile RMS along minor axis (world units)                 [deg]
#   9 THETA_WORLD            Position angle (CCW/world-x)                               [deg]
#  10 FWHM_WORLD             FWHM assuming a gaussian core                              [deg]
#  11 ELONGATION             A_IMAGE/B_IMAGE                                           
#  12 ELLIPTICITY            1 - B_IMAGE/A_IMAGE                                       
         1 -13.3483    216.2236     47.5942   7.6964910353e-01   2.5645584605e+01    0.7830189    0.6652516  44.74  0.001320453    1.530    0.346
         2 -12.9326    244.7462     25.3471   3.5370333975e+02   2.2737247665e+01    0.8256793    0.5937086 -47.14  0.004573322    1.067    0.063
         3 -10.8291      2.1125     24.3131   6.5060135341e+01   7.5428011734e+01     0.435214     0.138001 -63.99  0.001792241    2.685    0.628
         4 -10.6523      2.0684      7.8733   5.7800927107e+01   7.8945205468e+01    0.4886632    0.1124705 -58.77  0.001828233    3.648    0.726
         5  -8.9182    125.1839    238.8419   5.6035704571e+01   9.1640322210e+00    0.1596973     0.124805  -0.78 0.0004603916    1.350    0.259
         6  -9.1548    101.0508    250.3678   6.2422393182e+01   1.0324565504e+01    0.1681188    0.1181065  32.26 0.0005381373    1.073    0.068
         7  -9.6825     75.2124    249.5804   6.7972179018e+01   1.3540066984e+01    0.2990048    0.1462031 -56.55   0.00164448    2.599    0.615
         8  -8.7214     76.2838    244.3116   6.7336281468e+01   1.4327931647e+01    0.1408419    0.1096156  79.04 0.0004441215    1.539    0.350
         9 -10.1829     52.6942    250.2833   7.2934851005e+01   1.5956548886e+01    0.3628832    0.1231404  30.09  0.001717884    2.169    0.539
        10 -14.5411     69.1798    188.1797   6.3911909848e+01   2.6582251999e+01     4.400012     2.114417  55.90   0.01611033    2.296    0.564
        11 -15.1498     68.3059    149.4316   5.9149460128e+01   3.6165576488e+01     8.406206     4.228697  75.20    0.0272462    3.588    0.721
        12 -10.0448    192.4899    193.7714   3.5687960427e+01   7.1688630921e+00    0.4817638    0.2672257 -60.53  0.001733072    5.623    0.822
        13 -15.7365      6.5137    139.0978   7.8787156417e+01   4.5506208638e+01     9.000952     2.013869 -85.10   0.02659194    4.511    0.778
        14 -10.4332    121.9816    182.3016   4.9144270312e+01   2.0014040915e+01    0.2095014    0.1707659  30.64 0.0005693291    1.100    0.091
        15 -11.1656    179.5188    165.9457   3.3181123498e+01   1.3658505625e+01    0.6487892    0.4261229 -44.24  0.003437304    1.591    0.372
        16 -10.9069    171.7601    174.7194   3.6406561110e+01   1.3382157809e+01    0.3352177    0.3117213 -16.29  0.001053152    1.142    0.124
        17 -11.0606    173.9204    171.2388   3.5316170991e+01   1.3644862265e+01    0.3695448    0.3105173  77.28  0.001408213    1.854    0.461
        18 -10.3447    104.4709    171.4351   5.1953466344e+01   2.5190557679e+01    0.3624577    0.2698085 -81.57  0.001790111    1.694    0.410
        19 -10.3880    174.5025    223.0529   4.3762307915e+01   5.2005276590e+00    0.2466955    0.1547524  25.61 0.0008672966    1.334    0.250
        20 -15.2469     41.7329    177.8262   7.0619669500e+01   3.2408185148e+01     3.991274     2.598235 -36.90   0.01944154    2.100    0.524
        21 -10.1004    110.5769    167.1654   4.9596565476e+01   2.5143642068e+01    0.2860953    0.2585997  72.95 0.0005451209    1.216    0.178
        22  -8.7053    131.9938    211.3449   5.1081536900e+01   1.2904434767e+01    0.1805899    0.1446402  25.90  0.001097102    1.047    0.044
        23 -10.5684    237.8759    160.4711   2.2143703867e+01   5.7962951834e+00    0.2098001    0.1090746  35.05  0.001180055    2.145    0.534
        24 -14.7738      5.2772    228.5927   8.2521762791e+01   2.4709280833e+01    0.5547844     0.350696  36.14  0.002238477    1.266    0.210
        25 -17.3697      5.6476    217.3834   8.2146383576e+01   2.6949346329e+01     3.738372     2.006712  64.59   0.01831484    1.566    0.361
        26 -10.6166    134.2816    147.6027   3.9674313105e+01   2.5233565532e+01    0.7061781    0.2385025 -52.53  0.002257402    3.408    0.707
        27 -10.0721    133.0000    140.9755   3.8600764802e+01   2.6910493075e+01    0.4754902     0.191497 -55.16   0.00158718    3.063    0.673
        28  -9.5343    123.1385    149.0931   4.2867761041e+01   2.6983272020e+01    0.3417589    0.2352145 -77.13  0.001223898    2.106    0.525
        29  -9.9622     43.8566    148.9319   6.7065875878e+01   3.9499785412e+01    0.2933995    0.1915824  58.78 0.0004472616    1.501    0.334
        30 -10.7449     37.2618    142.8386   6.8584681182e+01   4.1851426264e+01     0.570134    0.2868599  63.12    0.0022994    2.216    0.549
        31  -9.5170     37.0164    136.7481   6.7963140630e+01   4.3508723298e+01    0.6419078    0.1841463  50.79  0.001850428    4.172    0.760
        32 -11.4460     85.0669    144.7542   5.3058980713e+01   3.4753020200e+01    0.6577255    0.4694473 -11.79  0.002847492    2.045    0.511
        33 -10.6573    108.9717    145.3094   4.6012489694e+01   3.0452840625e+01    0.3024196    0.2771497  48.44 0.0006479382    1.054    0.051
        34 -10.0297     28.4425    142.8240   7.1596802494e+01   4.2751743326e+01    0.3659141    0.2258446 -60.20  0.001309115    1.642    0.391
        35  -9.5077    105.5128    134.5318   4.4796438907e+01   3.3655964224e+01    0.2716007    0.2589383 -81.83 0.0005187076    1.085    0.079
        36 -10.9498    100.0348    133.4851   4.6220912032e+01   3.4930744726e+01    0.7612137    0.4356259  11.90  0.002470702    3.428    0.708
        37 -10.5715    105.3279    130.5073   4.3978901368e+01   3.4658444698e+01    0.5021969    0.4235358   7.46  0.001542633    1.393    0.282
        38 -11.5789     87.2168    131.9273   4.9923351384e+01   3.7624826641e+01    0.2932006    0.2911499  38.28 0.0004242017    1.064    0.061
        39 -10.8464     43.9524    130.9388   6.4724317589e+01   4.4294616137e+01    0.4250565    0.2621372 -84.46  0.001356428    1.710    0.415
        40 -10.2814     37.7349    130.4706   6.6923470916e+01   4.5126711579e+01    0.3000298    0.2244582  55.42 0.0008392277    1.290    0.225
        41  -9.7700     33.8462    127.6360   6.7993672414e+01   4.6307866659e+01    0.2925407     0.278793  21.89  0.001182454    1.146    0.128
        42  -8.3529    123.2803    130.6779   3.8886209241e+01   3.1105986352e+01    0.1530669    0.1222201  83.13 0.0004628137    1.587    0.370
        43  -9.6331    110.3239    126.2096   4.1529081367e+01   3.4714970114e+01    0.2917641    0.2383297  11.11 0.0008138028    1.465    0.317
        44  -8.2701    219.2683    126.2851   1.8168845409e+01   1.3584851935e+01    0.1215393   0.09033944  -7.12 0.0001888515    1.497    0.332
        45  -9.7405    134.5375    123.9595   3.4343352402e+01   3.0305266200e+01    0.2382854     0.150762 -47.19  0.001032999    1.601    0.375
        46  -9.8595    116.1501    121.8220   3.8808297556e+01   3.4574187015e+01     0.217725    0.1903733   1.77 0.0006040931    1.332    0.249
        47  -9.9288     97.1294    121.2369   4.4416086440e+01   3.8484509575e+01    0.2946607    0.2483784   6.23 0.0006121561    1.421    0.296
        48  -8.1939     76.3044    120.6521   5.1253472670e+01   4.2394538093e+01    0.1661631    0.1175374  70.35 0.0007041231    1.696    0.410
        49 -11.0779     24.4119    116.4029   7.0230513184e+01   5.0271132673e+01    0.3205587    0.2427777  43.49 0.0004339072    1.300    0.231
        50  -9.9410    211.0052    198.8074   3.3200137625e+01   3.9714778630e+00    0.1929237    0.1444401 -17.29 0.0004628049    1.152    0.132
        51  -9.4551    106.8452    116.0253   4.0144459112e+01   3.7830224114e+01    0.2284854     0.222472  59.65 0.0003845852    1.006    0.006
        52 -10.1668    243.4911    113.9897   1.2388091937e+01   1.1505773773e+01    0.1890207   0.09685829 -34.69 0.0005347686    1.561    0.359
        53 -10.4459     35.8189    111.6141   6.4975643907e+01   5.0478119440e+01    0.3077246    0.2191311  43.33  0.001064374    1.388    0.279
        54 -10.7667     32.0362    109.4867   6.6199752484e+01   5.1452451088e+01    0.4118755    0.3219033   2.57 0.0004297404    1.480    0.324
        55 -10.6944     53.2503    110.2456   5.7712653604e+01   4.8712747368e+01    0.4180341    0.3315557 -77.36  0.001390476    1.274    0.215
        56 -10.6265     51.7840    104.1792   5.7070199804e+01   5.0546904341e+01     0.427967    0.3454654 -79.54   0.00169027    1.263    0.208
        57 -11.9241     24.4500    105.2240   6.8765843218e+01   5.3327970957e+01    0.6113396     0.414698  38.53  0.002048696    1.476    0.322
        58 -13.7533     54.4556    232.5292   7.1449148254e+01   1.9028827092e+01      2.99658    0.9249526 -64.90  0.006860283    3.600    0.722
        59 -14.9336     10.1733    206.3557   8.0723831468e+01   2.8905671717e+01    0.7775404    0.4818229   9.56  0.002355807    2.000    0.500
        60  -9.3552     63.6963    235.3984   6.9514602893e+01   1.7424823360e+01    0.1641288    0.1347761 -41.69 0.0004197468    1.616    0.381
        61  -9.0996     69.0428    102.0348   4.9685528342e+01   4.8463244341e+01     0.252856    0.1825607  68.59 0.0004049267    1.654    0.396
        62 -14.7998     56.0921    218.0695   7.0039959832e+01   2.1711434517e+01     2.839554     1.224259  42.04  0.007470088    1.794    0.443
        63 -11.0239     54.1804     92.8382   5.3497075988e+01   5.3219153691e+01    0.4759854    0.3165727  59.57  0.002080258    1.761    0.432
        64  -9.8570     47.9614     92.5288   5.6133906686e+01   5.4179505880e+01    0.2197129    0.2016241 -71.39 0.0004027492    1.069    0.064
        65  -9.7555     26.7684     93.5831   6.5944607015e+01   5.6296470889e+01    0.2671969    0.1116226  35.11 0.0006837143    2.314    0.568
        66  -9.0331     45.7802     80.2095   5.4079021641e+01   5.7699740258e+01    0.2605678    0.1442127  62.84 0.0009466068    2.754    0.637
        67  -9.1807     28.9669     79.9949   6.2282180992e+01   5.9733434128e+01    0.2417299    0.1600547  59.29 0.0007511948    1.752    0.429
        68  -8.9611     91.6852     78.9385   3.4614560461e+01   4.9691408142e+01    0.2104206    0.1997288 -78.96  0.000360589    1.073    0.068
        69  -8.9301    184.6726     76.7103   1.1860952490e+01   2.8238986842e+01    0.1347301     0.110276  18.08 0.0007015084    1.617    0.381
        70  -8.8056     65.5957     74.1758   4.3237357891e+01   5.6042538745e+01    0.2221802    0.1400884 -42.26 0.0009481446    1.673    0.402
        71  -9.1007     30.5125     72.4962   5.9756965115e+01   6.1539515445e+01    0.1424537    0.1359748 -51.73  8.01573e-05    1.002    0.002
        72 -12.0776    193.8422     62.7020   6.9564622849e+00   2.8352836135e+01    0.5878216    0.4732523  26.40  0.000629025    1.685    0.407
        73 -12.9582    206.6348     54.4095   3.3709707705e+00   2.6748789625e+01    0.9501772    0.7999006 -47.66  0.003433272    1.060    0.057
        74  -8.3458     68.5251    247.5016   6.9290572550e+01   1.4674152322e+01    0.1224801   0.09170619  38.38 -0.0001152474    1.005    0.005
        75 -12.8052    129.3095    229.4486   5.4034138430e+01   1.0157502180e+01     1.136628    0.3559994  30.48  0.004629194    2.624    0.619
        76  -8.4740     82.4194     59.5013   3.1144454498e+01   5.5898737597e+01    0.1521846    0.1467329  73.93 0.0002432259    1.050    0.048
        77 -10.3151     24.2706     48.0244   5.6354723882e+01   6.8267332631e+01    0.3286238    0.1533954  40.06  0.001089733    2.359    0.576
        78  -9.9421     72.3306    224.5617   6.6636934391e+01   1.8461792596e+01    0.2162113     0.184071  29.92 0.0005036892    1.126    0.112
        79  -9.7151     77.6373     66.5751   3.5622108917e+01   5.5430917784e+01    0.3876144    0.2503532  76.32  0.001153672    2.666    0.625
        80 -10.6082      2.6092     39.9035   6.9148459888e+01   7.1770240971e+01    0.2865651    0.2442685  14.29 0.0007390745    1.267    0.211
        81 -11.3370     23.3880     34.3025   5.1698449450e+01   7.1490648970e+01    0.4184404    0.2296789  30.11  0.001415058    1.808    0.447
        82  -9.0370    125.2541    244.4059   5.6640731251e+01   8.2751946830e+00     0.177021    0.1069857 -54.42  0.001046478    2.156    0.536
        83 -10.1219    103.0420    238.7618   6.0877725921e+01   1.2004372605e+01    0.2962043    0.1677634 -47.12  0.001587952    2.212    0.548
        84  -8.8497     15.4425     25.4503   5.3882381221e+01   7.4220917222e+01    0.1286123    0.1160968 -18.75            0    1.036    0.035
        85  -9.5934     60.7186     21.1564   2.2363089120e+01   6.7475454435e+01    0.2377788    0.1802799  58.98 0.0006566821    1.344    0.256
        86  -8.8096    189.5863     15.1755   3.5492405224e+02   3.5397593737e+01    0.1614009    0.1229981 -18.09 0.0005609847    1.601    0.375
