#   1 NUMBER                 Running object number                                     
#   2 MAG_AUTO               Kron-like elliptical aperture magnitude                    [mag]
#   3 X_IMAGE                Object position along x                                    [pixel]
#   4 Y_IMAGE                Object position along y                                    [pixel]
#   5 X_WORLD                Barycenter position along world x axis                     [deg]
#   6 Y_WORLD                Barycenter position along world y axis                     [deg]
#   7 A_WORLD                Profile RMS along major axis (world units)                 [deg]
#   8 B_WORLD                Profile RMS along minor axis (world units)                 [deg]
#   9 THETA_WORLD            Position angle (CCW/world-x)                               [deg]
#  10 FWHM_WORLD             FWHM assuming a gaussian core                              [deg]
#  11 ELONGATION             A_IMAGE/B_IMAGE                                           
#  12 ELLIPTICITY            1 - B_IMAGE/A_IMAGE                                       
         1  -8.4977    164.5443     14.8089   7.2671807593e+01   4.1811775790e+01    0.4765782    0.2137602  -7.52  0.001717492    3.237    0.691
         2 -11.1098    156.0835     14.5295   7.3907441752e+01   4.4001617907e+01    0.5313846    0.2695659 -23.13  0.002323591    2.058    0.514
         3 -11.1114    196.0313     13.8108   6.8142194507e+01   3.3815253256e+01    0.2661219      0.19358 -18.10   0.00139576    1.502    0.334
         4 -10.3491    176.7538     14.2288   7.0722470541e+01   3.8727449577e+01    0.1958966    0.1524046 -23.59 0.0004922735    1.357    0.263
         5 -10.5956    151.1133      8.1699   7.2527539285e+01   4.5868373631e+01    0.3011432    0.1860532 -25.52  0.001418702    1.692    0.409
         6 -10.3464    196.4026      4.4296   6.5413739417e+01   3.4629865545e+01    0.1343726    0.1212295  53.40 0.0006130188    1.136    0.120
         7 -11.8659    159.1340      1.8121   6.9170159779e+01   4.4387510421e+01    0.2931816     0.207025  39.20  0.000762183    1.411    0.291
         8 -10.4789     38.5028      2.5148   1.0057046329e+02   6.9400637746e+01     0.119491   0.09107336  -7.15 5.716048e-05    1.013    0.013
         9 -13.9048     68.4547    144.8825   1.3237118946e+02   3.7448560190e+01     0.928912    0.6280654  66.53  0.003093544    1.577    0.366
        10 -16.6852    160.2037     77.4233   9.3597959389e+01   3.4160085635e+01     10.45373      3.81216 -43.73   0.02670984    2.896    0.655
        11 -16.2147    176.9825     75.6637   8.9617711686e+01   3.0353083683e+01     6.093152     3.021147 -58.00   0.01590202    3.551    0.718
        12 -12.0876    113.3328     95.5771   1.1031555653e+02   4.1009605766e+01    0.4903637    0.3388966 -10.44  0.001736793    2.195    0.544
        13 -10.2638    112.1768    112.7820   1.1505500547e+02   3.7582140860e+01    0.2392888    0.1797209  19.19 0.0005896388    1.716    0.417
        14 -12.9928    126.9954    105.3245   1.0940185222e+02   3.6259085175e+01    0.6884694    0.3003469 -47.62  0.002574329    2.279    0.561
        15 -12.9475    118.2149     91.8109   1.0797622371e+02   4.0820432245e+01    0.7550718    0.2938865 -48.55  0.002644716    2.643    0.622
        16 -13.6492    120.9434    101.1566   1.0983466218e+02   3.8348367884e+01     1.031406     0.781872   8.47   0.00461285    1.783    0.439
        17 -12.8658    119.4040    111.1509   1.1280851222e+02   3.6553117306e+01    0.9725368    0.5063707  59.59  0.003640321    2.740    0.635
        18 -11.7621    112.5693    104.2128   1.1281134266e+02   3.9340239285e+01     0.398515     0.374048 -76.76  0.002003378    1.108    0.097
        19 -11.4298     25.9318    110.3398   1.3789151156e+02   4.9837720405e+01     0.210446    0.1398997 -71.33 0.0003104736    1.216    0.177
        20 -10.0936     24.3142    105.2784   1.3756650360e+02   5.1100040699e+01    0.1942776     0.113118 -58.41 0.0005439239    1.399    0.285
        21 -11.5585     21.6700    101.0020   1.3764031531e+02   5.2263876156e+01    0.3842337    0.1807817 -82.97  0.001298851    2.475    0.596
        22 -13.5463     62.2769    167.8937   1.3691108165e+02   3.3292143614e+01    0.3623967    0.3477913 -63.12 0.0008963785    1.329    0.247
        23 -15.5877     71.3237    159.7487   1.3387602617e+02   3.3831338101e+01     1.721042     1.325061 -21.07  0.008917363    2.130    0.531
        24  99.0000    181.8720     37.1415   7.7073351039e+01   3.4796936368e+01     12.79927     5.157061  60.17    0.0443358    2.329    0.571
        25 -10.9299    207.6776     78.2462   8.4803031843e+01   2.2380767031e+01    0.5452792    0.2908264 -10.94  0.001891282    3.049    0.672
        26 -10.2723     89.0649    170.6770   1.3152115519e+02   2.8992252447e+01    0.1759189    0.1502486  60.70 0.0003521537    1.106    0.096
        27 -12.3105    112.9668     73.8149   1.0401203259e+02   4.5443079802e+01    0.3545567    0.2664315  39.94 0.0005369656    1.386    0.279
        28 -11.5838    133.5062    144.4687   1.1698736310e+02   2.6814231327e+01     1.063929    0.2696448 -54.42    0.0025822    6.375    0.843
        29 -11.7968    204.9948     64.5334   8.1441134448e+01   2.5126323831e+01    0.2808654    0.2525451 -78.00 0.0007425777    1.197    0.164
        30 -10.8351    215.5097     63.8873   7.9644392325e+01   2.2632868074e+01    0.2384775    0.1937055  65.35 0.0003670548    1.290    0.225
        31 -18.0472    239.1347    122.8319   9.0961406918e+01   8.3324877619e+00     13.48994     3.045043 -33.49   0.04050329    4.006    0.750
        32 -13.0182    200.0441     55.5599   7.9677783381e+01   2.7667606731e+01    0.7074074    0.4534726  69.72  0.003205244    1.700    0.412
        33 -11.7905    143.9081    145.6868   1.1489730385e+02   2.4527930809e+01    0.3296644     0.217069 -57.95  0.001545775    1.703    0.413
        34 -10.1096    102.0705    134.6918   1.2242966284e+02   3.4613210080e+01     0.185599    0.1741727  47.38 0.0004406403    1.135    0.119
        35 -11.1592    211.4620     48.1074   7.5883345533e+01   2.5833246221e+01    0.6128688    0.2128492 -39.10  0.002184131    2.648    0.622
        36  -9.8327    215.5015     49.0304   7.5581162793e+01   2.4707148975e+01    0.2222389    0.1862828 -69.70  0.000631352    1.256    0.204
        37 -12.4118    188.3246     48.1482   7.9376243381e+01   3.1682007999e+01     0.379685    0.2209813 -41.05  0.001068037    1.716    0.417
        38 -12.6223    165.1513    152.4474   1.1172325442e+02   1.8925274585e+01    0.4631315    0.3171171  66.76  0.002137445    1.904    0.475
        39 -12.6576    175.1491    154.1849   1.1001569627e+02   1.6558305541e+01    0.3863701    0.2588057  70.54  0.001694692    2.234    0.552
        40 -10.1964     34.6981     48.0975   1.2123361131e+02   6.2383666513e+01    0.1712954    0.1257369 -43.03 0.0003479259    1.094    0.086
        41 -12.3575     22.9257     38.4867   1.2276786950e+02   6.5306568607e+01    0.6038566   0.06310846 -46.86  0.001905282    4.909    0.796
        42 -11.0869     93.7585     28.0740   9.2954782979e+01   5.6901732736e+01    0.2285423    0.1697839 -32.74 0.0006215776    1.351    0.260
        43 -12.8120    172.6976    150.1213   1.0965104199e+02   1.7802265768e+01    0.3925564     0.260074  56.74   0.00135838    1.660    0.398
        44 -11.1856    194.2901     20.5173   7.0304206822e+01   3.3555491535e+01    0.1797481    0.1616781  39.57 0.0005434855    1.172    0.146
        45  -9.8929    136.5255    249.0613   1.3223969968e+02   7.9982120303e+00     0.128919    0.1103136 -69.80 0.0004291146    1.457    0.314
        46 -12.1848    162.7010    140.2889   1.0959668214e+02   2.1733635073e+01    0.2797839    0.2522515 -81.75 0.0007339087    1.271    0.213
        47 -11.9299    193.0988    236.1761   1.2098924332e+02   7.4040251734e-01    0.3163234    0.1638393  52.40 0.0009224731    2.109    0.526
        48 -10.8419    186.2064    234.2156   1.2189213348e+02   2.1021526099e+00    0.1534581    0.1224674  52.33 0.0003578693    1.320    0.242
        49 -16.0248     28.9595    187.4748   1.4553213261e+02   3.3111936942e+01     2.468014     1.658558  46.98   0.01601037    1.484    0.326
        50 -11.6695    192.4122    194.1602   1.1440106675e+02   6.5855109934e+00    0.8340986    0.4235092 -61.43  0.002512194    6.882    0.855
        51 -10.2574    198.1985    192.4548   1.1302426950e+02   5.7822041350e+00    0.1837959    0.1759528  60.16 0.0002932579    1.279    0.218
