#   1 NUMBER                 Running object number                                     
#   2 MAG_AUTO               Kron-like elliptical aperture magnitude                    [mag]
#   3 X_IMAGE                Object position along x                                    [pixel]
#   4 Y_IMAGE                Object position along y                                    [pixel]
#   5 X_WORLD                Barycenter position along world x axis                     [deg]
#   6 Y_WORLD                Barycenter position along world y axis                     [deg]
#   7 A_WORLD                Profile RMS along major axis (world units)                 [deg]
#   8 B_WORLD                Profile RMS along minor axis (world units)                 [deg]
#   9 THETA_WORLD            Position angle (CCW/world-x)                               [deg]
#  10 FWHM_WORLD             FWHM assuming a gaussian core                              [deg]
#  11 ELONGATION             A_IMAGE/B_IMAGE                                           
#  12 ELLIPTICITY            1 - B_IMAGE/A_IMAGE                                       
         1 -12.7105     42.5680     21.0654   9.7076502881e+01   6.6385315934e+01    0.3856491    0.2624465   1.22  0.002049324    1.752    0.429
         2 -11.5932    216.4883     14.0457   5.3308200623e+01   2.8140459198e+01    0.3225729     0.271044 -18.55 0.0009504288    1.193    0.162
         3 -11.9369     43.9216      8.6032   9.0771709419e+01   6.8264099159e+01    0.2559891    0.2308608 -11.13 0.0009645982    1.209    0.173
         4 -13.4598    185.3088      6.1667   5.4473586809e+01   3.7082790014e+01     0.763125    0.6021602 -74.11  0.003957255    1.419    0.295
         5 -10.8502     58.0377      8.1171   8.4733133891e+01   6.6301887468e+01    0.3609237    0.2158593   5.62  0.001795944    2.169    0.539
         6 -10.4055     53.3249      1.6551   8.3235739446e+01   6.7918386673e+01    0.1157827   0.09443051 -50.87 4.057569e-05    1.740    0.425
         7 -10.6888     95.3213    224.6644   1.2174595723e+02   2.0967830768e+01    0.1090672   0.06167352  65.01            0    1.707    0.414
         8 -10.4382    184.8312    223.3189   1.0678511634e+02   7.7947992530e+00    0.2368856   0.07994312  48.58  0.001094189    2.598    0.615
         9 -10.4709    173.6879    221.5263   1.0837848727e+02   9.7716258263e+00    0.1623159    0.1051855 -41.14  0.001083479    2.031    0.508
        10 -11.3767    226.1887    221.2095   9.9889321318e+01   1.4512706296e+00    0.1404151    0.1173126  39.75 0.0007524771    1.357    0.263
        11 -10.5906    211.4016    218.1718   1.0177534388e+02   4.0887136794e+00    0.1300003    0.1067259 -41.27  0.000868618    1.755    0.430
        12 -11.6107    221.8640    214.1382   9.9508719744e+01   2.8107064493e+00    0.2153571    0.1138099  46.28  0.001265578    1.664    0.399
        13 -10.7679    115.9923    209.4861   1.1676697091e+02   2.0291030543e+01     0.215273    0.1303847 -85.41  0.001265029    2.424    0.588
        14 -11.3085      5.0295    199.5061   1.3492540274e+02   3.4794848855e+01    0.2343426   0.09012128  58.30  0.001053017    1.951    0.487
        15 -10.8722    149.4940    199.0049   1.0955409675e+02   1.6595812759e+01    0.1507069    0.1001778 -83.42 0.0008105575    2.634    0.620
        16 -10.2577    185.5179    204.0169   1.0396834766e+02   9.9205884201e+00    0.1404399    0.1031453 -73.80 0.0008101828    2.540    0.606
        17 -10.1644    133.1819    195.9890   1.1209814541e+02   1.9672981891e+01    0.1788571    0.1236267  82.73  0.001066726    1.972    0.493
        18 -12.3075    159.3521    191.7822   1.0675845584e+02   1.5966529154e+01    0.4844215    0.3421579 -85.41  0.002713178    2.410    0.585
        19 -11.3460    224.0127    183.5439   9.4131686749e+01   5.6418941484e+00    0.1840881    0.1639892 -45.28  0.001135275    1.628    0.386
        20 -10.6260    183.3184    183.5876   1.0115504824e+02   1.2896281851e+01     0.223021    0.1595115 -29.21  0.001361408    1.659    0.397
        21 -11.1506     34.3880    173.2234   1.2828716349e+02   3.6621375464e+01    0.1504021   0.07982476  89.36  0.000955869    1.742    0.426
        22 -11.9347    121.0019    167.7514   1.1051212205e+02   2.6188015644e+01    0.3649248     0.148781 -61.40  0.001525252    3.403    0.706
        23 -10.9392     55.5015    167.4893   1.2369526951e+02   3.5404995694e+01     0.203431     0.160222  75.49  0.001234838    1.037    0.036
        24 -10.3208    193.3670    188.6843   1.0022138845e+02   1.0451941719e+01    0.1178463   0.09210618  68.31 0.0006273296    1.775    0.437
        25 -12.0338    106.4658    157.7097   1.1200021868e+02   3.0299212883e+01     0.508062    0.3181285  72.46  0.002670509    2.024    0.506
        26 -11.3418    167.4714    157.1565   9.9467708576e+01   1.9640618987e+01    0.2924391    0.2196809 -74.11  0.001561988    2.001    0.500
        27 -11.0575     22.8855    151.0055   1.2883607005e+02   4.1844444989e+01    0.2762717    0.1195563 -81.09   0.00123772    2.051    0.512
        28 -10.9733    189.7431    150.2845   9.3867257175e+01   1.6321331800e+01    0.2969541    0.1766006 -50.54  0.001404204    2.301    0.565
        29 -10.2717     41.6633    149.3290   1.2475650427e+02   4.0365623203e+01    0.1189465    0.0677659  69.38 0.0006901109    1.729    0.422
        30 -10.7947     11.9406    148.6679   1.3090090754e+02   4.3214862403e+01     0.160794    0.1138681 -78.81 0.0003552446    1.226    0.185
        31 -11.8947    107.7246    145.8957   1.0987459690e+02   3.2291157353e+01    0.3950263    0.2148843  64.73  0.001784301    2.520    0.603
        32 -10.7424    148.4892    144.9891   1.0097687502e+02   2.5250468856e+01    0.1835964    0.1169261 -71.27 0.0008105943    2.605    0.616
        33 -10.6873     55.3377    145.6640   1.2140442458e+02   3.9589348994e+01    0.1234031   0.07359185  70.88 0.0007051584    1.751    0.429
        34 -10.7699    218.4364    156.1931   8.9905834665e+01   9.8934920430e+00    0.3028149    0.1207667 -33.91  0.001304862    2.697    0.629
        35 -11.7938     82.7789    129.8484   1.1291138445e+02   3.9229053005e+01    0.5663886    0.1378817 -59.64   0.00190883    4.291    0.767
        36 -12.4978     99.0350    128.5086   1.0883675065e+02   3.7048051415e+01    0.6060365    0.3487418 -86.29  0.002482956    3.223    0.690
        37 -11.0606     42.7816    122.2254   1.2142320028e+02   4.5692812812e+01    0.4290741    0.1541283 -82.32  0.001418785    5.356    0.813
        38 -11.2789     26.7003    120.5496   1.2512092546e+02   4.7561432729e+01    0.5164655    0.1912853  85.67  0.001681064    6.147    0.837
        39 -11.5430    192.8600    118.3303   8.6235700309e+01   2.0417618519e+01    0.4734883    0.3927224 -78.55   0.00229174    1.714    0.417
        40 -11.7530    141.1299    114.6418   9.6136038577e+01   3.2092204839e+01     0.565316    0.2302197 -37.45  0.002112539    2.794    0.642
        41 -10.8391      2.3797    115.2118   1.3043156561e+02   5.0493885400e+01    0.1516271   0.07778501 -88.23 0.0004561977    1.622    0.384
        42 -10.9343    108.1308    112.3792   1.0343640183e+02   3.8747448661e+01    0.4356259    0.1725639 -60.95  0.001448179    3.932    0.746
        43 -11.1740     78.4463    112.2860   1.1089189453e+02   4.3438943220e+01    0.4005491    0.2031803 -80.50  0.001494543    3.780    0.735
        44 -11.5104    121.8841    111.5040   9.9898703982e+01   3.6436714064e+01     0.392829    0.1787526 -55.64  0.001539102    2.645    0.622
        45 -10.5890    174.1142    111.4279   8.8250340076e+01   2.5636247522e+01    0.2928759    0.1847733 -51.55  0.001110901    1.970    0.492
        46 -11.8022    159.5774    110.6963   9.1115804374e+01   2.8936206263e+01    0.4583147    0.2124607 -43.90  0.001831488    2.307    0.566
        47 -10.9064     91.6314    110.6030   1.0719374503e+02   4.1826987462e+01    0.3269367    0.1219882 -58.43  0.001254755    2.899    0.655
        48 -12.0371     14.0432    109.6259   1.2704924353e+02   5.0828835060e+01    0.4627178    0.1791567 -82.73  0.002283549    2.507    0.601
        49 -12.3205    140.7057    102.2838   9.3230824030e+01   3.4446054698e+01    0.6144683    0.3336808 -37.36  0.002668304    1.926    0.481
        50 -12.2352     44.1158    100.5342   1.1791742342e+02   5.0105208560e+01    0.5395449    0.2816403 -88.06  0.002559743    2.590    0.614
        51 -12.0030    150.1033    102.2082   9.1069243083e+01   3.2467176597e+01    0.3490294    0.1851784 -48.94  0.001443039    2.137    0.532
        52 -11.4545    127.4157    100.0504   9.5819139790e+01   3.7568853580e+01    0.4445219    0.1651638 -47.99  0.001596352    2.842    0.648
        53 -11.9963    107.1000     98.1293   1.0043268159e+02   4.1771336994e+01    0.4787727    0.2632667 -57.98  0.002018415    2.040    0.510
        54 -10.8052     81.6691    100.3397   1.0765101193e+02   4.5458549403e+01    0.2047157    0.1494278  82.76  0.001001341    1.714    0.417
        55 -10.9367     62.9901     95.9911   1.1186992260e+02   4.8919031947e+01    0.2275479    0.1287829 -83.75  0.001021827    2.616    0.618
        56 -12.2796    170.2819     90.8940   8.3695369188e+01   2.9870205838e+01    0.3846576    0.3039095  64.68  0.001090212    1.430    0.301
        57 -11.1560     86.6936     87.2719   1.0326174816e+02   4.7398857145e+01    0.3663065    0.2163136  89.16    0.0012324    4.665    0.786
        58 -11.8252     42.1256     87.9878   1.1629986044e+02   5.2977865683e+01    0.2860464    0.1758482   5.41  0.001495188    2.744    0.636
        59 -11.0932     33.6492     87.0420   1.1861742437e+02   5.3989257449e+01    0.2865319   0.09344307 -65.20  0.001255441    2.549    0.608
        60 -11.1582    140.5558     82.3055   8.7863967744e+01   3.8098056994e+01    0.3666314    0.1448835 -36.06  0.001307223    2.598    0.615
        61 -11.4700    103.8486     82.1343   9.7170705715e+01   4.5531923742e+01    0.3745414    0.1787305 -54.64  0.001505809    2.387    0.581
        62 -11.1550      9.7048     80.9570   1.2475543787e+02   5.7121658835e+01     0.162465     0.115752 -75.07  0.000471756    1.103    0.093
        63 -11.2427     81.6826     72.6944   1.0088878727e+02   5.1155624160e+01    0.2734968    0.1598378 -68.45  0.001179974    2.508    0.601
        64 -11.1545    223.6828     71.5903   6.8783183800e+01   1.9856201198e+01    0.2533442     0.239736 -32.37 0.0004325242    1.132    0.117
        65 -11.0064     45.4942     81.9768   1.1413209335e+02   5.3912412284e+01    0.1927591    0.1043081 -62.48 0.0006900208    1.587    0.370
        66 -10.9409     51.8008     70.1113   1.0951331188e+02   5.5729258646e+01    0.2677081    0.1610583 -68.04   0.00141946    1.727    0.421
        67 -10.7094     62.4891     70.4890   1.0620147124e+02   5.4345197323e+01     0.128133    0.1126667 -52.29 6.192947e-05    1.006    0.006
        68 -10.7637    194.6267     67.2048   7.2257369519e+01   2.7560356767e+01    0.2197637    0.1417058 -13.19 0.0009567973    1.703    0.413
        69 -13.7587     30.2361     59.7817   1.1425668668e+02   6.0068137496e+01    0.8930058    0.4986915  29.59  0.003919977    2.153    0.535
        70 -11.6926      7.7677     55.9567   1.2133693693e+02   6.2496144665e+01    0.4512642    0.1869398 -79.90  0.002112897    2.809    0.644
        71 -11.5568    149.5140     52.2453   7.6383828183e+01   4.0992654395e+01    0.2749061    0.2549064  38.45 0.0004391823    1.067    0.063
        72 -11.9339     19.5232     59.3701   1.1789253427e+02   6.1009946992e+01    0.2625884    0.1794816 -46.26 0.0009759673    1.326    0.246
        73 -11.9973     20.7616     50.9566   1.1557449828e+02   6.2672429907e+01     0.481041    0.1776746 -57.82  0.002394939    2.004    0.501
        74 -12.6917    235.3066     62.6973   6.4716549485e+01   1.8190000327e+01    0.6432213    0.3542877  85.32  0.002392775    3.310    0.698
        75 -10.2011     82.4653     47.4836   9.2702927853e+01   5.5903682932e+01    0.1351604    0.1220594 -30.94 0.0002000597    1.043    0.042
        76 -10.5253    157.0154     45.0048   7.2345380476e+01   4.0179956385e+01     0.227669    0.2128362  38.94 0.0005021456    1.056    0.053
        77 -11.1524      6.4803     42.7820   1.1910193467e+02   6.5298072861e+01     0.411436    0.1869907  46.24  0.002161602    3.200    0.688
        78 -11.5671     70.1176     41.9090   9.4802034209e+01   5.8903648830e+01    0.2689788    0.2011249 -81.78  0.001367195    2.301    0.565
        79 -11.9020     42.1791     37.6820   1.0356150595e+02   6.3372786767e+01    0.3037849     0.232914  -7.01  0.001070126    1.483    0.326
        80 -10.7196     46.9369     35.8626   1.0107957321e+02   6.3174885990e+01    0.1944248    0.1575951 -29.72 0.0006449887    1.098    0.089
        81 -10.4672     28.6912     36.3432   1.0848101379e+02   6.4982895464e+01    0.1115446   0.08823256 -86.50 0.0007044261    1.695    0.410
        82 -10.7238    119.8805     34.1878   7.6867036838e+01   5.0652852995e+01    0.2135083    0.2023502 -58.42 0.0005664306    1.239    0.193
        83 -10.6056    106.0102     30.4907   7.9092757259e+01   5.4227407026e+01    0.2067633    0.1359726  46.34 0.0004351473    1.540    0.351
        84 -12.0198    220.2453    248.7321   1.0457462060e+02  -7.5260976888e-02    0.2063394    0.1581726  58.63  0.001564609    1.906    0.475
        85 -10.7910    239.9610     20.7020   5.2781781342e+01   2.1625845637e+01    0.2223111    0.1893697 -22.67 0.0004955535    1.128    0.113
        86 -10.2514    134.1807     18.1607   6.7239970368e+01   4.9315001936e+01     0.190155    0.1742221 -69.80 0.0004466968    1.305    0.234
        87 -10.8041     22.6815    239.3543   1.3389165577e+02   2.7126907628e+01   0.09829105   0.04191932  63.65   0.00070464    1.748    0.428
        88 -10.8997     12.7760    227.4886   1.3485967702e+02   2.9769293827e+01    0.1494486     0.094107  83.02  0.000630307    1.291    0.225
        89 -10.0913    104.2371    225.0000   1.2030788160e+02   1.9719040927e+01    0.1156879   0.08494823 -71.41 0.0008813118    1.620    0.383
        90 -11.3334    149.6094    222.7255   1.1252441173e+02   1.3399198211e+01    0.2775657    0.2007468 -66.74  0.001957444    1.932    0.482
