#   1 NUMBER                 Running object number                                     
#   2 MAG_AUTO               Kron-like elliptical aperture magnitude                    [mag]
#   3 X_IMAGE                Object position along x                                    [pixel]
#   4 Y_IMAGE                Object position along y                                    [pixel]
#   5 X_WORLD                Barycenter position along world x axis                     [deg]
#   6 Y_WORLD                Barycenter position along world y axis                     [deg]
#   7 A_WORLD                Profile RMS along major axis (world units)                 [deg]
#   8 B_WORLD                Profile RMS along minor axis (world units)                 [deg]
#   9 THETA_WORLD            Position angle (CCW/world-x)                               [deg]
#  10 FWHM_WORLD             FWHM assuming a gaussian core                              [deg]
#  11 ELONGATION             A_IMAGE/B_IMAGE                                           
#  12 ELLIPTICITY            1 - B_IMAGE/A_IMAGE                                       
         1 -11.3973     73.1613     56.5593   6.2711709628e+01   5.8299504965e+01     0.731541    0.2100452 -44.69  0.002173609    3.488    0.713
         2 -12.7572      7.5287     53.8646   9.6851548126e+01   6.7746292495e+01    0.7158308     0.142862 -66.83   0.00236173    3.418    0.707
         3 -12.4699      4.8767     39.5895   9.5666805492e+01   7.1528637775e+01    0.5913168    0.1727007 -79.14  0.001961916    3.776    0.735
         4 -10.3293     40.7766     14.0158   5.6950572997e+01   7.2914180078e+01    0.1865693    0.1689091  -6.72 0.0003030184    1.051    0.048
         5 -10.0586     99.2827    224.9902   8.8005458863e+01   1.6757070394e+01    0.1221494    0.1083853 -69.64 0.0006554836    1.432    0.301
         6 -10.4912    126.2086    220.4285   8.1790999180e+01   1.4012837390e+01    0.1697633   0.08970098  39.41 0.0005860668    1.588    0.370
         7 -10.6355     74.6811    219.3316   9.2908612989e+01   2.0760567648e+01    0.1283545   0.07177252  53.50 0.0007048249    1.692    0.409
         8 -10.2717    143.8067    216.4196   7.7666735141e+01   1.2280841963e+01     0.174635     0.095674  23.42 0.0009484506    1.662    0.398
         9 -10.7413    186.1507    214.1910   6.9235164472e+01   7.0014550716e+00    0.1465596    0.1257817  26.91  0.001038327    1.356    0.263
        10 -10.7379    198.5984    203.8080   6.5462362037e+01   6.7220136773e+00    0.1432935    0.1031781 -38.62 0.0009485859    1.702    0.412
        11 -11.7488    185.8987    203.6982   6.7707769706e+01   8.4094723827e+00    0.2093123    0.1670718 -31.12  0.001336692    1.428    0.300
        12 -12.1462    164.6554    201.3326   7.1372902758e+01   1.1659867006e+01    0.3443079     0.252065 -55.28   0.00210966    1.964    0.491
        13 -10.6792    124.3526    197.6720   7.9316337753e+01   1.8028962581e+01    0.1306317   0.08947013  56.62 0.0007047256    1.769    0.435
        14 -10.6195    113.0048    197.5175   8.1863259375e+01   1.9682136002e+01    0.1923577   0.08455852  49.15  0.000810153    2.557    0.609
        15 -11.8876    162.4355    193.4532   7.0603071430e+01   1.3165118381e+01    0.2601554     0.216266 -75.58  0.001597268    1.983    0.496
        16 -10.7791    206.3617    191.1501   6.2087921220e+01   7.3188875025e+00    0.1538554    0.1000707 -39.23 0.0009484469    1.785    0.440
        17 -10.5174    172.4891    190.4988   6.8145275544e+01   1.2148654964e+01    0.1228592    0.1041204  15.14 -3.529726e-05    1.060    0.056
        18 -10.7897    139.4795    189.9645   7.4869759363e+01   1.7133136189e+01    0.1605446    0.1163438 -86.67 0.0008098739    2.536    0.606
        19 -10.6977      8.0457    188.7302   1.0695810148e+02   3.3759344341e+01    0.1737767    0.1341544  50.83  0.001169422    1.048    0.045
        20 -10.4019    129.6572    188.3245   7.6801323718e+01   1.8895293088e+01    0.1312009   0.09461331  58.81 0.0007050817    1.734    0.423
        21 -10.2680    165.3361    186.6497   6.8929583866e+01   1.3790807687e+01    0.1183144   0.09886929  64.83 0.0007046334    1.786    0.440
        22 -10.9300    110.1906    185.6597   8.0940946588e+01   2.2300533770e+01    0.2140018    0.2067626 -40.90  0.001404491    1.189    0.159
        23 -11.7024     94.5345    183.6906   8.4500036942e+01   2.4970783391e+01    0.4237013    0.2836737 -74.64  0.002262112    1.849    0.459
        24 -10.6828     74.6064    183.7795   8.9554673451e+01   2.7697722437e+01     0.175614    0.1214796  88.66 0.0009496665    1.689    0.408
        25 -10.8335    174.0153    182.7676   6.6565729131e+01   1.3089263446e+01    0.2083388    0.1647876 -50.69   0.00128108    1.665    0.399
        26 -10.0427    197.6578    182.3348   6.2102064067e+01   9.6921612110e+00    0.1052034   0.09872915  75.23 0.0007050633    1.760    0.432
        27 -10.9340    244.3891    181.1724   5.4449246033e+01   3.6694717765e+00    0.1484815   0.08608685 -33.64 0.0009494076    1.710    0.415
        28 -10.5450    148.6271    180.3139   7.1360564746e+01   1.7382036465e+01    0.1292896   0.09869413  61.03 0.0007032951    1.786    0.440
        29 -11.4206     77.8672    175.5592   8.7763280749e+01   2.9013817483e+01    0.2665756    0.1722526  80.12  0.001324283    1.928    0.481
        30 -10.8960    176.9563    170.0892   6.3764863750e+01   1.4597893095e+01    0.2520105    0.1804567 -47.42   0.00144012    1.684    0.406
        31 -10.2368    206.3020    168.6611   5.8166644839e+01   1.0329778661e+01    0.1064535   0.09784378 -58.52 0.0004629465    1.669    0.401
        32 -11.2974    139.5935    164.9291   7.0728763028e+01   2.1591459164e+01    0.3458868     0.244459  66.74  0.001689969    2.116    0.527
        33 -10.3618    192.0000    164.9578   5.9988769846e+01   1.3023229068e+01    0.1991935   0.06681737 -37.98 0.0008007372    2.931    0.659
        34 -11.0317     79.9057    163.6569   8.5691055363e+01   3.1354383952e+01    0.4099185    0.2063845  79.47  0.001365754    4.172    0.760
        35 -11.3888    213.6151    163.2355   5.5943339981e+01   9.9998704414e+00    0.1708419   0.09919216 -22.51 0.0007334227    1.619    0.382
        36 -11.4282    205.7007    161.4962   5.6931837101e+01   1.1419535713e+01    0.2450504    0.1361518 -44.41  0.001267614    2.129    0.530
        37 -11.5106    121.9974    169.0658   7.5586711606e+01   2.3698202603e+01     0.373296    0.2690898 -88.44  0.001845735    2.136    0.532
        38 -11.1892     93.0776    159.7288   8.1515021060e+01   3.0261593662e+01    0.3175971    0.2084466  73.80  0.001464439    2.042    0.510
        39 -11.0871    197.1225    157.0261   5.7558029048e+01   1.3396051622e+01    0.2667299    0.1566625 -47.43  0.001357646    2.127    0.530
        40 -10.7308    105.8030    157.9811   7.7831475634e+01   2.8614822516e+01    0.2336879    0.1622065  77.56  0.001088795    2.025    0.506
        41 -10.3636    168.3218    157.6607   6.3148622351e+01   1.8029920866e+01    0.1253735    0.1085984  84.84 0.0007050529    1.718    0.418
        42 -10.7459     49.6302    154.4828   9.3278807965e+01   3.7511296435e+01    0.2821337    0.1399982  69.76  0.001153833    2.458    0.593
        43 -10.9765     81.6918    154.1330   8.3831643668e+01   3.3264171353e+01     0.230257    0.1739364  77.88  0.001021062    1.478    0.324
        44 -10.8315    133.3824    152.6593   6.9920015291e+01   2.5013629524e+01    0.3028784    0.2016334  75.42   0.00125755    2.783    0.641
        45 -11.1863     67.9814    153.0263   8.7648580730e+01   3.5498867053e+01    0.2449276    0.1514415  61.23  0.001146004    1.723    0.420
        46 -10.9253    249.3311    150.6701   4.8296034192e+01   6.5933710548e+00    0.1039013   0.08242667 -44.73  0.000696661    1.718    0.418
        47 -11.5810    189.6861    148.9371   5.7290123354e+01   1.5838937984e+01    0.3844959    0.2261735 -44.33  0.001954155    1.855    0.461
        48 -10.9713    199.9959    147.7113   5.5211692651e+01   1.4317990123e+01    0.2402976    0.1508925 -42.35  0.001294865    1.696    0.410
        49 -10.9507     38.7136    146.6932   9.5808037123e+01   4.0663194975e+01    0.2935969    0.1389169  74.33  0.001177918    2.528    0.604
        50 -11.4500    149.3422    144.6992   6.4619577538e+01   2.3684733711e+01    0.4152333    0.2963588  88.97   0.00181422    2.668    0.625
        51 -11.3710    107.1543    144.6518   7.5107602212e+01   3.1292708535e+01    0.4931642    0.3050723  80.87   0.00186451    3.051    0.672
        52 -11.5407     55.5516    144.4311   9.0282887504e+01   3.9240360951e+01    0.4933921    0.2516485  79.07  0.001916877    2.708    0.631
        53 -11.4963    125.0012    142.5010   6.9994511473e+01   2.8578299255e+01      0.44738    0.2923183 -84.67   0.00177374    2.890    0.654
        54 -10.9596     87.9761    143.2632   8.0268001838e+01   3.4819629232e+01    0.2971612    0.1795626  84.11  0.001172617    2.620    0.618
        55 -11.3772     22.5197    136.7447   1.0010791904e+02   4.4759162723e+01    0.3947251    0.1445676  64.57  0.001416439    3.145    0.682
        56 -10.6183    112.8277    132.9955   7.1244124130e+01   3.2859442761e+01    0.2477248    0.1765266  88.90  0.001087912    2.053    0.513
        57 -11.2022    132.0585    130.7806   6.5736412088e+01   2.9688045547e+01    0.4317527    0.2468119 -67.65  0.001583585    3.039    0.671
        58 -11.8360     83.2969    130.5875   7.9392218233e+01   3.8605273477e+01    0.5615298    0.3100017 -74.05  0.002238037    2.318    0.569
        59 -10.7271    143.2444    131.2455   6.3133859343e+01   2.7426291880e+01     0.229347    0.1179198 -55.12 0.0008485126    2.444    0.591
        60 -10.5957    168.5190    129.0274   5.7109717951e+01   2.2951140885e+01    0.1973884    0.1186964 -59.96 0.0008102837    2.583    0.613
        61 -10.6751    152.9091    128.7901   6.0372296935e+01   2.6017669538e+01    0.2764935    0.1920523 -68.27  0.001240021    2.154    0.536
        62 -11.6819     98.5831    126.4909   7.3927750748e+01   3.6947667418e+01    0.6786568    0.3565807 -73.85  0.002310659    3.270    0.694
        63 -10.8047     72.8926    128.5605   8.2319238145e+01   4.0758135123e+01    0.3085298    0.1958618 -88.63    0.0013286    1.989    0.497
        64 -11.8148     12.2617    125.9144   1.0276698946e+02   4.8364253751e+01    0.7228512    0.1948046 -82.70  0.002435305    3.535    0.717
        65 -11.1195    117.5053    124.5429   6.8123302528e+01   3.3839196668e+01     0.341033     0.231453  80.97  0.001382733    2.403    0.584
        66 -11.4965     58.9524    122.9516   8.6003814370e+01   4.4220947311e+01    0.5712131    0.2822165  89.06  0.001950116    3.258    0.693
        67 -12.1868     43.0264    120.4645   9.1232196015e+01   4.6901095065e+01    0.9559177    0.3985761  86.50  0.002941848    4.067    0.754
        68 -10.3062    180.3100    124.6539   5.3812424562e+01   2.1452020089e+01    0.1352103    0.1090257 -69.18 0.0007045081    1.705    0.414
        69 -11.9354     28.0323    121.3563   9.6758603711e+01   4.8244497991e+01    0.7380614     0.252193  69.25  0.002003289    5.376    0.814
        70 -10.2634    158.6637    121.3288   5.7384348184e+01   2.6275063091e+01    0.1439741    0.1161137 -83.20 0.0007051971    1.728    0.421
        71 -11.2483    141.9305    118.7832   6.0548624245e+01   3.0159513280e+01    0.4380137    0.2038689 -55.35  0.001542756    2.901    0.655
        72 -10.7669     70.8254    119.0285   8.1226401353e+01   4.3473982181e+01    0.2575063      0.16618  79.19  0.001083662    2.017    0.504
        73 -10.7246    130.7771    118.1871   6.3142620505e+01   3.2560179124e+01    0.2544402    0.1699204  87.68 0.0009567139    2.835    0.647
        74 -11.8084      2.4934    114.8313   1.0557012216e+02   5.1870343218e+01    0.7014472    0.2122948  83.84  0.002423471    3.397    0.706
        75 -11.3847    108.8266    112.8794   6.7813347934e+01   3.8151713686e+01    0.5973706    0.3238541 -69.31  0.002044577    3.070    0.674
        76 -11.6919     78.5350    111.0774   7.6947706527e+01   4.4216823418e+01    0.7290091    0.3508242 -75.94  0.002268255    3.676    0.728
        77 -11.6402     92.2054    110.3729   7.2273122882e+01   4.1946157663e+01    0.7535962    0.2893485 -60.86  0.002362928    3.291    0.696
        78 -10.6228    122.1550    111.9945   6.3869059957e+01   3.5645183669e+01    0.2546753    0.1797973 -77.07  0.001083195    2.012    0.503
        79 -11.9881     14.0931    109.2464   1.0077034621e+02   5.2605764909e+01    0.5268964    0.2664521 -89.50  0.002372255    1.873    0.466
        80 -11.1081     66.1188    109.1743   8.0887499332e+01   4.6720159489e+01    0.4346492    0.1941584 -65.77  0.001604049    2.372    0.578
        81 -13.2894     21.9171     99.3258   9.6537718961e+01   5.4656225185e+01     1.166527    0.4710505  85.59  0.004086416    3.117    0.679
        82 -10.7728    139.6295    103.9030   5.7331333079e+01   3.3615217271e+01    0.3125086    0.1887685 -55.45  0.001302245    1.917    0.478
        83 -12.3333     44.5619     99.8357   8.7266859638e+01   5.2179842470e+01    0.9860223    0.4584462 -88.30  0.003300533    3.288    0.696
        84 -10.9323    150.3074    102.1274   5.4398939469e+01   3.1633300948e+01    0.3971235     0.111952 -47.46  0.001092229    4.233    0.764
        85 -11.9587      6.7496    101.2682   1.0301472121e+02   5.5200762531e+01    0.4584471     0.160452 -85.06  0.001736578    2.649    0.622
        86 -10.9525    128.4907    101.5177   5.9464002645e+01   3.6525589987e+01    0.2821457    0.1419026 -54.30  0.001035954    2.330    0.571
        87 -11.6180    108.6323     97.7129   6.3923130949e+01   4.1620016700e+01    0.6390232    0.4096833 -77.03  0.002419039    2.506    0.601
        88 -10.9760     81.7442     98.8811   7.2926982292e+01   4.6676985978e+01    0.4569846    0.2173979 -65.91  0.001571335    2.729    0.634
        89 -11.2146     94.8096     95.1884   6.7524453446e+01   4.5053278658e+01    0.5564627    0.1927667 -48.56  0.001784325    2.876    0.652
        90 -11.9956     62.9762     93.3698   7.8497887662e+01   5.1277755886e+01    0.7726691    0.3121642 -65.66  0.002603156    2.828    0.646
        91 -10.0872     57.9890     92.0181   8.0155633234e+01   5.2397210155e+01    0.1773671    0.1699434  72.21            0    1.034    0.033
        92 -12.9179      5.2204     88.5918   1.0259375553e+02   5.8662786955e+01    0.6832744    0.2541182 -66.75  0.002805602    2.265    0.559
        93 -11.6869    124.3500     89.8134   5.7248954492e+01   3.9874316306e+01    0.4574271    0.2545132 -58.70  0.001717808    2.299    0.565
        94 -11.7321     34.6804     86.9285   8.9004334721e+01   5.6771620072e+01    0.8860492    0.2678999 -66.43  0.002982011    2.933    0.659
        95 -11.2722     86.2626     85.8115   6.7730874246e+01   4.8972579027e+01    0.4505796    0.2753804 -75.66  0.001667427    2.528    0.604
        96 -12.2000     47.9445     82.3530   8.2052425802e+01   5.6356530125e+01    0.6895167    0.3425705 -75.05   0.00258895    2.448    0.591
        97 -10.5683    138.5170     91.5133   5.4186599033e+01   3.6310385303e+01     0.152522    0.1466809 -70.74  0.000107801    1.052    0.049
        98 -11.0088    127.8659     74.5576   5.1648082823e+01   4.2097180507e+01     0.336686    0.1948617 -54.39  0.001334454    1.964    0.491
        99 -11.3952     81.9230     69.6526   6.4122503890e+01   5.3594981566e+01     0.733145    0.2233168 -47.86  0.002213208    3.254    0.693
       100 -11.6314    104.2632     81.5089   6.0462490334e+01   4.6154121334e+01    0.5440784    0.2622578 -54.78  0.001937182    2.392    0.582
       101 -12.9606     24.8646     76.8122   9.1665194221e+01   6.0449729664e+01    0.9835779    0.2759326 -60.58  0.003425033    2.822    0.646
       102 -11.1247     94.7737     69.0572   5.9374150032e+01   5.0958949488e+01    0.6039001    0.1904262 -50.13  0.001733685    3.599    0.722
       103 -11.4164      5.5776     70.3131   1.0047415766e+02   6.3518109205e+01    0.2740119    0.1205987 -84.64  0.001148684    2.138    0.532
       104 -11.7240     50.9965     67.3456   7.6454953645e+01   5.9749968638e+01    0.6695009    0.2230954 -63.49  0.001988453    3.748    0.733
       105 -11.7613     16.5352     68.2300   9.4332488113e+01   6.3411077077e+01     0.412482    0.1238481 -72.77  0.001418272    2.997    0.666
       106 -12.0509     62.5956     69.5625   7.1898972742e+01   5.7309620256e+01    0.8397443    0.1128966 -51.89  0.001855489    6.245    0.840
       107 -11.3926     37.1405     62.1293   8.1800187530e+01   6.2981407045e+01     0.490042    0.2065202 -63.09  0.001881289    2.274    0.560
       108 -10.5744    110.0000     62.0071   5.2138933848e+01   4.8834253276e+01    0.2645133   0.08842646 -39.26 0.0008100599    2.996    0.666
       109 -10.0822    100.0000     57.5344   5.3458869403e+01   5.2105226254e+01    0.5216365     0.088214 -39.85  0.001156531    5.937    0.832
       110 -10.7476    160.3300    238.6678   7.7239363671e+01   7.0983681391e+00    0.1045482    0.0761228  46.33 0.0007051974    1.721    0.419
       111 -11.1375    192.0388    225.9790   6.9870345047e+01   4.8149622459e+00    0.1779104    0.1073558   3.78 0.0008209603    1.637    0.389
       112 -11.1603     62.7507     51.9691   6.5366408590e+01   6.1359575910e+01    0.6236916    0.1183861 -46.78    0.0015495    5.103    0.804
       113 -11.1082     53.6951     50.6315   6.9146061856e+01   6.3301966422e+01    0.6148938    0.1736856 -54.57  0.001780456    3.954    0.747
       114 -10.5768     82.0000     45.0250   5.4431498029e+01   5.8725163918e+01    0.4240755   0.08612422 -39.90  0.001053666    4.955    0.798
       115 -11.2577     17.0000     40.9934   8.7418190150e+01   7.0383443428e+01    0.3721871   0.09328806 -53.86  0.001295835    3.013    0.668
       116 -11.3698     30.6634     48.7993   8.1182863181e+01   6.7089437471e+01      0.59622    0.1682772 -63.77  0.001838412    3.768    0.735
       117 -11.6813    162.6488    224.7710   7.5057183807e+01   8.6238506812e+00    0.2853744    0.1918646  14.14  0.001110791    1.311    0.237
       118 -10.9910     24.7391     57.5229   8.7359398744e+01   6.5524348799e+01    0.3250789    0.1305479 -54.10  0.001297576    2.162    0.537
       119 -10.6878     36.7236     39.1593   7.3683154243e+01   6.8583680810e+01    0.3468392    0.1126841 -52.45  0.001216663    2.824    0.646
       120 -11.3664     27.7619     29.3331   7.5035240595e+01   7.1991825357e+01    0.4195824     0.131086 -41.86  0.001372481    3.614    0.723
       121 -11.2649     45.3126     49.1087   7.2894842003e+01   6.5023347668e+01    0.2422923     0.225639 -23.59 0.0003428232    1.084    0.077
       122 -11.0492     91.9220     47.6225   5.2083005298e+01   5.5915620823e+01    0.6102292      0.16309 -43.18  0.001739992    3.757    0.734
