#   1 NUMBER                 Running object number                                     
#   2 MAG_AUTO               Kron-like elliptical aperture magnitude                    [mag]
#   3 X_IMAGE                Object position along x                                    [pixel]
#   4 Y_IMAGE                Object position along y                                    [pixel]
#   5 X_WORLD                Barycenter position along world x axis                     [deg]
#   6 Y_WORLD                Barycenter position along world y axis                     [deg]
#   7 A_WORLD                Profile RMS along major axis (world units)                 [deg]
#   8 B_WORLD                Profile RMS along minor axis (world units)                 [deg]
#   9 THETA_WORLD            Position angle (CCW/world-x)                               [deg]
#  10 FWHM_WORLD             FWHM assuming a gaussian core                              [deg]
#  11 ELONGATION             A_IMAGE/B_IMAGE                                           
#  12 ELLIPTICITY            1 - B_IMAGE/A_IMAGE                                       
         1 -13.1404    200.3195     33.6742   6.2448012322e+01   3.1579674769e+01    0.7867044    0.6765559  49.14  0.004473845    1.430    0.301
         2 -13.7878    216.9077     15.3040   5.6724130404e+01   3.0057527149e+01    0.9311039    0.8009951  51.41  0.006325669    1.551    0.355
         3 -12.2971      2.3835     13.4992   1.0983068674e+02   7.1028859047e+01    0.7675262    0.1517848 -44.94  0.003163386    4.527    0.779
         4 -12.4221      3.0909      3.9548   1.0537515631e+02   7.2192441034e+01    0.4961219     0.379524  -5.94  0.004106165    1.187    0.157
         5  -9.6786    132.3179    223.9853   1.1890560662e+02   8.4618757454e+00    0.2501302    0.1945856  41.92 0.0007150072    1.185    0.156
         6 -11.7237    184.3231    249.6689   1.1197198904e+02  -5.1996307096e+00    0.5327033    0.2502084  40.25  0.002291723    1.908    0.476
         7 -12.1461    178.1111    243.8016   1.1229580796e+02  -3.2066170594e+00    0.5404874    0.3239577  52.04  0.002110543    1.950    0.487
         8 -11.1642    169.0300    249.2598   1.1500591195e+02  -2.6492046095e+00    0.2982234     0.247684 -19.48 0.0003145928    1.353    0.261
         9 -11.6455    170.9690    244.0917   1.1380629524e+02  -2.0748597816e+00    0.3485515    0.2751067  73.18  0.001137439    1.763    0.433
        10 -11.0039    164.5953    241.8084   1.1476602706e+02  -6.0240469018e-01    0.2307606    0.1886568  43.03 0.0007933222    1.141    0.124
        11 -10.4901    162.4543    250.2717   1.1650313902e+02  -1.7406169145e+00    0.2945513    0.1574769  40.83 0.0004835238    1.631    0.387
        12 -11.8699    149.9701    247.7958   1.1870789365e+02   7.7549049387e-01    0.5350197    0.3795407 -39.57  0.002990329    1.658    0.397
        13 -10.6433    143.9425    249.5868   1.2021163159e+02   1.4568447776e+00    0.3697813    0.2299841  59.80  0.001843814    1.904    0.475
        14 -12.4701    133.7101    248.9271   1.2223563737e+02   3.2831535122e+00     1.372039    0.3097237  37.82   0.00427141    4.101    0.756
        15 -11.1863    115.1826    250.2395   1.2622585526e+02   6.0820788541e+00    0.7036303    0.2893409  37.67  0.002637161    2.218    0.549
        16 -11.5118    109.6871    247.3098   1.2699043108e+02   7.5420557345e+00      0.58101    0.5032907  64.99  0.003680654    1.055    0.052
        17 -11.2650    122.1163    245.3893   1.2416779678e+02   5.8835757123e+00    0.4444649    0.3565553 -75.02  0.001326591    1.395    0.283
        18 -11.9468    125.4853    242.1156   1.2302098758e+02   5.9616288701e+00    0.5816143    0.4647268  66.98  0.000979703    1.272    0.214
        19 -12.3009    103.4204    239.1938   1.2728284158e+02   1.0186934836e+01     0.828568    0.5857992 -31.21  0.004240075    2.220    0.550
        20 -10.9882     98.1071    231.1591   1.2739347520e+02   1.2727470934e+01    0.4685084    0.2549789 -77.24  0.002100385    2.317    0.568
        21 -10.4208     97.0502    238.9584   1.2858970017e+02   1.1255273939e+01    0.2991658    0.2041338  54.51 0.0006928736    1.294    0.227
        22 -11.5477     91.9810    241.4969   1.2994550399e+02   1.1527537467e+01    0.3981591    0.3053879  87.49  0.001737247    1.303    0.232
        23 -10.7857     89.9465    237.7460   1.2992890122e+02   1.2624051035e+01    0.3145497    0.2401657 -87.13  0.001166711    1.312    0.238
        24 -10.6884     85.6541    235.7674   1.3059384920e+02   1.3704393363e+01    0.4489417    0.2375163  82.83  0.001880628    2.805    0.643
        25 -10.6226     84.5716    229.6679   1.3010362677e+02   1.5179933909e+01    0.3164935    0.2188419 -52.22 0.0006724816    1.686    0.407
        26 -11.0583     99.2501    248.4430   1.2926401786e+02   8.9830573385e+00    0.4345767    0.2966498  89.18  0.002405447    1.662    0.398
        27  -9.9088    102.5478    247.4986   1.2847959166e+02   8.6488909371e+00    0.2189031    0.2036794 -38.53  0.001011929    1.395    0.283
        28 -10.4058     81.4891    247.0489   1.3269650857e+02   1.1992392527e+01    0.3964345    0.1811998 -71.92  0.001825714    2.484    0.597
        29 -10.0762     90.8080    250.2422   1.3117342736e+02   9.9379137243e+00    0.2393304    0.2129587  50.35  0.001194824    1.188    0.159
        30 -11.4166     86.6104    248.1921   1.3179197906e+02   1.0989125852e+01    0.3404129    0.3042056  26.30 0.0007918258    1.433    0.302
        31 -11.6157     59.9436    245.8129   1.3682637549e+02   1.5341876626e+01    0.4603885    0.2842287  56.10  0.002170772    1.364    0.267
        32 -13.9547      9.8473    209.9000   1.4364035363e+02   2.9096997231e+01     2.506337     1.139683 -71.42   0.01342828    1.819    0.450
        33 -13.4667     40.5128    243.0727   1.4030919115e+02   1.8464673221e+01     1.137375    0.8304896  85.41  0.002640774    1.145    0.127
        34 -12.7839     27.8046    226.2083   1.4138690018e+02   2.3587918451e+01     0.349316    0.2911452 -84.26 0.0007521043    1.213    0.176
        35 -14.2616     34.2451    218.5105   1.3945423252e+02   2.4542599354e+01     1.303246     1.110566 -55.92   0.00866488    1.494    0.331
        36 -12.4948    135.1406    234.3935   1.1986653418e+02   5.8472823482e+00    0.8037468    0.4173643 -52.71  0.003713451    2.124    0.529
        37 -10.9144    136.0987    225.1449   1.1825325664e+02   7.5556663307e+00    0.4071032    0.2395092 -44.31   0.00119579    1.942    0.485
        38 -10.2399     74.0140    243.3586   1.3380896453e+02   1.3854791915e+01     0.320076    0.2658468  65.05  0.001283241    1.046    0.044
        39 -13.3372     27.9692    247.0182   1.4292040804e+02   1.9174342561e+01     1.204527    0.7580001  44.37  0.007687567    1.536    0.349
        40 -10.2658    245.0000    242.0194   9.9059850367e+01  -1.2996206695e+01    0.1908304   0.06164182 -38.73 0.0007560705    2.987    0.665
        41 -10.7018     84.2994    241.2253   1.3149480186e+02   1.2765570853e+01    0.3468331    0.2134587  44.66  0.001326973    1.443    0.307
        42 -13.5245      5.5941    246.0701   1.4678920150e+02   2.1837660446e+01     1.143213    0.5946277  72.42  0.007041697    1.555    0.357
        43 -11.1782    116.7054    238.4213   1.2437566824e+02   8.1647536229e+00    0.4307573    0.2822956 -34.56  0.002106418    2.241    0.554
        44  -9.3597     66.9224    239.6791   1.3485751520e+02   1.5645679655e+01    0.2306484    0.1439018  73.87 0.0006547012    1.569    0.363
        45  -9.3903     66.8930    243.8605   1.3527824088e+02   1.4775254324e+01    0.2651891    0.1788766  27.14  0.001029808    1.960    0.490
        46 -10.0916    173.1224    235.9234   1.1204790494e+02  -9.8496052898e-01    0.1914302    0.1760748  55.87 0.0003650807    1.213    0.176
        47 -11.2949    128.7644    234.9003   1.2131000049e+02   6.8399746427e+00    0.4336007    0.2667197  63.23  0.001577737    1.958    0.489
        48  -9.5455     55.1652    235.5795   1.3681104584e+02   1.8144539530e+01     0.267171    0.1381373  58.47  0.001066433    1.770    0.435
        49 -10.6767    122.3476    233.8666   1.2254198602e+02   8.1425061576e+00     0.319785    0.2974165 -73.78  0.001658801    1.167    0.143
        50  -8.9250     70.6118    235.2447   1.3365126902e+02   1.6059276921e+01    0.1626206    0.1133611 -63.14 0.0009256942    1.521    0.342
        51 -10.6854    168.5508    233.6108   1.1262525354e+02   2.1818371308e-01    0.3712004    0.2210483  22.84  0.001322814    1.974    0.493
        52  -9.4670     94.2141    218.9855   1.2664709601e+02   1.6018951460e+01    0.2683947    0.2027987  76.30  0.001311449    1.324    0.245
        53 -11.0300     98.5444    223.1589   1.2624994741e+02   1.4390782733e+01    0.4008978    0.2949713  34.90  0.001567254    1.431    0.301
        54 -11.4986    105.4302    228.1276   1.2541182362e+02   1.2182030291e+01    0.4485563    0.3694414 -81.41  0.001631169    1.243    0.195
        55 -11.0894    109.4622    232.4375   1.2511962792e+02   1.0601231990e+01    0.4436357    0.2748062  79.97  0.001722672    2.208    0.547
        56 -11.1618    113.3706    230.8128   1.2405414269e+02   1.0290291195e+01    0.3634402    0.3034272 -59.77  0.001233244    1.308    0.236
        57 -10.4573    156.7247    232.1291   1.1489026912e+02   2.5439024273e+00    0.2503538    0.2136158 -39.65 0.0005193201    1.291    0.225
        58  -8.5985     78.2612    233.3655   1.3186319376e+02   1.5337610451e+01    0.1202064    0.1005702 -40.48 0.0005686983    1.641    0.391
        59 -13.0920     13.8870    238.6900   1.4488962190e+02   2.2472221457e+01    0.9640008    0.4563391  51.08  0.003154581    1.781    0.439
        60  -9.3653     45.6397    231.1205   1.3829597282e+02   2.0356769501e+01    0.1965747     0.126505  82.08 0.0009409969    1.399    0.285
        61 -10.9014     79.1820    225.7189   1.3078505331e+02   1.6866161539e+01    0.5338309    0.2855726 -76.21  0.002292012    2.046    0.511
        62  -9.4962     92.5060    226.1693   1.2796467061e+02   1.4702123634e+01    0.2236442    0.1616906  63.65 0.0005563181    1.300    0.231
        63  -9.9364     51.6228    225.2139   1.3652801355e+02   2.0876797749e+01    0.1966728     0.183607  79.64 0.0003554453    1.260    0.207
        64 -10.4385    116.8075    224.5528   1.2241590076e+02   1.1034749232e+01    0.3701797    0.2611493  24.45  0.000618904    1.715    0.417
        65  -9.5345     65.0080    224.3541   1.3364757934e+02   1.9240800173e+01    0.2305787    0.1674685 -49.13  0.001160021    1.735    0.424
        66 -11.6228    135.9379    241.0222   1.2066299018e+02   4.4112326234e+00    0.3839264    0.2881524  60.88  0.001371246    1.380    0.276
        67  -9.4104    164.2976    224.0312   1.1193210324e+02   2.7764388436e+00    0.1831962     0.179259 -33.98 0.0003906974    1.109    0.098
        68 -10.0821     87.5908    223.6074   1.2870840759e+02   1.6041246907e+01    0.2694079    0.2080644  70.62  0.001127373    1.203    0.169
        69 -10.9619    142.1950    219.9884   1.1608555655e+02   7.5406031830e+00    0.4326329    0.3087707 -59.52  0.001619817    1.548    0.354
        70 -10.5862    245.5452    220.2011   9.5075866088e+01  -9.8006764940e+00    0.3165704    0.1085645 -37.46  0.001322657    2.700    0.630
        71  -9.7521    111.0000    220.9994   1.2318924581e+02   1.2792443767e+01    0.3114944   0.07925581 -57.59 0.0008767986    4.159    0.760
        72 -10.4855     70.6329    219.0928   1.3184855886e+02   1.9616081656e+01    0.5044757    0.3098704  82.44  0.002512309    1.776    0.437
        73  -9.2059    250.6766    220.3159   9.4185779793e+01  -1.0536927170e+01    0.1081157    0.1004556 -68.04 0.0003522833    1.665    0.399
        74  -9.4442     77.0812    220.5407   1.3061912116e+02   1.8336819239e+01    0.1909777     0.122783  42.75 0.0003418046    1.484    0.326
        75  -9.6644     88.1530    212.8229   1.2717443905e+02   1.8384938283e+01    0.2872075    0.1859799 -75.49 0.0009716801    1.601    0.376
        76  -9.3147     90.5159    208.9309   1.2610067197e+02   1.8905702361e+01    0.2014468    0.1331364 -65.02 0.0003813933    1.505    0.335
        77  -9.8414     91.0974    205.3009   1.2545097603e+02   1.9657441094e+01    0.3693142    0.2257127  29.41  0.001062035    1.940    0.485
        78 -11.1872     55.2761    207.9649   1.3392852224e+02   2.4320166448e+01    0.6864261    0.3790653  89.62  0.002400401    1.984    0.496
        79  -8.9164    130.9350    211.3161   1.1719371423e+02   1.1420044715e+01    0.1965922    0.1711292  45.92  0.000254447    1.083    0.077
        80  -9.9805    156.1102    208.1620   1.1096193845e+02   7.4747353070e+00    0.2186924    0.2051295 -47.39 0.0003054149    1.121    0.108
        81  -9.1156    134.3764    207.8029   1.1582085969e+02   1.1566554010e+01    0.2022902    0.1342087 -43.34  0.000942967    1.674    0.403
        82 -10.5851    111.3372    206.4319   1.2091803256e+02   1.5996051158e+01    0.3933619    0.2472432 -81.94  0.001069381    2.076    0.518
        83  -8.8373     74.3922    208.4648   1.2971282175e+02   2.1507981223e+01    0.1385659    0.1174141  81.20 0.0001505434    1.038    0.036
        84  -9.0538     69.9753    208.0117   1.3065326767e+02   2.2262710392e+01    0.1622697    0.1382916  85.10 0.0009559023    1.030    0.029
        85  -8.7126    125.6084    206.8033   1.1767060515e+02   1.3381533178e+01    0.2032908    0.1374179 -72.32 0.0009375449    1.740    0.425
        86 -10.6558     62.9684    209.5276   1.3240602484e+02   2.2906510156e+01    0.4717239    0.3316596 -54.60  0.001998293    1.569    0.362
        87 -10.8347     83.9053    201.6111   1.2659932541e+02   2.1670220775e+01    0.2559876    0.2197081 -69.95 0.0002639875    1.157    0.136
        88 -10.0633     43.4211    200.1796   1.3569125203e+02   2.7663710548e+01    0.3402974    0.2744574 -22.81  0.001861687    1.914    0.478
        89 -10.6726    102.8735    195.9825   1.2125258387e+02   1.9896698368e+01     0.301136    0.2465349 -28.55 0.0004216893    1.586    0.369
        90 -11.9792     56.2459    194.1410   1.3206487750e+02   2.7470449760e+01    0.5041181     0.307088 -49.66   0.00110105    1.857    0.461
        91 -11.1833     27.8985    194.7417   1.3855987983e+02   3.0730024716e+01    0.4307332    0.3156905  82.16  0.001321352    1.168    0.144
        92 -10.8403     21.0528    194.4486   1.4002542076e+02   3.1514700033e+01    0.3702881    0.2040657 -67.48 0.0008818943    1.557    0.358
        93 -10.9892    250.0134    193.9676   8.9357850419e+01  -6.1724692922e+00    0.3091357    0.1999406 -35.55  0.001714901    1.352    0.260
        94  -8.7660     77.9866    194.0148   1.2691417436e+02   2.4402653904e+01    0.1668676    0.1482225  71.47            0    1.055    0.052
        95  -9.6199    191.4790    191.4829   1.0007701390e+02   4.2801073949e+00    0.2458406    0.2334542 -14.20 0.0006334273    1.016    0.016
        96  -8.6691     72.6175    192.7413   1.2801554129e+02   2.5515019820e+01    0.1316846    0.1106995 -20.23  0.000697255    1.674    0.403
        97  -9.3173    112.4850    192.7273   1.1840207819e+02   1.8988264416e+01    0.3509535    0.1190285 -47.40  0.000814749    3.294    0.696
        98  -9.1774     40.7583    189.0060   1.3504387919e+02   3.0648124134e+01    0.1977839    0.1570338  89.90  0.001187418    1.068    0.064
        99  -9.9719     10.6344    188.1960   1.4171190193e+02   3.3976497932e+01    0.2208241    0.1408841  86.59 0.0006728674    1.328    0.247
       100 -11.7271      4.6562    186.0816   1.4281673121e+02   3.4994183275e+01    0.4735637     0.358139  83.77  0.001316962    1.087    0.080
       101 -10.4752     71.9366    186.6554   1.2730986508e+02   2.7098351960e+01    0.3658953    0.2716964 -27.65  0.001218836    1.966    0.491
       102 -11.7190     63.0445    186.0628   1.2938741505e+02   2.8511500334e+01    0.3838059      0.25236 -46.25 0.0005389347    1.759    0.431
       103  -9.5337     29.4621    184.2595   1.3712099534e+02   3.3053632340e+01    0.2926745    0.1739013 -44.94 0.0009305387    2.108    0.526
       104  -9.2070     24.0574    183.9000   1.3832094993e+02   3.3700003699e+01    0.1882134    0.1348184 -49.50 0.0006951067    1.605    0.377
       105  -8.8514     36.3470    182.8714   1.3536308069e+02   3.2635921545e+01    0.1983958   0.09762418 -60.90 0.0009447586    1.796    0.443
       106  -8.3302    127.4669    182.5109   1.1292372565e+02   1.8649523052e+01    0.1558986    0.1415007  77.80 0.0004540632    1.108    0.098
       107  -8.9946     76.9984    188.5082   1.2634901911e+02   2.5890350289e+01    0.1926598    0.1377321  40.51 0.0001020674    1.442    0.306
       108  -9.2092     85.7128    180.2920   1.2291399612e+02   2.6552859572e+01    0.1477889    0.1062343  75.14            0    1.542    0.351
       109 -10.5014     83.6534    186.6893   1.2444573220e+02   2.5307227948e+01    0.2504005    0.2227113  87.80 0.0002789654    1.024    0.023
       110 -12.7396     41.3962    206.4133   1.3679483337e+02   2.6449764531e+01     1.770168    0.7721849  71.55  0.006847877    3.244    0.692
       111 -11.2247     65.2351    175.4683   1.2731620012e+02   3.0820945363e+01    0.3070249    0.2558069  49.04 -4.187971e-07    1.246    0.197
       112  -9.3603    103.0870    176.1036   1.1780264516e+02   2.4669831165e+01    0.2148186    0.1986729 -38.01            0    1.213    0.176
       113 -11.3721     19.4617    174.6897   1.3841717095e+02   3.6350150434e+01    0.3237742    0.2032013  86.98  0.001802201    1.475    0.322
       114 -10.8639     73.8430    174.2053   1.2493439178e+02   2.9893941145e+01    0.2632228    0.2181609 -62.77 0.0002905952    1.151    0.131
       115 -12.4093    248.1556    172.3598   8.5438081461e+01  -2.1201162372e+00    0.7368725    0.4225456 -39.00  0.003722196    1.516    0.341
       116 -12.2469    240.6977    150.6637   8.2272326453e+01   3.1234970628e+00    0.7474094    0.3824537 -41.85  0.003142341    1.712    0.416
       117 -11.8045    245.1340    162.2794   8.3916063304e+01   2.0360289345e-01     0.473366    0.2745895 -45.43  0.002341232    1.556    0.357
       118 -10.8919    249.5615    161.2973   8.2986939066e+01  -3.6655483695e-01    0.4656084    0.2325695 -45.98  0.002156737    1.810    0.448
       119 -11.1903    248.2860    157.5521   8.2437776006e+01   5.2729026339e-01    0.7087249    0.3078545  58.57  0.002537499    4.236    0.764
       120 -12.0771     60.1706    172.2630   1.2811896397e+02   3.2311905197e+01    0.6369036    0.3410445 -37.23  0.002558876    2.831    0.647
       121 -10.4531     12.3697    173.0002   1.3989487541e+02   3.7396393667e+01    0.3092332    0.1555456 -66.58  0.001559269    1.606    0.377
       122  -9.0711     45.9797    172.6837   1.3175407090e+02   3.4009490625e+01    0.1834703    0.1597467  87.81   0.00042585    1.053    0.050
       123 -10.8234      1.9797    171.7866   1.4215763606e+02   3.8539635578e+01    0.3269427    0.1759808  70.82  0.001066645    1.919    0.479
       124  -9.6393     27.6725    171.4895   1.3610468798e+02   3.6320294225e+01    0.3519218    0.1664035 -47.56  0.001267109    2.413    0.586
       125  -9.3427     51.8462    170.9561   1.3004087001e+02   3.3717808371e+01    0.1974357    0.1735148 -57.93 0.0005356226    1.191    0.160
       126 -11.8591     81.8421    166.0813   1.2149795561e+02   3.0700538901e+01    0.6624125    0.4964763  33.20  0.003351042    1.472    0.321
       127 -10.7254     82.5864    157.6103   1.1976520740e+02   3.2703015819e+01    0.5047387      0.30691 -41.53  0.002210891    1.858    0.462
       128 -11.1329     14.2923    167.2937   1.3885223827e+02   3.8588561826e+01    0.3184974    0.2660861  24.96  0.001312063    1.536    0.349
       129 -11.2639      8.0873    165.9930   1.4019025159e+02   3.9419270419e+01    0.3608736    0.2621123 -17.00  0.001864916    2.070    0.517
       130  -9.7176     43.2121    161.1160   1.3084936943e+02   3.7193196967e+01     0.211255    0.1788851  73.00 0.0003350056    1.184    0.155
       131 -10.6371     44.8441    165.1917   1.3100807619e+02   3.5995337778e+01    0.4745138    0.2047488 -48.72  0.001954987    2.453    0.592
       132 -10.9522     68.3734    166.3339   1.2507534626e+02   3.2655490137e+01    0.2597295    0.2263453  85.76 0.0003297383    1.095    0.087
       133  -9.0793    166.9266    170.2563   1.0107858839e+02   1.3623468983e+01     0.200198    0.1954606  23.18 0.0003770406    1.041    0.040
       134 -10.3629     31.2924    163.2014   1.3419152078e+02   3.7971818309e+01    0.2424163    0.1964727  72.36 0.0002228314    1.227    0.185
       135  -9.3647     37.7757    163.0243   1.3251920663e+02   3.7329814114e+01    0.2721833    0.1284541  55.58  0.001157331    2.576    0.612
       136  -8.8706     24.0243    162.0099   1.3586974193e+02   3.8978259368e+01    0.1499867    0.1300401 -84.36 0.0003584285    1.071    0.066
       137 -11.7997     10.7783    157.9720   1.3869097623e+02   4.1110471287e+01    0.4154444    0.2306866  79.24  0.001287421    1.967    0.492
       138 -11.0035     12.3826    154.2141   1.3786500679e+02   4.1879257209e+01    0.3740353    0.1616274 -86.30  0.001319385    2.616    0.618
       139  -8.5377    119.3086    158.6826   1.1022367807e+02   2.5953562364e+01    0.1601729    0.1211743  81.32 0.0007031462    1.635    0.388
       140 -10.8337     24.7513    155.2175   1.3483241518e+02   4.0560428024e+01    0.3257653     0.216225  16.93  0.001158316    1.999    0.500
       141  -8.7189    228.4449    155.5083   8.5386763400e+01   4.4497268591e+00    0.1422796    0.1272274 -43.73 0.0001285908    1.044    0.042
       142  -9.8168     32.1258    154.3420   1.3279332292e+02   4.0057336386e+01    0.3157513    0.1592515 -43.33  0.001434492    2.287    0.563
       143 -11.1481    249.5208    150.9827   8.0905036642e+01   1.5102005096e+00    0.5170381    0.2854159 -45.50  0.002519467    1.589    0.371
       144 -13.2244    247.5130    101.3347   7.0991811698e+01   1.0826023878e+01     1.151156    0.6729364 -37.21   0.00574481    1.684    0.406
       145 -11.9736    247.9625    142.2386   7.9364228660e+01   3.3797408180e+00    0.6060616    0.5088648  -2.71  0.003538373    1.462    0.316
       146 -13.1399    248.1660    134.0513   7.7649410062e+01   4.8399786435e+00     1.462763    0.6983654 -38.29  0.006515575    1.908    0.476
       147 -12.2915      3.2859    144.2206   1.3902967800e+02   4.4933086131e+01    0.5588644    0.2727183 -66.87  0.002980518    1.565    0.361
       148  -9.9600     83.2700    149.4922   1.1802133932e+02   3.4622004092e+01     0.251068    0.2137197 -50.97 0.0002971709    1.146    0.128
       149 -10.7247     21.5334    149.1615   1.3488122125e+02   4.2322238302e+01    0.3676134    0.1984118  42.76  0.001902988    2.063    0.515
       150 -12.8326      9.2782    143.7810   1.3741994132e+02   4.4608997870e+01    0.9245762    0.3455393 -45.94  0.003986841    2.853    0.649
       151 -12.1724     68.4831    144.1469   1.2112501910e+02   3.8185239821e+01    0.6952879    0.5194932  89.46   0.00217888    1.532    0.347
       152  -9.9993    235.8772    145.8977   8.2081586751e+01   4.8981275749e+00    0.2095184    0.1793972 -19.55 0.0004818391    1.252    0.201
       153  -9.2003     98.6108    146.2572   1.1312019100e+02   3.2841623266e+01    0.2145768    0.1359155 -45.99 0.0004366449    1.576    0.365
       154  -9.5985     41.1623    147.2672   1.2931658893e+02   4.0846100982e+01    0.1988748    0.1681993 -50.12 0.0005675025    1.189    0.159
       155  -9.9326    133.2152    141.0362   1.0270989355e+02   2.7399846583e+01    0.4210744    0.2522809 -58.54  0.001586821    1.812    0.448
       156 -10.8802     38.8886    141.7785   1.2907444429e+02   4.2439845663e+01    0.2419333    0.2061151  89.87  0.001458471    1.168    0.144
       157 -10.9002     16.7949    139.8289   1.3490051628e+02   4.4969767567e+01    0.2549341    0.1926126  24.83 0.0009985053    1.627    0.385
       158  -9.8110    107.7069    136.4765   1.0844501413e+02   3.3564535862e+01    0.4786476    0.2803941 -25.59  0.001688006    2.892    0.654
       159 -10.4269     59.8558    136.3340   1.2210403731e+02   4.1295400898e+01    0.2737534    0.2289969 -74.93 0.0002605091    1.162    0.140
       160  -9.5887     55.8362    135.8359   1.2317963361e+02   4.1934767682e+01    0.2068026     0.190802 -65.16 0.0003818851    1.039    0.037
       161  -9.9961     47.4835    135.7865   1.2560011959e+02   4.2955797743e+01    0.2650724     0.157342 -29.50  0.001188393    2.289    0.563
       162 -12.0740      2.8951    131.5952   1.3761106328e+02   4.7921684902e+01    0.5000339    0.2110545 -65.94  0.002498349    1.776    0.437
       163 -10.4157     44.6126    130.2686   1.2544019830e+02   4.4624031926e+01    0.2542291    0.1861445  80.24 0.0009327513    1.652    0.394
       164 -12.2463     13.2931    127.7712   1.3418018157e+02   4.8103717839e+01     0.329202    0.2733478  23.55 0.0006971364    1.482    0.325
       165 -10.4332     95.5607    150.4188   1.1482647927e+02   3.2346710081e+01    0.3095854    0.2762845  82.64 0.0009153989    1.155    0.134
       166  -8.8809    209.7670    125.9704   8.2285729761e+01   1.3975428103e+01    0.1985626    0.1164416 -42.69 0.0005670555    1.591    0.372
       167  -9.3532     31.4971    138.5792   1.3064438968e+02   4.3969027487e+01    0.1332459    0.1109455 -58.98 2.531518e-05    1.079    0.073
       168 -10.9760      1.9013    120.3326   1.3639653928e+02   5.0592669013e+01    0.2836683    0.1359721 -73.51  0.001402583    1.782    0.439
       169 -10.0655    238.5470    121.7517   7.6552078111e+01   8.9091246187e+00    0.2698493    0.1246655 -37.74  0.001053073    2.084    0.520
       170 -11.7875     17.1467    117.3253   1.3142272139e+02   5.0259853291e+01    0.3128078    0.2070477 -14.07  0.001058981    1.933    0.483
       171 -10.5603    231.9008    116.1992   7.6393970603e+01   1.1253146017e+01    0.2200138    0.1775224 -66.75 0.0005830599    1.224    0.183
       172 -12.6285      9.2618    113.6814   1.3322748611e+02   5.1657596144e+01    0.4346077    0.2680187 -75.37  0.002174856    1.505    0.335
       173 -10.6761    249.7130    117.8979   7.4095914457e+01   7.4775416126e+00    0.4124388    0.2883467 -23.20  0.001668227    1.839    0.456
       174  -9.0648    203.4839    111.5049   8.0099190474e+01   1.8173942407e+01    0.1477618    0.1384096 -60.50 -4.556484e-05    1.041    0.039
       175 -10.0693    167.7834    113.0071   8.7551441592e+01   2.5986877924e+01    0.3401382    0.2629612 -83.19 0.0009080922    1.569    0.363
       176  -9.5753     34.9637    107.0995   1.2390903320e+02   5.1087163217e+01     0.192384    0.1682468 -49.68 0.0003196313    1.032    0.031
       177 -12.2905     15.1982    102.9421   1.2952091323e+02   5.3685661275e+01     0.448143    0.2544154  41.53  0.002428697    2.220    0.550
       178  -8.6887     71.7439     99.9979   1.1021911655e+02   4.8150526577e+01    0.1728312    0.1141187 -49.00 0.0002393879    1.414    0.293
       179 -11.0397     20.8942     93.3605   1.2572462224e+02   5.5379289757e+01    0.3281017    0.1481874 -60.37 0.0003646759    1.883    0.469
       180 -10.3930     14.0298     93.7299   1.2814237058e+02   5.5802329538e+01    0.1684774    0.1440429 -38.78 0.0006273569    1.104    0.094
       181 -12.1841    247.6283    112.9069   7.3363132884e+01   8.7634209009e+00    0.7946745     0.551655 -20.84  0.003994239    2.011    0.503
       182 -11.3016      2.2341     80.5177   1.2959414012e+02   5.9332609677e+01    0.3854397   0.07915282 -63.15  0.001384529    3.921    0.745
       183 -11.9927    199.4854    246.4678   1.0843263395e+02  -7.0754465436e+00    0.4614447    0.2584415  42.19   0.00238377    1.753    0.430
       184 -11.0860     18.7881     26.5335   1.0719111991e+02   6.7829063234e+01    0.3303415    0.1542684  41.02  0.001663653    3.444    0.710
       185 -11.3128    159.3535    244.2758   1.1623651165e+02  -1.6347809935e-01    0.3097514    0.2082893  58.81  0.001034134    1.780    0.438
       186 -11.8727    142.9860    240.8161   1.1914498217e+02   3.2521814272e+00     0.624352    0.3391648 -48.21  0.003003331    2.076    0.518
