#   1 NUMBER                 Running object number                                     
#   2 MAG_AUTO               Kron-like elliptical aperture magnitude                    [mag]
#   3 X_IMAGE                Object position along x                                    [pixel]
#   4 Y_IMAGE                Object position along y                                    [pixel]
#   5 X_WORLD                Barycenter position along world x axis                     [deg]
#   6 Y_WORLD                Barycenter position along world y axis                     [deg]
#   7 A_WORLD                Profile RMS along major axis (world units)                 [deg]
#   8 B_WORLD                Profile RMS along minor axis (world units)                 [deg]
#   9 THETA_WORLD            Position angle (CCW/world-x)                               [deg]
#  10 FWHM_WORLD             FWHM assuming a gaussian core                              [deg]
#  11 ELONGATION             A_IMAGE/B_IMAGE                                           
#  12 ELLIPTICITY            1 - B_IMAGE/A_IMAGE                                       
         1 -14.6958     68.6822    144.0800   1.0138627117e+02   3.7503454801e+01     5.213639     2.409099  63.82  0.003169247    4.738    0.789
         2 -13.2081    197.2359     42.2705   4.3472016919e+01   3.0817458510e+01     1.075704    0.9345697 -63.69  0.003243094    1.067    0.063
         3 -13.9395    206.0689     33.4601   4.0219398368e+01   2.9903330505e+01     1.447564     1.222096   9.22  0.001348427    1.694    0.410
         4 -13.1262    230.6339      6.9388   3.2004599379e+01   2.7529023825e+01    0.8600029    0.6718959 -81.43  0.004485967    1.074    0.069
         5  -9.6198     62.4969      8.5001   6.0738305672e+01   6.5661063940e+01    0.1246166    0.1016815  21.24 -6.629441e-05    1.010    0.010
         6 -11.8205     42.2666      7.2838   6.8250680109e+01   6.9195261790e+01     0.407263    0.1513307  33.69  0.001861833    2.590    0.614
         7 -10.3780     32.0454      2.2342   7.0366444775e+01   7.1253937912e+01    0.1830918     0.123583 -15.50  0.001206413    1.326    0.246
         8 -10.5871    163.4758    212.0944   8.9611605637e+01   5.9254611689e+00    0.3313929    0.1836946  35.99  0.001559684    1.652    0.395
         9 -11.4677    139.8423    248.1087   9.9956941972e+01   3.3383994194e+00    0.5393645    0.3331215 -46.69  0.003040931    1.928    0.481
        10 -14.6423     57.9940    184.7832   1.1024506499e+02   2.8804737954e+01      6.31819     4.001577  18.55   0.03084675    2.153    0.536
        11 -16.3140     48.9726    200.5599   1.1409172024e+02   2.6233384543e+01     18.52574     7.408632  86.83     0.031278    4.500    0.778
        12 -12.0304    111.3184    204.0185   1.0006283422e+02   1.6417156844e+01    0.4998557    0.4134769  85.99   0.00199446    1.315    0.240
        13 -11.2480    106.7360    202.7878   1.0095121934e+02   1.7434458522e+01    0.4496514    0.2564437  60.84  0.001959235    2.133    0.531
        14 -11.0651     61.4759    198.8699   1.1104525498e+02   2.5034805528e+01    0.3480384    0.2446901 -59.91   0.00055023    1.481    0.325
        15  -9.7088     66.0587    194.4715   1.0946234223e+02   2.5442011937e+01    0.2922274    0.2212188  42.29 0.0008601237    1.300    0.231
        16 -11.1615    121.3982    196.9670   9.6609563435e+01   1.6262036021e+01    0.4612577    0.2754924 -72.03  0.001273064    2.249    0.555
        17  -8.9869     81.9006    194.7085   1.0571039352e+02   2.3134772229e+01    0.2854282    0.2607392 -51.25  0.001705517    1.254    0.203
        18 -10.0592    118.1543    190.9207   9.6394939660e+01   1.8158507815e+01    0.2319982    0.1916909  73.49  0.001226677    1.319    0.242
        19 -10.3238    147.4606    187.1486   8.8777954751e+01   1.3744423508e+01    0.4030742    0.2660063 -49.62  0.001227322    1.589    0.371
        20  -8.9968     72.0428    188.3179   1.0725350402e+02   2.6062319369e+01    0.1918139    0.1613954  61.67 0.0004684283    1.101    0.091
        21 -10.3129    120.0633    186.6551   9.5215869506e+01   1.8787225226e+01    0.2058191    0.1824966  40.54 0.0008241688    1.090    0.082
        22  -9.1671     80.4926    184.1304   1.0459766076e+02   2.5834871150e+01    0.2387924    0.1949747  55.00 0.0009224139    1.163    0.140
        23 -10.0213     99.3982    180.9546   9.9376634503e+01   2.3627645396e+01    0.2750327    0.2101553  40.41 0.0006284497    1.282    0.220
        24  -8.5942     90.3817    181.2772   1.0169670327e+02   2.5002600531e+01    0.1861463    0.1329755 -76.24 0.0003114491    1.470    0.320
        25  -8.7308     93.1988    179.2257   1.0066396449e+02   2.5045980849e+01    0.2026521    0.1583425  70.26 0.0004236354    1.338    0.253
        26 -16.2096      2.8645    218.3614   1.2503324002e+02   2.7188240280e+01     11.01574          nan -72.63   0.02102427    9.609    0.896
        27 -10.3627    187.0839    175.4552   7.7636860204e+01   8.7489509667e+00    0.3900782     0.296362 -47.03  0.001144871    1.383    0.277
        28 -10.5624    192.0488    193.0858   8.0108476543e+01   4.5171702977e+00    0.5251346    0.2815354 -60.58  0.001902584    3.703    0.730
        29  -9.6303    148.1699    174.8446   8.6251773439e+01   1.6267278327e+01     0.287496    0.2150397 -68.93 0.0007564747    1.653    0.395
        30 -12.8951     54.6855    147.0154   1.0591385581e+02   3.8607028060e+01     2.664329    0.9926788 -44.65  0.009129709    3.380    0.704
        31  -8.5124    193.5029    170.5200   7.5271614579e+01   8.5100816212e+00    0.1448977    0.1343965  -9.27 0.0004599157    1.014    0.013
        32 -10.0796    240.4742    169.0473   6.6133490423e+01   5.6417452454e-01    0.2017167    0.1150102 -35.54 0.0003484036    1.533    0.348
        33  -9.5887    184.9666    168.2784   7.6589226062e+01   1.0565058509e+01    0.2599633    0.2108644 -68.77 0.0008292238    1.609    0.379
        34 -12.1790     83.7209    159.0676   9.9803123995e+01   3.1488035300e+01      1.08836     0.749342  86.89   0.00500174    1.771    0.435
        35 -13.0943     72.3073    153.6192   1.0201601095e+02   3.4569568301e+01    0.7188841    0.5272704 -60.84 0.0009197964    1.278    0.217
        36 -10.7870    194.5135    198.0175   8.0543044024e+01   3.2016518873e+00    0.3579025    0.3383705  75.29  0.002164779    1.411    0.291
        37  -8.5354    135.5303    164.5321   8.7247279183e+01   2.1004102228e+01    0.1505952    0.1485797  50.78 6.083728e-05    1.007    0.007
        38  -8.5037    157.6760    235.3121   9.4517045341e+01   2.7261760160e+00    0.1272639    0.0961208  60.27 0.0006436128    1.658    0.397
        39 -11.7831     71.7934    171.2377   1.0494527796e+02   3.0236625090e+01    0.5038052    0.3441771 -38.96   0.00162984    1.821    0.451
        40 -11.4134     75.9060    167.0084   1.0321972250e+02   3.0689822103e+01    0.4081529    0.3285224 -63.10  0.001076541    1.196    0.164
        41 -11.4971     90.6270    151.7182   9.6560410566e+01   3.2221587525e+01    0.7076476    0.4756679 -28.93  0.003075673    2.024    0.506
        42 -10.8892    133.6971    144.6556   8.3431661622e+01   2.5983061516e+01      1.21276    0.3343605 -54.54  0.002970004    4.979    0.799
        43  -8.9162    111.3848    149.6541   9.0438232054e+01   2.9107221841e+01    0.3923146    0.2245128  69.47  0.001296887    3.289    0.696
        44 -17.5793     10.4614    245.6453   1.2497974762e+02   2.0986314596e+01     7.347373     4.806711 -86.91   0.02169558    1.365    0.267
        45  -9.2660    174.9361    149.1500   7.4572468253e+01   1.6481906843e+01    0.2328009    0.2132237 -83.55 0.0006937635    1.270    0.213
        46 -10.6975     40.4814    146.9265   1.0993758902e+02   4.0267970858e+01    0.3136155    0.2851112 -60.23   0.00130594    1.141    0.123
        47  -9.2838    144.0000    146.0012   8.1126368637e+01   2.3573163983e+01    0.2663876   0.08857287 -47.54 0.0007328192    2.984    0.665
        48 -10.3756    103.7148    138.1287   9.0086803044e+01   3.3337220415e+01    0.5788681    0.3445928 -27.85   0.00215363    2.555    0.609
        49 -10.2236    105.9755    130.8645   8.7797730620e+01   3.4701126218e+01    0.3900785    0.3337511 -68.11  0.001216806    1.206    0.171
        50 -11.5756     91.3878    137.6509   9.3520179649e+01   3.5615338554e+01    0.2980103     0.264175 -37.83 0.0006541595    1.178    0.151
        51  -9.7631     43.9350    138.3431   1.0767390207e+02   4.2066773247e+01    0.2556913    0.2095222  39.00 0.0009400237    1.344    0.256
        52 -11.3024     46.3414    134.8896   1.0640645733e+02   4.2675044271e+01    0.4247886    0.2819594  48.57  0.001787027    1.645    0.392
        53 -11.9150     44.7069    130.1500   1.0611456551e+02   4.4058659945e+01    0.7199858    0.3942995  55.85  0.003175792    2.281    0.562
        54 -11.8852     39.7700    124.5875   1.0670371886e+02   4.5990299866e+01    0.5270759    0.3434826 -47.21  0.002721991    1.471    0.320
        55 -10.4419    135.6481    129.8630   7.9432507106e+01   2.9017489775e+01    0.8344833    0.1442518 -47.89  0.001820135    5.854    0.829
        56 -10.9824    119.1110    122.8894   8.2152424386e+01   3.4058707150e+01    0.7383003    0.4632909  -1.29  0.002368781    3.624    0.724
        57  -9.1126    161.1580    127.4089   7.2535298471e+01   2.4059952237e+01    0.2264834    0.1502012  58.23 0.0009498462    1.739    0.425
        58 -10.2462     99.8322    124.9573   8.8193661114e+01   3.7273402756e+01    0.3200585    0.2707258  -3.64  0.001246934    1.409    0.290
        59  -8.4226     93.8017    126.2037   9.0275623408e+01   3.8043376371e+01    0.2031413    0.1746582 -26.30 0.0004139424    1.272    0.214
        60 -10.2255    112.6987    129.0897   8.5468331459e+01   3.3852670125e+01     0.363245    0.2983095   8.79 0.0008046658    1.474    0.322
        61  -9.2596    108.4865    118.2051   8.3996588783e+01   3.7270810271e+01    0.2483375    0.2169182  37.52 0.0003896368    1.181    0.153
        62 -12.7340     43.6959    111.0202   1.0292990087e+02   4.8966875653e+01    0.8126538    0.6058306 -70.21  0.004419951    1.276    0.216
        63  -8.3640    167.6603    112.3525   6.7235349399e+01   2.5781414334e+01    0.1652048    0.1234628 -78.98 0.0007043063    1.802    0.445
        64  -9.3928    135.0000    111.4212   7.4868963571e+01   3.3326365867e+01    0.3448094   0.08930068 -44.73 0.0009179167    3.800    0.737
        65 -11.2738    116.6621    109.2397   7.9293708598e+01   3.7720989337e+01    0.5549231     0.447707  32.60    0.0025919    1.303    0.233
        66  -9.4217    205.3742    110.2392   5.9214552977e+01   1.7777354456e+01    0.2904451    0.2074526  46.42 0.0009089726    1.524    0.344
        67 -11.8897     53.4361    107.6707   9.8938443505e+01   4.8668949542e+01    0.8079914    0.3329659 -57.76  0.003221237    2.129    0.530
        68  -9.1307    133.9462    100.6279   7.2184722444e+01   3.5900981944e+01    0.3294632    0.1941074 -65.96  0.001119824    2.716    0.632
        69  -8.9677    129.0261     96.3298   7.2267773993e+01   3.7906047104e+01    0.2268747    0.1972532  49.02 0.0006456875    1.167    0.143
        70 -11.0850     52.7507     93.3282   9.5802013802e+01   5.2200563545e+01    0.5057501    0.3755099 -68.61  0.002658213    1.449    0.310
        71  -9.9464    231.3522    113.6886   5.5722778272e+01   1.1797415181e+01    0.2651546    0.2362099 -50.21 0.0007070794    1.071    0.067
        72  -9.2138    156.4962     88.4822   6.3266690249e+01   3.3140490278e+01     0.463445    0.2689683 -71.83  0.001496889    3.500    0.714
        73  -9.4715     32.4584    204.3275   1.1809122912e+02   2.7285907261e+01    0.2730818    0.2082252 -83.75 0.0009331697    1.175    0.149
        74  -9.1710     15.0160     89.4649   1.0882448472e+02   5.6675637230e+01     0.168658    0.1268284  10.61 0.0006627762    1.574    0.365
        75  -8.7354    157.5104     82.5641   6.1363538138e+01   3.4012844628e+01    0.1512917    0.1475101 -88.91 7.210268e-05    1.012    0.011
        76  -9.4595     59.9876     68.0248   8.5830998104e+01   5.6826403501e+01    0.2088153    0.1837829 -22.45 0.0003304113    1.007    0.007
        77 -12.9470    185.7628     51.1571   4.7393844902e+01   3.2320282721e+01    0.9863598    0.8472845 -31.54 0.0008888154    1.272    0.214
        78  -8.5512    168.7832    233.6105   9.1969245743e+01   1.2539192495e+00    0.1752355    0.1074299  42.46 0.0003052674    1.536    0.349
        79 -10.6602    157.5666    220.7390   9.2301423733e+01   5.3215101759e+00    0.4668838    0.1402933 -53.84  0.001488933    4.776    0.791
        80 -10.2150     28.0856     35.6705   8.8071991291e+01   6.6912400671e+01    0.1794356      0.14843  30.77  0.001184338    1.498    0.333
        81  -8.6192     73.8070     54.6080   7.5976549959e+01   5.7197708555e+01    0.1779866    0.1286457  45.90 0.0001970757    1.534    0.348
        82 -12.3232    111.4060    197.7321   9.9094462665e+01   1.7782786188e+01    0.6587123    0.4822626  28.66  0.003388862    1.443    0.307
        83  -9.5475     89.5082    211.5332   1.0610550709e+02   1.8215776056e+01    0.2407338    0.1954322  68.01  0.001407926    1.159    0.137
        84 -10.3584    142.9644    209.1375   9.3626702335e+01   1.0005563830e+01    0.2413282    0.2107583 -53.60  0.001365625    1.264    0.209
        85 -12.1094    197.5870    203.5283   8.0950652684e+01   1.7159764556e+00    0.9847956    0.3466601  28.88  0.003183526    4.041    0.753
        86  -9.6091     35.6795     16.3386   7.5846070442e+01   6.9020113818e+01     0.101134   0.09874038 -57.01 0.0007050078    1.713    0.416
        87  -9.1848    189.5391     15.0243   3.7491486433e+01   3.5953386780e+01    0.1807181    0.1240372 -34.43 0.0005823846    1.560    0.359
        88  -8.2353     37.9835    215.9272   1.1784925255e+02   2.4104503725e+01     0.187958    0.1100791  64.52 0.0004915884    1.526    0.345
        89  -9.9268    148.9958    215.0113   9.3240135557e+01   7.8298973503e+00    0.2197491    0.1641359   0.22  0.001135052    1.686    0.407
        90 -11.0344    184.3783    211.4994   8.5091870516e+01   2.5160371367e+00    0.2988933    0.2215395  -5.29  0.001623268    1.477    0.323
