#   1 NUMBER                 Running object number                                     
#   2 MAG_AUTO               Kron-like elliptical aperture magnitude                    [mag]
#   3 X_IMAGE                Object position along x                                    [pixel]
#   4 Y_IMAGE                Object position along y                                    [pixel]
#   5 X_WORLD                Barycenter position along world x axis                     [deg]
#   6 Y_WORLD                Barycenter position along world y axis                     [deg]
#   7 A_WORLD                Profile RMS along major axis (world units)                 [deg]
#   8 B_WORLD                Profile RMS along minor axis (world units)                 [deg]
#   9 THETA_WORLD            Position angle (CCW/world-x)                               [deg]
#  10 FWHM_WORLD             FWHM assuming a gaussian core                              [deg]
#  11 ELONGATION             A_IMAGE/B_IMAGE                                           
#  12 ELLIPTICITY            1 - B_IMAGE/A_IMAGE                                       
         1 -13.3179    180.1852     56.3355   4.6302041343e+01   3.3003346715e+01     1.688045    0.9978961  31.00  0.005380072    2.761    0.638
         2 -13.3726    195.5640     43.4600   4.0783869306e+01   3.1216613401e+01    0.8781785    0.8324482 -31.30  0.003745761    1.242    0.195
         3 -13.4177    223.3285     13.0890   3.1013746040e+01   2.8743307735e+01    0.8413274    0.7014338 -67.06  0.004110814    1.095    0.087
         4 -12.6081     59.3612      3.2389   5.6107783363e+01   6.6494072917e+01    0.7747961    0.2165947  49.40  0.003192452    2.910    0.656
         5  -9.9665     48.1495    241.3661   1.1549157623e+02   1.6950310074e+01    0.1479852    0.1131002  52.61 0.0002091978    1.105    0.095
         6 -19.4952     13.3898    148.4378   1.1535080852e+02   4.2131222274e+01     19.96891     5.272119 -76.59   0.06655756    3.684    0.729
         7 -10.8289    193.9772    196.7618   7.6781847121e+01   3.6493514165e+00    0.4708256    0.2695137 -58.47  0.001923424    2.885    0.653
         8 -10.4281     60.4837    198.0377   1.0865442504e+02   2.4968517200e+01    0.2131974    0.1760812  51.49 0.0003669176    1.147    0.128
         9  -9.2428     92.1887    196.2410   1.0059081267e+02   2.0931795656e+01    0.1922558    0.1546093  73.21 0.0003967871    1.319    0.242
        10 -10.4954     75.3257    247.9385   1.1049310464e+02   1.2209782100e+01    0.3778041    0.1427043 -54.32  0.001688028    3.093    0.677
        11  -9.6524     82.9879    194.8490   1.0269118769e+02   2.2635620511e+01    0.3217166     0.198954  22.39  0.001051792    1.921    0.479
        12 -11.7598     52.7390    191.8602   1.0984334283e+02   2.7414521541e+01     0.484786    0.2877317 -36.97  0.001545995    2.428    0.588
        13  -9.9078     55.1142    185.0423   1.0844983282e+02   2.8783687898e+01    0.4647176    0.1950908  55.26  0.001754573    2.896    0.655
        14  -9.3350     77.0340    213.6166   1.0653167863e+02   1.9152599985e+01    0.3269303    0.1675657 -88.77   0.00130077    2.967    0.663
        15  -9.5096    206.6469    192.3287   7.3330180337e+01   2.3848345723e+00    0.1281975    0.1139627  88.15 0.0002753873    1.773    0.436
        16  -9.0444     75.3927    208.8563   1.0635218037e+02   2.0456083397e+01    0.2052449    0.1485783  82.67  0.001094532    1.474    0.321
        17 -11.9241    124.1987    187.2271   9.1092208560e+01   1.7790850583e+01    0.3722669    0.2816632  49.69  0.001841678    1.357    0.263
        18 -11.1783    130.6381    189.8105   8.9955450223e+01   1.6083976086e+01    0.2838046    0.2098983 -89.47  0.001296078    1.943    0.485
        19  -9.5482     72.1138    188.3095   1.0453992894e+02   2.5757236933e+01    0.1916161    0.1649954  59.95  0.000376905    1.108    0.098
        20 -10.9258     78.5703    183.1932   1.0215427644e+02   2.6094282011e+01    0.5509756    0.4040874 -35.73  0.002643047    1.654    0.396
        21 -10.3594    145.3680    183.8824   8.5250706223e+01   1.4781835277e+01    0.2530951    0.2042376  46.48 0.0006577724    1.283    0.221
        22  -9.2053     69.9485    184.0135   1.0450994088e+02   2.7106121673e+01    0.2120438    0.1722748  72.18 0.0002925268    1.225    0.184
        23 -12.3722     64.3967    179.5739   1.0534800622e+02   2.8951022845e+01    0.7494868    0.6511213 -56.05   0.00300825    1.191    0.160
        24 -10.3067    184.3161    181.0793   7.5731194304e+01   8.3141039647e+00    0.5345739    0.2365216 -55.96  0.001740048    3.756    0.734
        25  -9.3757     89.1995    180.1533   9.8902746632e+01   2.5253174059e+01    0.2089965    0.1985742 -28.56 0.0004360503    1.159    0.137
        26  -9.9175     84.3920    177.8477   9.9808109399e+01   2.6553467149e+01    0.2989921     0.201665  63.44  0.001120315    1.706    0.414
        27  -8.7235     92.2768    177.6582   9.7683880331e+01   2.5386938675e+01    0.1514357    0.1111995  74.73 0.0003089128    1.621    0.383
        28 -10.0392    180.0289    174.5626   7.5325332734e+01   1.0400395949e+01    0.2969432    0.2172522 -40.52 0.0007773672    1.335    0.251
        29 -10.2226     76.9177    233.4247   1.0873717390e+02   1.4902606574e+01    0.2274298     0.167294 -53.53 0.0009907987    1.580    0.367
        30 -10.2678     46.7156    172.4163   1.0907707540e+02   3.2923099628e+01    0.3978157     0.274788 -66.31  0.002042693    1.323    0.244
        31 -10.0132    245.6663    171.6693   6.2040833140e+01  -1.2414211899e-01    0.1371434   0.08980977  -8.80 0.0006338349    1.726    0.421
        32 -10.3380    191.6269    166.8215   7.1191112098e+01   9.8255670546e+00    0.4365892    0.2622394 -47.36  0.001424881    1.707    0.414
        33 -10.3630     67.5278    167.9913   1.0283714990e+02   3.1444729666e+01    0.2660933    0.1867747  53.50 0.0004215503    1.482    0.325
        34 -10.0938    186.4937    165.2972   7.1954708316e+01   1.1084984935e+01     0.298476    0.2308924 -18.53  0.001145454    1.332    0.249
        35  -9.3853    120.4794    165.6579   8.7974027093e+01   2.3527127109e+01    0.2540756    0.2153287 -86.90 0.0005473066    1.383    0.277
        36 -10.8546     86.9982    155.6063   9.5254624435e+01   3.1747747220e+01    0.2856187    0.2670519 -46.68 0.0003911006    1.076    0.071
        37 -11.4920    133.8734    146.0733   8.0213463461e+01   2.5660090769e+01     1.417636    0.3703321 -55.12  0.002986828    6.685    0.850
        38 -11.8631     93.4286    149.2110   9.2155575684e+01   3.2331138128e+01    0.7309121    0.5365387 -24.72  0.002430737    1.680    0.405
        39  -9.2062    174.9284    148.9805   7.0868293019e+01   1.6717611852e+01    0.2395528    0.1940119 -85.45 0.0008431941    1.732    0.423
        40 -10.7614    106.1999    135.7483   8.5517399789e+01   3.3472305195e+01    0.5065327    0.3207521 -25.77  0.001986141    2.147    0.534
        41 -10.2272    105.6206    130.6036   8.4482156305e+01   3.4844593465e+01    0.3923402    0.3462578 -64.47  0.001453271    1.181    0.153
        42 -11.6108     93.6082    135.5169   8.9198015637e+01   3.5759058578e+01    0.3000395    0.2662656 -36.98 0.0002735857    1.123    0.110
        43 -10.4932     80.1574    135.9285   9.3382598672e+01   3.7839656898e+01    0.2377744    0.2055872  83.28 0.0008492145    1.294    0.227
        44  -9.3630    117.3392    134.6752   8.2065386943e+01   3.1632795898e+01    0.1635466    0.1272948  79.86 0.0003182763    1.725    0.420
        45  -9.9313    111.1550    149.6157   8.7187385281e+01   2.9139698622e+01    0.5354699    0.3200014  70.73  0.001790943    3.238    0.691
        46 -10.3544    112.7220    127.7718   8.1719402336e+01   3.4191185363e+01    0.5464689    0.3294076  47.41  0.002085269    1.783    0.439
        47  -8.9135     61.9472    210.9655   1.0974109307e+02   2.1775744648e+01    0.2018765    0.1481827  58.50 0.0005592063    1.252    0.202
        48 -10.6744    135.0000    121.8903   7.4029523000e+01   3.1047413863e+01    0.6379728    0.0896786 -45.90   0.00125739    6.987    0.857
        49 -10.1665    100.9979    123.6813   8.4191944350e+01   3.7387409880e+01    0.2802912    0.2153122 -36.05 0.0005048278    1.323    0.244
        50  -9.8285    119.9807    122.5022   7.8316722622e+01   3.4013133482e+01    0.2498555    0.1579877  38.66  0.001040717    1.617    0.382
        51 -10.7884     56.8126    210.7306   1.1090177007e+02   2.2482014382e+01    0.2986046     0.219052  56.90  0.000920589    1.237    0.192
        52  -9.2747    109.1792    117.7109   8.0225380803e+01   3.7280058889e+01    0.2204057    0.2115349  81.45 0.0005237738    1.139    0.122
        53  -9.9665    135.0000    112.5013   7.1563056914e+01   3.3149224811e+01    0.3564943   0.08941136 -44.55 0.0009337278    3.927    0.745
        54  -8.9944    166.6814    111.7015   6.3629679257e+01   2.6306041939e+01    0.1556841    0.1231443   4.83 0.0003474975    1.616    0.381
        55 -10.9946    117.5865    109.5971   7.5602230032e+01   3.7479683294e+01    0.4897166    0.2513579  51.22  0.001802095    2.259    0.557
        56  -9.6449    205.5198    110.3139   5.5584343932e+01   1.8121488403e+01    0.2387491    0.2282164 -85.53  0.000644303    1.120    0.107
        57  -8.8341     87.6148    207.2366   1.0323351106e+02   1.9077812169e+01    0.1750902    0.1267906 -54.62 0.0003538134    1.468    0.319
        58 -10.7224     45.8574    222.5770   1.1445192413e+02   2.1171106060e+01      0.39468    0.1991603 -76.79  0.001915786    1.973    0.493
        59  -9.9432     64.4815    204.8277   1.0847111816e+02   2.2856339675e+01    0.2489062    0.1673543  82.68  0.001289781    1.589    0.371
        60  -8.9162    156.6487     83.6838   5.8288307752e+01   3.4072598512e+01    0.1571567    0.1194758  16.35 0.0007046988    1.734    0.423
        61 -10.8818     52.0363     75.5442   8.8102107216e+01   5.6333555877e+01    0.3427966    0.2274239  42.37  0.001717089    1.811    0.448
        62 -10.3980     62.0368    243.6168   1.1284320800e+02   1.4787579249e+01    0.1732019    0.1318748 -88.04 0.0004682794    1.323    0.244
        63 -10.2183    163.6253    203.2739   8.4607133950e+01   7.5100852328e+00     0.255298    0.1699906  13.31  0.001148905    1.738    0.425
        64 -12.7731    201.0741     37.8969   3.8748543269e+01   3.0685855267e+01    0.5962366    0.5042265 -65.83  0.001509633    1.069    0.065
        65  99.0000     50.3859    214.9569   1.1277507933e+02   2.2316772243e+01    0.4454914    0.1612549 -70.99  0.001853934    2.748    0.636
        66 -10.4148     60.2379     20.9915   6.4050518462e+01   6.4474914933e+01    0.2197695    0.1621609  31.12 0.0006044735    1.183    0.155
        67 -10.9354     71.2308    241.6632   1.1075990328e+02   1.3988376490e+01    0.2013242    0.1553827 -67.55 0.0005927213    1.425    0.298
