#   1 NUMBER                 Running object number                                     
#   2 MAG_AUTO               Kron-like elliptical aperture magnitude                    [mag]
#   3 X_IMAGE                Object position along x                                    [pixel]
#   4 Y_IMAGE                Object position along y                                    [pixel]
#   5 X_WORLD                Barycenter position along world x axis                     [deg]
#   6 Y_WORLD                Barycenter position along world y axis                     [deg]
#   7 A_WORLD                Profile RMS along major axis (world units)                 [deg]
#   8 B_WORLD                Profile RMS along minor axis (world units)                 [deg]
#   9 THETA_WORLD            Position angle (CCW/world-x)                               [deg]
#  10 FWHM_WORLD             FWHM assuming a gaussian core                              [deg]
#  11 ELONGATION             A_IMAGE/B_IMAGE                                           
#  12 ELLIPTICITY            1 - B_IMAGE/A_IMAGE                                       
         1 -17.2328    145.7272    106.7745   8.4921920703e+01   3.1914685247e+01     6.007493     2.722279 -52.60   0.02034643    2.806    0.644
         2 -14.6872     24.1806     70.5292   1.1635160202e+02   5.9996428234e+01     1.872199     1.631276  63.23   0.01213912    1.202    0.168
         3 -14.0534     49.2779     89.0115   1.0992786010e+02   5.3012702111e+01     2.209582     1.301592 -79.87   0.01062337    1.761    0.432
         4 -13.8561     82.9848     49.5874   8.6053082533e+01   5.6995964677e+01     1.425558    0.9430279 -41.60  0.006737881    1.464    0.317
         5 -14.9906     69.0940     43.6953   8.9270263026e+01   6.0782717459e+01       2.5841     1.750189 -41.58    0.0128111    1.403    0.287
         6 -14.5855     17.5076      9.8175   1.0282123152e+02   7.4667811738e+01     1.437733     1.056095 -13.29  0.008419614    1.439    0.305
         7 -14.8899    187.7184      8.5619   4.6885354050e+01   3.6237111199e+01     2.400934     1.068995  59.59  0.009779402    2.152    0.535
         8 -14.4520    164.0969      5.7097   4.8562590492e+01   4.2939980697e+01     1.636139     0.991779  82.45  0.007306235    1.699    0.412
         9 -14.2672     57.7929      6.1924   7.5703477975e+01   6.9720037999e+01      1.10498    0.8496335  32.76  0.006283014    1.303    0.233
        10 -12.8339     88.9905      3.5770   6.2167455883e+01   6.3286652912e+01    0.5620918     0.367477  56.73  0.002752683    1.492    0.330
        11 -11.4903    164.1271    228.6733   1.0222774481e+02   9.0982212678e+00    0.3578413    0.1561692  27.46   0.00182954    2.354    0.575
        12 -11.5955    211.6784    222.6774   9.3313329226e+01   3.0944256163e+00    0.2571118     0.122172  21.62  0.001388146    2.114    0.527
        13 -12.7630    223.3232    218.5495   9.0843361511e+01   1.9125076898e+00    0.4049097    0.2213344 -14.23  0.002563861    2.064    0.516
        14 -10.3879    139.9790    232.7504   1.0701316067e+02   1.1969648704e+01    0.1529567   0.07068463  37.53 0.0008846363    1.576    0.366
        15 -15.7750    145.6746    185.2768   1.0006346132e+02   1.7880100389e+01      1.30632    0.9938799 -52.39  0.008232154    1.630    0.386
        16 -16.8094    123.4386    177.4878   1.0365699119e+02   2.2769313964e+01     3.032748     1.977129  47.86   0.01727723    1.337    0.252
        17 -16.2899    130.7496    164.1983   1.0005923419e+02   2.3918090849e+01     1.841698     1.230592  49.99   0.01005474    1.389    0.280
        18 -15.5273    108.2365    146.7000   1.0254429116e+02   3.1094244147e+01     1.968888     1.454252  86.63    0.0102347    1.648    0.393
        19 -13.4392    125.8623    207.0634   1.0688664519e+02   1.7570046192e+01    0.5872513    0.1688768  44.89  0.002444868    2.871    0.652
        20 -11.7276    201.9318    207.5127   9.2774848340e+01   6.0878260513e+00    0.1808419   0.08954403  36.73  0.001034798    1.596    0.373
        21 -13.7182    147.4590    209.4427   1.0296310225e+02   1.4015475602e+01    0.5398996    0.3535923  40.22  0.002527862    1.194    0.163
        22 -12.7416    130.6353    201.4687   1.0527484585e+02   1.7715483147e+01    0.2335302    0.2195114  38.67  0.001657425    1.190    0.160
        23 -12.9642    138.6298    199.5050   1.0343086299e+02   1.6799430347e+01    0.4330901    0.2426524  65.06  0.001993226    3.184    0.686
        24 -11.0667    204.7841    196.6230   9.0624046321e+01   6.9064232912e+00    0.1627771   0.09305069  42.99 0.0003874579    1.656    0.396
        25 -13.8572    192.0611    192.1892   9.2174050934e+01   9.4126983521e+00      0.45896    0.3999714 -43.05  0.003157238    1.580    0.367
        26 -12.2873    175.3990    187.7938   9.4570291886e+01   1.2660322730e+01    0.2414765    0.1493833 -23.61  0.001347564    2.029    0.507
        27 -13.4165    159.6648    186.0325   9.7355152793e+01   1.5481099600e+01    0.4548371    0.2568903  35.69  0.002478382    1.481    0.325
        28 -11.2807      7.5162    187.2407   1.2997742747e+02   3.5225800600e+01    0.1952683    0.1224049  40.90  0.001395409    1.374    0.272
        29 -13.2089    166.5097    180.0309   9.5064399425e+01   1.5236746435e+01    0.3264422    0.2619324 -40.83  0.002049705    1.494    0.331
        30 -13.3921    160.7628    179.9635   9.6197517518e+01   1.6209438037e+01    0.3600985    0.2714863   9.41  0.001319558    1.493    0.330
        31 -12.8504    182.8716    174.9462   9.1046228036e+01   1.3209450768e+01    0.4249783    0.2367414  -7.10  0.001792881    3.358    0.702
        32 -11.5549    199.1164    176.8985   8.8372786097e+01   1.0226462586e+01    0.1834099    0.1625794  37.99  0.001243651    1.307    0.235
        33 -13.9344    148.4736    202.4388   1.0187188112e+02   1.4855433202e+01    0.6063751    0.3391142  44.76  0.003168133    1.508    0.337
        34 -13.5162    171.3205    172.0636   9.2796223043e+01   1.5604035646e+01    0.4084445    0.2629646  52.77  0.002019878    1.736    0.424
        35 -13.6591    151.9546    210.5371   1.0224461625e+02   1.3191011514e+01    0.6083186    0.3909988 -26.16  0.003126555    2.199    0.545
        36 -16.0044     94.6136    191.9430   1.1167070397e+02   2.4557745701e+01     1.985494     1.274379 -84.04   0.01177692    1.946    0.486
        37 -13.4591    149.8260    165.1698   9.6044854941e+01   2.0444458032e+01    0.5292834    0.2659637 -41.93  0.002513675    2.315    0.568
        38 -11.5659    206.7371    166.0120   8.5064681919e+01   1.0363433580e+01    0.1816574    0.1508555   9.86  0.001181794    1.053    0.051
        39 -12.3529    176.1412    165.4288   9.0685813595e+01   1.5756364790e+01    0.2961449    0.2008934  59.57  0.001354988    1.978    0.494
        40 -12.1523     75.9371    165.6461   1.1307497069e+02   3.2116710597e+01    0.2342077    0.1744432  86.03 0.0008588188    1.364    0.267
        41 -12.4200    177.4574    159.9859   8.9435870876e+01   1.6343079900e+01    0.2774871    0.1826686  38.29  0.001016825    1.333    0.250
        42 -11.6118     67.1610    162.6883   1.1487866195e+02   3.3879360660e+01    0.2130005    0.1276474  52.91   0.00107138    1.448    0.309
        43 -12.2896    172.4853    159.9363   9.0418727794e+01   1.7247292989e+01    0.2477233    0.1717309  52.14 0.0007436422    1.555    0.357
        44 -14.1144    120.5387     94.4153   8.8207247816e+01   3.9800842358e+01     1.604192     1.107959 -44.43  0.007519206    1.481    0.325
        45 -15.1289    135.1548    118.1652   9.0220739039e+01   3.1899160189e+01     1.702476     1.149849 -56.43  0.008073387    1.680    0.405
        46 -16.4510    149.6135    131.2170   8.9649888845e+01   2.6485287857e+01     2.358772     1.963492  -5.16   0.01190739    1.397    0.284
        47 -11.8940    187.2925    248.7594   1.0061612957e+02   3.7680416013e+00    0.2536608    0.1343682  21.16  0.001635888    1.801    0.445
        48 -12.7131    168.5501    206.7071   9.8627192250e+01   1.1196820952e+01    0.4192919    0.1513232  38.76  0.001990821    2.170    0.539
        49 -11.8461     78.1559    153.3003   1.1107090910e+02   3.4359388598e+01    0.2222966     0.171901 -58.55  0.001327625    1.446    0.308
        50 -12.9845    179.6374    151.2381   8.7340871472e+01   1.7284303014e+01    0.3234056     0.263196  43.34  0.001701139    1.208    0.172
        51 -13.6790    164.1282    149.0767   9.0090374334e+01   2.0535400565e+01    0.6185197    0.4310457  66.39  0.003042654    2.046    0.511
        52 -14.0472    178.2200    142.0898   8.5791165561e+01   1.8988168638e+01    0.6567063    0.4523097 -64.46  0.002869621    2.422    0.587
        53 -12.3540    197.3578    150.3580   8.3768977046e+01   1.4144462131e+01     0.416175    0.1375701  40.69  0.001602279    2.782    0.640
        54 -12.6400     88.2975    149.6803   1.0801770489e+02   3.3648092124e+01    0.3464274    0.1957268  61.34  0.001642286    1.970    0.492
        55 -12.5448    135.6551    210.5491   1.0537096842e+02   1.5612492653e+01    0.2656578    0.2399593  -6.74   0.00172455    1.371    0.271
        56  -9.6245     51.6567    149.2778   1.1740999780e+02   3.8625167139e+01     0.134316   0.07643092  59.75 0.0005549451    1.627    0.385
        57 -12.4692    188.5297    146.0075   8.4562542529e+01   1.6418077258e+01    0.2863771    0.2468501 -13.85  0.001113723    1.172    0.146
        58 -12.3946     90.3647    144.9228   1.0679752698e+02   3.4339039199e+01    0.3046891    0.2022014  52.99  0.001353875    1.399    0.285
        59 -13.0950     99.8658    157.6909   1.0628418287e+02   3.0229720897e+01    0.3946983     0.280616  31.56  0.002200006    1.432    0.302
        60 -12.6929    173.5644    144.7270   8.7272122384e+01   1.9458727546e+01    0.3136761    0.2128304 -40.09  0.001362329    1.615    0.381
        61 -16.4026     73.3652    198.6041   1.1680116774e+02   2.6209880972e+01     2.897517     1.034847  48.87   0.01412595    2.248    0.555
        62 -11.8849    125.6608    132.8592   9.5700354023e+01   3.0807773936e+01    0.2434197    0.1899113  31.38 0.0006122321    1.306    0.235
        63 -12.4661    114.9025    129.4805   9.7761334730e+01   3.3486649591e+01    0.4259239     0.279027  67.59  0.001949231    1.956    0.489
        64 -15.7342     74.7413    182.8239   1.1511023402e+02   2.8917128463e+01     1.671852    0.8380576  43.26   0.00903986    1.597    0.374
        65 -12.7682    185.2124    118.8012   7.9280288417e+01   2.1318116901e+01    0.5411682     0.308318 -26.24  0.002422631    1.929    0.481
        66 -14.6716    186.1502    111.5700   7.7375422968e+01   2.2280704682e+01     1.606524    0.9974869  28.07  0.007279926    1.849    0.459
        67 -14.1165     38.9575    109.8896   1.1667022341e+02   4.9064710694e+01     1.681562     1.260011  64.80   0.01001673    1.252    0.201
        68 -11.7249      7.7108    241.3474   1.3125484744e+02   2.6094102988e+01    0.1946733    0.1356632  66.85  0.001666657    1.198    0.165
        69 -13.9208     20.1676     90.2008   1.2064030178e+02   5.5478158382e+01     1.763639    0.6758611 -84.78  0.007365315    2.588    0.614
        70 -12.1635    200.4753    238.8312   9.7275557290e+01   3.0075733065e+00    0.3711627    0.1941203  -9.23  0.002119268    2.992    0.666
        71 -12.0945     18.6412    153.9069   1.2612093456e+02   4.0941807647e+01     0.521099    0.3109941  65.10  0.003254114    1.372    0.271
        72 -11.9874    103.8581     75.8101   8.7816109015e+01   4.7244660403e+01    0.5266575    0.3619559 -69.47  0.002306467    1.869    0.465
        73 -12.0191     95.6077     74.5635   9.0073857516e+01   4.9170824434e+01    0.5982993    0.4714867  82.12  0.002911178    1.575    0.365
        74 -11.9895    105.0208     68.9000   8.5289969908e+01   4.8470988123e+01    0.5116069    0.4299656  82.14  0.002289054    1.396    0.283
        75 -12.1695     99.1665     69.4877   8.7341082597e+01   4.9563815770e+01    0.3729828    0.3485758  78.05  0.001376745    1.120    0.107
        76 -11.5296    177.9635     64.7989   6.6209242895e+01   3.1666018621e+01    0.4111692    0.2503521  54.79  0.001668113    1.644    0.392
        77 -12.9691    181.8099    239.0371   1.0039628646e+02   5.4868369193e+00    0.3090563    0.2636705  61.57  0.002452421    1.802    0.445
        78 -12.8126    188.1630    235.6360   9.8917306451e+01   4.9828280518e+00    0.4253085    0.2020242 -18.32  0.002137251    3.951    0.747
        79 -13.5301     53.2110     46.9640   9.7467780982e+01   6.2557434949e+01     1.249824    0.8228897 -29.12   0.00609669    1.797    0.444
        80 -12.0262      3.2763     50.8950   1.2270432421e+02   6.5997064171e+01    0.6656367    0.2249144 -56.89  0.003028015    2.315    0.568
        81 -12.1201     10.0509     46.9949   1.1873461789e+02   6.6631459358e+01    0.4643987    0.3788437 -50.50  0.002860457    1.172    0.147
        82 -12.0406    249.7722     49.2838   5.2160557925e+01   1.6957885330e+01    0.7719854    0.2273957 -21.92  0.002673531    3.420    0.708
        83 -11.8284    124.7591     41.2140   6.9624275641e+01   4.9068521749e+01    0.5099691    0.3835033  73.69  0.002369793    1.523    0.343
        84 -10.7599    192.6391    239.2997   9.8620176761e+01   4.0036376382e+00     0.100001   0.06978949  47.74 0.0007035473    1.717    0.418
        85 -13.4562     12.5601    228.7978   1.3014260464e+02   2.7605119348e+01    0.5758762    0.3165883  44.62  0.004383935    1.286    0.223
        86 -13.1199    206.2963    229.2200   9.5084734547e+01   3.1746952879e+00    0.4521179    0.2612869  26.06  0.003071878    1.316    0.240
        87 -12.3011    215.1684    227.5708   9.3420156919e+01   2.1409657690e+00    0.4033325     0.108836  33.50  0.001805604    3.082    0.676
