#   1 NUMBER                 Running object number                                     
#   2 MAG_AUTO               Kron-like elliptical aperture magnitude                    [mag]
#   3 X_IMAGE                Object position along x                                    [pixel]
#   4 Y_IMAGE                Object position along y                                    [pixel]
#   5 X_WORLD                Barycenter position along world x axis                     [deg]
#   6 Y_WORLD                Barycenter position along world y axis                     [deg]
#   7 A_WORLD                Profile RMS along major axis (world units)                 [deg]
#   8 B_WORLD                Profile RMS along minor axis (world units)                 [deg]
#   9 THETA_WORLD            Position angle (CCW/world-x)                               [deg]
#  10 FWHM_WORLD             FWHM assuming a gaussian core                              [deg]
#  11 ELONGATION             A_IMAGE/B_IMAGE                                           
#  12 ELLIPTICITY            1 - B_IMAGE/A_IMAGE                                       
         1  -9.6544     32.8329     38.2552   9.5554212427e+01   6.5366246038e+01    0.2895156    0.1395641 -46.77  0.001486234    1.741    0.426
         2 -10.9673    213.6257     30.5371   4.5109670596e+01   2.7807303310e+01    0.9105679    0.5411009 -59.06  0.004342557    1.746    0.427
         3 -11.1537    219.1606     23.1184   4.2605864672e+01   2.7369251630e+01    0.5830156    0.4087775  29.11  0.001319518    2.059    0.514
         4 -11.3802    236.2592      8.2786   3.7485809414e+01   2.5044697210e+01    0.5886694    0.4217304 -25.66   0.00220195    1.595    0.373
         5 -11.2475    232.7160      6.3752   3.7333680284e+01   2.6061948911e+01    0.5747963    0.4063623 -19.18  0.002430795    1.756    0.430
         6  -8.2528     32.7723      6.0322   8.1324546779e+01   7.0603265618e+01    0.1533557   0.08222964 -32.00 0.0007903413    1.645    0.392
         7  -8.8089      1.9301      3.8179   9.7291749169e+01   7.3818458599e+01    0.2392582     0.127738 -54.38  0.001421667    2.142    0.533
         8  -9.8109    228.4478    231.3011   8.8391806510e+01  -6.8521607281e+00    0.1964861    0.1382664  46.59  0.000913824    1.775    0.437
         9 -13.3813    171.8736    241.9896   1.0053169586e+02   6.0417148461e-01     2.823797     1.121865  37.98   0.01327383    2.046    0.511
        10  -8.1736     62.2313    207.1427   1.1815632294e+02   2.3815440852e+01    0.1801994     0.117454  70.05  0.001064965    1.379    0.275
        11 -12.4415    115.6509    236.0193   1.1057141909e+02   1.0558100382e+01     1.389442     1.161523  23.37  0.009224736    1.448    0.309
        12  -8.4069     59.5032    203.4446   1.1836269669e+02   2.4933869756e+01    0.1967483    0.1091903 -73.00 0.0008999824    1.732    0.423
        13  -9.0322     57.4544    200.4564   1.1850073054e+02   2.5821224822e+01    0.2166903    0.1371515 -88.83 0.0008536151    1.489    0.328
        14  -8.3599    230.3149    227.3171   8.7388576757e+01  -6.6342608961e+00    0.1270406    0.0786527   8.76 0.0007037312    1.648    0.393
        15 -12.1423    119.8807    246.6066   1.1093527778e+02   8.1404080398e+00     1.861666     0.675596  33.30  0.007583223    3.217    0.689
        16  -9.0549     48.6994    191.8703   1.1951843349e+02   2.8732470426e+01    0.1799931    0.1631761  68.64  0.000500723    1.220    0.180
        17  -9.8244     57.5861    183.9894   1.1680615918e+02   2.9365919197e+01    0.3442644    0.2478406 -39.44  0.001509788    2.010    0.502
        18  -8.6812     83.1912    222.5385   1.1546687317e+02   1.7880797345e+01    0.2159221   0.09249905 -70.26  0.001015745    2.642    0.621
        19  -9.8190     63.4835    177.6577   1.1476202507e+02   3.0024313686e+01    0.2807526    0.2197061 -57.67 0.0008793984    1.396    0.284
        20  -9.9483     32.8537    168.8255   1.2079681935e+02   3.5614850140e+01    0.5157161    0.1506716 -73.50  0.002038806    3.058    0.673
        21  -9.4036     73.8485    167.2627   1.1098179095e+02   3.0995300509e+01    0.2585452    0.2081127 -70.19 0.0003705742    1.181    0.153
        22 -11.4581     60.4380    163.9483   1.1378041007e+02   3.3573258312e+01    0.4932266    0.2854403 -48.38  0.001425372    1.999    0.500
        23 -10.6614     81.3993    160.3585   1.0811109312e+02   3.1512449300e+01    0.4850583    0.4551345  24.80  0.001736534    1.276    0.217
        24 -13.7653      5.5997    237.4482   1.3041614202e+02   2.4319870796e+01     2.462403     1.551576  72.15   0.01757602    1.109    0.098
        25 -10.0326     21.8784    168.0088   1.2318036392e+02   3.6867922881e+01    0.3337199    0.1294053 -89.33  0.001431853    2.788    0.641
        26 -11.6457     67.0271    143.3761   1.0913197218e+02   3.7609357852e+01      1.05329    0.5246027  60.35  0.004256235    2.689    0.628
        27 -10.0025     57.8704    132.2986   1.0981515522e+02   4.1476097547e+01     0.374092    0.2368275 -73.41  0.001893568    1.491    0.329
        28  -8.8255     96.3078    144.9923   1.0163206262e+02   3.2801918122e+01    0.2522665    0.2126105  -7.29 0.0007493654    1.564    0.361
        29 -10.2020     84.0405    144.0741   1.0471605035e+02   3.4990344722e+01    0.3033978    0.2486303 -51.21 0.0004921969    1.244    0.196
        30  -9.8610     33.0000    137.3349   1.1729978756e+02   4.2962976558e+01    0.4761523    0.0794098 -67.48   0.00145852    4.435    0.774
        31  -9.1226    107.7066    132.6534   9.6060977976e+01   3.3745094911e+01    0.4053136    0.2520748  50.95  0.001779842    1.714    0.416
        32 -12.3789     10.6386    206.7055   1.2809228860e+02   2.9674206623e+01    0.8226616    0.5871527  37.71  0.004011546    1.631    0.387
        33  -9.0266     95.1698    129.4267   9.8813311881e+01   3.6722046304e+01    0.2953776    0.2469298 -37.06 0.0007427043    1.294    0.227
        34  -7.7681    105.5049    120.5804   9.3928029803e+01   3.7005484188e+01    0.1493519    0.1449394 -69.83 6.266619e-05    1.014    0.014
        35  -9.7621     32.7208    117.0752   1.1456705154e+02   4.7850692095e+01     0.620454    0.0897776 -66.48  0.001706049    5.314    0.812
        36  -7.7850    168.3013    112.9887   7.5799189714e+01   2.5258286140e+01    0.2582505    0.1171407 -57.73 0.0006528974    4.077    0.755
        37  -7.6497    205.3255    110.6818   6.7487369696e+01   1.7086203873e+01     0.155072    0.1198613 -71.40   0.00070454    1.675    0.403
        38  -8.4432     33.0000    102.9645   1.1216706960e+02   5.1204858904e+01    0.2240704   0.06265214 -65.18 0.0008046401    2.958    0.662
        39  -9.2256     13.0252     60.7433   1.1072630076e+02   6.2316733602e+01    0.3346477   0.05401308 -54.68  0.001251331    3.201    0.688
        40  -9.6355     33.0000     53.4991   1.0059209036e+02   6.2349393605e+01    0.5089613    0.0611636 -55.46  0.001263288    7.051    0.858
        41  -9.6702     16.4666     47.7244   1.0593725875e+02   6.4845636273e+01    0.2376387      0.10413 -61.97  0.001155079    2.133    0.531
        42 -10.8642     12.5436     42.8896   1.0628075033e+02   6.6078502947e+01    0.5854146   0.09050949 -50.30  0.002223502    3.332    0.700
        43 -12.1203    180.5445    231.5269   9.7357808462e+01   7.1369776364e-01     1.009975    0.7445881 -24.17  0.006203584    1.602    0.376
        44 -11.5345     28.7697    213.2509   1.2514780120e+02   2.6546696332e+01    0.4662772    0.4336555 -87.86  0.003685939    1.425    0.298
        45  -8.6163     44.7075    242.1684   1.2415692173e+02   1.9267567247e+01    0.1880229    0.1119601 -89.55  0.001252987    1.553    0.356
        46  -9.9662    204.6869     34.8593   4.7352841177e+01   2.9470619294e+01    0.3766782     0.251646  24.34   0.00169052    2.235    0.553
        47  -8.3747     33.0000     17.0084   8.6651210268e+01   6.8992361957e+01    0.1938959   0.05824517 -41.54 0.0006471038    2.942    0.660
        48  -9.3073    234.4766    228.5223   8.6850667545e+01  -7.4065611844e+00    0.2321782    0.1397299   8.34  0.001307405    1.721    0.419
        49 -13.0836     38.1788    203.1894   1.2263109980e+02   2.7557051330e+01     1.921506     1.247834  69.77   0.01150587    1.280    0.219
        50 -13.8926      4.2677    135.2407   1.2443851962e+02   4.5760008766e+01     10.09756      1.71454 -78.23   0.02778692    6.519    0.847
