#   1 NUMBER                 Running object number                                     
#   2 MAG_AUTO               Kron-like elliptical aperture magnitude                    [mag]
#   3 X_IMAGE                Object position along x                                    [pixel]
#   4 Y_IMAGE                Object position along y                                    [pixel]
#   5 X_WORLD                Barycenter position along world x axis                     [deg]
#   6 Y_WORLD                Barycenter position along world y axis                     [deg]
#   7 A_WORLD                Profile RMS along major axis (world units)                 [deg]
#   8 B_WORLD                Profile RMS along minor axis (world units)                 [deg]
#   9 THETA_WORLD            Position angle (CCW/world-x)                               [deg]
#  10 FWHM_WORLD             FWHM assuming a gaussian core                              [deg]
#  11 ELONGATION             A_IMAGE/B_IMAGE                                           
#  12 ELLIPTICITY            1 - B_IMAGE/A_IMAGE                                       
         1 -13.7232    117.5417     64.6479   4.7412641189e+01   4.6741928046e+01     1.921819     1.357748  88.37  0.008226413    2.305    0.566
         2 -12.2432    162.0270     56.2778   3.3967271036e+01   3.7509835712e+01     1.835469    0.7389937 -43.04  0.006512368    2.568    0.611
         3 -12.2153    166.7077     26.9605   2.4046059597e+01   4.0508608314e+01     1.059433    0.4996759 -44.83  0.004322692    2.284    0.562
         4 -12.9821    161.4694     38.0914   2.8447980329e+01   4.0399000522e+01     1.184153    0.8040791  73.99  0.005572158    1.525    0.344
         5 -11.7448    195.1217     26.8739   1.9704609310e+01   3.3102490220e+01    0.8028728    0.5057902  78.59    0.0032851    1.545    0.353
         6 -13.4026    186.2982     34.6172   2.3158899132e+01   3.4393353617e+01    0.7940449     0.626463 -84.03  0.001538677    1.276    0.216
         7 -13.6295    192.9796     67.3800   3.1275238077e+01   2.7692968302e+01      1.77621     1.166645   7.22  0.006731362    2.849    0.649
         8 -14.5409     12.1721     36.7283   7.6526358505e+01   6.6990233405e+01     1.444219    0.8641221 -48.98  0.005191552    1.286    0.223
         9 -11.7519     46.5827     23.4142   5.6564940251e+01   6.6064116569e+01     1.993251     1.345045   9.69   0.01215094    1.548    0.354
        10 -13.8915     35.1924     57.7102   7.3065126203e+01   6.1088424199e+01     1.773281      1.11695  12.20   0.01025457    1.921    0.479
        11 -14.0209      3.9368     53.9253   8.4267342060e+01   6.4072076495e+01     2.441767    0.9597906 -78.81   0.00984915    4.086    0.755
        12 -12.5229     73.5796      9.3873   3.9959686331e+01   6.3811112423e+01     1.342307    0.7063552 -50.00   0.00573453    3.495    0.714
        13 -12.4754     69.0563     14.9380   4.4030471245e+01   6.3928177804e+01    0.8731746    0.6024718  81.24  0.003753103    4.191    0.761
        14 -11.2613     30.0568     20.0376   6.2487071826e+01   6.8472245597e+01    0.7340096    0.3137285 -42.15  0.003091222    1.974    0.493
        15 -13.8462     68.7341     28.3179   4.9844018572e+01   6.2125451869e+01     2.775977     1.139769 -33.71   0.01230052    2.385    0.581
        16 -13.5569     50.8587     46.2946   6.3453524594e+01   6.1624703174e+01     1.487982    0.6715387 -32.01  0.006521384    2.556    0.609
        17 -12.6455    196.9536     37.4773   2.2368629219e+01   3.1227070641e+01     1.203321      1.07119   0.81  0.006658075    1.403    0.287
        18 -10.9461    220.8757     11.8457   1.2797700339e+01   2.8367240607e+01    0.5100938    0.2178419 -50.42  0.001017448    2.251    0.556
        19 -11.0077    226.6285     22.5757   1.4827035129e+01   2.5664354485e+01    0.6833288    0.3982863  56.16  0.003363768    1.811    0.448
        20 -12.3560     80.8573     22.8307   4.3319871696e+01   6.0821576862e+01    0.5960052    0.3299254  32.70  0.002909524    1.842    0.457
        21 -11.1978    147.3685     25.6886   2.7162236657e+01   4.5637824893e+01    0.5837218    0.3789136  18.72  0.001871089    2.126    0.530
        22 -11.7536    162.9711     21.4571   2.2966074762e+01   4.2145682276e+01    0.4551004    0.3354544  11.70  0.001698766    1.785    0.440
        23 -11.4257    139.1540     17.5279   2.6014841448e+01   4.8652461946e+01    0.2958768    0.2306976 -26.17 0.0002733278    1.407    0.289
        24 -10.0617    202.0047     18.8687   1.6652265110e+01   3.2305960607e+01    0.4660681     0.262606  37.73  0.001989677    2.542    0.607
        25 -10.4127    160.2035     14.2500   2.1157094492e+01   4.3672458045e+01    0.2612246    0.1829257 -43.55  0.001348704    1.537    0.349
        26 -10.5231    227.7775     13.4442   1.2514281536e+01   2.6489684951e+01    0.3212094    0.1841072  87.07    0.0015037    1.688    0.407
        27 -10.1926    134.2104     12.8777   2.5374818233e+01   5.0372958543e+01    0.3550895    0.2253055  47.29  0.001793701    1.436    0.304
        28  -9.8808    129.7146     11.3297   2.5734181543e+01   5.1626728887e+01    0.2020125    0.1836423 -82.15 0.0006188611    1.232    0.188
        29 -10.4179    148.4648     11.3204   2.2178927050e+01   4.6980844698e+01    0.4812211    0.2782064 -75.67  0.001245092    2.555    0.609
        30  -9.8873    179.7079     11.9086   1.7567132376e+01   3.8866452030e+01    0.1962441    0.1697876  55.51 0.0007073477    1.178    0.151
        31  99.0000    141.3441     11.4433   2.3501025412e+01   4.8757802973e+01    0.3555097    0.2481299  58.64  0.001881231    1.260    0.207
        32 -10.8044    115.3346     11.0559   2.8788915552e+01   5.5044299224e+01    0.4141523     0.244052  25.91  0.001195364    1.980    0.495
        33  -9.6843    116.5604      6.5244   2.6769706506e+01   5.5212890687e+01    0.1339025    0.1162632  40.87 0.0002844504    1.022    0.022
        34 -10.7468     88.2150     11.4394   3.6165762743e+01   6.0820151176e+01    0.2416508    0.2170153  59.08 0.0006683488    1.317    0.241
        35 -11.1625     84.7859      7.8334   3.5648615261e+01   6.1886389805e+01    0.3859473    0.2083753 -24.89  0.001919335    1.892    0.472
        36 -11.8902     88.1319      2.9168   3.2507566151e+01   6.1720738861e+01    0.2892818    0.2065448  15.14 0.0008659869    1.380    0.275
        37 -10.8306     84.7942      1.9726   3.3063745929e+01   6.2476578461e+01    0.2296511    0.1667415   2.30 0.0007923841    1.373    0.272
        38 -11.8889    247.0746     10.3554   1.0109202630e+01   2.2286481115e+01     0.411184    0.2037825 -89.49  0.001799866    2.078    0.519
        39 -12.5268    242.2847      7.5980   9.8866627354e+00   2.3713742776e+01     0.382763    0.2638886 -79.43   0.00095064    1.272    0.214
        40 -10.1907    233.4666      7.8432   1.0682748708e+01   2.5765054775e+01     0.421667    0.3202147 -20.95  0.002450492    1.673    0.402
        41 -11.5898     26.0959      9.6584   5.9885315607e+01   7.0462794673e+01     0.223642    0.1566564   3.92 0.0007769243    1.342    0.255
        42 -11.2434    173.6579      6.5941   1.6829609304e+01   4.0987885304e+01    0.3071418    0.2684367  72.35  0.001206621    1.038    0.037
        43 -11.6147     48.8937      8.1241   4.8757366495e+01   6.7918814742e+01    0.3613669    0.2324066   7.87  0.001721266    1.593    0.372
        44 -10.8875    194.0986      7.3970   1.4508481056e+01   3.5624597193e+01    0.2666422    0.1859033  56.01 0.0006135014    1.426    0.299
        45  -9.1015    132.5975      7.8132   2.3896700267e+01   5.1277106868e+01    0.1586661    0.1276799 -38.04 0.0002763646    1.392    0.281
        46  -9.8120    110.6713      4.6621   2.7391222434e+01   5.6734052800e+01    0.3630323     0.205039   3.43  0.001693011    2.333    0.571
        47  -9.6629    107.6959      4.2534   2.7931985476e+01   5.7439562114e+01    0.1991279    0.1486967  53.64  0.000237587    1.210    0.174
        48 -10.5209    100.2940      6.1742   3.0561569790e+01   5.8875219321e+01    0.4258276    0.2047214  48.13  0.001651346    1.788    0.441
        49 -10.9821      3.3038      6.6859   7.0390985302e+01   7.2766504896e+01    0.2247669    0.1544156  -9.68 0.0009051301    1.338    0.253
        50  -9.3518    145.5182      6.4792   2.1073484973e+01   4.8204053583e+01    0.1392751     0.120126  55.69 5.718537e-05    1.050    0.047
        51  -9.5330    188.6239      4.0329   1.4224545306e+01   3.7379157880e+01    0.1656838    0.1321641 -30.68            0    1.421    0.296
        52 -10.6824    183.3103      3.9151   1.4822773338e+01   3.8759952132e+01    0.2219582    0.1871997  71.11 0.0006436773    1.082    0.076
        53 -10.6378    217.7810      2.6757   1.0857807987e+01   3.0145748135e+01    0.1937008    0.1696158  80.34 0.0002443672    1.147    0.128
        54 -10.4685    154.3911      2.4168   1.8305797355e+01   4.6339151235e+01    0.2604063    0.1944729  57.05 0.0008609536    1.190    0.160
        55 -11.9772     46.8254      2.1699   4.6735719447e+01   6.8941993329e+01     0.320283     0.174156  26.29  0.001403997    1.805    0.446
        56 -10.2110    126.9330      1.6899   2.2791804403e+01   5.3211903040e+01     0.186373    0.1461758  61.25 0.0002745066    1.141    0.124
        57 -10.9971    226.1747     98.1169   3.3585417465e+01   1.4273210790e+01    0.3077945    0.2047678 -22.59   0.00139342    1.758    0.431
        58 -11.2758    248.8705    249.8019   5.9974333687e+01  -1.2371890062e+01    0.2293175    0.1452262  20.56  0.001544824    1.280    0.219
        59 -11.0114    228.9888    249.2163   6.3230221645e+01  -9.4292429938e+00    0.2079541    0.1592192 -18.30 0.0005093597    1.453    0.312
        60 -12.0205    227.5717    242.6484   6.2478805682e+01  -8.4635931093e+00    0.2791342    0.2678286 -47.67  0.001891327    1.576    0.366
        61 -12.3145     36.0306    249.0443   9.7116245336e+01   1.9995579213e+01    0.3368262    0.2215005  46.15  0.002465816    1.500    0.333
        62  -9.8656    194.0694     98.7454   3.9477645793e+01   2.1833874265e+01    0.2195127    0.2078274  51.39  0.001153719    1.079    0.073
        63 -11.5469    169.2154     97.3879   4.4269401122e+01   2.8214230120e+01    0.5611625     0.412078  71.17  0.002507473    1.542    0.352
        64 -11.8542     54.2804     99.4236   7.6462008404e+01   4.9983088048e+01    0.2854184    0.1756121  23.65  0.001458897    2.019    0.505
        65  -9.9939    231.6866     97.8910   3.2643641737e+01   1.3051493902e+01    0.2010904    0.1735794 -47.17 0.0003277327    1.092    0.084
        66 -11.6308    200.1797     96.3446   3.7691134810e+01   2.0782213453e+01    0.4152296    0.3111399 -74.41 0.0006068793    1.619    0.382
        67 -11.7659    139.1964     97.1225   5.1309493445e+01   3.5427367237e+01    0.4966824     0.270367  62.24  0.001356596    2.357    0.576
        68 -12.8184    137.1583     72.0987   4.4554280294e+01   4.0897176890e+01     1.440841    0.5756221  45.78  0.005011036    2.514    0.602
        69 -11.1096     11.8772     97.4606   8.9128895884e+01   5.4281258620e+01    0.2353923    0.1331431 -64.19 0.0006197717    1.364    0.267
        70 -12.0953    189.1258     93.4627   3.9062018604e+01   2.4041020130e+01    0.4257909    0.3442861 -87.00  0.001076056    1.414    0.293
        71 -11.1088    177.6781     94.6866   4.1720133717e+01   2.6652117897e+01    0.2830009    0.2605479  52.59 0.0003716664    1.088    0.081
        72 -11.9838    186.4497     87.3466   3.7954130112e+01   2.5843385034e+01    0.5142596    0.3883367   2.35  0.001965286    1.907    0.476
        73 -11.4273    181.7857     96.0367   4.1226255210e+01   2.5375299143e+01    0.3604911     0.232797 -46.33 0.0008939731    1.560    0.359
        74 -11.2720    182.2615     92.4224   4.0161997481e+01   2.5944189339e+01      0.37633    0.2750669  56.06 0.0009848113    1.355    0.262
        75 -11.4596     73.2650     96.6347   6.9957349586e+01   4.8111527764e+01    0.2538045    0.2295064   3.24  0.001043415    1.285    0.222
        76 -12.0281     49.8806     95.3745   7.6995435492e+01   5.1419431432e+01    0.3598207    0.2405638  27.59  0.000159629    1.758    0.431
        77 -11.7033     43.5519     93.4965   7.8615753052e+01   5.2530860774e+01    0.4280212    0.1284669 -59.26  0.001672544    2.667    0.625
        78  -9.9751     27.4797     95.9467   8.4132811670e+01   5.3470801846e+01    0.1893777    0.1016562 -66.45 0.0004967384    1.529    0.346
        79 -10.3843    247.6478     94.6374   2.9467000828e+01   1.0058524271e+01     0.295506    0.2144824  50.67 0.0008985018    1.506    0.336
        80 -11.2886    214.0580     94.4077   3.4702748481e+01   1.7769027783e+01    0.2787668    0.2701223 -67.70 0.0006314354    1.016    0.016
        81 -10.8130    207.5844     94.4866   3.5859939722e+01   1.9315244860e+01    0.2616533    0.2506189 -61.00 0.0005429884    1.012    0.011
        82  -9.7677    157.0237     95.4926   4.6519871151e+01   3.1563025488e+01    0.2402645    0.1537542  50.23  0.000533083    1.539    0.350
        83 -10.5891     68.2874     94.5719   7.1017581679e+01   4.9289909256e+01    0.2254722    0.1306066  40.16 0.0005765667    1.879    0.468
        84 -11.6844     95.9540     89.7694   6.1267218638e+01   4.5943051991e+01    0.5546191    0.3923973  78.34  0.001330963    2.086    0.521
        85 -11.7100     62.0985     90.3801   7.1989479437e+01   5.1070762779e+01    0.2572752    0.2506521  35.04 0.0006257794    1.150    0.130
        86 -13.1758     52.5711     88.5937   7.4656016452e+01   5.2647344642e+01    0.5678589    0.3700014 -54.16  0.001583839    1.325    0.245
        87 -11.5105     48.5812     85.7028   7.5309080897e+01   5.3747424598e+01    0.2752793    0.2289751 -82.88  0.001156216    1.294    0.227
        88 -12.6765    207.2458     45.0975   2.2950522732e+01   2.7499349156e+01     1.095978     0.891018 -82.95  0.004596233    1.193    0.162
        89 -11.5466      2.9884    248.2692   1.0220417649e+02   2.3747465703e+01    0.3245783    0.1695182 -89.88  0.002380027    1.537    0.349
        90 -13.3961    176.1666     86.5978   3.9833465812e+01   2.8566213911e+01     1.542389    0.8556764  26.93   0.00359778    3.539    0.717
        91 -13.9405    196.2405     84.4804   3.5316607196e+01   2.3906374388e+01     1.312931     1.009003  77.50  0.003661294    1.422    0.297
        92 -11.7716    220.4609     41.3072   2.0192270269e+01   2.4704080699e+01     2.248647    0.4538266  55.78  0.006593249    4.402    0.773
        93 -10.8881     15.9987    238.4764   9.9782506929e+01   2.4115170127e+01    0.1781476    0.1168894 -77.20  0.000634398    1.575    0.365
        94 -13.5732    224.0887     70.9241   2.7178023577e+01   1.9323365730e+01     1.142695     1.075467  55.66  0.006529693    1.162    0.140
        95 -14.2982    204.0261     69.7701   3.0027861778e+01   2.4480931990e+01     1.617571     1.170113 -79.60  0.007526062    1.612    0.380
        96 -10.7235    180.3944    243.1834   7.0967985328e+01  -9.2776289244e-01    0.1441704    0.1178932 -65.30 0.0009501929    1.704    0.413
        97 -12.9243    193.1253     51.8994   2.6958634935e+01   3.0129308661e+01     1.104876    0.7158074 -59.04  0.002426354    1.687    0.407
        98 -11.8188    236.8620     52.9101   2.1011931166e+01   1.9043696214e+01    0.4485045    0.4075418  51.78  0.001316579    1.281    0.219
        99 -12.7680    230.9664     46.1008   2.0080264227e+01   2.1444575164e+01     0.906931    0.7298717  53.37  0.004631126    1.390    0.281
       100 -12.3288     90.5617     51.0249   5.0917655378e+01   5.4644968211e+01    0.3383949    0.2840795 -19.92 0.0003700796    1.165    0.142
       101 -13.8962     80.1099     59.9519   5.7407773937e+01   5.4833014585e+01     1.830098    0.7521594 -44.42  0.007476206    2.294    0.564
       102 -10.4748    159.8950    219.8840   7.1544074591e+01   6.1747911298e+00    0.1924357    0.1615515  49.25 0.0003881432    1.037    0.036
       103 -11.6713    152.8658    124.1649   5.4907601715e+01   2.6530075690e+01    0.2569573    0.2460184  82.22 0.0002365001    1.020    0.019
       104  -9.9477    225.8064    121.0467   3.9123784953e+01   1.0356354200e+01    0.2780909    0.1803151  26.22 0.0009045235    2.074    0.518
       105 -14.0469     10.3271     66.5170   8.4460128859e+01   6.1122949409e+01     1.131314    0.8903866  -4.04  0.007166178    1.532    0.347
       106  -9.2365    249.3028    118.2825   3.4631376276e+01   5.8476067542e+00    0.1347521    0.1056459   7.46 0.0003682231    1.553    0.356
       107 -10.2026    204.5413    116.3858   4.1891991467e+01   1.6021911671e+01    0.2750637    0.2322768  62.39 0.0007687548    1.231    0.188
       108  -9.9181    155.8023    115.7990   5.2150692835e+01   2.7643328842e+01    0.2196341    0.1850444  89.80 0.0004235781    1.334    0.250
       109 -12.3406     25.0811     43.6922   7.3066235140e+01   6.4736946088e+01    0.6809314    0.3845971 -49.32  0.004051967    1.426    0.298
       110 -11.8858     26.4115     36.0101   7.0061519354e+01   6.6064717590e+01    0.3468513    0.2373287 -25.24 0.0006336194    1.335    0.251
       111 -10.6660     90.9460    115.9537   6.9159552702e+01   4.0864233372e+01    0.2118196    0.1967281 -78.15 0.0002898645    1.008    0.008
       112 -13.4838     54.9286     71.2468   6.9541561187e+01   5.6157599202e+01    0.8945557     0.638359 -58.25  0.002886494    1.332    0.249
       113 -11.6762    133.0375    111.6296   5.6709847632e+01   3.3677636240e+01    0.3626646    0.3131576  70.31  0.001218962    1.201    0.167
       114 -12.7725     58.6192     60.5132   6.5121644565e+01   5.7902359735e+01    0.9111698    0.5786237 -73.91  0.003344088    2.626    0.619
       115  -9.0987    171.6891    112.7089   4.7735967595e+01   2.4541254483e+01    0.1557594    0.1260902  13.37 0.0002781921    1.585    0.369
       116 -12.8816     75.3087     42.3329   5.2923887126e+01   5.8813803575e+01     0.559393    0.4100376 -50.63  0.001317459    1.564    0.361
       117 -12.8440     82.5017     40.7594   4.9855014773e+01   5.7846723820e+01     0.604456    0.5272024 -41.41  0.002405884    1.243    0.195
       118 -10.0570    166.5013     89.5131   4.2714350728e+01   3.0423702643e+01    0.2994554     0.155285  58.88 0.0007805074    2.049    0.512
       119 -12.0096    162.3315     84.4233   4.2212703129e+01   3.2437115254e+01    0.6049137    0.5303642  59.41  0.002218842    1.118    0.106
       120  -9.3430     86.2496     89.6367   6.4184104147e+01   4.7654907053e+01    0.1415915    0.1089043 -81.91 0.0006951064    1.615    0.381
       121 -12.5441    213.5274     84.7506   3.2346302577e+01   1.9582118105e+01    0.5953131    0.4093044 -19.62  0.002671346    1.814    0.449
       122 -12.8790     66.9166     81.9145   6.8312824877e+01   5.2302009859e+01    0.6700767    0.5126497 -72.19  0.001884414    1.459    0.315
       123 -11.6356    237.3962     86.3271   2.8994934895e+01   1.3686869744e+01    0.4740888    0.2625307  65.64 0.0007092408    2.051    0.512
       124 -11.9490      5.7856     84.2363   8.9073293002e+01   5.7569104797e+01    0.4079376    0.1203192 -66.34  0.001592685    2.416    0.586
       125 -12.2640    169.4863     79.8109   3.9339756913e+01   3.1512024689e+01    0.6151855    0.5061142 -75.80   0.00297314    1.353    0.261
       126  -9.4732    245.3521     84.4748   2.7419097782e+01   1.2202524788e+01    0.1403262    0.1232731 -45.04 0.0001261749    1.049    0.047
       127 -12.1629    114.5149     80.6078   5.3216546157e+01   4.4272796220e+01    0.5023498    0.4497173 -10.62  0.001122463    1.227    0.185
       128  -9.4316    109.4931     81.5246   5.4927540861e+01   4.5113088648e+01    0.1466596    0.1432766 -27.77 -4.328086e-05    1.020    0.020
       129 -12.2131     27.8999     80.8259   8.1184753475e+01   5.6814592793e+01    0.3414704    0.2202874  19.85  0.002034326    1.901    0.474
       130 -10.7794     70.9227     88.0021   6.8578238248e+01   5.0394332959e+01    0.2579666    0.2302349  88.69 0.0004295758    1.242    0.195
       131 -14.1341    216.6955     61.0511   2.5758162034e+01   2.2707483508e+01      3.87564     1.091463  63.17   0.01183541    3.743    0.733
       132 -11.9123     72.2415     73.4025   6.4201656568e+01   5.3360921799e+01    0.6041676    0.4607923 -74.90  0.002954385    1.655    0.396
       133  -9.3067    245.4116     80.5041   2.6477911088e+01   1.2824282599e+01    0.1425747    0.1242875 -54.70 8.401486e-05    1.046    0.044
       134 -10.8299    155.3786     76.5383   4.1508446688e+01   3.5651156450e+01    0.4258743    0.3107878  31.03  0.001906046    1.633    0.387
       135  -9.9280    250.1791     74.1748   2.4367619757e+01   1.2762107016e+01    0.2026985    0.1841771 -29.84 0.0007076579    1.180    0.153
       136 -11.2666    240.5248     68.5459   2.4298611824e+01   1.5816252112e+01    0.8467042    0.3222027 -27.31  0.002824599    3.507    0.715
       137 -13.1629    162.6273     67.2329   3.7144392137e+01   3.5511070630e+01    0.8688879    0.6769249  42.71  0.004189303    1.330    0.248
       138  -9.8029    243.8901     65.1758   2.3061872132e+01   1.5563902766e+01    0.2423663    0.1740536  58.85 0.0006773876    1.485    0.326
       139 -12.0407    176.5476     70.3192   3.5178084851e+01   3.1415530166e+01    0.7363059    0.5001364 -86.66   0.00307061    1.986    0.497
       140  -9.9242    250.1872     67.5299   2.2824229844e+01   1.3783349957e+01     0.259146    0.1816732 -17.51  0.001289818    1.819    0.450
       141  -9.0162     75.3055     68.2386   6.1643899867e+01   5.3962692670e+01    0.1295132    0.1012146  -8.66 0.0006849266    1.489    0.328
       142 -11.1076    182.3404     62.0286   3.1696919586e+01   3.1323538591e+01    0.3350029    0.2205676  67.67 0.0008829339    1.543    0.352
       143 -12.3126    147.8241     84.2449   4.5537713138e+01   3.6020764469e+01    0.9076522    0.6797836 -63.57  0.004152651    1.535    0.348
       144 -11.1598    247.5319     56.2881   2.0530021494e+01   1.6069054464e+01    0.4367244    0.2545111 -79.32  0.001950219    2.204    0.546
       145 -10.4281    108.7193     56.3260   4.7176698303e+01   5.0129054685e+01    0.3414563    0.1890045 -39.59  0.001027547    1.805    0.446
       146 -10.8033    102.4912     53.4600   4.8043324568e+01   5.1911309740e+01     0.381988    0.2026748  38.35  0.001195821    1.973    0.493
       147 -10.4943     98.3589     53.6779   4.9380067831e+01   5.2693369051e+01    0.3164463    0.2442585 -64.06  0.001241026    1.684    0.406
       148 -11.3159    127.4779     58.7890   4.2819537726e+01   4.5566710988e+01    0.5385708    0.3120356  36.25  0.002248108    1.958    0.489
       149 -10.8579    249.5044     50.0980   1.8869258429e+01   1.6522370483e+01    0.2446167    0.1933311  75.75 0.0005805823    1.287    0.223
       150  -9.3489    241.3386     47.3030   1.9140622055e+01   1.8804892740e+01    0.1318414    0.1070584  31.94 0.0007038497    1.670    0.401
       151 -10.5951    149.8159     45.6804   3.3216871415e+01   4.2278457573e+01    0.3628924    0.2800207  38.11   0.00180548    1.357    0.263
       152 -11.2189    147.5863     38.6612   3.1409132865e+01   4.3866777723e+01    0.5535731    0.3777197 -53.06  0.001814825    1.674    0.403
       153 -10.0489    101.4633     40.3459   4.3668937645e+01   5.4287376777e+01    0.2829883    0.1837261  43.73  0.001035976    1.493    0.330
       154 -10.2163     99.6037     46.6364   4.6518485837e+01   5.3653536679e+01    0.3260792     0.244247  53.68  0.001717314    1.448    0.310
       155  -9.5044    142.7427     46.0617   3.4901639304e+01   4.3988300579e+01     0.417656     0.197263  36.56  0.001464087    2.849    0.649
       156 -10.2662     33.9845     43.5271   6.9315401782e+01   6.3981800827e+01    0.2738267    0.1996697  -0.61  0.001574795    1.487    0.328
       157 -11.1958    248.5121     42.3324   1.7189187124e+01   1.7847073983e+01    0.3190373    0.2377502 -24.21  0.001749557    1.583    0.368
       158  -9.6874    104.4341     43.9059   4.4087561687e+01   5.3113699318e+01    0.3809473    0.2796033  -4.29  0.001922405    1.622    0.384
       159  -8.8933    112.5122     38.5382   3.9841690978e+01   5.2215115160e+01    0.7283756    0.3909661 -29.01    0.0032288    1.983    0.496
       160 -12.5194    113.0078     28.0851   3.5846421362e+01   5.3571482159e+01    0.4521826    0.2514929  54.35  0.001501253    1.719    0.418
       161  -9.7247    241.0294     40.2929   1.7521133438e+01   1.9864524014e+01    0.1841049    0.1552547 -87.32 0.0003064614    1.110    0.099
       162 -10.2179     39.4494     39.7842   6.5807459509e+01   6.4124915077e+01    0.2018601    0.1658668   7.87 0.0009022301    1.267    0.210
       163  -9.5471    118.9572     38.7082   3.8174255989e+01   5.0750091772e+01    0.1980423    0.1693795  54.20 0.0004034711    1.160    0.138
       164 -12.5732    190.7365     60.7995   2.9844512445e+01   2.9350979326e+01    0.6374702    0.5433704  28.82  0.001557839    1.396    0.284
       165  -9.9614    135.5715     37.7178   3.3742900984e+01   4.6978288492e+01     0.198769    0.1341033 -43.76 0.0009427891    1.603    0.376
       166  -9.1023    224.3179     36.2809   1.8456888143e+01   2.4443419016e+01    0.1331819    0.1061876  39.88  0.000235906    1.580    0.367
       167 -12.2829     92.3452     32.4738   4.3477269702e+01   5.7297602896e+01     0.534282    0.3539467  -4.08  0.002493961    1.875    0.467
       168 -11.4921    131.9952     33.9303   3.3263740577e+01   4.8372510832e+01    0.2496843    0.2258169  -6.76            0    1.177    0.150
       169  -9.5583    120.1276     35.1975   3.6611143464e+01   5.0989375199e+01    0.1680701     0.154985 -86.49 0.0009545206    1.252    0.202
       170  -9.7223    211.9674     33.9238   1.9375771632e+01   2.7854069930e+01    0.2201035    0.1466089 -63.54 0.0003689548    1.521    0.343
       171 -10.7604    138.0379    112.4973   5.5655600859e+01   3.2389267854e+01    0.2436267    0.1525499  45.75 0.0008714959    1.591    0.372
       172 -11.4575     65.3277    110.4060   7.5374108199e+01   4.6036913256e+01    0.2533616    0.1955918 -56.66 0.0006927151    1.178    0.151
       173 -10.4486    217.4064    109.6311   3.7879737640e+01   1.4272048949e+01    0.2745782    0.2319091 -71.38  0.001414171    1.316    0.240
       174  -9.9939    226.4841     18.4422   1.3840599269e+01   2.6208655335e+01    0.2216087    0.1659254 -85.63 0.0004482037    1.201    0.168
       175  -9.8324    223.2729     16.6989   1.3742333693e+01   2.7206897993e+01    0.1862764    0.1260153 -41.00 0.0001544615    1.450    0.311
       176 -12.0190    218.5108     31.0093   1.7824055339e+01   2.6592922313e+01    0.4305348    0.3169333  73.13  0.001318037    1.281    0.219
       177 -11.8962    217.1981     27.4225   1.7070450537e+01   2.7388225883e+01    0.4224548        0.233  76.66  0.001306357    1.773    0.436
       178  -9.6935    206.7328     31.4690   1.9404009931e+01   2.9514379036e+01    0.1903867    0.1242664  58.14 0.0007152854    1.508    0.337
       179 -10.1735     97.4447    109.4747   6.5839177340e+01   4.1243696960e+01    0.1459856    0.1374012 -68.45 6.931282e-05    1.012    0.012
       180 -10.4620    155.6935     24.2783   2.5130484121e+01   4.3687571405e+01    0.1999921    0.1856327 -30.57 0.0004850729    1.182    0.154
       181 -10.4205    195.7360    106.8178   4.1219858929e+01   1.9909520335e+01    0.4057704    0.2528592 -55.49  0.001689888    1.825    0.452
       182 -10.9787    152.7641     21.5711   2.4785276252e+01   4.4760362035e+01    0.4497042    0.1943316  49.80 0.0008483029    2.147    0.534
       183  -9.6461    140.3101     29.3865   2.9848666890e+01   4.6940989173e+01    0.1952025    0.1323142  71.40 0.0006643514    1.561    0.359
       184 -10.1777    105.0662     28.1721   3.8037128891e+01   5.5295778184e+01    0.3314177    0.2332614 -67.60  0.001575944    2.289    0.563
       185 -11.1945     86.6348     28.6764   4.3800446394e+01   5.8940240929e+01     0.283696    0.2139997  36.49 0.0007972318    1.266    0.210
       186 -10.1607    230.3685     27.6407   1.5658355978e+01   2.4108675808e+01    0.3342419    0.1647859  72.93  0.001502682    1.972    0.493
       187 -10.5412    123.1732     26.4858   3.2698437742e+01   5.1451297690e+01    0.2399442    0.1893457 -24.16 0.0007342402    1.347    0.258
       188 -10.8055    176.3912     24.8116   2.1829993085e+01   3.8247018400e+01    0.4909948    0.2124511 -32.85  0.001767116    2.376    0.579
       189 -10.3659     91.8528    106.8811   6.6829152491e+01   4.2815351375e+01    0.1974233    0.1654123 -89.21 0.0003300975    1.296    0.229
       190 -10.2081    137.6983     22.4047   2.7998032023e+01   4.8451898111e+01    0.3127092     0.144942  57.10  0.001046917    1.904    0.475
       191  -9.3338    243.1892     21.8936   1.3034812951e+01   2.1786674807e+01    0.4858207    0.2542976  57.26  0.002352965    2.063    0.515
       192  -9.4499    237.4948     23.5326   1.3955856710e+01   2.2921630115e+01    0.2090926    0.1309332 -63.23 0.0007133174    1.500    0.333
       193  -8.7397    234.3580     23.7139   1.4308936766e+01   2.3647655090e+01    0.2188572    0.1592769 -78.61 0.0009876497    1.261    0.207
       194 -11.0173     97.8069     22.1128   3.7736215623e+01   5.7611002102e+01    0.3125673    0.2367142 -25.13   0.00124396    1.351    0.260
       195  -9.9440    209.7545     22.5751   1.6700553825e+01   2.9877809272e+01      0.26349    0.1732792 -43.35  0.001343099    1.489    0.328
       196 -10.5568    185.4702     23.1342   1.9996940556e+01   3.6079169091e+01    0.4058802    0.1983259  81.97  0.001578056    2.410    0.585
       197  -9.6902    180.3435     20.8503   2.0074305407e+01   3.7691232132e+01    0.2905302    0.1777277 -82.08  0.001293588    1.928    0.481
       198 -10.9207    184.1502    105.8011   4.3295636838e+01   2.2910181400e+01    0.2849055    0.2509968  69.95 0.0003970822    1.159    0.137
       199 -10.5188    119.0519     22.2329   3.2128864984e+01   5.2936620025e+01     0.312451    0.1801056  54.87  0.001010588    1.594    0.373
       200 -10.4698     90.3623     21.7296   3.9811096723e+01   5.9161883914e+01     0.242705    0.1750887  -1.80  0.001339623    1.484    0.326
       201 -10.7053    144.3207    102.9283   5.1594652611e+01   3.3027686820e+01     0.353612    0.2945299   0.07  0.001383879    1.550    0.355
       202  -9.0783    193.6405     20.2742   1.8082617845e+01   3.4297059769e+01    0.1498368   0.09740739 -73.22 0.0007004289    1.655    0.396
       203 -10.8389    129.8364     19.1432   2.8518876805e+01   5.0751112743e+01    0.3384314    0.2051114  45.68 0.0003915107    1.527    0.345
       204  -9.4180    127.7956     15.6184   2.7689950627e+01   5.1635683189e+01     0.180735    0.1586891 -70.99 0.0003413236    1.327    0.246
       205  -9.9428     18.2643     19.9664   6.8041887481e+01   6.9545525661e+01    0.1778778    0.1173455 -24.97 0.0004816142    1.283    0.221
       206  -9.7942     14.5330     19.2900   6.9596267604e+01   6.9945673154e+01     0.189718    0.1233352 -55.78 0.0008260657    1.656    0.396
       207  -8.9148    215.3183     19.6828   1.5325467010e+01   2.8826308109e+01    0.1486636    0.0912094 -66.64 0.0007040115    1.656    0.396
       208  -9.6266    122.4983     19.0090   3.0115954378e+01   5.2513741089e+01    0.2412359    0.1686062 -32.06  0.000866438    1.538    0.350
       209  -9.7344    120.9096     16.0000   2.9365855689e+01   5.3225173403e+01    0.1866792    0.1583893  86.39  0.001063626    1.376    0.273
       210 -10.5890    135.3055     25.2820   2.9505152717e+01   4.8692346687e+01    0.3362867    0.2111511  66.39  0.001022166    1.604    0.377
       211  -9.5188    111.4158     17.0552   3.2054050891e+01   5.5282143241e+01    0.2133059     0.159523  51.23  0.001182943    1.230    0.187
       212 -11.3985    110.0104    103.2441   6.0752385504e+01   4.0313938467e+01    0.3112079    0.2539936 -31.21  0.001564646    1.370    0.270
       213 -10.1703    102.4604     14.9616   3.3563642072e+01   5.7484533962e+01     0.178026    0.1276351 -21.07 0.0003431297    1.457    0.314
       214  -9.8630     15.4495    104.4620   8.9055060808e+01   5.2465625019e+01    0.1199988   0.09490267 -75.86 5.171704e-05    1.035    0.034
       215  -9.8730    159.3469    103.2864   4.8083106234e+01   2.9419328992e+01    0.1597962    0.1262325  16.64 0.0007021042    1.652    0.395
       216 -13.3840    106.9726     92.9279   5.8888151473e+01   4.3186911505e+01     1.272792    0.5565154 -49.72  0.002914021    2.252    0.556
       217 -14.2310    120.8324     88.9047   5.3862129977e+01   4.1220574582e+01     2.028237      1.26452 -33.70  0.008686828    1.808    0.447
       218 -13.2703    127.4291     90.8549   5.2627555227e+01   3.9383152636e+01     0.805041    0.6170447 -31.77  0.002450096    1.424    0.298
       219  -9.6511    153.4465     16.0849   2.2877010967e+01   4.5207951096e+01    0.1977084    0.1381647 -30.78  0.001011113    1.563    0.360
       220 -11.2335    112.0000    248.9771   8.4124764051e+01   9.4479304194e+00    0.2074874    0.1264524 -74.31  0.001252853    1.996    0.499
       221 -12.6144    130.8257     45.5632   3.7549995395e+01   4.6957206241e+01     1.200905    0.9869841  68.28  0.005843685    1.292    0.226
       222 -11.0272     13.3027    248.1571   1.0063892645e+02   2.2703006742e+01    0.1482164    0.1071817 -84.37  0.001203843    1.454    0.312
       223 -13.1206    102.8316     74.8301   5.4887127590e+01   4.7802461941e+01     1.171569    0.7743856  31.26  0.003721749    1.711    0.416
       224 -12.9036     96.7562     64.6303   5.3541015896e+01   5.0980349879e+01     1.131991    0.8962487  76.28   0.00577748    1.725    0.420
       225 -13.4984    139.0513     83.2518   4.7417278380e+01   3.8297296192e+01     1.860781    0.8303468 -27.86  0.005521371    3.855    0.741
       226 -12.5013    136.4666     54.7813   3.9238202524e+01   4.4130292025e+01    0.9399719    0.7389748 -68.16  0.002489038    1.541    0.351
       227 -11.4723    146.3372     52.7576   3.6260906129e+01   4.2046102237e+01    0.6559185    0.4633369  27.94  0.002990609    1.729    0.422
       228 -12.7777    184.9090     47.0992   2.6963272422e+01   3.2990853734e+01     1.321033    0.7808803 -71.59  0.005248235    2.335    0.572
       229 -12.5755    243.7653    242.7494   5.9731377495e+01  -1.0891173505e+01    0.3377578    0.2128477  30.06  0.002217063    1.259    0.206
       230 -14.6931     35.1914     69.6077   7.6149792837e+01   5.8613682688e+01     1.982781     1.129285 -71.40   0.01023002    1.986    0.497
       231 -12.3717    153.9301     62.3387   3.7562495798e+01   3.8554913925e+01    0.9736083    0.6279283 -45.17  0.004327448    1.607    0.378
       232 -12.3570    145.6080     62.3262   3.9462046541e+01   4.0625423217e+01    0.8377936    0.7491318 -85.23   0.00377559    1.209    0.173
       233 -12.7474    173.2966     54.2684   3.1132500783e+01   3.4921051443e+01    0.9415841     0.545368  62.89  0.002932734    1.686    0.407
       234 -11.7073    219.7747    240.4487   6.3500777872e+01  -6.9918672063e+00    0.3203141    0.2436831  32.31  0.002187169    1.091    0.083
       235 -11.9517     82.5230     79.2652   6.2510012105e+01   5.0518388105e+01    0.3933521    0.2800487  22.85  0.001006424    1.664    0.399
       236 -12.7017     87.4082     73.2897   5.9198727848e+01   5.0948447663e+01    0.9566744    0.4746668  45.83  0.000905092    2.197    0.545
       237 -12.2164    172.7052     44.4586   2.8318129723e+01   3.6568023790e+01    0.5738767    0.4925836 -21.16  0.003032603    1.318    0.241
       238 -11.9158    173.9702     39.7769   2.6691229785e+01   3.6909989332e+01    0.3621791    0.2660458  58.00 0.0003092394    1.280    0.219
       239  -9.5685    207.7650    101.9636   3.7718888489e+01   1.7921201482e+01    0.1997557     0.125457 -37.29  0.000356284    1.574    0.365
       240 -11.3707    100.7557    101.4181   6.2915544235e+01   4.2480728880e+01     0.323449    0.2008458 -55.86  0.000626271    1.594    0.372
       241 -10.6162     96.3167    101.0336   6.4105363012e+01   4.3371307900e+01    0.2444905    0.1766794 -37.44  0.001186107    1.489    0.329
       242  -9.8402    248.8141    100.3338   3.0614806309e+01   8.8824901222e+00    0.1880025     0.125475  46.02 0.0003826381    1.668    0.400
       243 -12.1373    151.5072     96.5829   4.8124540042e+01   3.2664216458e+01    0.6995911    0.4319486 -62.72   0.00246673    2.111    0.526
       244 -12.0580     87.1370     98.0794   6.6082719688e+01   4.5619269212e+01    0.5081306    0.3529824  21.55  0.002438568    1.850    0.459
       245 -11.1741     81.2597     98.9422   6.8065832010e+01   4.6373096255e+01    0.2449627     0.211715  37.70  0.001383419    1.254    0.202
