#   1 NUMBER                 Running object number                                     
#   2 MAG_AUTO               Kron-like elliptical aperture magnitude                    [mag]
#   3 X_IMAGE                Object position along x                                    [pixel]
#   4 Y_IMAGE                Object position along y                                    [pixel]
#   5 X_WORLD                Barycenter position along world x axis                     [deg]
#   6 Y_WORLD                Barycenter position along world y axis                     [deg]
#   7 A_WORLD                Profile RMS along major axis (world units)                 [deg]
#   8 B_WORLD                Profile RMS along minor axis (world units)                 [deg]
#   9 THETA_WORLD            Position angle (CCW/world-x)                               [deg]
#  10 FWHM_WORLD             FWHM assuming a gaussian core                              [deg]
#  11 ELONGATION             A_IMAGE/B_IMAGE                                           
#  12 ELLIPTICITY            1 - B_IMAGE/A_IMAGE                                       
         1 -11.7173    121.4991     37.3942   6.0046568163e+01   5.0010189545e+01    0.4164232    0.3820581 -42.23  0.001382394    1.211    0.174
         2 -11.1870      2.0931     21.9381   1.0105572426e+02   7.0968607539e+01    0.2845307    0.1556794 -51.98 0.0009611915    1.560    0.359
         3 -11.2801     82.8336     22.2072   6.4971460632e+01   6.0373263327e+01     0.561325    0.1888837  33.60  0.001764291    4.354    0.770
         4 -11.5486     75.5384     20.1618   6.6508967711e+01   6.2032044199e+01    0.4638174    0.2699086 -15.14  0.002345963    1.812    0.448
         5 -10.7879     20.9725     18.1160   8.9331969858e+01   7.0189176207e+01    0.2875451    0.2710834  64.82  0.002071734    1.891    0.471
         6 -10.7915     13.7916     15.6206   9.2044468826e+01   7.1231593590e+01      0.28622    0.2304564 -45.27  0.001509654    1.503    0.335
         7  -9.7207     15.2554      8.8110   8.8000061581e+01   7.2161138125e+01    0.1803118    0.1022011 -15.94 0.0003364138    1.611    0.379
         8 -11.3579    234.7374     15.0438   3.6589262703e+01   2.4921590663e+01    0.2198463    0.1880932 -74.13 0.0002184974    1.043    0.041
         9  -9.7808     92.9580     10.0263   5.6671324828e+01   5.9600219246e+01     0.278123    0.1397025  27.48 0.0003095357    2.236    0.553
        10 -11.0944     90.1643     14.4442   5.9357279636e+01   5.9753934704e+01    0.3628975    0.1882402 -35.19  0.001469345    2.150    0.535
        11 -11.7063     66.4948     13.6278   6.6711366978e+01   6.4469083109e+01    0.4158608    0.2468021  49.23 8.216865e-05    1.796    0.443
        12 -11.1120     42.7124     14.7026   7.6995706818e+01   6.8137268441e+01    0.2919559    0.2221982  20.95 0.0009829225    1.244    0.196
        13  -9.8791     25.3574      2.7335   7.9293036227e+01   7.1938355907e+01    0.1627467   0.09552157 -36.69 0.0005962952    1.776    0.437
        14 -11.7950     34.5811     12.6669   7.9815600028e+01   6.9493897746e+01    0.3184024    0.2495126 -15.36  0.001215417    1.123    0.110
        15 -11.5590     30.4339      7.3057   7.9123983626e+01   7.0733426191e+01    0.4156999     0.351623 -10.85   0.00302085    1.276    0.216
        16 -10.5808     37.3191      6.4754   7.5313108831e+01   6.9943421410e+01    0.3734252    0.1857606 -39.81  0.001815069    2.360    0.576
        17 -10.2984    135.0164     11.7095   4.7930326544e+01   4.9645427568e+01    0.2023727    0.1912549  17.25 0.0003648968    1.131    0.115
        18  -9.8495     99.5004     11.7432   5.5658087714e+01   5.8008446254e+01    0.2455726    0.1673621  52.97 0.0008343653    1.340    0.254
        19 -10.6553    125.9800     11.0170   4.9391922885e+01   5.1917701732e+01    0.2013315    0.1742441  46.71  0.001204623    1.023    0.023
        20  -9.8872      3.7672     10.7971   9.5531186717e+01   7.2770129508e+01    0.1296793    0.1067829 -27.76 0.0002644218    1.244    0.196
        21 -11.8484     57.2155      4.2135   6.5572551120e+01   6.7118777153e+01    0.6103634     0.284067 -25.13   0.00264242    2.102    0.524
        22 -10.6266     22.3690      9.6091   8.4507629666e+01   7.1340129501e+01    0.2926913    0.1650024   4.28  0.001683213    1.869    0.465
        23 -10.2406     85.9470     12.0104   5.9534142525e+01   6.0882909411e+01    0.2327297    0.2093518  73.36 0.0005045203    1.450    0.310
        24 -10.3364     71.6575      7.3062   6.1896328117e+01   6.4190745299e+01    0.2914508    0.1544087  41.59  0.001183439    1.638    0.389
        25 -11.0169     70.4878      4.4980   6.0943847585e+01   6.4685502439e+01     0.466279     0.238948  46.23  0.001620443    1.719    0.418
        26  -9.9910     65.0652      6.8925   6.3987585541e+01   6.5458457601e+01     0.175028    0.1627017   6.89 0.0005016092    1.281    0.219
        27  -9.5657    151.3408      6.1273   4.3397531423e+01   4.6081834704e+01    0.1780299    0.1149513 -38.36 0.0003578136    1.690    0.408
        28  -9.5846      2.6766      6.5877   9.4226576587e+01   7.3517165551e+01    0.1840488   0.09366401   9.65 0.0008174538    2.017    0.504
        29  -9.2139    107.7046      4.7305   5.0827196157e+01   5.6783379024e+01    0.1359631    0.0836985  35.53            0    1.517    0.341
        30  -9.4890    176.1774      2.7934   3.9184558509e+01   4.0150073884e+01    0.1788196    0.1378876  50.46  0.000385623    1.328    0.247
        31  -9.7230    129.9547      3.2608   4.5867246233e+01   5.1618586200e+01    0.1740856    0.1036848  65.69 0.0004573407    1.494    0.330
        32 -10.4935    101.4882      1.8916   5.1091345730e+01   5.8427501764e+01    0.3421061    0.1435243  51.11 0.0009737894    1.912    0.477
        33 -11.1924     80.3225      1.6924   5.6536262125e+01   6.2995386554e+01    0.3157924    0.1490536  49.67  0.001167401    1.793    0.442
        34 -10.5795     20.4863      2.0094   8.1522366895e+01   7.2586724999e+01    0.2000885    0.1425137  11.80 0.0006095904    1.252    0.201
        35 -10.2768     11.3629      1.7666   8.6591099085e+01   7.3537419719e+01    0.1656934    0.1303416  10.33 0.0004187173    1.353    0.261
        36  -9.8662    211.8298      5.4135   3.6304147078e+01   3.1214523110e+01    0.1740734    0.1039943  63.79 0.0004322005    1.601    0.375
        37 -10.2002    153.9060      1.3502   4.1528044680e+01   4.5842651272e+01    0.1959776    0.1111196  69.61 0.0003763102    1.538    0.350
        38  -8.9039     67.2747      1.3257   6.0478329245e+01   6.5585716722e+01    0.1295906   0.07804845  20.18 0.0006985561    1.584    0.369
        39 -10.7293     15.6734    150.5756   1.2067842817e+02   4.1557115624e+01    0.2084149    0.1642442  79.01 0.0006930805    1.142    0.124
        40 -12.1066      4.0410    232.6307   1.2845231167e+02   2.5102317071e+01    0.2446114    0.1616307  69.44  0.001843218    1.081    0.075
        41 -11.3647      3.0187    249.0794   1.2930026718e+02   2.2214793648e+01    0.4116214    0.2039119  51.97  0.002880687    1.498    0.332
        42 -12.6400      4.9083    240.6813   1.2865555013e+02   2.3535895932e+01    0.4697971     0.333077  41.59  0.003654113    1.541    0.351
        43 -12.3329     16.6754    249.0250   1.2710155349e+02   2.0867807055e+01    0.4940431    0.2085682  34.12   0.00287227    2.520    0.603
        44 -11.8821      9.3803    245.3121   1.2812438232e+02   2.2265642677e+01    0.3393434    0.2239824  30.39  0.002440302    1.986    0.496
        45 -10.2359    212.6027    133.9992   6.8492704517e+01   1.1548017084e+01    0.2555896    0.2127085  69.96  0.000745723    1.527    0.345
        46 -10.7787      2.7538    133.0557   1.2226201266e+02   4.6596482309e+01     0.308731    0.1845857  73.46  0.001791372    1.675    0.403
        47  -9.2748     96.0181    133.7632   9.6297948365e+01   3.5734735592e+01    0.1860696    0.1258759  38.67 0.0003959381    1.535    0.349
        48  -9.5160     23.8238    133.6615   1.1670438594e+02   4.4910778552e+01    0.1548742     0.108238  45.56            0    1.573    0.364
        49 -11.0889     11.9014    129.6037   1.1947361310e+02   4.6801788748e+01    0.2952197    0.1894264  65.04  0.001623134    1.664    0.399
        50 -11.7965      8.1814    121.6017   1.1959274300e+02   4.8950464023e+01    0.3368348    0.2128032  63.92  0.000842579    1.746    0.427
        51 -10.2155      1.4697    122.2441   1.2152779840e+02   4.9207484438e+01    0.2935029   0.09873852 -84.83   0.00114492    3.194    0.687
        52 -11.9171     23.7128    121.2858   1.1510195349e+02   4.7903162452e+01    0.4007759    0.2356603  65.81  0.001375137    2.060    0.515
        53  -9.6530     41.7166    117.3027   1.0909076396e+02   4.7226569730e+01    0.1310634    0.0962413  78.27 0.0006972759    1.555    0.357
        54  -9.2783     61.6542    114.2653   1.0233986626e+02   4.5663887034e+01    0.1386288    0.1048645  70.12 0.0006981829    1.608    0.378
        55 -10.4955     65.6947    110.7667   1.0031968135e+02   4.5978079370e+01    0.2680553    0.2194881  67.43  0.001014978    1.428    0.300
        56 -11.1200     24.4434    106.6507   1.1266293293e+02   5.1364274184e+01    0.3847262    0.2279302   7.78  0.002017523    2.284    0.562
        57 -11.8312      3.3812    108.9739   1.1948031612e+02   5.2214631251e+01     0.363516     0.228789  -8.25  0.001639218    2.200    0.545
        58  -9.9414     35.5381    109.0306   1.0955333243e+02   4.9837928646e+01      0.20508    0.1136965 -66.19 0.0004287372    1.552    0.355
        59 -11.1216     57.8103    107.6277   1.0214430576e+02   4.7758907802e+01     0.262668    0.2325566 -34.39 0.0007098056    1.154    0.133
        60  -9.8032     89.1725    105.1396   9.1593698632e+01   4.3737336054e+01    0.2055524    0.1796242 -87.42 0.0006151455    1.328    0.247
        61 -10.1865    186.9498    103.0116   6.5741256805e+01   2.3030758452e+01    0.2314601    0.2257339 -35.13 0.0005886484    1.012    0.012
        62 -10.9394     20.0419     99.4801   1.1289009356e+02   5.3402734217e+01     0.208851    0.1419182 -64.29 0.0005775126    1.186    0.157
        63 -11.6171     10.2493     91.6847   1.1485081095e+02   5.5870370985e+01    0.4570163    0.2310801 -73.69 0.0003024898    1.739    0.425
        64 -11.4169     11.0129     85.4790   1.1353520691e+02   5.7260529575e+01    0.3539948    0.1805793 -83.16   0.00170447    2.274    0.560
        65 -11.2151     24.2371     88.2937   1.0941593052e+02   5.5717764824e+01    0.3774998     0.222368 -60.31  0.001142274    1.369    0.270
        66 -12.3056     20.9263     92.7658   1.1141662097e+02   5.4920117921e+01    0.3331195    0.2552069 -42.91 0.0004252566    1.223    0.182
        67 -10.9325     19.2188     86.9087   1.1091260240e+02   5.6405353403e+01    0.3051399    0.1846822 -72.61  0.001053182    1.543    0.352
        68 -10.1891      3.8356     94.9045   1.1746725391e+02   5.5475766738e+01    0.2013949    0.1261612 -53.27 0.0008482299    1.318    0.241
        69 -11.8619    125.1851     93.3058   7.7645029977e+01   3.9346529500e+01    0.2770085    0.2693447  29.06 0.0002257402    1.043    0.041
        70 -10.0334     78.9798     94.0209   9.1899496593e+01   4.7983141263e+01    0.2227105    0.1666819 -16.93 0.0004381576    1.579    0.367
        71  -9.1492    113.2604     92.0341   8.0653623073e+01   4.2146071315e+01    0.1925028     0.130819 -41.77 0.0001785513    1.433    0.302
        72 -11.0761     57.9199     91.7308   9.8396625436e+01   5.1512834090e+01    0.2844592    0.2310606  -7.00 0.0007152887    1.391    0.281
        73  -9.9304     44.4825     91.5501   1.0301410108e+02   5.3115398554e+01    0.2889561    0.1060781 -54.95  0.001059325    2.201    0.546
        74  -9.6050     42.3428     88.6874   1.0310186731e+02   5.4005795964e+01    0.1873707    0.1288462 -74.35 0.0007080043    1.613    0.380
        75 -10.0482     29.0129     92.3229   1.0855502581e+02   5.4395128830e+01    0.1656375    0.1597944 -23.69 0.0007873311    1.190    0.160
        76 -11.6423     55.6948     85.6982   9.7624288798e+01   5.3179318336e+01    0.2983682    0.2385101  13.31  0.001687104    1.401    0.286
        77  -9.2050    145.7688     83.3783   6.9311602321e+01   3.6630398695e+01    0.1579256    0.1189281 -62.94 0.0005336273    1.615    0.381
        78  -9.5700     76.7038     82.9138   8.9514431864e+01   5.0832615728e+01    0.1989824    0.1701658 -42.83 0.0004184352    1.091    0.084
        79 -10.6267      2.8192     81.6600   1.1576389168e+02   5.8569149600e+01     0.350441     0.171655 -77.90  0.001794455    1.958    0.489
        80  -9.7316     89.5407     81.0602   8.4663245117e+01   4.9065755094e+01     0.225429     0.139542 -47.69   0.00091865    1.572    0.364
        81 -10.4106     65.0064     79.9864   9.2733480905e+01   5.3226734793e+01    0.2190745    0.1950496 -30.24 0.0005931953    1.023    0.022
        82  -9.9730    124.5137     79.0691   7.3489963207e+01   4.2381854505e+01    0.2294648    0.1506359 -39.05 0.0005846252    1.512    0.338
        83  -9.1903     24.3315     79.3229   1.0750223627e+02   5.7773652302e+01    0.2552271    0.1018376 -29.44 0.0009468956    3.752    0.733
        84 -10.2378     28.0443     77.0927   1.0560739706e+02   5.7983953603e+01    0.1878377    0.1550651 -44.04 0.0003684738    1.044    0.042
        85  -9.8776    176.8304     76.8541   6.0551290934e+01   3.0228959155e+01    0.2362867    0.2145222  20.30   0.00095703    1.203    0.169
        86 -10.1881     55.4445     75.8989   9.5017838970e+01   5.5401545976e+01    0.2582146    0.1843171 -43.77 0.0007324065    1.221    0.181
        87 -10.2239     42.1337     75.7844   9.9960625064e+01   5.6963101091e+01    0.2293341    0.1915231 -45.98 0.0006821616    1.040    0.039
        88 -10.5591     14.9088     75.6352   1.1023075166e+02   5.9265739211e+01    0.2161877    0.1603033  88.84  0.001308744    1.627    0.385
        89 -11.2411     35.9592     74.0640   1.0185413101e+02   5.7961424087e+01    0.4048378    0.2996951  47.74  0.001454417    1.747    0.428
        90 -10.8101     20.9365     73.1245   1.0739128959e+02   5.9422248341e+01    0.2992608    0.1695664 -61.48  0.000870172    1.487    0.327
        91  -9.6873     81.3560     73.3320   8.4966789442e+01   5.2109948149e+01    0.1996278     0.130045 -50.35 0.0005308415    1.566    0.361
        92  -9.5019    216.9944     72.0302   5.2384028730e+01   2.1317484349e+01    0.1734119    0.1538557 -46.13 0.0003776477    1.052    0.050
        93 -11.0277    106.3699     71.4853   7.6273448644e+01   4.7761182366e+01    0.3624717    0.2802961  66.33  0.001593784    1.681    0.405
        94  -9.7074     91.4797     71.0663   8.0831250144e+01   5.0768253436e+01    0.3432088    0.1373691 -48.51 0.0009323795    2.695    0.629
        95 -10.1471     46.3712     69.3262   9.6536693022e+01   5.7914984010e+01    0.3658813    0.1973975   6.63  0.001594521    2.717    0.632
        96 -11.5880     10.7841     68.8414   1.1037250047e+02   6.1029036586e+01    0.3673055    0.1860957 -59.94  0.001968347    1.527    0.345
        97 -11.0234      5.1463     68.2824   1.1245139294e+02   6.1453465121e+01     0.324875    0.2088537  74.62   0.00172118    2.266    0.559
        98 -10.4764      1.4390     66.5091   1.1354070065e+02   6.2017580175e+01    0.1870147   0.09336796 -65.37   4.4001e-05    1.583    0.368
        99 -10.1554     80.5294     67.4835   8.3330781969e+01   5.3436522129e+01    0.2824236    0.1870743  -5.88  0.001104096    2.043    0.511
       100  -9.8329     77.5200     66.9530   8.4204630802e+01   5.4049674139e+01    0.3017688    0.1719373 -43.31  0.001006117    1.650    0.394
       101 -10.6569     16.0542     67.3564   1.0796477572e+02   6.1033649023e+01    0.2644072    0.1916764  84.84 0.0009107628    1.883    0.469
       102  -9.2163    166.7723     65.6386   5.9270041084e+01   3.4627126026e+01     0.148817    0.1176241   5.15 0.0001855483    1.578    0.366
       103  -9.7616     34.7255     64.3824   9.9701898685e+01   6.0188004254e+01    0.2309361    0.1481637 -63.62  0.001234348    1.660    0.398
       104 -11.0819      6.6918     63.5827   1.1085217055e+02   6.2404365563e+01    0.2661173    0.2063764  79.58  0.001722477    1.690    0.408
       105  -9.2821     96.9588     64.0229   7.6672011702e+01   5.1077074177e+01      0.17217    0.1589662  10.66            0    1.044    0.042
       106 -10.2633     62.8876     62.0659   8.7902817776e+01   5.7299674309e+01    0.2547174     0.169278 -36.31  0.001319513    1.358    0.264
       107 -10.1184     39.1288     61.5584   9.7087951753e+01   6.0347177758e+01    0.2503641    0.2168557 -23.48  0.001606069    1.083    0.076
       108 -13.4362     20.3036     58.0401   1.0387236503e+02   6.2747936636e+01    0.3766044    0.2528928 -64.18  0.001244143    1.491    0.329
       109 -10.0477     49.0113     59.5046   9.2452533335e+01   5.9659095261e+01     0.240214    0.1830229 -65.78   0.00121378    1.678    0.404
       110 -10.2966    194.0798     58.9238   5.2435201048e+01   2.8856689180e+01    0.3031006    0.2008792  69.20 0.0009163196    1.570    0.363
       111 -11.1551     83.9270     57.2064   7.8576205344e+01   5.4801484669e+01    0.3667939    0.2561271 -48.16  0.001277943    1.579    0.367
       112 -10.6756      9.8283     59.6223   1.0866350052e+02   6.3089614765e+01    0.1464828    0.1075701  29.74 0.0006007897    1.713    0.416
       113 -10.9222      5.1014     57.2529   1.1007528935e+02   6.3847130911e+01    0.3145797    0.1926251 -15.43  0.001911223    1.795    0.443
       114  -9.8675     71.5878     56.3419   8.2655306153e+01   5.7078008449e+01    0.2470039    0.1266807 -45.81 0.0009815742    1.941    0.485
       115 -10.3464     32.9345     56.4047   9.8068086742e+01   6.2029720874e+01    0.3374891    0.1771968 -38.52  0.001732221    1.640    0.390
       116  -9.5790    104.2814     56.3429   7.1690641274e+01   5.0961066449e+01    0.2305508    0.1457919 -29.41 0.0006303798    1.608    0.378
       117 -10.6132    105.6866     52.7734   6.9984063628e+01   5.1264857505e+01    0.2455588    0.2385811   5.95 0.0003562231    1.102    0.093
       118 -10.1358     95.9042     54.7227   7.3705311038e+01   5.2958958896e+01    0.2018447    0.1787873  24.40 0.0007789364    1.091    0.083
       119 -11.1097     88.4301     52.6586   7.5385263917e+01   5.4774253658e+01    0.3290713    0.2366115 -32.94  0.000890101    1.346    0.257
       120 -11.9433     65.7346     52.6025   8.3487190476e+01   5.8697787333e+01     0.456394    0.2279769  35.87  0.001460532    2.091    0.522
       121  -9.7652    121.8800     51.6611   6.5054272012e+01   4.7834757915e+01    0.2010849    0.1783097  46.28 0.0003568068    1.110    0.099
       122  -9.8404      4.1908     50.7719   1.0889616866e+02   6.5256155907e+01    0.1726406    0.1009871 -41.86 0.0004240324    1.335    0.251
       123 -11.7933     77.7246     46.4867   7.6743260355e+01   5.7794564003e+01    0.4951537    0.3578804   4.34 0.0009389093    1.501    0.334
       124 -10.1565     38.7838     48.5419   9.2986891562e+01   6.3005701058e+01     0.197894    0.1391111 -34.47 0.0003277827    1.186    0.157
       125 -10.7431      9.3264     47.0763   1.0562364440e+02   6.5740801734e+01    0.3307179    0.2126708 -57.33  0.002060778    1.340    0.254
       126 -10.3181     13.8777     48.8112   1.0407134410e+02   6.5106782584e+01    0.1676798    0.1425395  89.03 0.0003582804    1.640    0.390
       127 -11.1358     15.6005     44.0706   1.0186570482e+02   6.5944255891e+01    0.4927036    0.3177052 -70.36  0.002805182    1.996    0.499
       128  -9.9633    154.7991     47.5291   5.6081826817e+01   4.0434838672e+01    0.2413032     0.204317 -32.96 0.0004342697    1.228    0.185
       129  -9.5409    152.3891     44.5925   5.5624659787e+01   4.1458568234e+01    0.2163111    0.1784978  80.03 8.645155e-05    1.301    0.232
       130 -11.4968    114.2570     54.0710   6.7975830788e+01   4.9179987329e+01     0.323041    0.2948644  -7.33 0.0006796762    1.071    0.066
       131 -10.7380     56.7262     46.5829   8.4768651371e+01   6.1128613002e+01    0.3554074     0.322422 -89.16  0.001179704    1.695    0.410
       132 -10.6060     26.9214     44.5214   9.6837571492e+01   6.4957015975e+01    0.4873985    0.2114792 -43.96  0.002418134    1.831    0.454
       133  -9.6626     31.3702     46.1770   9.5409899955e+01   6.4222981648e+01    0.2285215    0.1495882 -69.78    0.0011695    2.372    0.578
       134  -9.1472    135.6887     46.3321   5.9798192085e+01   4.5355530183e+01    0.1491709    0.1151185 -69.99 0.0003757454    1.675    0.403
       135 -12.2873    141.2997     41.5705   5.6933254435e+01   4.4649336249e+01    0.2969729    0.2664559 -78.25  0.001045573    1.251    0.201
       136 -10.3795     35.7243     41.5996   9.1830364637e+01   6.4649668308e+01    0.3122358     0.286117  34.15  0.002118317    1.458    0.314
       137  -9.5459    184.8035     42.4012   4.9268807925e+01   3.3544816465e+01      0.28248     0.137522  68.77  0.001142476    2.117    0.528
       138 -10.6966     69.3286     42.0281   7.8069086002e+01   5.9979237918e+01    0.2348228    0.1879583  27.71 0.0001250544    1.242    0.195
       139 -10.5070      7.7427     34.1880   1.0243904105e+02   6.8375712152e+01    0.3515972    0.1504457  32.93  0.001794909    3.046    0.672
       140 -11.0079      5.7112     39.0370   1.0496099769e+02   6.7553307246e+01    0.5515931     0.135462 -40.25 0.0001797017    3.124    0.680
       141 -11.1641      3.4069     35.8282   1.0509623505e+02   6.8303376125e+01    0.2624476    0.2234906 -80.58  0.001882832    1.599    0.375
       142 -10.1752     43.1360     40.2559   8.8040475927e+01   6.4050845241e+01    0.2407089    0.1807647 -36.95  0.001082267    1.214    0.176
       143 -10.3186    128.1241     38.8142   5.8953034013e+01   4.8242977628e+01    0.2013655    0.1920358  89.79 0.0003452013    1.173    0.148
       144  -9.7898    229.6702    248.0007   8.7710312198e+01  -9.0214001668e+00    0.1569289    0.1231274   3.01 0.0005880529    1.124    0.110
       145 -11.3038     26.9008     35.5330   9.3614485988e+01   6.6649744938e+01    0.4112909    0.1879906 -35.62  0.001534671    1.880    0.468
       146 -10.7162     90.6824     35.3299   6.7933225788e+01   5.7069953498e+01    0.3278165    0.2305766   7.90  0.001061768    1.563    0.360
       147 -10.4647     96.9912     35.0046   6.5848640564e+01   5.5815243047e+01    0.2170811    0.1510655  16.30            0    1.564    0.361
       148 -11.5827     39.1589     32.6270   8.6755193290e+01   6.5857286229e+01    0.4579057    0.3053226 -41.13  0.001939648    1.425    0.298
       149  -9.5750    133.6633     34.6785   5.6234162893e+01   4.7444561731e+01    0.1547076    0.1024318  28.75 0.0007050318    1.711    0.415
       150 -10.7148     73.1560     33.0866   7.2978488101e+01   6.0724149553e+01    0.3024443    0.2826651 -13.66  0.001918738    1.226    0.184
       151  -9.9330     16.7736     32.9774   9.7554633207e+01   6.7984167804e+01    0.2135379    0.1419968  -1.10 0.0006252394    1.529    0.346
       152 -10.1443     20.7761     31.3808   9.4984778191e+01   6.7950515763e+01     0.252314    0.1573807 -14.64  0.000966118    1.552    0.356
       153 -11.0223    128.0227     30.5219   5.6019372154e+01   4.9336548530e+01    0.3574162    0.3006418 -49.76 0.0009565439    1.359    0.264
       154  -9.2402    187.7149     31.3020   4.5721582600e+01   3.4240748066e+01    0.1430011   0.09885778 -65.89 0.0001965277    1.556    0.357
       155  -9.1631    166.3177     31.2634   4.8912383536e+01   3.9664743569e+01    0.1435401    0.1012911  38.84 0.0002845462    1.548    0.354
       156 -10.0171     22.2493     38.1928   9.6794226062e+01   6.6571313974e+01    0.1819336    0.1433186  -8.64 0.0005319476    1.209    0.173
       157  -9.8576     44.0068     30.4952   8.3673031740e+01   6.5610668712e+01    0.2053026    0.1407946   1.50  0.000908407    1.444    0.307
       158 -11.1718     45.5722     26.8880   8.1404609963e+01   6.5977445922e+01    0.4660023    0.2880943  42.11  0.002567563    2.009    0.502
       159 -11.0012      7.7475     28.3295   1.0041390659e+02   6.9471893407e+01    0.3298549    0.2516025  50.77  0.002154491    2.186    0.543
       160 -10.5613     69.3170     27.1505   7.1838132325e+01   6.2251580605e+01    0.3949269    0.2062338 -43.09  0.001840968    2.323    0.570
       161 -11.6333    113.9423     26.4597   5.7848797881e+01   5.3158186012e+01    0.2721727    0.2352611 -36.06 0.0003307605    1.291    0.226
       162  -9.5411    139.0600     27.0000   5.2445397131e+01   4.7049064155e+01    0.2441787   0.07528405  61.26 0.0008093279    2.990    0.666
       163 -10.1020    100.8227     26.2573   6.1236339214e+01   5.6134257002e+01    0.3130488    0.1401142  42.95   0.00132476    2.055    0.513
       164  -9.5020     18.4836     26.0168   9.4015826222e+01   6.9094054485e+01    0.1728421   0.06946298 -31.91 0.0008067901    2.333    0.571
       165 -10.0297    225.0070    247.1905   8.8412267766e+01  -8.2741455887e+00    0.2006905    0.1498384 -10.71  0.001378314    1.291    0.225
       166  -9.9852     59.0264     23.4846   7.4174259607e+01   6.4488871706e+01    0.2431659    0.1545975 -13.42 0.0006826845    1.560    0.359
       167 -10.0716     58.7673     19.8002   7.2579968299e+01   6.5030335487e+01    0.1899326    0.1654651   2.37 0.0005847019    1.140    0.123
       168 -10.2532     91.1125     22.6457   6.2571179434e+01   5.8639786758e+01       0.2191    0.1800574 -26.25 0.0008973243    1.301    0.232
       169  -9.5516    170.9644    247.0314   9.8440058293e+01  -1.4610652961e-01    0.1915698    0.1312345  12.50  0.000835622    1.656    0.396
       170 -10.8968     35.0282     22.1609   8.4135949394e+01   6.8047057316e+01    0.2232432    0.1451662 -27.59 0.0002698272    1.295    0.228
       171 -11.3198     41.2914     19.9104   8.0152637252e+01   6.7599057533e+01    0.3743312    0.2255371  27.13  0.001787544    1.622    0.384
       172 -10.9949     13.9925     21.8814   9.4649722051e+01   7.0173909638e+01    0.4390689    0.2061318  16.82  0.002419444    2.295    0.564
       173 -10.0541    237.8301    149.6248   6.7510091265e+01   3.9077748915e+00    0.1727292    0.1333429  52.87 0.0004277735    1.593    0.372
       174 -10.7966     30.1975     21.1819   8.6036786398e+01   6.8753920781e+01    0.2558924    0.1710749  19.18  0.001489894    1.482    0.325
       175  -9.0529     74.2825    243.6918   1.1663786882e+02   1.4980742666e+01    0.1200261   0.07071437  64.60 0.0003517968    1.564    0.360
       176  -9.5213    202.4568    240.4768   9.1486934701e+01  -4.1108752571e+00    0.1243932   0.09755163  19.05 6.902057e-05    1.019    0.019
       177 -11.6031     14.2463    239.1897   1.2703773875e+02   2.2892572659e+01    0.2266654    0.1249409  78.41 0.0007771952    1.462    0.316
       178 -10.1822    114.9211     17.3445   5.4122841305e+01   5.3938266178e+01    0.1994219    0.1483232  52.15 0.0003447573    1.207    0.171
       179 -10.4015     82.9083     16.1120   6.2277418544e+01   6.1067002755e+01     0.211283    0.1742039  -7.41 0.0004109721    1.182    0.154
       180  -9.5202     91.0129    237.0842   1.1283528322e+02   1.3847467540e+01    0.1410189    0.1200145  79.21 0.0007671663    1.163    0.140
       181 -11.5194     25.8152    235.7926   1.2487129628e+02   2.2322294430e+01    0.2307556    0.1904308  31.57  0.001073481    1.648    0.393
       182  -9.8097    249.3333    233.9877   8.1966412197e+01  -1.0050378563e+01    0.1601488    0.1197546  -2.05  0.000407145    1.094    0.086
       183  -8.8863     27.2483     16.6647   8.5417865406e+01   6.9775197833e+01    0.1013999   0.08839942 -40.05 0.0002020708    1.557    0.358
       184  -9.5401    154.3066     15.0011   4.5771140949e+01   4.4508907195e+01    0.1799346     0.172796  58.40 0.0003331643    1.076    0.071
       185 -12.5249      9.7986    227.5528   1.2723140306e+02   2.5515282361e+01    0.3583657    0.2598899 -89.05  0.001870954    1.229    0.186
       186  -9.0581    243.3366    230.2879   8.2373260789e+01  -8.7843531476e+00    0.1246932   0.07457531   7.58 0.0004497039    1.633    0.388
       187  -9.1447     48.0003    229.9950   1.2046458051e+02   2.0903765770e+01    0.1376052    0.1059251  69.75 0.0003851787    1.018    0.018
       188  -9.8456    209.5247    229.5349   8.8392038961e+01  -3.7017987203e+00    0.1266465    0.1015676  16.37 5.719471e-05    1.005    0.005
       189 -10.3598    140.3741    228.7092   1.0194062673e+02   7.6846597382e+00    0.2503357    0.1626072 -42.38  0.001078347    1.863    0.463
       190 -10.1147    223.3061    226.5684   8.5325779347e+01  -5.4043689670e+00    0.2103835    0.1304504  -8.28 0.0006151508    1.754    0.430
       191 -10.7170      1.5276    225.2041   1.2855011061e+02   2.6739492761e+01    0.1985236   0.08187399 -88.12 0.0009443933    2.057    0.514
       192 -11.5559      2.6105    220.7026   1.2815673834e+02   2.7509494285e+01     0.298558      0.14073  85.20  0.001817634    1.755    0.430
       193 -10.0208    205.8046    212.6288   8.6192357075e+01  -6.4790898839e-01    0.2156841    0.1626033 -10.83 0.0007529471    1.326    0.246
       194  -9.6334     15.4238    213.4777   1.2546348450e+02   2.7736426003e+01    0.1142837   0.08248943  74.71 6.910658e-05    1.037    0.035
       195  -8.9144    104.3134     10.3125   5.3864676944e+01   5.7066899894e+01    0.1427077   0.08651433  30.76 0.0005009075    1.635    0.388
       196  -9.8839      6.2829    213.6459   1.2715448718e+02   2.8565985210e+01    0.1188382   0.05870205  68.14 0.0004922488    1.661    0.398
       197  -9.3406    249.3379    211.3143   7.7954168430e+01  -7.2153829023e+00    0.1306195   0.07919787   3.90 0.0007047144    1.696    0.410
       198 -10.1928      9.2983    217.8322   1.2682657384e+02   2.7453861133e+01    0.1801234    0.1526998 -62.23  0.001393107    1.596    0.373
       199 -10.1296     20.1766    209.8684   1.2434678109e+02   2.8001372481e+01    0.1829269    0.1150133  66.67 0.0006888631    1.286    0.223
       200  -9.8445     10.3115    203.6327   1.2585149725e+02   3.0233349314e+01    0.1252366   0.06126473  67.48 0.0007037497    1.764    0.433
       201 -10.1693     23.5274    196.8508   1.2280037223e+02   3.0395547928e+01    0.2010152     0.171876 -54.94  0.001193171    1.527    0.345
       202 -10.9313     13.9119    192.6563   1.2445616384e+02   3.2216721022e+01     0.210154    0.1344617  74.59 0.0005154947    1.281    0.219
       203 -10.2219      6.2587    191.6176   1.2592375371e+02   3.3118513318e+01    0.1595623    0.1116132  80.94  0.001097918    1.092    0.085
       204  -9.2826    164.5897     12.5379   4.3486018738e+01   4.2153538048e+01    0.1344008    0.1216355  74.13 1.536937e-05    1.014    0.014
       205  -9.4335      1.0000    191.0394   1.2692888524e+02   3.3682709372e+01    0.1765123   0.05111477 -78.82 0.0006160407    2.813    0.644
       206  -9.5971     22.5102    179.9543   1.2170899354e+02   3.4198794379e+01     0.174973   0.09923415 -78.09 0.0003814191    1.485    0.327
       207 -11.3362      5.4904    167.2816   1.2446282826e+02   3.8519780258e+01    0.3391039    0.1650665  88.84  0.001829984    1.785    0.440
       208  -9.8216    226.6355    163.9551   7.2612411584e+01   3.5656971762e+00    0.2022834    0.1629238 -23.82 0.0008540808    1.135    0.119
       209  -9.7212      3.6310    158.6861   1.2423830501e+02   4.0606536273e+01    0.1172035   0.07537486 -50.50 0.0007036457    1.775    0.437
       210  -9.2246     41.2716    157.7053   1.1508294172e+02   3.7456196777e+01    0.1301112   0.08655567  73.81 0.0002523749    1.519    0.342
       211  -9.3298    247.4757    155.4814   6.7146501779e+01   1.2480733552e+00    0.1365964    0.1151229 -14.23 0.0002224818    1.009    0.009
       212  -9.2409     43.6133    153.4862   1.1396495598e+02   3.8212339164e+01    0.1319512    0.1097993 -82.52 2.589722e-05    1.027    0.026
       213 -10.9483      3.0279    153.5837   1.2398037244e+02   4.1816169853e+01    0.3022258   0.09609205  29.13  0.001409281    3.334    0.700
