#   1 NUMBER                 Running object number                                     
#   2 MAG_AUTO               Kron-like elliptical aperture magnitude                    [mag]
#   3 X_IMAGE                Object position along x                                    [pixel]
#   4 Y_IMAGE                Object position along y                                    [pixel]
#   5 X_WORLD                Barycenter position along world x axis                     [deg]
#   6 Y_WORLD                Barycenter position along world y axis                     [deg]
#   7 A_WORLD                Profile RMS along major axis (world units)                 [deg]
#   8 B_WORLD                Profile RMS along minor axis (world units)                 [deg]
#   9 THETA_WORLD            Position angle (CCW/world-x)                               [deg]
#  10 FWHM_WORLD             FWHM assuming a gaussian core                              [deg]
#  11 ELONGATION             A_IMAGE/B_IMAGE                                           
#  12 ELLIPTICITY            1 - B_IMAGE/A_IMAGE                                       
         1 -11.2799     78.4832     21.9890   8.0929673438e+01   6.1772202467e+01    0.6628367    0.2577192 -27.75  0.002493266    2.714    0.631
         2 -10.8683     74.9974     21.9943   8.2131044245e+01   6.2401144775e+01    0.5201094    0.1754353 -40.06  0.001806004    2.721    0.632
         3  -9.3449     91.5648      2.7777   6.7312774326e+01   6.1689703333e+01    0.3955659    0.2700224  55.16  0.002103511    1.562    0.360
         4 -11.7931     88.9405     13.8644   7.3646771603e+01   6.0914141744e+01    0.5532953     0.368962 -49.91  0.001901164    1.901    0.474
         5 -10.6701     92.9232      9.1842   7.0171038002e+01   6.0674854051e+01    0.4080454    0.2347164  -5.75  0.001191845    1.958    0.489
         6 -10.2865     26.8541     16.1743   9.9500922800e+01   7.0126015510e+01    0.2643664    0.1639749 -44.34  0.000907976    1.259    0.206
         7 -10.8713    190.6818     14.1721   5.3824808781e+01   3.5521517563e+01    0.3702554    0.2323921 -46.63  0.001685004    1.612    0.380
         8 -11.6075    151.0072      7.0087   5.6777982878e+01   4.6845601283e+01    0.4515724    0.3819976  -4.63 0.0007800265    1.190    0.160
         9 -10.9791    155.3879     14.3008   5.8883948973e+01   4.4941539037e+01    0.4918665    0.2832727  33.59  0.001852632    1.970    0.493
        10 -10.6489    154.6589      9.7339   5.7254911490e+01   4.5611923430e+01    0.3545862    0.2032571  33.77   0.00112558    1.950    0.487
        11 -11.8233     30.2161      7.1818   9.3326891055e+01   7.1348787052e+01    0.2938521    0.2656579 -19.78  0.001035221    1.253    0.202
        12 -11.7550     34.9012     12.8286   9.3995180386e+01   6.9852289665e+01    0.3823928    0.2510133 -42.76  0.001379554    1.301    0.231
        13 -12.0110     40.4391      8.5454   8.9147646837e+01   6.9878260751e+01    0.4446188    0.2556557 -23.50  0.001442038    1.658    0.397
        14 -10.9522    162.4249     13.1313   5.7329052405e+01   4.3198622162e+01    0.2616471    0.2403923  56.32 0.0002592418    1.083    0.077
        15 -11.4114     11.7625      6.4521   1.0276102161e+02   7.3254798840e+01    0.5394951    0.4224606  87.76  0.003450947    2.330    0.571
        16  -8.5379      6.0000     13.9707   1.0926053883e+02   7.2246776198e+01    0.2190027   0.06962926 -57.41  0.001012858    2.369    0.578
        17 -11.2088      4.1281     10.0392   1.0866896240e+02   7.3125448476e+01    0.2423687    0.1617979 -46.03 0.0004638848    1.074    0.069
        18 -10.3418      2.8934      6.4807   1.0782324874e+02   7.3878646409e+01    0.2058649    0.1344244  -6.69 0.0008120453    1.790    0.441
        19 -10.5625    119.0655     12.0821   6.4947139102e+01   5.4408001793e+01     0.217063     0.197731  15.69 0.0003090114    1.028    0.027
        20 -10.1447     56.5039     10.9416   8.3501068530e+01   6.7197657187e+01    0.1880324    0.1612162   8.88 0.0007029093    1.181    0.153
        21 -10.7236     22.4220      9.4529   9.8497665983e+01   7.1777366051e+01    0.2913902    0.1970166 -12.07  0.001253304    1.594    0.373
        22 -10.9647     71.1919      6.5303   7.5608697246e+01   6.5311076951e+01     0.327837    0.2582407  21.06   0.00135989    1.242    0.195
        23 -10.8681    210.3280      7.1425   4.9447860502e+01   3.1046547734e+01    0.2398614    0.1919798  61.64 0.0007717703    1.281    0.219
        24 -10.4386     64.8459      6.7324   7.7992912915e+01   6.6418195221e+01    0.2284233    0.1540519 -15.34 0.0005705027    1.340    0.254
        25 -10.7347     55.3262      7.3028   8.1999504885e+01   6.7916989254e+01    0.4452524    0.2130261  24.96  0.001893089    3.063    0.673
        26 -10.9940     55.6927      4.6526   8.0364270369e+01   6.8230494147e+01    0.4585794    0.2425866  20.58  0.002100031    2.609    0.617
        27 -10.9704    145.1418      5.6897   5.7204331616e+01   4.8509892981e+01    0.2447138     0.189709 -29.48 0.0005157238    1.294    0.227
        28  -9.3643     49.6502      6.7494   8.4056224613e+01   6.8866816249e+01    0.1249406   0.08522548   1.77 0.0002809216    1.590    0.371
        29 -11.1286    194.3234      4.5418   5.0257247593e+01   3.5507954788e+01     0.281559     0.181887 -16.13 0.0008516159    1.595    0.373
        30  -9.8719    235.5864      4.2533   4.6416206144e+01   2.4943916209e+01    0.1882889    0.1281803  -7.72 0.0009474186    1.637    0.389
        31 -10.8179    199.0194      3.4869   4.9432089023e+01   3.4361422854e+01     0.277714    0.2021483   6.11  0.001183191    1.582    0.368
        32 -11.6031    130.0340      3.9192   5.9120159773e+01   5.2554167616e+01    0.3652474    0.3104012 -76.05  0.001984352    1.396    0.284
        33 -10.4261    120.9666      4.0615   6.0955652116e+01   5.4791664611e+01    0.2148837    0.1950743  12.33 0.0004509808    1.019    0.019
        34 -10.2469    173.0108      3.2220   5.2266599773e+01   4.1334336885e+01    0.2778733    0.1983491  77.82 0.0008157991    1.435    0.303
        35  -9.7622    176.4836      2.5028   5.1588463428e+01   4.0467340189e+01    0.2840102    0.2165482   9.72  0.001418256    1.445    0.308
        36 -10.9911    161.3850      2.2401   5.3428006381e+01   4.4535608719e+01    0.3412706    0.2103519  34.06  0.001536368    1.755    0.430
        37  -9.8647     37.6721      2.5189   8.7040259017e+01   7.1173151149e+01     0.304239   0.09328254 -37.00   0.00126505    2.685    0.628
        38 -10.3991     20.0671      2.4564   9.6046454329e+01   7.3213646309e+01     0.227384    0.1513943 -33.66 0.0007140157    1.133    0.117
        39  -9.3205     16.5465      3.4365   9.8532641595e+01   7.3381333659e+01     0.188761   0.09992686 -24.40 5.319213e-05    1.967    0.492
        40  -9.7528      1.9273      2.7216   1.0665229479e+02   7.4638964897e+01    0.1645897    0.1114561 -23.67  0.001148517    1.408    0.290
        41  -9.8791    100.0943      1.7632   6.4574670815e+01   5.9922821318e+01    0.2041714    0.1841442 -41.47 0.0004638137    1.281    0.220
        42  -9.7847     50.8248      1.7593   8.0692381203e+01   6.9393129597e+01    0.2001784    0.1403293  13.76  0.001185631    1.470    0.320
        43  -9.5989    204.2787      1.6250   4.8333641190e+01   3.3148353117e+01    0.1567598   0.09290921 -51.15 0.0001360881    1.701    0.412
        44 -11.7429     80.3546      1.7691   7.0033397900e+01   6.4121949715e+01    0.3542376    0.1907841  52.78  0.000946019    1.963    0.491
        45  -9.5376     67.2206      1.4346   7.4175151434e+01   6.6669172777e+01     0.146514    0.1281459  52.31 0.0003737891    1.446    0.308
        46 -10.3664      1.9911    132.6651   1.3102596630e+02   4.6535903607e+01    0.1508645    0.1154604  80.93 0.0007441664    1.106    0.096
        47 -11.2485      1.7462    248.4795   1.3611792542e+02   2.5643109608e+01    0.2596973   0.09959619 -83.23  0.001886065    2.329    0.571
        48 -10.6193     11.8413    249.9861   1.3478232385e+02   2.4484253333e+01    0.1619731   0.09749868 -69.45   0.00136396    2.129    0.530
        49 -12.6859      8.6660    246.0444   1.3509705618e+02   2.5362375493e+01     0.372333    0.3023302  18.22  0.003231856    2.597    0.615
        50  -9.8919     35.3153    130.6394   1.2316052391e+02   4.4137370258e+01    0.1949813    0.1117846 -59.32 0.0005976382    1.675    0.403
        51 -11.5590     11.6298    129.4616   1.2859825830e+02   4.6501286305e+01    0.4464213    0.1665968  62.67   0.00180988    2.898    0.655
        52 -10.7363    248.5011    129.5049   7.7745427940e+01   6.1944414573e+00    0.1358405    0.1156773  -1.24 0.0008106765    1.002    0.002
        53 -11.9980     23.2041    121.1077   1.2504396161e+02   4.7382870776e+01    0.5257925    0.2348133  74.22  0.000748061    2.639    0.621
        54  -9.7578      2.3213    114.2858   1.2954124489e+02   5.0487385502e+01    0.1065116   0.06961215 -57.34 0.0002492125    1.596    0.373
        55 -10.6268     65.4621    111.4257   1.1276578117e+02   4.5024260607e+01    0.3612815   0.09962891 -57.65  0.001324968    2.976    0.664
        56 -10.1579     20.6373    112.6626   1.2475939509e+02   4.9490711137e+01    0.2210443    0.1013107  55.19 0.0007081542    2.341    0.573
        57 -10.1284    248.8549    111.8432   7.3558547523e+01   8.4588235934e+00    0.1860968    0.1589875 -40.87  0.001077531    1.319    0.242
        58 -11.1917      3.6484    109.0276   1.2874505697e+02   5.1559696742e+01    0.3034593    0.1341892  37.25  0.001749562    2.481    0.597
        59 -10.6792     57.7178    107.8831   1.1421430036e+02   4.6816235419e+01     0.199478    0.1835708  15.53 0.0009982425    1.442    0.307
        60 -10.5733     90.2462    105.0171   1.0486148604e+02   4.2863190846e+01    0.2056089    0.1749442 -64.07 0.0007206427    1.060    0.057
        61  -9.9013    113.5117    102.5018   9.8193643586e+01   3.9343532205e+01    0.1451686    0.1354224 -65.80 0.0008105785    1.001    0.001
        62 -11.0033     57.1621    101.7782   1.1326067355e+02   4.8289729293e+01    0.2463936    0.2229788  44.37  0.001607208    1.315    0.240
        63 -11.2031     24.8568    101.6326   1.2226326710e+02   5.1640760467e+01    0.2721969    0.1584021 -73.32 9.391109e-05    1.339    0.253
        64 -10.3375     62.2924     98.6819   1.1121459918e+02   4.8362812500e+01    0.2475419    0.1438248 -66.23  0.001252279    1.518    0.341
        65  -9.3837    195.2932     98.7433   7.9084911458e+01   2.2167202212e+01    0.2404603     0.111697  41.50 0.0008854954    2.353    0.575
        66  -9.3734    129.6564     97.6896   9.2913315651e+01   3.7169171581e+01    0.1502314    0.1196793   0.48 0.0007045338    1.700    0.412
        67 -10.2274    100.1453     95.7886   1.0001973263e+02   4.3252187764e+01    0.4423894    0.2871237  71.81  0.001952076    2.207    0.547
        68  -9.8077      3.0834     95.9000   1.2760088663e+02   5.4523553317e+01    0.1788548    0.1043405 -55.03  0.001100385    1.657    0.396
        69  -9.8578     78.9495     94.7079   1.0562415411e+02   4.6957039560e+01    0.1793448     0.168439 -82.24 0.0002628178    1.093    0.085
        70 -11.5357     18.0498     94.6180   1.2322948777e+02   5.3789264225e+01    0.2461528    0.1908166  74.84 0.0009580447    1.281    0.220
        71 -10.8492     58.1317     91.5763   1.1095866177e+02   5.0525336034e+01      0.24956    0.2141102 -19.70   0.00100311    1.520    0.342
        72 -11.0749     27.1602     90.8364   1.2002001944e+02   5.3921891600e+01    0.4702649    0.2192396  54.38  0.002300919    2.648    0.622
        73 -11.1889     10.7575     90.2474   1.2476030546e+02   5.5306880387e+01    0.4647879    0.1447428 -63.65  0.002023507    2.251    0.556
        74 -10.2282     10.9635     85.0380   1.2400705014e+02   5.6477238142e+01    0.2204545    0.1230382 -61.18 0.0007776417    1.432    0.302
        75 -11.2667      1.8621     90.0004   1.2730335567e+02   5.5921422065e+01    0.2306048    0.1200603 -76.04 0.0002726572    1.402    0.287
        76 -10.6561     76.4219     89.2387   1.0505498457e+02   4.8577045224e+01    0.2450574    0.2188346 -60.13 0.0004848668    1.048    0.046
        77 -10.0170     44.1229     89.6432   1.1474376365e+02   5.2578494081e+01    0.2584332    0.1370427  46.61  0.001322485    2.171    0.539
        78 -10.9235     98.7850     89.5597   9.8782033945e+01   4.4865665853e+01     0.264379    0.1441995  37.86  0.001145216    2.117    0.528
        79 -10.9420     18.2967     87.6495   1.2217388571e+02   5.5363516455e+01     0.381667    0.1935089 -52.68   0.00195938    1.808    0.447
        80  -9.6276    124.1415     86.8235   9.1283690229e+01   4.0565169396e+01    0.2075291     0.182371  -3.86  0.001077572    1.332    0.249
        81 -11.1418     54.6088     84.6465   1.1052371371e+02   5.2550547344e+01    0.3131652    0.2028003 -72.41 0.0009800973    1.460    0.315
        82 -10.0469     25.3239     84.8375   1.1959844154e+02   5.5455963986e+01    0.1768475     0.117575 -69.87 0.0005553964    1.163    0.140
        83 -10.5814      3.5201     83.2135   1.2601296721e+02   5.7354031658e+01     0.261826    0.1592937  83.46  0.001336342    1.529    0.346
        84  -9.4919    100.3153     82.6770   9.6470653584e+01   4.6093678147e+01    0.1469575    0.1118715 -83.84 0.0003200009    1.663    0.399
        85 -11.3630     64.1206     80.0021   1.0648919194e+02   5.2410002575e+01    0.4598831    0.2583179 -60.56  0.002254278    1.567    0.362
        86 -10.0952     89.3677     80.4744   9.8984799282e+01   4.8492048678e+01    0.2425201    0.1611523 -68.10 0.0006714422    1.718    0.418
        87  -9.4377    132.5107     79.4947   8.7012645285e+01   4.0263995580e+01    0.1525497    0.1447813 -31.76 -0.0001073279    1.034    0.033
        88  -9.7760    124.3676     78.9621   8.8902961961e+01   4.2128168228e+01     0.235433    0.1707371 -56.42 0.0005692339    1.448    0.309
        89 -10.6964    177.0515     76.9737   7.6378252446e+01   3.0233588554e+01    0.3619396    0.2244518  45.84  0.001146231    1.671    0.402
        90 -10.7141     16.0104     75.8803   1.2104130135e+02   5.8220028816e+01    0.2595254    0.2009456 -29.31  0.001754013    1.641    0.391
        91  -9.3802    170.2810     76.3368   7.7536896192e+01   3.2005064927e+01    0.1587386    0.1209709   8.80 0.0007007646    1.619    0.382
        92 -11.1548     56.5667     75.4784   1.0774992534e+02   5.4409649100e+01    0.4158285    0.2797374  21.34  0.001902328    2.007    0.502
        93 -10.8662      7.0134     74.7113   1.2376361686e+02   5.9071390427e+01    0.2454461    0.1302072 -63.38  0.001392531    1.405    0.288
        94 -10.1018      2.9683     73.5428   1.2489878592e+02   5.9568300153e+01    0.2175695    0.1200515  14.00   0.00127883    2.599    0.615
        95  -9.0189     74.7508     75.6513   1.0204344669e+02   5.1885370108e+01    0.1393353   0.09676479 -34.57 0.0002284949    1.585    0.369
        96  -9.8141     32.2157     73.1725   1.1520732104e+02   5.7539857001e+01    0.1893407    0.1433234 -81.92 0.0002853777    1.255    0.203
        97 -11.1408     36.0947     72.0984   1.1368246159e+02   5.7424513910e+01    0.4624434    0.2862329 -64.09  0.001685559    1.291    0.225
        98  -9.4479    136.5147     74.4644   8.4472746593e+01   4.0355495811e+01    0.1533161    0.1460235 -32.23 7.330671e-05    1.013    0.013
        99 -11.5261    105.7032     71.8313   9.1714816982e+01   4.7383544757e+01    0.2509226    0.2387716 -30.13 0.0002846654    1.067    0.063
       100  -9.5124     80.7031     72.3397   9.9258972772e+01   5.1696932586e+01    0.1407524    0.1062485 -81.82 0.0003314247    1.659    0.397
       101  -9.0787     55.6217     69.7310   1.0657857383e+02   5.5825535784e+01    0.1312127   0.09403909 -28.47 0.0006992999    1.687    0.407
       102 -10.2865     10.5095     68.0822   1.2154742278e+02   6.0358451829e+01    0.3486584    0.1199091 -73.10  0.001562685    2.390    0.582
       103 -11.6275      9.4284     60.6760   1.2059525978e+02   6.2095208253e+01    0.5162228    0.1887718 -47.12  0.002486347    2.485    0.598
       104 -10.7099      3.1857     60.7217   1.2283504984e+02   6.2439616796e+01    0.2560943    0.1503354  58.72  0.001222168    2.141    0.533
       105 -10.4927    132.0409     64.5237   8.2337986666e+01   4.3258216105e+01    0.3540981    0.3027584  50.58  0.001817246    1.239    0.193
       106 -10.4305     34.7582     64.6156   1.1241850670e+02   5.9251339428e+01    0.2576606    0.1672333 -51.55 0.0007852393    1.285    0.222
       107 -10.6208     38.8979     62.8471   1.1052053535e+02   5.9246388603e+01      0.23707    0.1749206 -26.70  0.000444879    1.623    0.384
       108 -10.4723     40.7514     59.0332   1.0885104071e+02   5.9908832196e+01     0.349338    0.2359373 -51.91  0.002047189    1.198    0.165
       109  -9.4970     92.4480     72.5004   9.5753137863e+01   4.9693551687e+01    0.1451304    0.1294477 -49.69 4.438496e-05    1.009    0.009
       110  -9.8164     72.5246     63.2373   9.9105464133e+01   5.4941674721e+01    0.2533226    0.1221706 -53.61 0.0005146471    1.877    0.467
       111 -10.7675     13.9873     63.3483   1.1948007229e+02   6.1203761327e+01    0.2664342    0.1346205 -76.01 0.0005415265    1.727    0.421
       112 -10.6229     62.5865     62.4633   1.0218058888e+02   5.6534500770e+01    0.2725887    0.2041419 -41.34  0.001518559    1.227    0.185
       113  -9.6612    100.8570     61.7873   8.9822354800e+01   5.0371339661e+01    0.1973816    0.1682487 -70.50 0.0005180328    1.344    0.256
       114 -11.0484     55.2694     58.7645   1.0358996751e+02   5.8300273157e+01    0.5124885      0.29811 -65.97  0.002493196    1.858    0.462
       115 -12.9990     20.7633     57.7176   1.1584615490e+02   6.1990185106e+01    0.4040196    0.2944021 -81.67   0.00127548    1.353    0.261
       116  -9.5165     66.7355     60.6056   1.0020630775e+02   5.6358904525e+01    0.1658871    0.1303309  52.00 0.0009323331    1.536    0.349
       117  -9.5194    119.1636     59.1885   8.3813805906e+01   4.7123662940e+01    0.2080871     0.174066 -65.35 0.0004403666    1.371    0.270
       118 -10.6452     83.6387     56.9499   9.3432852293e+01   5.4479493477e+01    0.3451391     0.203024 -46.28  0.001078715    1.506    0.336
       119 -11.8194     88.3352     53.4650   9.0714005328e+01   5.4361397896e+01    0.4505504    0.3633671  46.03 0.0009493679    1.405    0.288
       120 -10.4340     60.0694     58.1943   1.0173526748e+02   5.7801042472e+01    0.2376177    0.1668779 -51.91 0.0005203759    1.199    0.166
       121  -9.7735     20.1178     51.5680   1.1462843099e+02   6.3407262706e+01    0.2764162    0.1410666 -30.43  0.001229602    2.570    0.611
       122  -9.0561     71.5483     57.4570   9.7570389713e+01   5.6321118644e+01    0.1391438    0.1195491 -45.65  0.000223272    1.008    0.008
       123 -10.4540    225.4769     54.3552   6.1713967488e+01   2.1617345658e+01    0.4259047    0.2390018 -15.00  0.001765284    1.959    0.489
       124 -13.0509      5.4143     51.1992   1.2023060456e+02   6.4440533132e+01     0.424176    0.2281093 -52.06 0.0005784856    1.485    0.326
       125 -11.6200     15.0460     45.9999   1.1523643402e+02   6.4994448956e+01    0.7318838    0.5360847 -46.49  0.004948576    1.212    0.175
       126 -11.5588    114.6113     53.8191   8.3126398547e+01   4.9106793558e+01    0.3318535    0.3040637 -17.33  0.000775021    1.065    0.061
       127 -10.5422    106.5049     53.2598   8.5182490404e+01   5.0910508567e+01    0.2706935    0.2392206 -83.24 0.0004606909    1.378    0.274
       128 -10.0306     34.1024     53.6073   1.0981458726e+02   6.1770050404e+01    0.2735318    0.1433344 -39.25  0.001378044    1.941    0.485
       129 -11.8639     66.4788     52.5168   9.7639444212e+01   5.8110447037e+01    0.4557823    0.2411114  33.33  0.001972683    2.297    0.565
       130  -9.2747    175.9728     52.2389   6.8777839215e+01   3.4517055255e+01    0.1957648    0.1330091  60.50  0.000315175    1.542    0.351
       131  -9.2993    169.5331     52.5149   7.0066291651e+01   3.6135028166e+01    0.1556837    0.1491142 -22.14 -4.29461e-05    1.003    0.003
       132  -9.0098    232.2735     51.6861   6.0078856069e+01   2.0321948542e+01    0.1502747    0.1016653 -51.65 0.0002233463    1.558    0.358
       133  -9.9083    122.2516     51.7030   8.0325356247e+01   4.7812138288e+01    0.2938551    0.1425507  60.33  0.001075341    2.646    0.622
       134 -10.2300     98.3298     50.3049   8.6482695044e+01   5.3102702196e+01    0.3189997    0.2208129 -17.82  0.001499472    1.698    0.411
       135 -10.8009    103.5868     47.1277   8.3732401611e+01   5.2642040023e+01    0.3737256    0.2536957  28.94  0.001754657    1.760    0.432
       136 -10.6086     75.6142     49.9165   9.3582962339e+01   5.7237716787e+01     0.429928    0.2551451 -23.58  0.001391632    2.238    0.553
       137 -10.1699     78.9744     45.9623   9.0982190994e+01   5.7463670485e+01    0.2132044    0.1847383 -29.74 0.0003300124    1.047    0.045
       138  -9.4367     53.6141     48.1755   1.0078577117e+02   6.0775481409e+01    0.1972747    0.1011202 -43.73 0.0009444562    1.658    0.397
       139  -9.1159    154.7294     47.6859   7.1337577726e+01   4.0669528566e+01    0.1557982    0.1182537  14.30 0.0002112207    1.554    0.356
       140  -9.1487     47.3003     47.3193   1.0287441623e+02   6.1728597998e+01    0.1331669   0.08616935 -31.75 0.0003493458    1.621    0.383
       141  -9.9952     30.4898     45.9870   1.0901956738e+02   6.3767619470e+01    0.2499128     0.104154 -61.48  0.001001458    2.073    0.518
       142 -10.9746     25.9662     43.5011   1.1010338172e+02   6.4701732301e+01    0.2622536    0.2466076 -82.80 0.0008555034    1.275    0.216
       143  -8.8971    180.3197     43.6336   6.5166402819e+01   3.4645988794e+01     0.168855    0.1119303 -57.80 0.0002146225    1.785    0.440
       144  -9.2973    110.6933     42.7247   8.0014105587e+01   5.1927047054e+01    0.1462717    0.1117461   9.58 0.0002160652    1.548    0.354
       145 -10.1910     95.0307     42.1734   8.4349791478e+01   5.5246384429e+01    0.2145957    0.1905018 -27.61 0.0006428644    1.010    0.010
       146 -10.1787     69.9820     41.6420   9.2417837278e+01   5.9767548618e+01    0.2793976    0.2038984   6.00 0.0007483942    1.767    0.434
       147  -9.9439      2.4887     42.3286   1.1949375360e+02   6.6542607817e+01    0.1574621    0.1098687  11.42 0.0009603276    1.934    0.483
       148  -9.4869    182.5973     40.7468   6.3829191506e+01   3.4449613509e+01    0.2280718    0.1326918 -37.30  0.000568411    1.635    0.388
       149 -10.4387    139.7025     40.6637   7.2002541610e+01   4.5519733183e+01    0.2766107    0.2465804 -60.39 0.0006163808    1.240    0.194
       150  -9.5012     42.9009     40.9505   1.0240586019e+02   6.3566721023e+01    0.1459764     0.125984 -37.67 0.0005315058    1.094    0.086
       151 -10.2288     36.0807     41.1875   1.0523905927e+02   6.4249813489e+01    0.2112585    0.1598125 -24.77  0.001309344    1.414    0.293
       152  -9.8969    133.2096     38.9880   7.2843024881e+01   4.7364410205e+01     0.400879    0.2633344 -80.69  0.001573588    2.597    0.615
       153 -11.0397    134.2077     34.2992   7.0796673940e+01   4.7826306653e+01    0.2470541    0.2052177  12.56 0.0003318349    1.271    0.213
       154 -12.4462    121.9511     36.4511   7.4564031539e+01   5.0428856426e+01    0.6029152    0.5550823 -29.54  0.003324184    1.066    0.062
       155 -10.4598    127.7432     30.6100   7.0815080415e+01   4.9931848442e+01    0.5468396    0.2294808  40.00  0.001899828    2.840    0.648
       156  -9.9779     25.9971     30.1935   1.0568617870e+02   6.7484511335e+01    0.1839608    0.1382993 -79.52 0.0006945022    1.752    0.429
       157 -10.5865     22.7719     38.5941   1.0993964121e+02   6.6015202567e+01    0.2168725    0.2027449  82.49 0.0006924397    1.349    0.258
       158 -11.2902     26.5450     35.0533   1.0716396076e+02   6.6437917341e+01    0.3715816    0.1937317 -37.49  0.001577511    1.813    0.448
       159 -10.7206      2.6498     34.5154   1.1753548847e+02   6.8219052580e+01    0.3331444    0.1295977 -54.70  0.001785618    1.750    0.429
       160 -10.5449     91.3314     34.1349   8.2190020096e+01   5.7369827149e+01    0.3490411    0.2035111 -37.07  0.001169512    1.550    0.355
       161 -11.4604     43.9027     28.9821   9.7387600513e+01   6.5837034960e+01    0.4878911    0.3020817 -32.92  0.002694717    1.461    0.316
       162 -11.4119     38.6022     30.9217   1.0043252951e+02   6.6074509738e+01    0.2647406    0.1836924 -24.21 0.0002757536    1.493    0.330
       163 -10.1934     16.3150     33.3140   1.1109357474e+02   6.7625929628e+01    0.2371015    0.1258979 -40.22  0.001292305    1.670    0.401
       164 -10.6217     19.8591     31.8741   1.0903494619e+02   6.7657378794e+01     0.255953    0.1780933 -28.41 0.0009913342    1.479    0.324
       165 -10.2175    166.2545     31.1233   6.3257479515e+01   4.0055114059e+01     0.256932    0.1921441 -30.67  0.000425827    1.291    0.225
       166  -9.4969     33.1534     31.8248   1.0313322094e+02   6.6471854231e+01    0.1648102    0.1126444 -36.49 0.0009924998    1.270    0.212
       167  -9.7422    204.9841     30.4846   5.7264860264e+01   2.9886105667e+01    0.2231383    0.1492606  70.56 0.0008956949    1.584    0.369
       168  -9.6785    187.3035     29.9957   5.9527573395e+01   3.4609340631e+01    0.2218729    0.1989931 -19.95  0.001167862    1.094    0.086
       169 -11.1326      7.6308     28.5462   1.1356991719e+02   6.9200394587e+01    0.3059942    0.2105515  60.68  0.001749525    2.185    0.542
       170 -10.0150    148.4877     28.7098   6.5630459178e+01   4.5011995212e+01    0.5000883    0.2493774 -54.08  0.001757016    2.842    0.648
       171 -10.2115     69.7741     28.7770   8.7116931638e+01   6.2169635931e+01    0.2658081    0.1654911 -37.43 0.0007859794    1.391    0.281
       172 -10.1673     74.8785     16.4333   7.9469534089e+01   6.3271359600e+01    0.2952211    0.1860713  -5.28 0.0007667546    1.881    0.468
       173 -11.4357     18.0795    249.0056   1.3388562095e+02   2.4024933324e+01    0.1693724    0.1118166  41.96  0.001462052    1.691    0.409
       174  -9.7427    229.6960    248.0786   1.0186726782e+02  -3.7089472376e+00    0.1367631    0.1040442  19.69 0.0007454747    1.132    0.116
       175  -9.7178    140.0410     27.0000   6.6666737363e+01   4.7392558673e+01    0.2420706   0.08587067  60.77  0.000796727    2.903    0.656
       176 -10.4524    100.6937     25.5040   7.5631600371e+01   5.6831205904e+01    0.2648501    0.2049186 -39.60 0.0008036221    1.307    0.235
       177  -9.5322     18.3784     26.2755   1.0775176192e+02   6.8920483830e+01    0.1236486   0.07150342 -32.29 0.0007002848    1.702    0.412
       178  -9.7991    218.6103     24.8189   5.3910033916e+01   2.7032175111e+01    0.2232059    0.1169329 -35.75 0.0009528224    1.714    0.417
       179  -9.7320    153.9199     25.5038   6.3388226382e+01   4.4016811212e+01     0.224209    0.1507992  64.78 0.0006725567    1.547    0.354
       180 -10.8914    114.1009     24.1537   7.1434239615e+01   5.4054690242e+01    0.3388062     0.280059   8.37  0.001105433    1.218    0.179
       181 -10.3255     59.3784     23.9812   8.8853154605e+01   6.4644041301e+01    0.2722228    0.1937172  -8.09  0.001217762    1.569    0.363
       182  -9.7962     38.2364     24.8613   9.8086547652e+01   6.7287462516e+01    0.2451773    0.1253564 -32.38 0.0008879267    1.929    0.482
       183 -10.3045     41.0342     20.3373   9.4818558453e+01   6.7794320662e+01    0.3970338    0.2270339   1.95  0.001827976    2.975    0.664
       184 -10.6981      1.8233     21.1650   1.1403527566e+02   7.1052682731e+01    0.2815155    0.1336143 -65.59  0.001569114    1.770    0.435
       185  -9.9596     21.9539     22.2942   1.0452436280e+02   6.9417511011e+01    0.1584391     0.128294 -37.47 0.0004760221    1.087    0.080
       186 -11.2290     13.4791     20.8052   1.0807624069e+02   7.0389415886e+01    0.2598953    0.1901455 -69.11  0.001022515    1.503    0.335
       187  -9.7571     20.0101     16.8074   1.0317816805e+02   7.0645804064e+01    0.1754337    0.1542636  17.17  0.000417644    1.430    0.301
       188 -10.9148     13.9920     16.0762   1.0592582508e+02   7.1277779728e+01     0.292235    0.1923592  27.47  0.001619555    1.935    0.483
       189 -10.0088     84.9493     21.0416   7.8348342818e+01   6.0697344798e+01    0.2196646    0.1533321  12.03 0.0006175726    1.652    0.395
       190  -9.9122     30.9411     20.4383   9.9473592455e+01   6.8916208717e+01    0.1992437    0.1243069 -42.98 0.0005515959    1.246    0.198
       191  -9.4251    131.6877     20.6810   6.5872318348e+01   5.0298198317e+01     0.157213    0.1070556  23.70 0.0007036511    1.647    0.393
       192 -10.6646    100.4079     19.1825   7.2851594418e+01   5.7791485432e+01    0.3277323    0.2351448 -48.87 0.0009850971    1.640    0.390
       193  -9.6023     58.4004     19.2369   8.6978757221e+01   6.5595096683e+01    0.1900522    0.1071222 -44.60 0.0009481087    1.724    0.420
       194  -9.8863    199.6929     17.0361   5.3672119874e+01   3.2821363020e+01     0.208045    0.1852314 -32.24 0.0005600596    1.084    0.077
       195  -9.4044    224.7021    246.6582   1.0241816514e+02  -2.8862722275e+00    0.1059025    0.0616671  19.45 0.0007034278    1.667    0.400
       196  -9.3523    170.7191    246.6597   1.1063533916e+02   4.9280584637e+00   0.09944323    0.0697122  21.50 0.0006545577    1.626    0.385
       197  -9.7724    136.5088    245.5718   1.1586312032e+02   1.0014134318e+01    0.1061118   0.07654539  50.80 2.751563e-05    1.040    0.039
       198 -10.4868     49.2639     16.1248   8.9193053668e+01   6.7448754735e+01    0.2142579    0.2103963 -78.49 0.0005770382    1.430    0.301
       199  -9.4534     45.0457    244.2437   1.2981303322e+02   2.1923474293e+01    0.1180764   0.06095774  46.46 0.0004091147    1.534    0.348
       200 -11.0813      6.1691    241.5238   1.3530552188e+02   2.6269026794e+01    0.1545538    0.1042436 -80.88  0.001393759    1.625    0.384
       201  -9.5931    108.5027     16.4253   6.9429902650e+01   5.6358513321e+01    0.1435793    0.1294867   5.46 8.455382e-05    1.023    0.023
       202 -10.6052     42.4455     15.2012   9.1709334440e+01   6.8519228074e+01    0.2749653    0.2120176  47.51  0.001712163    1.801    0.445
       203  -9.7832     60.6244    241.2655   1.2731699797e+02   2.0593757616e+01    0.1761345   0.06682665  42.00  0.001062206    2.160    0.537
       204  -9.6799    202.5581    240.2872   1.0493992416e+02   9.1312101416e-01    0.1233355   0.09400325  -1.27 0.0008063976    1.514    0.340
       205 -11.9383      4.2024    232.5498   1.3530524325e+02   2.7823254379e+01    0.3031616    0.1219248  67.88 0.0002766862    1.766    0.434
       206 -12.1898     26.2603    236.0516   1.3221123324e+02   2.5152603057e+01    0.2604956    0.1840637  80.61  0.001497734    1.218    0.179
       207  -9.8382    249.2947    234.0231   9.7035843510e+01  -5.2507430571e+00    0.1418874    0.1039158  18.05 0.0004255437    1.066    0.062
       208 -13.5071      9.7762    229.8369   1.3440241822e+02   2.7733230123e+01    0.6461582    0.3135827  72.15  0.004913114    1.482    0.325
       209 -10.6254    231.7968     14.1733   4.9500128945e+01   2.4877831435e+01    0.2119966     0.170177 -50.86 0.0004151835    1.167    0.143
       210  -9.2881    209.5047    229.5105   1.0242442779e+02   9.7559290166e-01    0.1107944   0.08356052  31.39 -2.184212e-05    1.006    0.006
       211  -9.6846      8.8665     10.3627   1.0619034836e+02   7.2747409080e+01    0.1800171     0.100721  -3.35  0.000781425    2.394    0.582
       212  -9.8024    140.0401    227.0418   1.1337940456e+02   1.1927866778e+01    0.1757293    0.1121504  64.28  0.001127765    1.681    0.405
       213 -10.3734     33.0081    225.1854   1.3068907678e+02   2.6167454286e+01    0.2472139   0.09152925  45.99  0.001561826    2.012    0.503
       214 -12.0895      8.0511    217.5215   1.3421505721e+02   2.9881675540e+01    0.3038713    0.1744221  72.97   0.00231882    1.203    0.169
       215 -10.8030     15.9996    212.5172   1.3277117169e+02   2.9971822085e+01    0.1949739    0.1530833 -56.48  0.001606299    2.060    0.515
       216 -10.2156     20.4565    209.8178   1.3193420322e+02   2.9998808007e+01    0.1672632   0.09189565  58.42 0.0002845205    1.334    0.250
       217  -9.7758    246.6463    207.2220   9.3270690224e+01  -2.4365931436e+00    0.1511666   0.09234536  -9.98 0.0009507872    1.688    0.407
       218 -10.4690      3.1900    205.4479   1.3452231994e+02   3.2356993817e+01    0.1594118    0.0869055  35.17  0.001149812    2.142    0.533
       219  -9.2137    197.3007    204.3037   1.0072000064e+02   5.7740321527e+00    0.1179035   0.07999189  18.37 0.0005294248    1.590    0.371
       220 -11.2790      9.4475    203.6041   1.3344092621e+02   3.2114639548e+01    0.1812797    0.1343663  73.98  0.000900435    1.147    0.128
       221  -9.0476     38.2625    203.2845   1.2861962867e+02   2.9299377668e+01   0.08485213   0.07359973 -79.62 0.0001911854    1.487    0.327
       222  -9.9671     23.1202    197.1724   1.3085240839e+02   3.1953608178e+01    0.1450891    0.1156042  83.52 0.0005047923    1.242    0.195
       223 -11.9137     14.3648    194.6296   1.3221512671e+02   3.3251447531e+01    0.3638695    0.2047852  54.26   0.00266799    1.418    0.295
       224  -9.6862      8.9230    188.0000   1.3283066878e+02   3.4954775714e+01    0.1463556   0.05031337  35.05 0.0008096354    2.993    0.666
       225  -9.8262     15.4360    185.3988   1.3155863261e+02   3.4844746817e+01    0.1808809   0.07259714  86.30  0.001017395    2.196    0.545
       226  -9.4761    250.4642    183.4687   8.8543483263e+01  -6.0105864137e-01    0.1210725   0.09464811  13.70 0.0008087461    1.009    0.009
       227  -9.4577      1.2010    183.0499   1.3394744630e+02   3.6535221284e+01    0.1293467   0.06022408 -84.38 0.0004579598    1.687    0.407
       228  -9.6891    100.9890    175.9880   1.1439468347e+02   2.6219724796e+01    0.1681227    0.1438381  70.21  0.001130237    1.025    0.024
       229 -10.7467    249.1473    168.7059   8.5945472743e+01   1.2558252254e+00    0.1817657    0.1562331  46.82   0.00119767    1.475    0.322
       230 -11.1522      5.4595    167.7190   1.3244008723e+02   3.9100834506e+01    0.2197727    0.1245726  73.85  0.001217663    1.331    0.248
       231  -9.3490    111.5465    162.5977   1.1037224652e+02   2.7121974098e+01    0.1269677    0.1114227  68.85 0.0001356495    1.017    0.017
       232  -9.5204     41.5319    157.9890   1.2456681861e+02   3.7628895479e+01    0.1707771   0.09458505 -79.05  0.001010933    1.541    0.351
       233  -9.8812    247.4697    155.5195   8.3554535324e+01   3.1048977241e+00    0.1295216    0.1066434   7.33 0.0001415215    1.007    0.007
       234 -10.1714    243.0000    154.9959   8.4150124052e+01   3.9686485526e+00    0.2046985   0.06786733 -29.71 0.0006195935    2.941    0.660
       235 -10.2669      2.7529    153.7572   1.3219519098e+02   4.2097899230e+01    0.1602944    0.0563279  45.45 0.0008982729    2.447    0.591
       236 -10.5684     23.8977    150.8111   1.2764630655e+02   4.0898756896e+01    0.1630927    0.1327291 -77.40 0.0006393432    1.275    0.216
       237 -10.4524     22.1484    143.2960   1.2740149252e+02   4.2642366204e+01    0.2019447    0.1224803 -72.90  0.001302815    1.387    0.279
       238 -11.1827      5.5053    141.9989   1.3089726506e+02   4.4306160921e+01     0.179999      0.11679  60.79  0.000632361    1.378    0.274
       239 -11.1456      3.0750    138.6393   1.3119422555e+02   4.5194182267e+01    0.2613755    0.1063666  44.99  0.001523774    2.302    0.566
       240 -10.9183      8.9797    135.4973   1.2967800778e+02   4.5410957569e+01    0.1764685    0.1127217 -85.41 0.0003906725    1.170    0.145
       241 -10.2577    216.0353    135.5446   8.4421859071e+01   1.1793524943e+01    0.3128991    0.1882692  68.64  0.001280672    2.906    0.656
