#   1 NUMBER                 Running object number                                     
#   2 MAG_AUTO               Kron-like elliptical aperture magnitude                    [mag]
#   3 X_IMAGE                Object position along x                                    [pixel]
#   4 Y_IMAGE                Object position along y                                    [pixel]
#   5 X_WORLD                Barycenter position along world x axis                     [deg]
#   6 Y_WORLD                Barycenter position along world y axis                     [deg]
#   7 A_WORLD                Profile RMS along major axis (world units)                 [deg]
#   8 B_WORLD                Profile RMS along minor axis (world units)                 [deg]
#   9 THETA_WORLD            Position angle (CCW/world-x)                               [deg]
#  10 FWHM_WORLD             FWHM assuming a gaussian core                              [deg]
#  11 ELONGATION             A_IMAGE/B_IMAGE                                           
#  12 ELLIPTICITY            1 - B_IMAGE/A_IMAGE                                       
         1 -12.7275      4.9842     52.4401   7.3309773109e+01   6.7633844407e+01     1.890982    0.7705725 -30.09  0.008090534    2.629    0.620
         2 -11.5175      7.6411     30.3805   6.4882643525e+01   7.2438178694e+01    0.5268554    0.2493734 -71.34  0.002314796    2.856    0.650
         3 -12.5249    234.1084      9.0153   3.5627248949e+02   2.6190654951e+01    0.3041042    0.2199616 -26.82  0.001971626    1.560    0.359
         4 -12.4161    243.6724      3.2966   3.5458751572e+02   2.4884131671e+01    0.8964437    0.2547569  79.63  0.003945149    3.596    0.722
         5 -12.5843    249.2061     20.4121   3.5783301553e+02   2.1975223172e+01    0.4794042    0.1791522 -34.67 0.0003643725    2.152    0.535
         6 -13.2624    248.1739      8.7315   3.5548750066e+02   2.3449621421e+01    0.7296795    0.4556786 -18.65  0.004355813    2.130    0.531
         7 -12.9358    240.0314     14.5419   3.5712673817e+02   2.4408895442e+01    0.3959016     0.240032 -62.11 0.0008230539    1.350    0.259
         8 -11.6023    241.6425      9.4787   3.5597063352e+02   2.4636846810e+01    0.2128505    0.1591049 -58.06 0.0006119322    1.005    0.005
         9 -11.2413     82.8010     22.6932   2.1763859181e+01   6.1481650094e+01    0.4535089    0.3391155 -36.57  0.002432796    1.455    0.313
        10 -11.5775     68.3423     19.8804   2.5370761390e+01   6.5097469631e+01    0.4372986    0.2325432 -40.40  0.002007077    2.130    0.531
        11 -12.6411     76.0098     10.7087   1.7985719596e+01   6.4418304534e+01      0.58513     0.346546  24.30  0.001489032    1.993    0.498
        12 -13.1549     65.5726     11.6056   2.1998386913e+01   6.6681412908e+01    0.4165383    0.2660056  45.37  0.000554313    1.381    0.276
        13 -11.5606     59.8178     11.8850   2.4374508867e+01   6.7886859159e+01    0.3593069      0.21403 -37.54   0.00166595    1.894    0.472
        14 -11.8269     14.6145     18.0109   5.4101574316e+01   7.4299213540e+01    0.4078963    0.3089446   1.07  0.001613579    1.216    0.178
        15 -12.5227      3.2421     13.1607   6.0604938892e+01   7.6188126652e+01    0.6816778    0.2988327 -55.42  0.003169036    2.173    0.540
        16 -10.5326      8.6519     15.3291   5.7284724095e+01   7.5352736642e+01    0.2621895     0.201977 -77.41  0.001047182    2.071    0.517
        17 -12.3763     10.1053     10.8355   5.3569893100e+01   7.6029086248e+01    0.5110589    0.3648796  23.64   0.00324965    1.447    0.309
        18 -11.6277    168.8290     13.4114   2.2842870881e+00   4.0631473737e+01    0.4284399    0.1554363 -35.63  0.001777082    2.477    0.596
        19 -10.7815     27.6219     10.9970   4.0678468135e+01   7.3848281908e+01    0.4137282    0.1623955 -27.64  0.001634908    3.259    0.693
        20 -10.8828    177.9774     12.0365   1.0013904508e+00   3.8505587018e+01    0.1996286    0.1710007 -76.23 0.0003048193    1.016    0.015
        21 -10.4438    145.5953     11.7289   4.4224593230e+00   4.6724832830e+01    0.1890244    0.1181516 -41.33 0.0007797531    1.609    0.378
        22 -11.2913    145.8847      7.4758   2.9839129317e+00   4.7050972537e+01    0.3342202    0.2707436  65.55  0.001234377    1.178    0.151
        23 -10.7800    139.7712     10.9261   4.9163290193e+00   4.8311218070e+01    0.2448378    0.1808907  83.35 0.0002845545    1.232    0.188
        24  -9.0683    120.0000      9.9914   7.5510275415e+00   5.3535548671e+01    0.2127423   0.08008309 -22.29 0.0008085954    2.985    0.665
        25  -9.5790    100.3569     10.1279   1.1363210881e+01   5.8553742957e+01    0.1788855    0.1210471 -37.86 0.0003966447    1.622    0.384
        26  -9.6895     31.5280      9.9799   3.7514813893e+01   7.3399495382e+01    0.1767413   0.09816821 -10.60 0.0003934535    2.414    0.586
        27 -11.2983    154.6069      8.4804   2.3057416997e+00   4.4717753353e+01    0.3508813    0.2094486  77.07  0.001398441    1.504    0.335
        28 -11.0856    160.4367      8.5507   1.7032462820e+00   4.3227350026e+01    0.2135676    0.2051275 -48.42 0.0006079841    1.194    0.162
        29  -9.4272    126.4385      9.5666   6.3544657352e+00   5.1903701934e+01    0.1378649     0.121171  69.20 1.833714e-05    1.047    0.045
        30 -11.4559     82.1535      6.9366   1.4292168625e+01   6.3329673661e+01    0.2207829    0.1905255  42.35 0.0002936236    1.048    0.046
        31 -10.8006     35.6343      6.1463   3.2518812061e+01   7.3230316189e+01    0.2741572    0.1758926  29.18  0.001095572    1.424    0.298
        32 -11.3540     97.8650      3.0671   8.7705670919e+00   5.9791527563e+01    0.3590256    0.2633564  24.52  0.001043695    1.514    0.340
        33 -10.4143     68.3013      5.4602   1.7664905900e+01   6.6697446782e+01     0.221256    0.1882961  22.76 0.0004759964    1.123    0.110
        34 -10.0401    223.0008      5.3252   3.5607348416e+02   2.8876467677e+01    0.1651302    0.1290187 -69.12  0.000579491    1.056    0.053
        35 -11.4335    179.9240      3.6191   3.5851407353e+02   3.8856418732e+01    0.3673031    0.2206497  63.17  0.000900769    1.666    0.400
        36 -10.8916    164.3414      4.6519   1.4863310272e-01   4.2607165999e+01    0.2216442     0.180547 -62.45 0.0002516134    1.129    0.115
        37 -10.6286    159.8856      3.8912   3.4547189281e-01   4.3798041470e+01    0.2003675    0.1680053 -78.95  0.000375705    1.037    0.035
        38 -10.1496    126.1552      2.7810   3.8907744139e+00   5.2563833910e+01    0.1976035    0.1676742 -80.83 0.0005397691    1.132    0.117
        39 -10.6741     90.9929      2.4345   9.9429059472e+00   6.1556192177e+01    0.2284943    0.1722929  23.85  0.000425701    1.430    0.301
        40 -10.6391     27.0188      2.3800   3.5213193989e+01   7.5132136349e+01    0.3359418    0.2055616  57.30 0.0009998026    2.749    0.636
        41 -11.1814    230.2160      1.5578   3.5486318846e+02   2.7752837261e+01    0.1908281    0.1317085  80.89 0.0008135897    1.465    0.317
        42  -9.3338    120.6485      1.6999   4.2710824294e+00   5.4074945768e+01    0.1448045   0.08726253  45.40 0.0007037574    1.694    0.410
        43 -10.2762     73.5515      1.4586   1.3869522655e+01   6.5839255018e+01    0.2507691    0.1147942  61.33 0.0005570666    1.916    0.478
        44  -9.6432    120.3790    200.2561   5.9964944700e+01   1.5925050717e+01    0.1691765    0.1355836 -69.97 0.0009292706    1.503    0.335
        45 -11.4658    247.9905    249.3700   4.2381002378e+01  -8.6895499616e+00    0.2384494    0.1347913 -10.85  0.001285732    1.464    0.317
        46 -11.7679    224.6303    248.4040   4.6072050629e+01  -6.1210779070e+00     0.366433    0.1788521 -33.45  0.002251975    2.076    0.518
        47 -11.6854    219.2767    247.6602   4.6880553922e+01  -5.4353611625e+00    0.3234302    0.2570587 -44.38  0.002310006    2.094    0.522
        48  -9.5600    110.0621    250.2205   6.8473134117e+01   8.1973807838e+00    0.1669178   0.08080059  32.05 0.0006189081    1.645    0.392
        49 -11.4983     22.6258    249.0311   8.6489961336e+01   1.8898182041e+01    0.3808929      0.15954  44.77  0.001532809    1.670    0.401
        50 -11.2174     11.4121    248.6872   8.8679176935e+01   2.0065745645e+01     0.367663   0.08125295  48.19  0.001709361    2.650    0.623
        51 -10.1989    134.8665    196.3857   5.5938251813e+01   1.4380235465e+01    0.2083135    0.1890452 -63.68  0.000482849    1.295    0.228
        52  -9.5844     50.4997    197.5065   7.7006123970e+01   2.6496269921e+01    0.1349537    0.1132308  59.58 0.0008106247    1.013    0.013
        53  -9.5700     40.3265    197.2720   7.9533187701e+01   2.7735392581e+01    0.1176063      0.10074 -27.25 0.0001989766    1.581    0.367
        54 -12.1755     15.3016    192.2272   8.5388187582e+01   3.1454717597e+01    0.3736114     0.342644 -20.22  0.001889183    1.481    0.325
        55 -11.1319    244.1443    187.8958   3.2902294476e+01  -7.3312731199e-01    0.1731849    0.1464725 -20.19 0.0008617538    1.266    0.210
        56  -9.9184     61.9466    184.6918   7.2747931906e+01   2.8055901712e+01    0.1968883    0.1685058  50.49 0.0008100344    1.061    0.057
        57 -12.0549     15.7087    182.3750   8.4713990179e+01   3.3734275984e+01    0.4671581    0.2070549  63.11  0.002146201    2.125    0.529
        58 -11.1326    243.8703    180.0184   3.1507157807e+01   3.9692243812e-01    0.2802258    0.1084769 -30.71   0.00130891    2.286    0.562
        59 -10.8794     23.4951    180.6400   8.2580785773e+01   3.3426505468e+01    0.3050004    0.1623383  53.37 0.0001473605    1.663    0.399
        60  -9.6652      1.4855    180.4774   8.8220572991e+01   3.5368402946e+01    0.1245745    0.1025835  74.69 0.0008096417    1.046    0.044
        61 -11.3588    249.4410    181.8863   3.0994011252e+01  -5.8473266402e-01    0.2909292    0.1386151 -19.20  0.001430693    2.293    0.564
        62 -10.0859     67.5440    165.5270   6.8793097998e+01   3.1997230075e+01    0.1457264    0.1326192  67.63 0.0001044835    1.012    0.012
        63 -11.0389    250.5197    155.5049   2.5864977081e+01   2.9953797974e+00    0.2699037   0.09854396 -35.28  0.001229224    2.232    0.552
        64 -10.4687    216.4415    154.9338   3.1100698380e+01   8.2630282912e+00    0.1889069    0.1677119   5.01    0.0003721    1.123    0.109
        65  -9.5763    158.4999    153.5253   4.2350557156e+01   1.8935467477e+01    0.1492512    0.1386738  -1.44   5.7055e-05    1.041    0.039
        66 -12.4908     13.6035    148.2827   8.2919081521e+01   4.2412213849e+01    0.4251935     0.251899 -63.67 0.0001605063    1.591    0.371
        67 -10.2110     34.9443    150.6744   7.6634225239e+01   3.9838608581e+01    0.2274542    0.1722381 -65.88 0.0003272867    1.276    0.217
        68 -11.3670    234.1484    146.7379   2.6547653882e+01   6.7374389647e+00    0.2285831    0.1471153 -38.44 0.0006620896    1.377    0.274
        69 -11.1893      6.4317    145.3309   8.4862711286e+01   4.3704094151e+01    0.2410896    0.1579479  28.80  0.000983272    1.633    0.388
        70  -9.4613    218.4947    144.4886   2.8579133511e+01   9.6434156466e+00    0.1342236    0.1153185 -23.65 0.0008104556    1.023    0.022
        71 -11.6711     17.6958    143.5760   8.1259613415e+01   4.3305863431e+01    0.4823795    0.2157533  86.12  0.001974932    2.366    0.577
        72 -11.2107     13.9796    140.3089   8.2133568096e+01   4.4454732882e+01    0.2987275    0.1726257 -53.71  0.001475074    1.766    0.434
        73 -11.7570    239.6801    140.3345   2.4411832346e+01   6.8617030820e+00    0.2394036    0.1831266 -21.32 0.0005847734    1.133    0.117
        74 -10.5962    235.3313    137.9837   2.4568211295e+01   7.9136489064e+00    0.1880802     0.138766 -30.65 0.0004057958    1.126    0.112
        75 -12.9706     37.5434    135.2734   7.3908163072e+01   4.3636817921e+01    0.3639726    0.2709959 -87.39  0.000856254    1.282    0.220
        76 -12.1490    241.6510    134.4191   2.2913703411e+01   7.4580009005e+00    0.2787471    0.1939416 -31.08 0.0008081567    1.178    0.151
        77 -10.3764     47.0821    133.7078   7.0490439277e+01   4.2974503337e+01    0.1943308    0.1879871  71.60 0.0003447318    1.076    0.071
        78 -11.2638     58.4156    131.9769   6.6399517053e+01   4.1985206205e+01    0.3992965    0.2613796 -24.26  0.001022672    2.188    0.543
        79 -10.8414     53.1601    133.0598   6.8346873602e+01   4.2392250948e+01    0.2327645    0.2075636   5.66 0.0002790725    1.299    0.230
        80  -9.7360     64.3173    131.3010   6.4303260623e+01   4.1336847546e+01     0.152399     0.115189 -29.06 0.0003779355    1.619    0.382
        81 -11.4948     17.0223    131.0634   8.0266554710e+01   4.6652000152e+01    0.3263868    0.2133611  23.47  0.001549669    1.697    0.411
        82 -11.5151      4.7218    130.0777   8.4250791247e+01   4.7771542661e+01     0.214515    0.1963417  68.83 0.0002441122    1.125    0.111
        83 -11.0989     73.4968    129.1058   6.0829516062e+01   4.0529455136e+01    0.3382831    0.2781083 -85.75 0.0009904735    1.279    0.218
        84 -10.5619     26.1514    129.8677   7.7051487796e+01   4.6202185446e+01    0.2388314    0.1867925  39.22 0.0008173874    1.330    0.248
        85 -11.0421     24.5120    126.5556   7.7209463115e+01   4.7231899556e+01    0.2706337    0.2040183  66.02  0.001432211    1.322    0.244
        86 -10.0694    217.0089    129.2705   2.5543879208e+01   1.2434843705e+01    0.1831685    0.1655659 -22.91 0.0003889318    1.051    0.048
        87 -11.5828     46.9435    124.3699   6.9032922954e+01   4.5490754728e+01    0.2829251    0.2675376 -28.35 0.0003740833    1.172    0.147
        88 -10.5158     82.7633    124.5228   5.6811671704e+01   4.0197385193e+01    0.2899248    0.2096824 -58.59 0.0007770724    1.362    0.266
        89 -10.1240    229.4746    124.5005   2.2581304460e+01   1.1021105763e+01    0.1331082    0.1116742 -29.57 0.0001789911    1.007    0.007
        90 -11.9357      9.5055    121.3885   8.1858433957e+01   4.9749969826e+01     0.518389    0.2451176  65.42   0.00115107    2.370    0.578
        91 -10.4286     68.3893    121.7743   6.1052591577e+01   4.3246740057e+01    0.2161685    0.1357624 -52.02 0.0005947936    1.551    0.355
        92 -10.7230     61.0690    121.6594   6.3571227267e+01   4.4358167212e+01     0.206536    0.1939968  33.80 0.0005168238    1.123    0.110
        93 -10.9425     25.0511    118.3013   7.5950680401e+01   4.9392298639e+01    0.2856669    0.1838291  84.51  0.001380838    1.606    0.377
        94  -9.7119     19.4642    121.5458   7.8370950198e+01   4.8989467930e+01    0.1960361    0.1216994  89.04 0.0006339271    1.567    0.362
        95 -11.6084      2.7120    117.5207   8.3877899582e+01   5.1175463926e+01    0.4127006    0.2565464 -61.27  0.002199988    1.443    0.307
        96 -12.8158    248.9958    117.2575   1.8370115206e+01   8.8815496310e+00    0.5026991    0.2538773 -25.34  0.002439093    2.032    0.508
        97 -11.9244     12.9161    110.0706   7.9383512006e+01   5.2521148612e+01    0.4713691     0.301368  52.96  0.001800821    1.666    0.400
        98  -9.4697    182.3048    114.7037   2.8266308844e+01   2.1818530855e+01    0.1453259    0.1146948 -72.36 0.0004007749    1.584    0.368
        99 -10.3190     70.8452    114.6268   5.8645338957e+01   4.4734816966e+01    0.2292569    0.1347486  44.72 0.0009497292    1.761    0.432
       100 -11.3068     55.1812    109.7909   6.3265829903e+01   4.8322625680e+01    0.3045802    0.2433275 -56.70 0.0006347693    1.184    0.155
       101 -12.1681     30.8821    107.4918   7.2119284692e+01   5.1752670992e+01    0.5198819    0.3199666  78.15  0.001477086    1.946    0.486
       102 -10.9938     20.4300    108.2154   7.6276638400e+01   5.2468114304e+01    0.2880975    0.2050804   0.09  0.001013094    1.712    0.416
       103 -10.8512     16.0644    115.4234   7.8860940798e+01   5.0879013152e+01    0.2532938    0.1935286  81.46 0.0004421366    1.257    0.204
       104 -10.6994      4.1756    105.2900   8.2157401006e+01   5.4305652714e+01    0.4318005    0.1659919  30.45  0.001847617    2.682    0.627
       105 -11.7158     74.9139    103.9163   5.4616275549e+01   4.6820833498e+01     0.372154    0.2449425 -51.61 0.0003324589    1.468    0.319
       106 -10.5712     62.0709     98.6794   5.8072060684e+01   5.0226960333e+01    0.3100418    0.2093473 -48.66  0.001315963    1.426    0.299
       107  -9.0702     10.2757     99.2598   7.9048507334e+01   5.5544715559e+01    0.1329869   0.08863642 -45.72 0.0001900818    1.468    0.319
       108 -10.1524     52.0510     97.2754   6.1660391504e+01   5.2023964980e+01    0.2723776    0.1808762 -40.21 0.0008220499    1.569    0.362
       109 -11.6460     15.2903     97.0490   7.6695442429e+01   5.5802761852e+01    0.4802344    0.1902276 -48.28  0.001920314    2.356    0.575
       110 -10.7730     14.3483     92.0041   7.6317474781e+01   5.7189201585e+01    0.3138746    0.2056298 -61.66 0.0008669918    1.307    0.235
       111 -10.6348    247.6608     99.6760   1.4835956874e+01   1.1718839122e+01    0.1228054   0.09217478  -2.95 0.0007051098    1.723    0.420
       112  -9.7077     57.1711     95.8723   5.9280817501e+01   5.1671855160e+01     0.205166    0.1690242 -30.71 0.0003221436    1.291    0.225
       113  -9.8141    226.4904     93.4895   1.6102040417e+01   1.6489116993e+01     0.135839    0.1124464 -46.19 6.176724e-05    1.064    0.060
       114 -10.0183     31.5455     92.5232   6.9076501895e+01   5.5646478962e+01    0.2032126    0.1789154  31.60 0.0004862941    1.238    0.192
       115 -11.0401     35.3661     90.3741   6.6990576101e+01   5.5818616200e+01    0.2551928    0.2221087 -41.63 0.0003510539    1.117    0.104
       116 -11.7370     57.3022     90.8820   5.7942497517e+01   5.2923033378e+01    0.3844968    0.3229697  -9.74 0.0006063106    1.342    0.255
       117 -10.2833     24.1942     90.2062   7.1774521025e+01   5.6919343764e+01    0.3465711    0.1073753  44.77    0.0010926    4.222    0.763
       118 -10.2210     95.7476     88.5710   4.3003075307e+01   4.6583743465e+01    0.4092198    0.1501475  45.64  0.001311093    2.784    0.641
       119 -10.7574    184.8682     85.2065   2.0270020189e+01   2.6592933222e+01    0.2269836    0.1883626 -45.61 0.0003185847    1.113    0.101
       120 -11.7463    239.5388     84.6638   1.2527390289e+01   1.5377507598e+01    0.2281095     0.174456 -19.68 0.0009046251    1.433    0.302
       121  -9.8449      8.5071     85.0094   7.7770423906e+01   5.9360777384e+01    0.2072081    0.1175214 -73.46 0.0007049563    1.544    0.352
       122  -9.7690    107.6449     84.9698   3.8077310806e+01   4.4815744574e+01    0.2649012     0.165753  78.06 0.0008880286    3.058    0.673
       123  -9.1733     34.2877     84.3538   6.6097824335e+01   5.7482563245e+01    0.1539756   0.09556427 -37.44 0.0005061459    1.671    0.402
       124  -9.4435     42.6611     83.6655   6.2226033167e+01   5.6712051640e+01    0.1574956    0.1021748 -30.30 0.0007051572    1.750    0.429
       125  -9.8454     76.7236     82.0201   4.7719014409e+01   5.1853272426e+01     0.331732     0.150839  48.07  0.001178422    2.498    0.600
       126 -10.5104     64.6217     80.1916   5.1903622865e+01   5.4410992133e+01    0.3297579    0.1718762 -46.48   0.00105882    1.851    0.460
       127  -9.6401      1.4871     80.9987   8.0330804939e+01   6.0732817550e+01    0.1831342   0.07386444 -50.91 1.654012e-05    2.080    0.519
       128 -10.4965    120.1140     79.9285   3.2839519462e+01   4.3006320659e+01     0.239789    0.2341845  24.48 0.0007011478    1.061    0.058
       129 -12.5005     88.3980     77.2694   4.1907758475e+01   5.0642590210e+01    0.3492964    0.3139205  22.91 0.0003269463    1.154    0.134
       130  -9.6378     50.0208     77.9769   5.7427281232e+01   5.7169740009e+01    0.1789644    0.1586516 -48.67 0.0003738634    1.063    0.060
       131 -10.0670     99.8423     76.8237   3.7894812445e+01   4.8294451502e+01    0.2118445    0.1865472 -80.86 0.0005681051    1.295    0.228
       132 -11.5523     22.9407     76.3291   6.9474896504e+01   6.0588282329e+01    0.3645604    0.2846704  25.90  0.001373677    1.408    0.290
       133 -10.7169     73.6396     75.8150   4.6903257508e+01   5.3853657176e+01    0.3463999    0.2420398   7.14  0.001487991    1.981    0.495
       134  -9.6079    168.5506     75.0169   2.0356872961e+01   3.2171731930e+01    0.2265775    0.1101101 -55.39 0.0007106192    2.558    0.609
       135  -9.9244     56.0462     75.0000   5.3893931637e+01   5.7010607366e+01    0.2377089    0.0842862  32.73 0.0006440016    2.932    0.659
       136  -9.6654     44.4937     74.4805   5.8884935645e+01   5.8761468776e+01     0.142414    0.1355782 -50.14 4.217788e-05    1.058    0.055
       137  -9.8095      7.7685     73.1529   7.6138202048e+01   6.2424085272e+01    0.1899734    0.1285011 -45.08  0.000493822    1.332    0.249
       138 -11.2942    102.8362     69.6462   3.4498289903e+01   4.9099752768e+01    0.3719205    0.2521344 -46.94 0.0008442141    1.514    0.340
       139  -9.4062      1.2746     72.3381   7.9151790267e+01   6.2934125530e+01     0.141193   0.07636237 -47.51  0.000176168    1.609    0.379
       140 -10.2202     45.0894     70.8178   5.7512539930e+01   5.9566495590e+01    0.1987137    0.1904344  84.08 0.0003204218    1.178    0.151
       141 -13.7578     16.5273     67.3853   7.0584290313e+01   6.3318148756e+01    0.4505559    0.3658872 -56.88 0.0007706827    1.080    0.074
       142 -11.7244    244.2648     69.0032   8.5923805960e+00   1.6751205093e+01    0.1820589    0.1401962 -42.99 0.0004178914    1.056    0.053
       143  -9.1664     78.3013     69.3052   4.2878585212e+01   5.4409612881e+01    0.1528648    0.1186866  -5.52 0.0002874579    1.594    0.373
       144 -11.7108     50.4478     68.1092   5.4178463433e+01   5.9462294002e+01    0.3211333     0.254648 -29.50 0.0005303213    1.263    0.208
       145 -10.9793     92.6004     67.8173   3.7193712746e+01   5.1754415698e+01    0.2832033    0.2502639  25.52 0.0003802505    1.170    0.145
       146 -11.5607      6.3965     67.7759   7.5821760318e+01   6.3840030022e+01     0.239375    0.2138859 -46.80 0.0002551158    1.071    0.066
       147 -10.3455    129.1899     66.2621   2.6012327025e+01   4.3426773814e+01    0.2841831    0.2306901  19.34 0.0009916677    1.519    0.342
       148 -12.7678     30.1569     63.2848   6.2512300926e+01   6.3123862484e+01    0.4363623    0.4089868  54.44  0.001028384    1.242    0.195
       149 -10.0295    159.4598     64.5422   1.8983226901e+01   3.6162868847e+01    0.2189223     0.203375  17.38 4.827129e-05    1.257    0.204
       150 -10.2466    161.9525     61.7495   1.7695066755e+01   3.5998248800e+01    0.2183217     0.205138 -65.26 0.0002035475    1.023    0.023
       151 -10.2030     81.6484     64.8970   4.0034146075e+01   5.4668826195e+01    0.2713514    0.2023504  31.31 0.0007142731    1.396    0.284
       152 -11.5333    209.8674     62.8637   1.0929081713e+01   2.4567613873e+01    0.2416108     0.190992 -46.36 0.0002760378    1.102    0.093
       153  -9.6375    155.3987     63.7728   1.9518193931e+01   3.7301863798e+01    0.1953133    0.1457748 -24.12 0.0002826135    1.518    0.341
       154 -11.6396     46.5959     60.3394   5.3343434624e+01   6.1789798826e+01    0.3822747    0.2662969 -20.84 0.0007669923    1.630    0.386
       155 -11.9628      3.4947     62.0034   7.6208846209e+01   6.5401622894e+01    0.8113185    0.3563065   1.22  0.003625298    2.719    0.632
       156 -10.1661    122.8405     62.5783   2.6364402101e+01   4.5658440248e+01     0.292823    0.1978279 -38.43 0.0008404583    1.507    0.336
       157 -10.2801     90.6370     61.1152   3.5420748601e+01   5.3517752189e+01    0.2950771    0.2075729  62.33  0.001328684    1.670    0.401
       158 -12.8068    231.8669     57.6568   7.2884263057e+00   2.0713820494e+01    0.5817248    0.2441009 -54.89  0.002512793    2.486    0.598
       159 -10.5866    189.2137     60.0295   1.2889831667e+01   2.9660715605e+01    0.2125552    0.1911432 -87.55 0.0003230197    1.101    0.091
       160  -9.2083    153.6811     58.6967   1.8288056498e+01   3.8559806405e+01    0.1489389    0.1166463  26.63 0.0007026817    1.627    0.385
       161  -9.8852    135.1417     58.4656   2.2026385091e+01   4.3287878215e+01    0.2144033    0.1467238  59.88  0.000296067    1.432    0.302
       162  -9.2528     15.4571     58.4528   6.8938689081e+01   6.5565755054e+01     0.134811    0.1138657 -43.55 0.0002566508    1.025    0.024
       163 -10.0921     68.6765     56.9435   4.2122153713e+01   5.8850333569e+01    0.2025464    0.1830658 -37.55 0.0004688241    1.110    0.099
       164  -9.8168    177.3635     56.4788   1.3634136092e+01   3.3025370785e+01    0.1890118    0.1349447  85.71 0.0006812031    1.510    0.338
       165 -10.9534    115.8315     55.2512   2.5616007815e+01   4.8666860751e+01    0.2869448    0.2432692  74.77  0.000702712    1.240    0.194
       166 -11.2727     89.1320     54.0388   3.3229891753e+01   5.5186036286e+01    0.4385036    0.2483599 -35.85  0.001860629    1.840    0.456
       167 -11.1441     72.9353    244.8638   7.5840293932e+01   1.3948329669e+01    0.2578528    0.2182323  16.92 0.0008866501    1.368    0.269
       168 -11.5773     13.0372     53.0040   6.8821340995e+01   6.7025912728e+01    0.3816087    0.2028155 -34.04 0.0005286502    1.829    0.453
       169 -13.4904     12.4318     47.7903   6.7673563386e+01   6.8276950224e+01    0.6566725    0.4696584  69.85 0.0006753755    1.992    0.498
       170 -11.9932     27.7342     37.6609   5.4703525994e+01   6.9078913004e+01    0.2391874    0.2142606 -13.29 0.0002420466    1.059    0.056
       171 -11.3858     24.3884     34.7741   5.5515692869e+01   7.0041696870e+01    0.4745922    0.2842179 -12.25  0.002291949    1.984    0.496
       172 -12.4091    149.5621     51.2148   1.6711233433e+01   4.0772237589e+01    0.3125583    0.2602463 -64.59 0.0002678481    1.203    0.169
       173 -10.0025    154.0271     52.3251   1.6243922478e+01   3.9467016576e+01    0.2029992    0.1804743  76.63 0.0003574839    1.087    0.080
       174 -11.5616    105.3615     52.4631   2.7490709132e+01   5.1696655635e+01     0.318287    0.2649145  41.64 0.0001500591    1.187    0.157
       175 -10.6434     38.5729     51.9903   5.4342349218e+01   6.4726332806e+01    0.4027522    0.1980016 -42.42  0.001542564    1.915    0.478
       176  -9.8717    127.5515     52.0067   2.1555755860e+01   4.6265864329e+01    0.3111439    0.1728205 -52.88  0.001242144    2.101    0.524
       177 -12.0373     53.5168     48.8044   4.5580794624e+01   6.3181785801e+01    0.6118903     0.365394  37.26  0.002892042    1.687    0.407
       178 -11.9547     44.8985     44.0817   4.7862795096e+01   6.5491335014e+01    0.5369952    0.3989167 -60.03 0.0004294212    1.647    0.393
       179 -10.5141     50.1821     43.5179   4.4947265064e+01   6.4772089026e+01    0.3088022    0.2233838 -36.72  0.001628844    1.336    0.252
       180 -11.5386     55.0032     41.1080   4.1541674294e+01   6.4411583064e+01    0.5590796    0.2549131 -39.27    0.0014498    2.195    0.544
       181 -11.2890     57.3614     34.8859   3.7542757876e+01   6.5089001499e+01    0.5483037     0.308962  22.57  0.001776055    2.311    0.567
       182 -11.4013    248.3044     46.2305   3.3224735157e+00   1.9039789126e+01    0.5218005    0.2789418 -23.20  0.002650792    2.254    0.556
       183 -12.2787    246.1055     41.2672   2.4321757717e+00   2.0083031001e+01    0.3867071     0.218137 -44.61  0.002244913    1.371    0.271
       184 -12.6083    247.8624     36.0875   1.2010103791e+00   2.0389196559e+01    0.3498483    0.2407438 -47.03  0.001044881    1.129    0.114
       185 -10.1915     78.4419     47.2639   3.4321689991e+01   5.8733110841e+01    0.2875124    0.2216776  16.03  0.001164626    1.470    0.320
       186 -10.5823    180.2008     47.0530   1.0577418578e+01   3.3705852420e+01    0.2269302    0.1856844 -76.43 0.0002632624    1.166    0.143
       187 -10.1476    121.5183     46.5585   2.1034990358e+01   4.8650313234e+01    0.3038934    0.2123032  67.77  0.001423487    1.456    0.313
       188 -10.5100    122.2008     43.0891   1.9610729337e+01   4.8999488354e+01    0.3515175    0.2395934 -51.02  0.001643778    1.588    0.370
       189 -10.7507    118.6460     40.2978   1.9407386486e+01   5.0311820731e+01    0.4133871    0.2453444  71.28  0.001768347    1.855    0.461
       190  -9.7448    105.8808     47.6098   2.5489108836e+01   5.2378472456e+01    0.2155661    0.1399934  70.01  0.000926956    1.815    0.449
       191 -10.1661     83.5588     47.3379   3.2479336169e+01   5.7615587386e+01    0.2592833    0.1329211  47.79 0.0006076967    1.884    0.469
       192 -10.7266    222.1435     45.8842   5.5040756315e+00   2.4300799771e+01    0.1976672    0.1440008 -57.66 0.0002753577    1.179    0.152
       193 -10.7289    236.9828     43.9208   3.7352114116e+00   2.1520190946e+01    0.3193786    0.1695044 -50.27  0.001093814    1.549    0.355
       194 -11.2602    233.7437     39.3885   2.9909990086e+00   2.2744318422e+01    0.2687407    0.1378888 -84.04  0.001017651    2.376    0.579
       195  -9.4712    112.2609     45.3602   2.2897522121e+01   5.1162808403e+01    0.1497109    0.1150307  16.23 0.0003414825    1.630    0.386
       196 -11.5236     74.0298     43.4754   3.4394683572e+01   6.0325993918e+01    0.4289061    0.2298557  56.17  0.001758443    2.223    0.550
       197 -11.4154    149.4390     40.6149   1.3328551250e+01   4.2337910838e+01    0.2974936    0.2346712 -56.64 0.0002986165    1.261    0.207
       198  -9.9784     97.1465     41.1301   2.5455922919e+01   5.5512535755e+01    0.2931404    0.2059849  60.30  0.000748309    1.432    0.302
       199 -10.1861     89.4066     41.2723   2.7940798440e+01   5.7309343769e+01    0.2547933    0.1889422  51.20  0.000383355    1.292    0.226
       200  -9.7506    143.8323     42.1341   1.4819338257e+01   4.3571885461e+01    0.1897239    0.1676657  35.69 0.0002519428    1.277    0.217
       201 -11.9959     84.0324     36.6107   2.7725119204e+01   5.9266541054e+01    0.6349496    0.4373628  25.20  0.002472282    1.676    0.403
       202 -11.4113     65.0486     36.4347   3.4875815031e+01   6.3350099884e+01    0.2480416    0.1978111 -42.69 0.0007481701    1.360    0.265
       203 -10.1740    101.8732     41.1881   2.4098303568e+01   5.4363421709e+01    0.3679289    0.1679634  45.08  0.001353029    2.179    0.541
       204 -10.2447    110.7934     34.1238   1.8920420439e+01   5.3165976164e+01    0.2752326    0.2028561  48.57  0.001382414    1.293    0.227
       205 -10.2700     92.6597     34.0702   2.3844054576e+01   5.7633394926e+01    0.2250279    0.1750197 -50.44   0.00115435    1.458    0.314
       206 -10.9479     75.6210     33.1911   2.9165289432e+01   6.1659150041e+01    0.3311113    0.2017664  58.10  0.001520581    1.789    0.441
       207 -10.0265     34.5082     33.1192   4.8619723501e+01   6.9117631836e+01    0.1949546    0.1215413 -41.85  0.001007763    1.522    0.343
       208 -12.2299     74.5307    239.7751   7.5079804929e+01   1.4684324070e+01    0.5197108    0.4017625 -61.53  0.003415241    1.575    0.365
       209  -9.6061    119.3540     31.8144   1.6048073672e+01   5.1290524935e+01    0.1978691    0.1403546 -11.66 0.0009426695    1.738    0.425
       210 -10.2972     15.9649     32.0084   5.9801947819e+01   7.1444417746e+01    0.2588577    0.1637908 -26.22 0.0004049429    1.502    0.334
       211 -10.1337     19.2919     31.3193   5.7285802592e+01   7.1271140144e+01    0.2045967    0.1600284 -22.75  0.001049461    1.123    0.109
       212 -10.2619     48.7851     28.9435   3.8740806541e+01   6.7629296505e+01    0.2708062    0.1824379  -2.30  0.001147664    1.815    0.449
       213  -9.5906    163.0000     29.0019   7.6255582304e+00   4.0361976214e+01    0.2272118   0.07836919 -28.53 0.0008113904    3.005    0.667
       214 -10.5924     12.0198     29.0499   6.1264807966e+01   7.2388754151e+01    0.1976694    0.1610472 -28.13 0.0005901027    1.020    0.020
       215 -12.5324    231.8225     26.5703   2.7054850509e-01   2.4697283414e+01    0.3900047    0.2253539 -87.53   0.00126172    1.788    0.441
       216 -12.4079    237.4950     25.0882   3.5955283210e+02   2.3723128676e+01    0.3950428    0.1621926 -62.82  0.001828461    2.495    0.599
       217 -11.8202    213.2228     26.7944   1.7481583040e+00   2.8626065411e+01     0.338537    0.2022041 -31.45  0.001617147    1.643    0.391
       218 -11.1152    198.2916     28.1916   3.4210789274e+00   3.1841249731e+01    0.2752409    0.1650301 -87.93  0.001401711    1.702    0.412
       219 -11.6099    112.1585     26.9654   1.5760700847e+01   5.3743004659e+01    0.3655079    0.2884565  -2.12  0.001369958    1.517    0.341
       220 -10.7969    176.7358     26.6799   5.2536054772e+00   3.7195402809e+01    0.2418336    0.1944347 -62.74 0.0002231296    1.124    0.110
       221 -10.7226    119.5010     27.2515   1.4278653243e+01   5.1824679951e+01    0.2593016    0.1813437  63.72 0.0005763169    1.315    0.239
       222 -10.2646     46.3136    244.4827   8.1434928569e+01   1.7200411896e+01    0.2557746   0.09430597  31.98  0.001225194    2.217    0.549
       223 -10.0257      6.8595    249.1848   8.9575231029e+01   2.0403694799e+01    0.1847725     0.112785  67.96   0.00054969    1.325    0.245
       224  -9.7939     88.6049    241.2526   7.2160974544e+01   1.2592805727e+01     0.150206    0.1139826 -49.40 0.0009464381    1.661    0.398
       225 -10.8467      3.7952    238.5235   8.9850703292e+01   2.2692062178e+01    0.1954754    0.1304872  83.46 0.0008455222    1.382    0.276
       226 -10.0052    195.7250    238.0151   4.9685129418e+01  -1.3946294358e+00    0.1644215    0.1304925  -0.47  0.001014642    1.099    0.090
       227 -11.3050     39.4008    236.6056   8.2424944738e+01   1.9480803746e+01    0.3369608    0.1389425  47.58  0.001735839    1.841    0.457
       228 -10.7922    219.0207     25.4999   9.7612457818e-01   2.7514344799e+01     0.175257    0.1150669  81.79 0.0003784538    1.524    0.344
       229 -10.0415     90.5828     25.0412   2.0486744739e+01   5.9343247573e+01    0.2817784    0.1663161  51.46  0.001321417    1.528    0.346
       230 -10.3269     10.9701     24.5675   6.0055465849e+01   7.3380017027e+01    0.2552491     0.133482 -38.25 0.0007342928    1.658    0.397
       231 -10.1381      1.6168     23.5523   6.6648286381e+01   7.4235842464e+01    0.3332278    0.1093205 -52.65  0.001508753    2.279    0.561
       232 -11.3357     30.4689    233.9406   8.4177477624e+01   2.0970340553e+01    0.3707506     0.167087  65.23  0.001755295    2.104    0.525
       233 -10.8760    159.5318     22.5121   6.0885540113e+00   4.2004935361e+01    0.3890691    0.2653614  29.17  0.001893891    2.048    0.512
       234  -9.8585    156.4926     21.5215   6.1714465320e+00   4.2893847852e+01    0.2005864    0.1548849  45.84 0.0006137157    1.462    0.316
       235 -11.5262     34.1553     22.6459   4.3468355459e+01   7.1039070147e+01    0.2380593    0.1896201   1.74  0.000224573    1.155    0.134
       236 -10.1715    225.2935     21.3203   3.5954761914e+02   2.6661579755e+01    0.1074744    0.0959561  28.51 0.0002463141    1.610    0.379
       237 -10.5954    193.0819     20.9349   2.0217234417e+00   3.3907891297e+01    0.1956163    0.1664526 -70.88 0.0003277848    1.018    0.018
       238 -10.7252    121.7521     20.2680   1.1170860575e+01   5.2047382748e+01    0.3838874    0.1809389  35.42  0.001415352    3.029    0.670
       239 -10.1104    100.2919     21.1914   1.6180778524e+01   5.7422870247e+01    0.2723359    0.1790822 -82.93  0.001228528    2.095    0.523
       240  -9.5100     74.2034     21.1336   2.3871933280e+01   6.3645642607e+01    0.1717221    0.1602525 -88.30 0.0003689773    1.283    0.221
       241 -10.1621    243.0000    237.0687   4.1319763232e+01  -6.8125363856e+00    0.1624089   0.05187495 -34.46 0.0007999316    2.925    0.658
       242 -11.0153     64.0080     17.5290   2.5808451790e+01   6.6324458261e+01    0.2337873    0.1891478 -18.50 0.0004260531    1.280    0.219
       243  -9.6666     76.5864     15.8055   2.0395127582e+01   6.3739362403e+01    0.1755669    0.1682082   5.74  0.000127697    1.111    0.100
       244 -11.0386    182.9957    234.5101   5.1584184828e+01   7.4336791889e-01    0.1871646    0.1770865 -33.66 0.0008600093    1.499    0.333
       245 -10.7241    160.7397    235.3905   5.6131951171e+01   3.6348951568e+00    0.1829842   0.09853437  23.07 0.0009025462    1.701    0.412
       246  -9.7707     91.9688    235.5340   7.0874251849e+01   1.3191066085e+01    0.1907721    0.1049346  32.23 0.0004214541    1.525    0.344
       247 -12.2287     28.8336     19.8732   4.5232766464e+01   7.2266278946e+01    0.2556444     0.202478   1.12 0.0003184099    1.140    0.123
       248 -10.0239     54.8102    231.9646   7.8780496643e+01   1.8619606897e+01    0.2073794    0.1108232  64.95  0.001008076    1.916    0.478
       249  -9.7855    236.5014    229.9769   4.1272221420e+01  -5.2651907242e+00    0.1618256   0.07469478 -14.68 0.0008100628    2.543    0.607
       250 -11.1725    248.5253    228.6442   3.9119077643e+01  -6.4297987786e+00     0.208324   0.08849078 -32.20  0.001191969    2.105    0.525
       251  -9.4722     59.4482    229.4718   7.7563660433e+01   1.8553488008e+01    0.1260695    0.1005247  50.89 0.0001406793    1.009    0.009
       252  -9.7176     87.9813     19.2750   1.8600626533e+01   6.0661739220e+01    0.1939074    0.1689284  53.83 0.0003135663    1.061    0.057
       253  -9.5130     44.7356     19.1875   3.5558937664e+01   6.9864605966e+01    0.1961405    0.1502477 -87.33 0.0009478803    2.726    0.633
       254 -11.3557    217.0403     16.0989   3.5891700979e+02   2.9012421840e+01    0.4177254    0.1591824  66.25  0.001926645    2.627    0.619
       255 -10.1054    109.4133     16.7924   1.2248789473e+01   5.5597018731e+01    0.2635865    0.1701881  62.53 0.0007571166    1.381    0.276
       256  -9.0585     94.3077     17.3084   1.5983813737e+01   5.9340214257e+01    0.1459282   0.09650549  33.54 0.0003305705    1.614    0.380
       257  -9.9038     35.3993     17.1579   3.9597207497e+01   7.1730887150e+01    0.1703318    0.1478484  -8.97 0.0004267888    1.085    0.078
       258 -10.1378    193.4623     16.3279   7.8573998175e-01   3.4328808134e+01    0.2415687    0.1456419  87.86 0.0009503425    1.580    0.367
       259  -9.8476     39.2043    229.3582   8.2034548418e+01   2.0938734021e+01    0.1843778   0.08144367  41.13 0.0009460161    1.722    0.419
       260 -10.2678    151.3916     15.2685   4.8402820683e+00   4.4874761140e+01    0.2348926    0.1377935 -19.68  0.001027728    2.024    0.506
       261 -10.9488    137.4196     15.3007   6.7546869559e+00   4.8492394685e+01    0.2829603    0.2048871 -62.94 0.0005546892    1.420    0.296
       262 -10.8709    131.8368     16.1842   7.9194125973e+00   4.9856159737e+01    0.2110183    0.1732461 -73.98 0.0004117296    1.216    0.177
       263  -9.0182    119.0056     17.0000   1.0432510824e+01   5.3107017034e+01    0.2378959   0.07350188  66.83 0.0007996989    2.924    0.658
       264 -10.5556     53.7706     14.1248   2.8237856265e+01   6.8856910557e+01    0.2267311    0.1737421  53.89  0.001296029    1.407    0.289
       265 -10.2816    192.0142    227.4982   4.8791823087e+01   5.4512500033e-01    0.1854201    0.1015042  29.13  0.000650357    1.579    0.367
       266 -10.6810      4.6287    225.7707   8.9271924133e+01   2.5136184238e+01    0.2755099    0.1526144  20.83  0.001585106    2.117    0.528
       267 -10.5022     79.0232    223.5091   7.2600088428e+01   1.7242280804e+01    0.2221935    0.1762692 -39.80  0.001192896    1.627    0.386
       268  -9.8773    230.0000    221.9869   4.1077120077e+01  -3.5189179244e+00    0.1744872   0.05673326 -36.19 0.0007988127    2.917    0.657
       269 -10.6456     16.1066    222.1492   8.6688632541e+01   2.4812402809e+01    0.1639491    0.1458759  61.28 0.0003715265    1.202    0.168
       270  -9.6819    126.2077    220.4201   6.1461888059e+01   1.1130427084e+01    0.1921641    0.1030376  42.33 0.0007397776    1.681    0.405
       271  -9.9430    211.5934    218.3201   4.3692212016e+01  -7.3997634468e-01    0.2039665    0.1065323 -39.39  0.001028819    2.038    0.509
       272 -11.6620     48.6097    218.5659   7.9189239848e+01   2.2088806457e+01    0.5226251    0.2115117  31.73  0.002412823    2.144    0.534
       273 -10.7293     38.6224    217.1298   8.1384803147e+01   2.3533741115e+01    0.2208769    0.1323499  45.01 0.0005863826    1.349    0.259
       274 -10.8514     13.4582    216.3717   8.7011811235e+01   2.6274408976e+01    0.1962885    0.1595335 -70.35 0.0007445302    1.447    0.309
       275 -10.2171     23.9556    216.0132   8.4653257039e+01   2.5327181486e+01     0.185829    0.1416752  59.93 0.0003089438    1.034    0.033
       276 -10.0893    234.0000    214.9955   3.9255836678e+01  -3.0981905091e+00    0.1783647   0.05650504 -36.05 0.0007994415    2.922    0.658
       277 -10.9736    230.0131     19.9901   3.5892710156e+02   2.5828886474e+01    0.1676865    0.1457158  34.63 0.0005065995    1.672    0.402
       278 -11.3691    217.3947    209.9021   4.1250255807e+01  -3.2277274544e-01    0.5346198    0.1614714 -33.36  0.002171057    3.355    0.702
       279 -10.5100     30.0005    214.4815   8.3193259510e+01   2.5031569689e+01    0.1841304    0.1064436  33.49 0.0005430638    1.563    0.360
       280  -9.9169     20.1829    211.7529   8.5282890310e+01   2.6617533674e+01    0.2234658   0.07314505  56.84 0.0009388598    2.699    0.629
       281 -11.7448      5.2062    210.6876   8.8602392159e+01   2.8235386632e+01    0.2949152    0.1441877  86.58  0.001601808    1.867    0.464
       282 -12.3616     11.3707    209.2259   8.7160913947e+01   2.8000427450e+01    0.3489036    0.2327156  48.82  0.001636887    1.220    0.181
       283  -9.1382    193.3085    210.3179   4.5777117950e+01   2.9103988430e+00    0.1307028   0.08495383  -1.58 0.0005723426    1.636    0.389
       284  -9.5860     58.9973     21.2305   2.9871551535e+01   6.6875822052e+01    0.1777184    0.1048393  46.66 0.0005329568    1.595    0.373
       285  -9.9258     71.9143    208.5731   7.2782493101e+01   2.1298957666e+01    0.1783396    0.1142458   2.93 0.0008057228    2.531    0.605
       286 -11.5879     21.7199    198.6391   8.4195326499e+01   2.9376758939e+01    0.3584649    0.2473814 -14.01  0.001865567    2.372    0.578
       287 -11.2653      4.4649    204.9674   8.8545213302e+01   2.9541440670e+01    0.2737776    0.2040139   9.12  0.001734938    1.812    0.448
       288  -9.7424    174.7083    202.0168   4.8089028568e+01   6.9993905357e+00    0.1806463    0.1540291  -2.92 0.0004336539    1.071    0.066
       289 -10.7133    238.4564    200.5339   3.6055299399e+01  -1.7335409398e+00    0.2041608    0.1266765 -35.81 0.0006739751    1.597    0.374
       290 -10.2868    236.7796    196.9883   3.5705994617e+01  -1.0406797403e+00    0.2427783    0.1461904 -29.42 0.0006975837    1.438    0.304
