#   1 NUMBER                 Running object number                                     
#   2 MAG_AUTO               Kron-like elliptical aperture magnitude                    [mag]
#   3 X_IMAGE                Object position along x                                    [pixel]
#   4 Y_IMAGE                Object position along y                                    [pixel]
#   5 X_WORLD                Barycenter position along world x axis                     [deg]
#   6 Y_WORLD                Barycenter position along world y axis                     [deg]
#   7 A_WORLD                Profile RMS along major axis (world units)                 [deg]
#   8 B_WORLD                Profile RMS along minor axis (world units)                 [deg]
#   9 THETA_WORLD            Position angle (CCW/world-x)                               [deg]
#  10 FWHM_WORLD             FWHM assuming a gaussian core                              [deg]
#  11 ELONGATION             A_IMAGE/B_IMAGE                                           
#  12 ELLIPTICITY            1 - B_IMAGE/A_IMAGE                                       
         1 -13.8411    233.2407     28.4502   4.0424682941e+01   2.4083286233e+01     4.486358     1.014083  61.73   0.01622864    4.165    0.760
         2 -14.1391    223.5158     59.1727   4.9178180449e+01   2.2426622264e+01     12.50204     1.020877 -38.62   0.03227523    5.657    0.823
         3 -13.3810    156.3998     48.1234   5.5838972112e+01   3.9974452941e+01     3.403875     2.059445  70.39   0.01467057    1.826    0.452
         4 -12.7565    234.8889     52.3671   4.6228336151e+01   2.0911676580e+01     1.028332    0.7673189 -50.82  0.006077955    1.256    0.204
         5 -13.1921    180.9048     82.9730   6.1861938036e+01   2.8421555874e+01     5.822068    0.8107876 -38.75  0.008879968    5.635    0.823
         6 -11.9814    134.7589     26.9234   5.2382100252e+01   4.8578308794e+01    0.8140553    0.6450914 -68.55  0.004114881    1.382    0.276
         7  -8.6594    228.1767     16.2955   3.7749446560e+01   2.6488034992e+01    0.3191807    0.1470565 -34.44  0.001546497    1.770    0.435
         8 -11.3527    131.5613     21.7771   5.0987216065e+01   5.0064463567e+01    0.6972027    0.4546824 -58.85 0.0007435192    1.770    0.435
         9  -9.5232    195.6354      8.6765   3.8202580986e+01   3.4832415966e+01    0.4325998    0.2819369 -29.03  0.001380723    1.466    0.318
        10  -8.9367    141.8289      9.8550   4.4597072434e+01   4.8653989099e+01      0.30423    0.1916682 -29.36  0.001070879    1.598    0.374
        11  -8.9876    225.3055      8.0692   3.5852817428e+01   2.7951941432e+01    0.1931837    0.1695163  39.06 0.0007642841    1.426    0.298
        12  -8.6133    122.8493      6.8241   4.6436971001e+01   5.4002889922e+01    0.1964163    0.1578407 -54.09 0.0003923877    1.314    0.239
        13  -9.0047    233.7751      5.8634   3.4781740199e+01   2.6317285584e+01    0.1676697     0.150541 -44.30 0.0003470173    1.121    0.108
        14  -9.9747    151.0423      7.3158   4.2384575801e+01   4.6446460053e+01    0.4324614    0.1819603 -26.66  0.001320996    2.313    0.568
        15 -10.3443    249.1040      1.8605   3.3017094651e+01   2.3508096892e+01    0.1873722    0.1649441 -43.68 0.0007302939    1.137    0.121
        16 -10.3908    183.3973    146.2316   7.6704011939e+01   1.7100291191e+01    0.2694107    0.2503558  21.87  0.000854548    1.102    0.092
        17  -9.4382      1.3910    189.0686   1.2520515001e+02   3.4284788395e+01    0.3099604   0.08424317 -79.39  0.001387246    3.348    0.701
        18  -9.2589     58.2221    186.5439   1.1200843235e+02   2.9250489103e+01    0.1927034    0.1755126  89.49 0.0005024855    1.196    0.164
        19 -13.5018     29.0474    169.7889   1.1783265254e+02   3.5994576850e+01     1.498116     1.008524   5.49  0.001809163    2.155    0.536
        20  -7.7932    209.6511    180.2964   7.8369113648e+01   7.5551816791e+00    0.1071507   0.09901209  63.30  0.000703393    1.680    0.405
        21  -8.7840    194.9370    179.0464   8.0802211604e+01   1.0004555352e+01    0.1824002    0.1539829   9.76  0.001188343    1.013    0.013
        22  -8.4506     59.2537    170.9785   1.1030871241e+02   3.2445482935e+01    0.1662318    0.1439642  72.41 0.0002357584    1.058    0.055
        23 -10.3817    230.5017    167.1576   7.2451895149e+01   6.1583611641e+00    0.2813619    0.1841251 -39.72  0.001308221    1.759    0.432
        24  -9.0103    239.6288    162.3247   7.0102942159e+01   5.4235759304e+00    0.1065571   0.09568235 -57.78 0.0007032481    1.813    0.448
        25 -13.2781    231.6367     76.2179   5.2454623405e+01   1.8470566810e+01     2.481487     1.316703 -56.43  0.007319216    2.518    0.603
        26 -11.0516    186.2971     40.7777   4.8751825569e+01   3.3460722645e+01    0.5085915    0.4755053   9.06 0.0009365688    1.198    0.165
        27  -9.3607     71.5063    245.4769   1.1357625037e+02   1.7010671069e+01    0.1101391   0.08000264  45.77 0.0001053327    1.004    0.004
        28  -9.3769    246.6781    242.0351   8.2064404484e+01  -4.1302770600e+00    0.1394275   0.09607925   4.75 0.0006132026    1.068    0.064
        29 -10.6861     67.8773    144.2697   1.0482770017e+02   3.7444166696e+01    0.6540749    0.3261085  52.34   0.00287054    2.052    0.513
        30  -8.1889    222.8208    145.1590   6.9381130665e+01   1.0346109056e+01    0.1733803    0.1304276   1.19  0.000357021    1.271    0.213
        31  -9.8993    192.8537    143.7381   7.4355481897e+01   1.5785127089e+01    0.3512664     0.230902   8.07  0.001658181    1.930    0.482
        32  -9.9327     54.3451    149.0853   1.0926353856e+02   3.8026654198e+01    0.2401619    0.1997115  75.70 0.0009227236    1.088    0.081
        33 -10.2829    176.3514    139.5043   7.6694234116e+01   1.9560850608e+01    0.2930907      0.23138  81.40  0.001404807    1.970    0.492
        34  -9.7298    157.9677    137.5205   8.0185264390e+01   2.3444942597e+01    0.2256678    0.1929378 -35.68  0.001242954    1.193    0.162
        35  -9.7218    228.9445    135.6686   6.6428879068e+01   1.0652884524e+01    0.1801465    0.1550067  10.32  0.001160716    1.116    0.104
        36 -11.6880    121.6594     39.2097   6.0065932461e+01   5.0213496552e+01     1.183885    0.3676122  48.84  0.001407554    3.174    0.685
        37 -12.5396    180.3570     68.4127   5.7842485038e+01   3.0905148175e+01    0.7085562    0.6669971  80.65  0.003994481    1.120    0.107
        38  -8.2084    106.6117    238.4897   1.0626950523e+02   1.3830252275e+01    0.1114204   0.08645096  40.31 0.0002537134    1.026    0.025
        39  -8.3437    217.4994    231.5094   8.5166095282e+01   2.8056156288e-01    0.1096265   0.07913758  13.21 0.0008106148    1.006    0.006
        40 -10.3191    198.4364    125.3070   6.9283871897e+01   1.7714562342e+01    0.2625599    0.2325405 -14.28 0.0001891893    1.034    0.033
        41  -8.6612    142.0123    126.2995   8.1394365751e+01   2.8779485687e+01    0.1978715    0.1822991  36.49 0.0002516378    1.059    0.056
        42  -8.8991    218.4027    122.1816   6.5171277728e+01   1.4445065401e+01    0.2098833    0.1725778 -69.73  0.001072885    1.772    0.436
        43  -9.6161    214.2420    121.0044   6.5582436931e+01   1.5389844087e+01    0.2292353    0.2011061  47.48 0.0005346523    1.310    0.237
        44  -9.2181    203.3324    122.0854   6.7678053011e+01   1.7287838525e+01    0.2360959    0.1801097  27.83 0.0006573728    1.355    0.262
        45 -10.8626    162.1936    119.6907   7.5190752289e+01   2.5964938315e+01    0.4999741    0.3392602 -69.41  0.001004497    2.337    0.572
        46  -9.1162    205.4738    114.4903   6.5547258876e+01   1.8067529952e+01    0.2649265    0.2139772   1.62 0.0008776232    1.285    0.222
        47 -11.7962    205.1259    110.5490   6.4674332900e+01   1.8754081938e+01    0.7212864    0.3889717  40.56   0.00326172    1.996    0.499
        48 -10.4217    168.0079    113.5196   7.2437912745e+01   2.5898722008e+01    0.4409552     0.330717 -35.82  0.001534562    1.311    0.237
        49 -10.8148    201.5053    115.4866   6.6465644697e+01   1.8690398698e+01    0.3214273    0.2597279  26.53  0.001073116    1.279    0.218
        50  -8.2886    165.3171    157.3148   8.2638486176e+01   1.8471867657e+01    0.1400645    0.1017842   3.48 0.0003920988    1.648    0.393
        51  -9.6997    134.6682    108.4100   7.8903977828e+01   3.3976726168e+01    0.8690329    0.1633215 -45.40  0.002098966    5.372    0.814
        52  -8.7812      6.3472    108.3010   1.2005367919e+02   5.2415691882e+01    0.1285127   0.08328684 -48.37 0.0007038332    1.686    0.407
        53 -10.0981    220.9133    104.7382   6.0774574251e+01   1.6546025540e+01    0.3289556    0.1582363  52.55  0.001484008    2.337    0.572
        54  -9.2095    205.4988    105.4606   6.3389738390e+01   1.9475978588e+01    0.2246145    0.1822999  34.44 0.0007624628    1.297    0.229
        55  -9.7466    202.8541    103.4032   6.3330752035e+01   2.0336418127e+01    0.3280998    0.2390269 -17.78  0.001705339    1.396    0.284
        56  -7.8169    143.5182    104.4750   7.5684118214e+01   3.2892973455e+01    0.1510075    0.1460986   1.85 7.389744e-05    1.045    0.043
        57  -9.7230    150.8233    100.0839   7.2785992993e+01   3.2161611263e+01    0.3468243    0.2827277   8.01 0.0007549348    1.468    0.319
        58  -8.8400      6.3358    101.3093   1.1950228369e+02   5.4163554951e+01    0.1307022   0.08239528 -49.01 0.0007043202    1.679    0.404
        59 -10.7518    222.9452    100.0063   5.9355570940e+01   1.6843444747e+01    0.2702233    0.2112895  48.53  0.001051694    1.430    0.300
        60 -12.8392     41.5948    162.5373   1.1407035052e+02   3.6351596461e+01    0.9387231    0.8070076  74.14  0.002623159    1.047    0.045
        61  -8.0059     88.2611    100.0186   9.0196659254e+01   4.4988550368e+01    0.1708169    0.1267874 -55.14 0.0002086564    1.317    0.241
        62  -8.9608    136.1520     96.3956   7.5337760866e+01   3.6141525418e+01    0.2747489    0.2142156 -52.02 0.0006596302    1.321    0.243
        63 -11.1480     14.3829     92.4646   1.1565883940e+02   5.5913159813e+01    0.7294975    0.2815469  52.96  0.002956231    2.943    0.660
        64 -10.1151    168.4966     91.0140   6.6470002228e+01   2.9875432908e+01    0.3056415    0.2577075 -34.97 0.0004398247    1.148    0.129
        65 -10.9893    162.7822     93.2200   6.8264120837e+01   3.0775076340e+01     0.693214    0.3763471  33.83  0.002674072    2.373    0.579
        66 -10.0081    144.9896     89.6928   7.1280882210e+01   3.5495707540e+01     0.324097     0.290626 -54.82 0.0005421716    1.143    0.125
        67 -11.4031    161.2749     83.3138   6.5799761877e+01   3.2916959525e+01    0.4002692    0.2812628 -25.11 0.0006458236    1.531    0.347
        68  -7.4427    152.6622    150.3179   8.4022461597e+01   2.2034055834e+01    0.1387722    0.1114409  75.87 0.0002733457    1.704    0.413
        69 -10.1953    104.8151     80.0458   7.9356182950e+01   4.6387803991e+01      0.23676    0.2164649  41.28 0.0002499146    1.117    0.104
        70  -8.5975    200.8866     77.6916   5.7075659050e+01   2.4746331157e+01     0.258389    0.1786615 -22.79  0.000808722    1.449    0.310
        71  -8.2277    124.4989     76.5139   7.2528175403e+01   4.2802851173e+01    0.1529167     0.151454 -25.24 0.0001574961    1.019    0.018
        72  -8.8576     64.0004     73.4268   9.1813241698e+01   5.5408414477e+01    0.2229531    0.1835645 -56.78 0.0002167592    1.146    0.127
        73 -10.9066    199.1875     72.2351   5.5872831343e+01   2.5947090070e+01     0.393788    0.2616974  35.38  0.001143814    1.808    0.447
        74 -11.0641    205.2233     69.1506   5.4154725264e+01   2.5046307679e+01    0.3785632    0.3162182  29.26  0.001694272    1.362    0.266
        75 -10.8535    188.3085     78.4178   5.9306198335e+01   2.7466253065e+01    0.3373191    0.3203093 -47.98 0.0004730646    1.055    0.052
        76 -10.8803    164.9481     42.6363   5.2527116365e+01   3.8586295821e+01    0.6460695    0.4758782 -43.62  0.002820719    1.313    0.238
        77  -9.2106     14.1480     62.1647   1.1135771633e+02   6.3589818170e+01    0.1755945    0.1419446  78.28 0.0004436088    1.291    0.225
        78  -9.8155    249.0809     57.1509   4.5982634459e+01   1.7498302352e+01    0.3068095     0.194303 -51.03  0.001550921    1.533    0.348
        79  -9.2051     84.5997    227.7574   1.0971317482e+02   1.8307765078e+01    0.1417787    0.1012536  81.75 0.0006363558    1.624    0.384
        80 -10.1456    160.8682    128.2640   7.7486909804e+01   2.4619692001e+01    0.3701283     0.210213 -47.91  0.001620377    1.888    0.470
        81  -9.4150    195.1318     50.9198   5.0523351913e+01   2.9954338520e+01    0.3352942    0.1620382 -41.06 0.0009594337    1.883    0.469
        82  -8.0973    108.8620     49.1387   6.7391841781e+01   5.1683103349e+01    0.1988664    0.1754603   3.56 0.0002921327    1.252    0.202
        83  -9.2768    243.1431     46.4492   4.3991563383e+01   1.9953262731e+01    0.3635841    0.1412269 -39.21   0.00111547    2.039    0.510
        84  -9.2568    134.4900    148.0137   8.7792402796e+01   2.5805380404e+01    0.4590633    0.1446254 -55.17  0.001371755    4.479    0.777
        85  -8.5769    207.4039     45.7814   4.7523470068e+01   2.7758887839e+01    0.2420991    0.1739748 -44.37 0.0005655859    1.261    0.207
        86  -8.6066    205.6614     42.3304   4.6775430994e+01   2.8605302648e+01    0.2908162    0.1300306 -31.42  0.001228133    1.980    0.495
        87  -9.1076    238.9491     41.7710   4.3233912918e+01   2.1358891341e+01    0.2052819    0.1610468 -31.77 0.0004024254    1.119    0.107
        88  -9.2593    248.6982     34.7534   4.0734962510e+01   2.0195824645e+01     0.311772    0.2081601 -60.80  0.001717051    1.491    0.329
        89  -8.7945    182.2308     33.1814   4.6982510740e+01   3.5446981109e+01    0.3835525    0.1501549 -35.48  0.001462096    2.248    0.555
        90  -8.7317    216.3853    214.3588   8.2830962828e+01   2.3259442404e+00    0.1726564    0.1587999  61.43 0.0007561154    1.989    0.497
        91  -9.9656    143.2181     24.2535   4.9811551882e+01   4.6683778585e+01    0.4816654    0.1829506 -37.22  0.001763507    2.472    0.595
        92  -9.7123    179.2972     24.3582   4.4609386438e+01   3.7250503095e+01    0.4385878     0.330082 -65.34  0.002299238    1.333    0.250
        93  -8.2989    163.0981     24.9205   4.6921576821e+01   4.1367139023e+01    0.1863492    0.1635728  41.80  0.001012327    1.237    0.191
        94  -9.2220    204.1871    208.6252   8.4038147231e+01   4.6530532791e+00    0.2226343    0.1617284  31.91   0.00131044    1.292    0.226
        95  -9.6724    173.6832    149.3250   7.9301199398e+01   1.8352615589e+01    0.2932842    0.1557892  23.61  0.001181532    2.580    0.612
        96 -10.3829    235.7403    207.2435   7.8562865600e+01   6.3293762853e-01    0.1997903    0.1507649  18.81 0.0004450991    1.190    0.160
        97  -7.9144    222.2722    205.7045   8.0497766705e+01   2.5556212929e+00   0.09307118   0.08642156  16.72 0.0002299786    1.522    0.343
        98  -8.9524    205.2297    203.9906   8.3129538152e+01   5.0896910542e+00    0.1864961    0.1376109  24.17 0.0002778329    1.145    0.127
        99  -9.3776    205.8158    199.3733   8.2286302367e+01   5.5955221017e+00    0.2156868    0.1571621   2.24 0.0005828312    1.235    0.190
       100  -9.5287    191.3473    192.0257   8.3694173681e+01   8.7029650868e+00    0.3118016    0.1831281 -58.90  0.001378106    3.852    0.740
       101  -8.4889    232.0627    195.3480   7.7203946041e+01   2.4611864330e+00    0.1626758    0.1204005  16.39 0.0006784492    1.127    0.113
       102 -10.1232    173.5817    194.4235   8.7466416976e+01   1.1058472889e+01    0.2174663    0.1869473  28.31 0.0005160006    1.127    0.113
       103  -7.9211    125.7217    193.2634   9.7235363527e+01   1.8622906859e+01    0.1213763   0.08879174  57.04            0    1.478    0.323
       104  -9.5185    235.7024    179.6305   7.3903818910e+01   3.8400363789e+00    0.2129542    0.1843249  23.06  0.000672958    1.355    0.262
