#   1 NUMBER                 Running object number                                     
#   2 MAG_AUTO               Kron-like elliptical aperture magnitude                    [mag]
#   3 X_IMAGE                Object position along x                                    [pixel]
#   4 Y_IMAGE                Object position along y                                    [pixel]
#   5 X_WORLD                Barycenter position along world x axis                     [deg]
#   6 Y_WORLD                Barycenter position along world y axis                     [deg]
#   7 A_WORLD                Profile RMS along major axis (world units)                 [deg]
#   8 B_WORLD                Profile RMS along minor axis (world units)                 [deg]
#   9 THETA_WORLD            Position angle (CCW/world-x)                               [deg]
#  10 FWHM_WORLD             FWHM assuming a gaussian core                              [deg]
#  11 ELONGATION             A_IMAGE/B_IMAGE                                           
#  12 ELLIPTICITY            1 - B_IMAGE/A_IMAGE                                       
         1 -16.2830    226.4924    104.8249   3.9962646307e+01   1.6605394146e+01     6.994521     2.393638 -50.12    0.0103043    2.863    0.651
         2 -12.6816    237.4721     21.7792   2.2900492507e+01   2.6146859252e+01    0.5267422    0.2861119 -24.83  0.002753984    2.816    0.645
         3 -14.7157    231.3281     32.5770   2.5314253158e+01   2.5996669508e+01      2.05884     1.329579 -56.08  0.009136748    1.204    0.170
         4 -15.8227    177.1141     78.5441   4.1268131057e+01   3.0371392260e+01     2.762854     1.706666 -56.79   0.00309988    1.633    0.388
         5 -16.3238    240.6097     55.9061   2.8971753077e+01   2.1401871763e+01     4.907553     0.590031  55.99   0.01341622   10.039    0.900
         6 -12.9001    201.6913     20.8931   2.5259127375e+01   3.3047300974e+01    0.6473117    0.5301526 -32.42  0.004577456    1.512    0.338
         7 -14.7504    249.2558     27.1156   2.3130201658e+01   2.3497436408e+01     1.639761    0.2906725 -36.45  0.006317726    4.752    0.790
         8 -13.4478    134.5655     21.8800   3.2968348984e+01   4.7781106112e+01    0.8575668    0.2947434 -25.01  0.003074294    3.849    0.740
         9 -16.3088    214.5409     76.1528   3.5592642299e+01   2.3233574278e+01     6.844297     5.125994 -63.87   0.04313995    1.199    0.166
        10 -13.1831    212.8035     24.9146   2.5208777112e+01   3.0385082374e+01     1.473822    0.1746739 -40.71  0.005453044    4.314    0.768
        11 -11.8010    212.9517     16.3509   2.3483948375e+01   3.1309295810e+01    0.2848008    0.2094347 -54.41  0.002039087    1.187    0.158
        12 -12.4156    141.2002      8.2735   2.8185271300e+01   4.7561302035e+01    0.4353292    0.2650748  60.44  0.002124734    1.488    0.328
        13 -10.4485    249.3520      6.1984   1.9524319319e+01   2.5772344150e+01    0.1922116     0.171643  17.03  0.001106744    2.116    0.527
        14 -11.6964    128.3290      6.8149   2.9422728025e+01   5.0674805572e+01    0.2168905    0.1463007  83.37 0.0005653699    1.311    0.237
        15 -11.6202    118.9310      6.3769   3.0640270221e+01   5.2903816933e+01    0.2093776    0.1904994   3.51 0.0008519069    1.389    0.280
        16 -10.6540    236.0515      3.5208   1.9705274706e+01   2.8352333383e+01    0.1566605     0.119531 -56.65 0.0003807278    1.198    0.165
        17  -9.3809    181.2968      4.3360   2.3288823801e+01   3.8992517252e+01    0.1057007   0.08280085  50.44 0.0007030751    1.651    0.394
        18 -11.1657    158.6762      2.6515   2.4831235430e+01   4.4087222250e+01    0.2468968    0.2023542  17.36 0.0006773407    1.803    0.445
        19 -11.9006    230.2677      1.5450   1.9642770165e+01   2.9589672750e+01    0.1617776    0.1079868  84.96  0.001197581    1.385    0.278
        20  -9.8228    240.0822      1.4253   1.9142852292e+01   2.7852917153e+01    0.1197076   0.08240927  86.70 0.0003909647    1.372    0.271
        21  -9.6070    132.2742    138.6244   6.5290142794e+01   2.7861139964e+01    0.1553807     0.122569 -85.59 0.0007002088    1.692    0.409
        22 -13.5017     48.4770    147.4581   9.2732762215e+01   3.9448818941e+01    0.7116275    0.5230042 -82.67  0.001803437    1.464    0.317
        23 -11.4771    133.7186    145.6568   6.6500241707e+01   2.5982315193e+01     1.113283    0.2839642 -54.36  0.002564338    5.929    0.831
        24 -11.5853    238.2388    217.3289   5.8908078422e+01  -3.3658720409e+00    0.2335331    0.1631277 -37.60  0.001563568    1.395    0.283
        25 -11.4816    248.2465    210.7631   5.6237535138e+01  -3.4354780901e+00    0.2072737    0.1836317  34.87  0.001558775    1.731    0.422
        26 -11.3688    210.4441    153.7075   5.2096314177e+01   1.0805968790e+01    0.4981456     0.263153 -24.80  0.002176018    2.458    0.593
        27 -12.1467    211.2853    134.2520   4.8074977831e+01   1.4155461054e+01    0.4277053     0.212676 -38.05  0.001862245    1.787    0.440
        28 -13.4094    202.1113    131.6368   4.9034637766e+01   1.6179371184e+01    0.6972186    0.4333648 -59.41  0.003414409    1.898    0.473
        29 -11.1652    135.9986    130.5195   6.2460308201e+01   2.8952582401e+01    0.7535343    0.1838052 -49.22   0.00200678    4.271    0.766
        30 -11.0823    135.0489    121.0672   6.0427615499e+01   3.1218665452e+01    0.7231802    0.1953511 -47.76  0.002008585    3.724    0.731
        31 -11.4409    135.1172     99.3172   5.4876490416e+01   3.5744829197e+01    0.3671693    0.2857257 -75.46 0.0001609461    1.556    0.357
        32 -11.6664    134.6817    111.6820   5.8180937019e+01   3.3301921164e+01    0.7122829    0.4085002 -35.00  0.002927277    1.952    0.488
        33 -11.4139    134.3985    104.2843   5.6351542917e+01   3.4896865089e+01    0.4742283     0.225153 -44.93  0.001842538    2.086    0.521
        34 -11.5584    218.2441    131.3331   4.6409172347e+01   1.3526845441e+01    0.3045519    0.1820163 -55.97  0.001560497    1.807    0.447
        35 -12.1184    160.9393    128.6743   5.6215336086e+01   2.4402595899e+01    0.4200367    0.4024675  48.72   0.00203503    1.106    0.096
        36 -12.2285    212.8336    124.4405   4.5837834497e+01   1.5623776269e+01    0.3168123    0.2375366  76.09  0.001111142    1.803    0.445
        37 -12.5708    176.0923    122.8140   5.1791736830e+01   2.2615224771e+01    0.6422597    0.3591356  34.65  0.002772706    2.289    0.563
        38 -11.5191    192.0514    119.8767   4.8236804565e+01   2.0138978400e+01    0.2141456    0.1773211 -67.20  0.001132331    1.291    0.226
        39 -12.3466    166.2197    116.2162   5.2222630638e+01   2.5851900600e+01    0.5141863    0.3828028  23.15  0.002524703    1.753    0.429
        40  -9.8163    188.2968    175.3525   6.0386214922e+01   1.0218989960e+01    0.1436053   0.09714427 -15.26 0.0007034498    1.689    0.408
        41 -11.5984    241.5982    207.8467   5.6795691935e+01  -2.3000892592e+00    0.2221136    0.1913167 -62.86  0.001522431    1.995    0.499
        42 -12.4087    236.8703    172.5276   5.1394949713e+01   3.8345640088e+00    0.3152986    0.2194542 -59.63  0.001824783    2.020    0.505
        43  -9.1790    108.7174    110.7392   6.4951649282e+01   3.8876122389e+01    0.1478831    0.1210584  -2.09 0.0002483775    1.481    0.325
        44 -12.7657    126.8101    104.9978   5.8447499352e+01   3.6367360583e+01    0.6983514    0.4692863 -61.06  0.002738255    1.745    0.427
        45 -12.7689    119.3712    102.4831   5.9749137598e+01   3.8472140132e+01    0.5328061    0.3656728 -59.48  0.002393274    1.659    0.397
        46  -9.8750    142.9096    106.7721   5.4963397475e+01   3.2575523987e+01     0.192163    0.1229707  45.95 0.0004333077    1.599    0.375
        47 -11.4545    149.3252    103.9873   5.2812609889e+01   3.1763741008e+01    0.3187628    0.2939687  -4.63 0.0006550664    1.233    0.189
        48 -11.2669    113.5323    104.8289   6.1997722739e+01   3.9194645523e+01    0.3066598    0.2515887   5.54  0.001483483    1.484    0.326
        49 -11.8132    197.9647     99.5513   4.2835433937e+01   2.2627177140e+01    0.3088218    0.2533136 -23.15  0.001727475    1.424    0.298
        50 -15.5919    229.6067     69.8218   3.2661660566e+01   2.1409318158e+01     1.762259    0.8841087  77.69   0.00906499    2.583    0.613
        51 -12.9102    123.7779     92.6166   5.5891221381e+01   3.9542657638e+01    0.5312808    0.4694885 -27.96  0.002825112    1.215    0.177
        52 -12.4284    117.8396     93.5151   5.7707905271e+01   4.0650581402e+01    0.5972627    0.4092266 -54.34  0.002369808    1.573    0.364
        53 -11.9618    113.3409     95.1324   5.9397079106e+01   4.1283897817e+01    0.6144924     0.408621  13.96  0.001832165    2.423    0.587
        54 -11.8798    143.1313     94.3127   5.1701551097e+01   3.4974969802e+01    0.3249293    0.2914853 -72.25 0.0005444342    1.137    0.121
        55 -13.8639      3.5430    167.0069   1.0934989334e+02   3.8396967377e+01    0.9617007    0.4529391 -77.28  0.004346685    1.900    0.474
        56 -12.8883    158.6840     90.5828   4.7491249970e+01   3.2273141774e+01     0.345301    0.2897068 -35.71 0.0008447546    1.244    0.196
        57 -12.6330    203.6687     31.5898   2.7344985118e+01   3.1416465296e+01    0.2728417    0.2439506 -26.39 0.0006207217    1.502    0.334
        58 -11.9709     24.5252    166.9492   1.0304413139e+02   3.6737970321e+01    0.6380525    0.2454985  52.32  0.002268723    3.082    0.676
        59 -11.6691    249.4835    203.6437   5.4867397391e+01  -2.5100221169e+00    0.2772408    0.1885569  14.40  0.001884501    1.573    0.364
        60 -12.7821    194.7064     84.5639   3.9998663935e+01   2.5762879728e+01    0.3087207    0.2645234  70.94 0.0008853647    1.237    0.192
        61 -12.7588    199.9081     82.7030   3.8856108217e+01   2.5031605118e+01    0.3998828    0.2326527  49.29  0.002055626    2.024    0.506
        62 -10.1608    126.0111     71.2935   4.9268241064e+01   4.2985171948e+01    0.2003604    0.1788663  66.60 0.0003585556    1.081    0.075
        63 -12.0629    138.2751     63.3221   4.4287361614e+01   4.1481483636e+01    0.3846832    0.2244811  61.69  0.001794836    1.676    0.403
        64 -10.5974    194.8504     56.2812   3.3639689488e+01   3.0017349272e+01    0.2163301    0.1626285 -43.84 0.0002836458    1.283    0.221
        65 -12.2521    247.6807    176.9504   5.0568872014e+01   1.7891057353e+00    0.3073534     0.194495 -23.75  0.001901508    1.429    0.300
        66 -11.6614    175.0869     50.8396   3.4873053927e+01   3.4980620760e+01    0.3284864    0.2076521 -56.12  0.001656334    1.513    0.339
        67 -10.2346    205.7224     48.5474   3.0747065889e+01   2.8866791458e+01    0.3234429     0.125808 -35.97  0.001484104    2.503    0.600
        68 -11.4904    191.4648     44.5275   3.1389377136e+01   3.2312052419e+01    0.3749261    0.1637277 -45.81 0.0008296116    2.024    0.506
        69 -13.2685     20.3213    156.1253   1.0318069112e+02   3.9991950046e+01    0.5959543    0.3352659  38.81  0.002780279    1.794    0.443
        70  -9.6927    174.4984     43.5439   3.3178399282e+01   3.6086869402e+01    0.1274351     0.110482 -81.69 0.0001760864    1.023    0.022
        71 -11.1826    160.0797     37.4390   3.3555465504e+01   4.0091288527e+01    0.2022868    0.1775043 -30.99 0.0006028299    1.357    0.263
        72 -11.5264    124.8109     37.8118   3.9444465946e+01   4.8238301898e+01    0.1903006    0.1506712 -81.90 0.0005917646    1.340    0.253
        73 -11.0572    189.9560     35.6443   2.9549455284e+01   3.3753670206e+01    0.2281049    0.1599113 -41.27  0.000651273    1.423    0.297
        74 -12.1550    148.6716     34.9305   3.4524645070e+01   4.3016623101e+01    0.2573127    0.2109109  58.84  0.001575505    1.233    0.189
        75 -10.2390    159.7592     26.6103   3.0802686283e+01   4.1446017163e+01    0.2435817    0.1557265 -38.46 0.0004764701    1.632    0.387
        76 -11.8988    242.6653    201.2865   5.5523924131e+01  -1.4183021985e+00    0.2328714     0.194448  38.50  0.001656666    1.722    0.419
        77 -14.7104    249.1281     61.5915   2.9307809544e+01   1.9207685401e+01    0.8835182     0.369202 -41.64   0.00303011    1.887    0.470
        78 -12.5621     17.0747    150.6858   1.0362437346e+02   4.1714565327e+01    0.6166424    0.3016129 -46.13  0.002638055    2.101    0.524
        79 -12.0168    191.9061    193.7337   6.3117273787e+01   6.2402298145e+00    0.9415817    0.4833619 -62.65  0.002951988    5.720    0.825
        80 -11.3605    143.9219     20.2965   3.1172730978e+01   4.5766271784e+01    0.2065209    0.1856573 -33.32 0.0004430245    1.328    0.247
        81  -9.8522    231.4380     19.0365   2.2774039795e+01   2.7536893438e+01    0.1530564   0.08700516 -43.76 0.0006314069    1.510    0.338
        82 -11.6148    122.9921     18.9961   3.3944980579e+01   5.0791241343e+01    0.2023412    0.1371808  41.06  0.000467378    1.652    0.395
        83 -12.5771    211.5408    188.5223   5.8489730913e+01   4.4625392294e+00    0.5164177    0.3098767  40.70  0.002795728    2.005    0.501
        84 -15.0271    170.5417     94.5244   4.6230529932e+01   2.9031125525e+01     3.578684     1.240427  47.92     0.012915    3.130    0.681
        85 -10.8669    119.2755     16.9557   3.3931821123e+01   5.1865251637e+01    0.1708737    0.1564313  78.50 0.0003436535    1.085    0.079
        86 -10.1237    154.2507     15.5813   2.8604975786e+01   4.3872237806e+01     0.190763    0.1543906  23.66  0.001194623    1.760    0.432
        87  -9.8698    206.9629    161.6866   5.4255469237e+01   9.8984237972e+00    0.1717985    0.1578585 -13.59 0.0003452647    1.110    0.099
        88 -10.0838    237.7881     12.8958   2.1281252444e+01   2.7066998625e+01    0.1381284    0.1143666 -68.83  0.000394277    1.212    0.175
        89  -9.1767    165.4300     13.4818   2.6857454553e+01   4.1562930539e+01    0.1202528   0.09997085 -87.40 5.571194e-05    1.036    0.035
        90 -11.6564    248.6614    248.7690   6.2175230037e+01  -8.7592681771e+00    0.2208406    0.1687871 -16.54  0.001730232    1.226    0.185
        91 -11.0620    242.4981    230.9361   6.0410662251e+01  -5.7701751160e+00    0.1675703   0.08812342 -34.85 0.0007073224    1.557    0.358
        92  -9.0782     64.6508    228.7143   9.8468126343e+01   1.6984295833e+01     0.132122    0.1012214 -15.58 0.0004177199    1.656    0.396
        93 -12.0909     65.6245    143.3801   8.6277337366e+01   3.8280036030e+01      2.49469    0.9879299  31.53  0.008846903    2.469    0.595
        94 -13.9026     34.5913    152.9169   9.8159106122e+01   3.9521965238e+01    0.6722178     0.649361  68.98  0.001457415    1.053    0.050
        95 -13.8712     41.9623    149.6476   9.5253105030e+01   3.9615070235e+01    0.8623518    0.6794823 -86.43  0.002646897    1.318    0.241
        96 -13.1488    192.1499    153.9045   5.5393010560e+01   1.3708513129e+01    0.7994937    0.3685964 -55.99  0.003003426    3.040    0.671
        97 -12.0537    172.4977    150.5428   5.8581471513e+01   1.7755332689e+01    0.3080063     0.248282 -15.15  0.001493192    1.344    0.256
