#   1 NUMBER                 Running object number                                     
#   2 MAG_AUTO               Kron-like elliptical aperture magnitude                    [mag]
#   3 X_IMAGE                Object position along x                                    [pixel]
#   4 Y_IMAGE                Object position along y                                    [pixel]
#   5 X_WORLD                Barycenter position along world x axis                     [deg]
#   6 Y_WORLD                Barycenter position along world y axis                     [deg]
#   7 A_WORLD                Profile RMS along major axis (world units)                 [deg]
#   8 B_WORLD                Profile RMS along minor axis (world units)                 [deg]
#   9 THETA_WORLD            Position angle (CCW/world-x)                               [deg]
#  10 FWHM_WORLD             FWHM assuming a gaussian core                              [deg]
#  11 ELONGATION             A_IMAGE/B_IMAGE                                           
#  12 ELLIPTICITY            1 - B_IMAGE/A_IMAGE                                       
         1 -12.4909     91.9369      9.1304   7.1560945561e+00   6.1187305220e+01    0.4154565    0.2277761  45.74  0.001167605    1.781    0.438
         2 -11.3871     49.2716      8.2299   2.1589907573e+01   7.1766476794e+01     0.199237    0.1637723  29.78  0.001161793    1.113    0.102
         3 -11.0024    122.9644      7.2509   6.0572144565e-01   5.2943820448e+01    0.1953708    0.1618399  79.40 0.0003184586    1.046    0.044
         4 -10.8238     68.5655      4.9293   1.1461245682e+01   6.7617988911e+01    0.1888168    0.1070148  19.20 0.0006655016    2.406    0.584
         5 -10.7503    128.8353      1.3875   3.5761111398e+02   5.1848104733e+01    0.2105948    0.1056609  64.33 0.0006617993    1.730    0.422
         6 -10.4412     25.5162      1.4963   3.1911281254e+01   7.7261073188e+01    0.1289528    0.1092514  14.82 0.0008104585    1.005    0.005
         7 -10.9361    226.4556    246.4788   3.9086127231e+01  -3.5877154656e+00    0.1051813   0.07380582   4.99 3.824265e-05    1.045    0.043
         8 -11.9310    247.6755    248.6401   3.6062175097e+01  -5.8768752922e+00     0.292356    0.1314334   4.95  0.001717223    2.408    0.585
         9 -11.3160    202.9426    250.5944   4.3616734522e+01  -1.5460848783e+00    0.1598391   0.08011992  25.03 0.0004249226    1.548    0.354
        10 -12.0617    139.3079    248.1035   5.5487557222e+01   6.3856286547e+00    0.3407921    0.1771665 -46.35  0.001956888    2.433    0.589
        11 -11.3312    124.7132    249.7088   5.8712342395e+01   8.0024538152e+00    0.1858533    0.1340412 -30.84  0.001218373    1.740    0.425
        12 -11.3592     64.1249    245.6422   7.1599228574e+01   1.6158328170e+01    0.1749116    0.1349154  54.76 0.0006316988    1.223    0.182
        13 -11.8585     65.2936    250.0577   7.1634815599e+01   1.5258138329e+01    0.3030917    0.1477619  41.44 0.0008413285    1.489    0.329
        14 -12.1956     69.2454    247.5232   7.0591216657e+01   1.5232325087e+01    0.4923439     0.184855  56.59  0.002105767    3.298    0.697
        15 -12.6071     50.0623    245.1263   7.4695290495e+01   1.7845056575e+01    0.3898994    0.3217983 -33.76   0.00200548    1.742    0.426
        16 -11.8905     56.1354    249.5366   7.3610916153e+01   1.6391632703e+01    0.3115015    0.1158431  40.68 0.0008012658    1.836    0.455
        17 -11.1984     55.4593    245.5215   7.3519766217e+01   1.7172299873e+01    0.2188863    0.1358561  83.31 0.0006103957    1.952    0.488
        18 -11.0701     44.9562    249.5281   7.6053224652e+01   1.7621359092e+01    0.1668499    0.1347353  61.54 0.0008040885    1.240    0.194
        19 -15.4587     24.7141    191.3666   7.7859459118e+01   3.1487298661e+01     1.488464    0.8103788 -85.91  0.007674603    1.895    0.472
        20 -15.1392      9.1937    165.7938   8.0928791346e+01   3.8899937678e+01     1.594599    0.7731387  29.46  0.007779703    1.842    0.457
        21 -15.2544      7.7408    185.3388   8.2147330130e+01   3.4377854690e+01     1.262505     0.692942  56.77  0.004676299    1.502    0.334
        22 -14.3953     34.3394    246.3627   7.8217917845e+01   1.9300519400e+01    0.9513811    0.4656179  21.23  0.004141693    2.037    0.509
        23 -15.0395     33.2364    233.1986   7.7870505960e+01   2.1855183350e+01     1.142926    0.7804418 -52.71  0.007145097    2.019    0.505
        24 -14.1386     20.4450    247.5150   8.1260322075e+01   2.0472349157e+01     0.671708    0.3679758  28.23  0.002525735    1.524    0.344
        25 -13.5851      9.7245    208.7374   8.2446916807e+01   2.9044467860e+01    0.3381347    0.2805034 -85.25   0.00125958    1.355    0.262
        26 -13.5365     25.7984    226.6052   7.9291229315e+01   2.3888771788e+01     0.386064    0.3386287   8.93  0.001497546    1.440    0.306
        27 -14.3076     10.7586    216.0329   8.2430887429e+01   2.7432560119e+01    0.7224534    0.4174208  25.65  0.004219175    1.595    0.373
        28 -14.5643      3.8064    209.5691   8.3902564606e+01   2.9370092193e+01    0.9511402    0.2750179 -79.50  0.004046168    3.508    0.715
        29 -14.4805      4.9041    200.6413   8.3386429082e+01   3.1186639347e+01     0.798858    0.5191199  -7.98  0.004405776    2.310    0.567
        30 -14.3532      2.6953    226.1448   8.4558780083e+01   2.6097182556e+01    0.6080091    0.2708752 -75.87  0.003318557    2.508    0.601
        31 -15.9396     16.0933    228.4356   8.1593737431e+01   2.4460613154e+01     1.269884    0.6030642  70.92  0.006980112    2.012    0.503
        32 -15.2634      5.2265    234.6880   8.4190511824e+01   2.4232563294e+01     0.527059    0.5138547 -10.95  0.003750746    1.467    0.318
        33 -15.7239      4.1590    246.8256   8.4677606182e+01   2.2084469848e+01    0.8375611    0.4370136  35.71  0.005353048    1.383    0.277
        34 -14.9490     11.1184    238.4269   8.3000160390e+01   2.3006514277e+01    0.5524485    0.3632277 -59.18  0.003148585    2.094    0.522
        35 -11.0343    163.3242    246.4369   5.0441109727e+01   3.6030876463e+00    0.1620366   0.08607903  34.45  0.000941927    1.574    0.365
        36 -11.1253    131.2869    244.3661   5.6739975472e+01   7.9626088835e+00    0.1785945    0.1442316  67.51  0.001177843    1.823    0.451
        37 -11.3957    205.5314    244.4675   4.2334814141e+01  -1.1313144190e+00    0.1108014   0.07927424   8.85  0.000135821    1.017    0.017
        38 -11.3990    143.0361    243.5346   5.4183147645e+01   6.5704800487e+00    0.2047413    0.1780831 -25.55  0.001109131    1.400    0.286
        39 -10.8763    193.0444    242.5375   4.4296435896e+01   5.2094244660e-01    0.1577315   0.08627065  26.39 0.0002830871    1.447    0.309
        40 -11.7492    126.1764    241.4815   5.7505777070e+01   9.0672995256e+00    0.1873517    0.1731778  42.78 0.0006341224    1.320    0.242
        41 -11.4190    118.0394    240.7077   5.9183525091e+01   1.0252982346e+01     0.184387    0.1270831  29.47  0.001079976    1.100    0.091
        42 -12.1409     65.3476    239.4143   7.0893651673e+01   1.7122406244e+01    0.3518543    0.2017029  53.97  0.001432156    1.607    0.378
        43 -11.9293     59.4221    234.3334   7.1898997973e+01   1.8751667977e+01    0.3645706    0.1049908  39.47 0.0009552698    2.312    0.567
        44 -12.0841     61.5811    230.9729   7.1158906757e+01   1.9127879658e+01    0.2475739    0.1737439  57.30 0.0009862683    1.329    0.248
        45 -12.5064     70.8999    238.7194   6.9576987779e+01   1.6583604967e+01    0.2700053    0.2176728 -23.00 0.0006947531    1.710    0.415
        46 -12.9745     72.9941    231.4666   6.8522610691e+01   1.7650918827e+01    0.4669896    0.3176837 -49.47  0.001392241    1.924    0.480
        47 -11.1304    108.9770    239.8674   6.1087979765e+01   1.1572712462e+01    0.1873596    0.1379959  17.54 0.0005377802    1.260    0.206
        48 -11.1636    149.5983    239.2296   5.2301555884e+01   6.3477461280e+00    0.1498035     0.105003 -23.98 0.0009170849    1.632    0.387
        49 -12.3572    102.6311    237.9755   6.2311432469e+01   1.2714587931e+01    0.3028571    0.2044524 -39.98  0.001466884    1.931    0.482
        50 -11.6398     79.2095    237.9169   6.7615999957e+01   1.5709537805e+01    0.2041234    0.1777819  56.62  0.000897515    1.228    0.185
        51 -11.7785     47.3798    236.2050   7.4790881488e+01   1.9772682325e+01    0.4119848    0.1471731  54.78  0.001847223    2.654    0.623
        52 -11.5628    210.3574    235.7002   4.0265783929e+01  -6.5076902556e-01    0.2428212    0.1954645 -62.87  0.001530392    3.144    0.682
        53 -10.9012     87.3126    236.2826   6.5622790481e+01   1.4980589286e+01    0.1171642   0.08794546   4.81 0.0002011828    1.573    0.364
        54 -11.6277    166.7200    234.7250   4.8247140959e+01   4.7734244747e+00    0.2513899    0.1294223  34.99  0.001402884    1.659    0.397
        55 -11.6901    121.6872    235.0292   5.7754632967e+01   1.0684677343e+01    0.1787034    0.1646643 -87.96 0.0008073502    1.488    0.328
        56 -11.3588    123.0040    231.4790   5.7053606235e+01   1.1087583085e+01    0.1999406    0.0993496  31.53 0.0006489558    1.561    0.359
        57 -11.9766    113.7472    234.7454   5.9484424649e+01   1.1791234643e+01    0.3108344    0.1387347  29.29  0.001175737    1.778    0.438
        58 -12.1818    222.7313    232.3418   3.7684508991e+01  -1.6392639280e+00    0.2135266    0.1354699 -16.23 0.0009880371    1.366    0.268
        59 -11.9799    182.3364    231.7035   4.4788195392e+01   3.1989068040e+00    0.2333626    0.1871994  52.84 0.0009926953    2.056    0.514
        60 -12.2970    194.9075    229.4842   4.2120162229e+01   1.9311520007e+00    0.2279448    0.1754711 -24.59 -0.0002017741    1.407    0.289
        61 -11.2688    142.9346    231.4342   5.2712889165e+01   8.3960674589e+00    0.1724116     0.160925  30.94   0.00122782    1.310    0.237
        62 -11.9503    151.3419    229.3996   5.0673081923e+01   7.5732212171e+00    0.3634274   0.09737246  32.17    0.0014009    3.001    0.667
        63 -11.6027     86.0795    228.0470   6.5151125835e+01   1.6622580601e+01    0.3017971    0.2051539 -19.56  0.001623086    2.215    0.549
        64 -12.1360    230.0231    227.6819   3.5804360876e+01  -1.9037675289e+00    0.1671932    0.1448997 -18.84  0.000987917    1.617    0.381
        65 -11.0829    215.0125    231.9996   3.8931541233e+01  -7.4162463001e-01     0.135963   0.09886827   2.67 0.0007052098    1.028    0.027
        66 -11.0980     98.3097    228.6360   6.2351020866e+01   1.4905174833e+01    0.1331619   0.08126412  53.67 0.0007039254    1.751    0.429
        67 -11.4246    138.0202    227.0457   5.3208111780e+01   9.7548369912e+00    0.1879584    0.1492875  27.56 0.0003752253    1.070    0.065
        68 -12.6882    106.1908    226.2179   6.0266365512e+01   1.4273248423e+01    0.2611269    0.2002435   8.43  0.001102324    1.393    0.282
        69 -12.8367     80.7049    226.1033   6.6241476607e+01   1.7678652032e+01     0.338445    0.2334488  15.19 0.0008768135    1.548    0.354
        70 -11.7925     59.0348    210.9987   7.0246948526e+01   2.3395595166e+01    0.2330938    0.1706545   9.99 0.0007601444    1.613    0.380
        71 -13.5200     53.4042    209.5757   7.1561079681e+01   2.4370062211e+01    0.4529012    0.3177021  20.17   0.00210109    1.463    0.317
        72 -11.9392     48.0604    226.1390   7.4025836935e+01   2.1623881398e+01    0.3294789    0.1682173  58.30  0.001729429    1.851    0.460
        73 -14.3613     48.0774    217.0935   7.3433807220e+01   2.3431414439e+01    0.6358137    0.5120016  80.64  0.002248545    1.324    0.245
        74 -14.1017     41.8293    211.2429   7.4602618830e+01   2.5344615594e+01    0.9281002    0.2257718  38.19  0.003668644    2.618    0.618
        75 -13.9051     37.3450    204.5601   7.5317845823e+01   2.7259412819e+01    0.5886531    0.3788349  33.55  0.003340583    1.307    0.235
        76 -12.4938    114.5976    222.1884   5.7860154274e+01   1.3826419492e+01    0.2531782    0.1874769  18.35 0.0008263218    1.251    0.200
        77 -11.4523    182.4802    225.2621   4.3837925929e+01   4.0508174375e+00    0.1997164      0.12926  24.50 0.0004881964    1.254    0.203
        78 -12.4647     92.6115    224.0430   6.3216425980e+01   1.6500524714e+01     0.312843    0.2368325   2.35  0.001259743    1.578    0.366
        79 -10.9977     60.8425    223.7863   7.0803531637e+01   2.0597852586e+01    0.1838773    0.1156423  49.93  0.000448121    1.345    0.257
        80 -12.1296    159.0085    222.1497   4.8081232761e+01   7.6285434083e+00    0.3650125    0.2132042  48.15  0.001894995    2.225    0.550
        81 -12.1222    129.1124    223.1566   5.4676817030e+01   1.1629225901e+01    0.1930125     0.150155  13.24 0.0003404826    1.200    0.167
        82 -12.6856    124.7601    221.8210   5.5488878915e+01   1.2466337278e+01    0.3078772    0.1804928  35.83  0.001670268    1.384    0.278
        83 -13.3396    121.3490    216.6745   5.5619251967e+01   1.3846741515e+01    0.3869293    0.2871921  77.60 0.0005688138    2.070    0.517
        84 -11.6165     73.1016    222.2412   6.7719050032e+01   1.9385990762e+01    0.1844002     0.148186  30.40 0.0004489826    1.121    0.108
        85 -12.3720     57.6020    220.6536   7.1353529079e+01   2.1603655995e+01    0.2717259    0.2030162 -42.65  0.001097771    1.808    0.447
        86 -15.3581     18.9812    210.3932   8.0242129353e+01   2.7858595756e+01     1.785207    0.7507559  56.61    0.0088186    1.986    0.496
        87 -11.0657    212.2498    220.9852   3.7763606378e+01   9.0959627793e-01    0.1381328   0.08482618 -28.63 0.0008872669    1.584    0.369
        88 -13.1559    174.1135    219.6123   4.4644138581e+01   5.9492752093e+00    0.3848923     0.242139 -26.30  0.002286193    1.691    0.408
        89 -11.3817    237.7762    220.5536   3.3496996211e+01  -1.9351140223e+00    0.1355707   0.08856419  31.58 0.0009485271    1.703    0.413
        90 -11.7797    190.1071    220.1764   4.1635991653e+01   3.7618307317e+00     0.177344    0.1260169   6.44  0.000287635    1.180    0.153
        91 -13.3810     78.1231    219.5715   6.6260097232e+01   1.9260322006e+01    0.6182639     0.251777  34.04  0.002012063    1.865    0.464
        92 -12.4054     71.4034    212.0791   6.7224776736e+01   2.1620929085e+01    0.5044746     0.286143  32.99  0.001730846    1.423    0.297
        93 -11.0180     71.5642    207.4190   6.6745177885e+01   2.2557970384e+01    0.2938899    0.1472284  56.79  0.001331854    2.156    0.536
        94 -13.3029     84.9319    214.8005   6.4126213086e+01   1.9292533802e+01    0.5388355    0.2562602  40.65   0.00196762    1.681    0.405
        95 -11.8264     77.1552    213.5783   6.5929312470e+01   2.0569425409e+01    0.2901632    0.2273611  19.23 0.0004469026    1.295    0.228
        96 -11.8835     67.4820    220.1263   6.8903030977e+01   2.0505166516e+01    0.1631118    0.1275547 -75.24 0.0006180476    1.533    0.347
        97 -11.9102    165.7757    219.0898   4.6248082502e+01   7.1607469995e+00    0.2294529    0.1457299  21.57 0.0002037196    1.322    0.244
        98 -12.7332    145.9266    216.7264   5.0100140399e+01   1.0314490004e+01    0.3945301    0.2711363  41.22  0.002203458    1.437    0.304
        99 -13.3109    141.2620    210.6379   5.0265973654e+01   1.2004123359e+01    0.4713123    0.3404798 -79.48  0.001985924    2.509    0.601
       100 -12.3553     64.0836    216.1683   6.9408732415e+01   2.1716718973e+01    0.3144317    0.2731771  45.44  0.001941989    1.095    0.087
       101 -12.9388    129.4106    217.0394   5.3818252028e+01   1.2627467898e+01    0.2914942    0.1626525  18.40 0.0008912701    1.869    0.465
       102 -12.5989    105.2663    207.2175   5.8257908190e+01   1.7923589612e+01    0.3487301    0.2377703 -75.86  0.001846035    2.020    0.505
       103 -11.7214     92.8732    217.2644   6.2445388335e+01   1.7738538214e+01    0.3342001    0.1393642  33.40  0.001297427    1.868    0.465
       104 -11.0626    242.4382    214.5147   3.1844665984e+01  -1.7541999096e+00    0.1081054   0.07799718  -3.56 0.0001055193    1.017    0.017
       105 -12.3687    156.1636    210.7764   4.7030305431e+01   9.8082808697e+00    0.5239119    0.1782054 -44.00  0.002180806    3.298    0.697
       106 -13.1350    107.6390    214.4305   5.8567169442e+01   1.6212867342e+01    0.3641243    0.2613379 -80.96  0.001298003    1.978    0.494
       107 -10.8720    193.9801    211.7246   3.9611660432e+01   4.4158390257e+00     0.161303    0.1248995  11.18 0.0004112823    1.039    0.038
       108 -10.8881    209.6720    211.3236   3.6711607989e+01   2.4528563763e+00   0.09858198   0.09158676  36.25 0.0003902397    1.694    0.410
       109 -11.5513     96.1854    208.8086   6.0689393928e+01   1.8916146868e+01    0.2623322    0.2104114 -66.95  0.001337847    1.520    0.342
       110 -11.6907    229.9599    208.5000   3.2853266203e+01   3.5323249454e-01    0.1710034    0.1235101 -12.18 0.0007210306    1.127    0.113
       111 -12.1528    230.1570    204.8724   3.2238309319e+01   7.7328549222e-01    0.2237224    0.1397786 -25.20 0.0004712916    1.411    0.291
       112 -11.8335    181.1539    207.9607   4.1472835058e+01   6.6912217694e+00    0.2764221    0.1512772  27.02 0.0009949383    1.594    0.373
       113 -12.6665    160.8611    207.1121   4.5477410513e+01   9.7156289175e+00    0.2584144    0.2068944 -38.41 0.0003826175    1.449    0.310
       114 -10.4629     63.7078    208.7108   6.8867855464e+01   2.3294203516e+01    0.1196254   0.09942178  -8.02 0.0002349717    1.546    0.353
       115 -13.3627    116.1568    204.3510   5.5231605070e+01   1.6867964886e+01    0.3387168    0.2270283  15.15  0.001604184    1.579    0.367
       116 -11.8239    225.0112    203.9399   3.2922114653e+01   1.5060714308e+00    0.1743773    0.1366651  -0.88 0.0006345481    1.073    0.068
       117 -13.1113    145.4619    200.8408   4.7870588557e+01   1.3064716437e+01    0.4353761    0.3548071 -71.23  0.001995532    1.799    0.444
       118 -12.4990     84.3214    198.3449   6.2493123857e+01   2.2728070984e+01    0.3736974     0.276641  46.12  0.001613387    1.185    0.156
       119 -13.0689     90.9805    199.4746   6.0900199316e+01   2.1543634171e+01    0.5631234    0.3996349 -38.36  0.002398327    1.775    0.436
       120 -13.0116     93.0468    194.0302   5.9691892488e+01   2.2380511109e+01      0.64421    0.4094389  60.48  0.003137137    1.829    0.453
       121 -12.9195    121.2679    201.0374   5.3540141416e+01   1.6726130533e+01    0.2448524    0.2086694  49.56 0.0008001232    1.245    0.197
       122 -12.7134    124.9712    199.5479   5.2437342034e+01   1.6441702866e+01    0.2337538    0.2066679 -42.82 3.680391e-05    1.321    0.243
       123 -13.3536    121.9275    196.0908   5.2669821989e+01   1.7570682055e+01    0.3221616    0.3020422 -73.75  0.001189661    1.310    0.237
       124 -12.5918    116.5847    225.6915   5.7818306197e+01   1.2940161319e+01    0.2936677    0.1853162  43.80  0.001049359    1.461    0.316
       125 -11.9517    212.7381    200.4345   3.4415021099e+01   3.4994364088e+00    0.2225859    0.2193772  82.79  0.001066984    1.767    0.434
       126 -14.1868    173.7468    196.1724   4.1048176579e+01   9.5647733857e+00    0.5161381    0.4086929  48.58  0.001854575    1.612    0.380
       127 -10.5723    198.5121    200.4878   3.6962065600e+01   5.3815597361e+00    0.1245264   0.09653367   3.36 2.366074e-05    1.057    0.054
       128 -12.6317     45.7341    199.1448   7.2756948703e+01   2.7512308088e+01    0.4729958    0.2063892  36.98  0.002194453    1.775    0.437
       129 -12.9502    150.3126    197.3513   4.6240772923e+01   1.2928383208e+01    0.3786599    0.2690461 -36.91 0.0008602059    1.548    0.354
       130 -12.5475    101.6559    196.4159   5.7776739546e+01   2.0605533456e+01    0.3895909    0.2943462   9.46  0.002102125    1.479    0.324
       131 -12.3186    192.0044    195.2717   3.7305614923e+01   7.0423641249e+00    0.3823481     0.250318  12.23  0.001238424    1.473    0.321
       132 -13.0158     37.1525    191.2640   7.4487270994e+01   3.0236632647e+01    0.3658881    0.2054562 -71.48  0.001401196    1.915    0.478
       133 -13.0805     37.0947    196.3099   7.4848230707e+01   2.9102656427e+01    0.6194817    0.2034315  40.57  0.002600516    2.227    0.551
       134 -11.4693     32.4795    196.4948   7.6086132857e+01   2.9549477712e+01    0.2287513     0.111794  27.99  0.001099938    1.796    0.443
       135 -11.2852    202.2984    194.9928   3.5352315848e+01   5.6424607207e+00    0.1661046    0.1346936  -8.65 0.0004918136    1.093    0.085
       136 -11.4018    231.6017    193.2503   3.0089862488e+01   2.0506290143e+00     0.154286   0.08836579 -21.36  0.000409931    1.544    0.352
       137 -11.8871    160.4221    192.7175   4.3271971587e+01   1.2159985573e+01     0.251364     0.204482   7.39 0.0006879938    1.124    0.110
       138 -12.6823    133.5394    190.8615   4.9075762943e+01   1.6740912583e+01    0.3370758    0.2258799  -6.06  0.001615726    2.017    0.504
       139 -13.7621    110.4722    188.6236   5.4439153242e+01   2.0850101743e+01    0.4128652    0.3145376 -46.52  0.001603393    1.506    0.336
       140 -12.4801     51.3819    189.7308   7.0467829369e+01   2.8962806586e+01    0.3119055    0.2369424  42.74 0.0008816943    1.100    0.091
       141 -10.7829     48.0000    185.9665   7.1078354493e+01   3.0231604215e+01    0.2091745     0.129464  69.04 0.0003522239    1.666    0.400
       142 -15.3399     89.5009    168.9133   5.7190904474e+01   2.8487452729e+01    0.9244784    0.8739529 -30.41  0.005308317    1.204    0.170
       143 -13.6287     79.2874    172.8522   6.0690448386e+01   2.9134773106e+01    0.5798552    0.2834958  55.01  0.002279485    2.352    0.575
       144 -13.0804     76.3679    183.8308   6.2921602420e+01   2.7029962451e+01     1.053137    0.3899767 -73.30  0.003580725    3.945    0.747
       145 -11.7377     76.5048    176.0582   6.1913105528e+01   2.8794916920e+01    0.3254067    0.2432188  88.86  0.001572344    1.534    0.348
       146 -11.3651     42.6919    190.5878   7.2925318269e+01   2.9779857246e+01    0.2399735     0.122488  22.19 0.0006419619    1.972    0.493
       147 -13.4713    137.0763    198.1070   4.9367513459e+01   1.4840837766e+01    0.4374033    0.3423773  -0.13  0.001447874    1.359    0.264
       148 -12.0808    208.1226    186.9070   3.2922388893e+01   5.9852304563e+00    0.3112776    0.1723345  -0.33 0.0007514739    2.487    0.598
       149 -12.8221    120.6665    187.4955   5.1691194560e+01   1.9458567359e+01    0.2678085    0.2238964  -5.34  0.001507966    1.326    0.246
       150 -13.4248    127.0466    186.1178   4.9894934700e+01   1.8701873123e+01    0.4587771    0.2417428  36.40  0.001802651    1.644    0.392
       151 -12.5777    132.0746    185.5096   4.8571192862e+01   1.8002154704e+01    0.2514691    0.2120263  35.94  0.000812787    1.100    0.091
       152 -12.7368    134.1720    182.0143   4.7488225872e+01   1.8336102251e+01    0.3050947    0.1835003  30.03 0.0002879309    1.512    0.339
       153 -12.4717    156.8626    185.1342   4.2768197939e+01   1.4036804928e+01    0.3068441    0.2003715 -42.45  0.001615498    1.672    0.402
       154 -10.8779     70.4916    186.5347   6.4865527029e+01   2.7235028534e+01    0.1434784    0.1199397  45.80 0.0001716916    1.026    0.025
       155 -11.7336     41.8751    185.9335   7.2788060065e+01   3.0944406492e+01     0.305796    0.1165703  47.95  0.001255133    2.240    0.554
       156 -11.6271    248.2806    185.5903   2.6266711193e+01   9.9144375307e-01    0.1477051   0.08894355  18.43 0.0009529118    1.642    0.391
       157 -11.3240    162.8767    184.1825   4.1290685834e+01   1.3235787836e+01      0.19645    0.1765191  37.68 0.0009522626    1.246    0.197
       158 -12.8925    105.3866    183.4655   5.5001518452e+01   2.2731288491e+01     0.264015    0.2159036  66.45 0.0005172726    1.388    0.280
       159 -11.3722     65.9573    184.1127   6.5860506238e+01   2.8399842943e+01    0.2173204    0.1910007  37.77  0.001271798    1.077    0.071
       160 -10.2307     54.4464    184.5015   6.9135711454e+01   2.9792517146e+01    0.1384717    0.1201672  47.50 0.0008080169    1.033    0.032
       161 -13.9096     93.8184    181.3151   5.7788425610e+01   2.5007319912e+01    0.5420117    0.4522581  47.93  0.002327784    1.109    0.098
       162 -13.4369    116.3058    178.0563   5.1312111840e+01   2.2102534291e+01    0.3591431     0.277588  23.77  0.001092185    1.230    0.187
       163 -12.6566     99.5117    180.2366   5.6091360976e+01   2.4355969707e+01    0.3121451    0.2208543 -20.28    0.0014844    1.953    0.488
       164 -12.9489     20.0066    176.2673   7.8321936349e+01   3.5456456167e+01    0.3872871    0.3523544  45.56  0.001532052    1.137    0.121
       165 -11.7155    191.4752    177.8767   3.4357764895e+01   9.7701201833e+00    0.1831668    0.1181436 -35.08  0.001012155    1.535    0.348
       166 -10.8740    166.8574    178.1398   3.9365356651e+01   1.3637516778e+01    0.1814722    0.1416178   2.44            0    1.275    0.216
       167 -11.7643    154.6938    177.1650   4.1853025224e+01   1.5825077194e+01    0.2863186    0.1764491 -56.79  0.001346838    2.182    0.542
       168 -13.4478    136.7904    176.2180   4.5865616844e+01   1.9029806154e+01    0.4342124    0.3159981 -79.45  0.001836109    2.199    0.545
       169 -13.5232    127.1480    175.6728   4.8149767315e+01   2.0776427504e+01    0.4268543     0.334513 -57.33   0.00146657    1.493    0.330
       170 -11.2345    225.0060    177.0277   2.8330269805e+01   5.0387747839e+00    0.1446244    0.1163644  -1.14 0.0004661446    1.048    0.046
       171 -12.4074     24.2584    178.5851   7.7244419667e+01   3.4507980350e+01    0.3271384    0.1919429  38.10  0.001109781    1.434    0.302
       172 -12.8401     31.3527    176.5167   7.5069439693e+01   3.4302084117e+01    0.3302884    0.2350685  26.12 0.0008514423    1.377    0.274
       173 -13.5068    106.7030    175.1914   5.3387505207e+01   2.4298552749e+01    0.3265851    0.2729932  54.18 0.0009596911    1.213    0.176
       174 -10.9974     58.9996    180.2790   6.7421378630e+01   3.0203508340e+01     0.191908    0.1598142  42.78 0.0002508011    1.045    0.043
       175 -10.5616    216.4690    174.4994   2.9276351335e+01   6.5753436239e+00    0.1216871    0.1006464  -6.79 0.0001231575    1.032    0.031
       176 -12.4384    145.1725    172.9991   4.3293047606e+01   1.8221482554e+01    0.3525317    0.1756283  50.11  0.001413509    2.455    0.593
       177 -12.4052    197.8095    170.9402   3.1894643340e+01   9.8737487674e+00     0.287093    0.2235004 -13.64  0.001764514    1.172    0.146
       178 -13.2743    101.8775    170.3002   5.3924269573e+01   2.6171808529e+01    0.2984905    0.2162744 -41.05 0.0004416418    1.597    0.374
       179 -12.7646    153.1154    170.3846   4.0974238643e+01   1.7347736187e+01    0.2753246    0.2475079  48.43 0.0002907625    1.252    0.201
       180 -12.7010    151.7915    165.2934   4.0320086117e+01   1.8541265533e+01    0.3995883    0.2656801  16.85  0.001902934    1.717    0.418
       181 -13.6433     52.4026    169.0547   6.8172746280e+01   3.3731708128e+01    0.5380091     0.323699  42.26   0.00155466    1.438    0.305
       182 -12.9406    127.4055    166.3582   4.6447450606e+01   2.2652466932e+01    0.3249269    0.2522309   2.77  0.001236774    1.504    0.335
       183 -12.8388    122.9821    167.7708   4.7839335098e+01   2.3131896237e+01    0.3495924    0.2047129  30.71 0.0008278686    1.619    0.382
       184 -12.0246     62.3354    170.5809   6.5370225872e+01   3.2075057263e+01    0.2839352    0.1169061  34.02  0.001123916    2.048    0.512
       185 -13.0770    119.1657    168.8542   4.9024614370e+01   2.3564527117e+01    0.3683792    0.2376011 -30.91   0.00166564    1.970    0.492
       186 -12.2129     40.4041    168.6650   7.1755964350e+01   3.5245045175e+01     0.433049    0.1815857  22.35  0.001718655    2.448    0.592
       187 -11.4447    159.2889    168.4152   3.9216738059e+01   1.6645709745e+01    0.1872146    0.1242808  43.91 0.0003278597    1.528    0.346
       188 -11.9307    198.7013    164.7109   3.0554035124e+01   1.0704706207e+01    0.1881623     0.156898 -84.10 0.0009769234    2.121    0.529
       189 -12.8194    110.5051    165.2256   5.0711524216e+01   2.5847820925e+01    0.2986589    0.1882223  35.92  0.001377713    1.425    0.298
       190 -12.5325     64.0844    164.8164   6.4139511218e+01   3.3240236434e+01    0.2392122    0.2073866 -89.19 0.0005441864    1.200    0.166
       191 -11.6797     44.1179    164.7137   7.0249263257e+01   3.5800513394e+01    0.2389735    0.1886514   7.42 0.0006089976    1.495    0.331
       192 -13.0562     56.4856    163.5079   6.6306329366e+01   3.4579275989e+01    0.3239313    0.2271082  57.01  0.001630052    1.356    0.263
       193 -12.1338    141.7424    162.9291   4.2241325610e+01   2.0795904330e+01    0.2471882    0.2085737  17.14 0.0003470444    1.150    0.131
       194 -11.0028     35.6655    163.3008   7.2726281421e+01   3.7093534441e+01    0.1541097   0.08636687  54.87  0.000703471    1.656    0.396
       195 -11.0382    241.4955    162.4149   2.3171676366e+01   4.7805191739e+00    0.1158742   0.09141181 -11.96 0.0001380905    1.019    0.019
       196 -12.5111     26.2658    160.7989   7.5438970231e+01   3.8669323660e+01    0.4300776    0.2421277  50.90  0.001401592    1.575    0.365
       197 -12.0409     39.8913    161.3740   7.1234714048e+01   3.7116605189e+01    0.2943865   0.09462368  34.50  0.001091337    2.473    0.596
       198 -12.1504    170.0221    159.8244   3.5229061247e+01   1.6329481926e+01    0.2400223    0.1853271 -56.33  0.001279735    1.633    0.387
       199 -13.9148    105.0342    157.9548   5.0956053788e+01   2.8433892887e+01    0.5193696    0.3694918  80.40  0.001899214    1.956    0.489
       200 -12.6591     85.7484    143.9116   5.4190935325e+01   3.5103462726e+01    0.2876816    0.2043639  42.47 0.0003913926    1.298    0.230
       201 -16.0312     81.8067    152.3994   5.6885741807e+01   3.3658368449e+01     1.214221     1.009866  26.36  0.005681416    1.204    0.170
       202 -10.8244    250.4519    158.4794   2.1201176455e+01   4.1151241586e+00    0.1142619   0.08849335 -17.09 0.0002221313    1.014    0.014
       203 -13.2047    133.3101    156.8278   4.3150118952e+01   2.3577513363e+01    0.3997467    0.3132252 -58.49  0.002041224    1.475    0.322
       204 -13.0293     47.3012    156.8052   6.8417497611e+01   3.7412710897e+01    0.2936682    0.2793928 -53.85  0.001261041    1.201    0.168
       205 -12.6599    113.3337    157.0165   4.8467693644e+01   2.7178528972e+01    0.2888564    0.2033111  43.11 0.0004840222    1.319    0.242
       206 -11.7456    141.2215    155.4939   4.0918335687e+01   2.2387500661e+01    0.2435076    0.2036703 -41.94 0.0003224957    1.270    0.212
       207 -10.4448    190.6676    155.3300   3.0208512310e+01   1.3529915674e+01    0.1244301    0.1085005 -82.25 0.0007051989    1.721    0.419
       208 -12.2887     62.3462    155.4305   6.3451046644e+01   3.5812323105e+01    0.2768367     0.141949  24.33 0.0009190615    2.023    0.506
       209 -11.2487     21.1196    154.8736   7.6624540070e+01   4.0639000111e+01    0.2191522    0.1537419  54.00 0.0006131346    1.262    0.208
       210 -12.7808      3.5377    152.1058   8.2034794617e+01   4.2698541181e+01    0.5317358    0.3261079 -72.55  0.002824545    1.606    0.377
       211 -12.6612     67.3580    153.9529   6.1654606575e+01   3.5474868505e+01     0.256755    0.2090355  -7.58 0.0008002034    1.542    0.351
       212 -11.5583     14.4312    153.3996   7.8658093188e+01   4.1575238202e+01    0.2760698    0.1320898  55.39    0.0012465    1.901    0.474
       213 -13.6675     90.6187    150.2898   5.3824236491e+01   3.2721360431e+01    0.6238248    0.3308464 -36.02  0.001205264    2.756    0.637
       214 -13.7962     96.5116    148.8474   5.1787220066e+01   3.2054360104e+01    0.4261557    0.3903271  75.89 0.0005578616    1.145    0.127
       215 -13.7815     52.5754    152.3887   6.6194600305e+01   3.7884504972e+01    0.4607144     0.320064  20.95  0.001646512    1.519    0.341
       216 -11.3039    128.4838    151.4470   4.3326391077e+01   2.5614912280e+01    0.1504805    0.1389316  33.01 9.095218e-05    1.012    0.012
       217 -13.0291     27.9135    150.0480   7.4040731465e+01   4.1248843648e+01    0.4721507    0.2455408  24.01  0.002030097    1.895    0.472
       218 -11.2930     23.4420    144.9144   7.5092966341e+01   4.2993549561e+01    0.3526807    0.1502016  51.93  0.001333171    2.231    0.552
       219 -11.3651     19.7483    149.7853   7.6700146820e+01   4.2057950853e+01    0.3095911     0.202954 -44.08  0.001553475    1.842    0.457
       220 -12.6834    108.9497    149.0595   4.8190661600e+01   2.9778292527e+01     0.343935    0.3210643 -25.73 0.0008567207    1.170    0.145
       221 -13.6544    102.2712    142.6850   4.8889591277e+01   3.2490400884e+01    0.7128815    0.4171802  63.42  0.001778812    2.460    0.594
       222 -12.6833    171.2932    145.8109   3.2096022019e+01   1.8627613035e+01    0.4755761    0.2352124 -48.93  0.001525893    2.303    0.566
       223 -11.5231    146.8688    148.6548   3.8158919157e+01   2.2704580295e+01     0.235436    0.1961326 -27.63 0.0003616997    1.256    0.204
       224 -12.6174    117.9643    157.6685   4.7326677250e+01   2.6201278365e+01    0.2256574    0.1860549  35.60   0.00116732    1.110    0.099
       225 -12.4382      9.2453    125.4854   7.8589634140e+01   4.9197376644e+01    0.4809043    0.2117836  41.59  0.002097235    2.085    0.520
       226 -13.4692      9.8142    146.2801   7.9726597213e+01   4.3740587040e+01    0.5301331    0.4029948  32.57    0.0023949    1.287    0.223
       227 -12.9999     10.7809    141.8695   7.9140968876e+01   4.4805781271e+01    0.3561414    0.2499747  45.05 0.0004013276    1.300    0.231
       228 -12.1715     17.1004    134.9064   7.6463569070e+01   4.6147377854e+01    0.2909854     0.240265  52.76 0.0002978699    1.120    0.107
       229 -13.1749     19.4862    131.2836   7.5302911435e+01   4.6913676345e+01    0.4920105     0.288076  18.99  0.001836751    1.799    0.444
       230 -10.9960    187.0096    143.7448   2.8527860751e+01   1.6111072532e+01    0.1828496    0.1680424   6.95 0.0003006381    1.048    0.046
       231 -10.8782    158.2638    144.5688   3.4654620619e+01   2.1325207568e+01    0.2084365    0.1319115  29.28 0.0009454744    1.682    0.405
       232 -11.7640    143.3041    143.0740   3.7839383363e+01   2.4524900833e+01    0.4263111    0.2802608 -16.02  0.001788981    2.215    0.549
       233 -13.1045     58.9802    121.4910   5.9259400147e+01   4.5098006814e+01    0.3880833    0.2292382 -69.93  0.001400769    1.779    0.438
       234 -12.0035     42.1055    124.4893   6.6099658698e+01   4.6501853877e+01    0.2897267    0.2694192  69.81  0.001344991    1.008    0.008
       235 -12.4244     47.3784    141.7553   6.6576300880e+01   4.1288399648e+01    0.3313451    0.2369458  86.07  0.001342755    1.459    0.315
       236 -14.3699     49.2234    130.0974   6.4291522503e+01   4.4136877901e+01    0.7031735    0.5069464  36.00   0.00240071    1.319    0.242
       237 -14.4379     54.8889    127.4561   6.1808370684e+01   4.4092390686e+01    0.7538236    0.4276501  29.41 0.0005783822    1.720    0.419
       238 -11.3224    179.5595    142.9724   2.9811689379e+01   1.7602221555e+01    0.2092992    0.1786334  32.51  0.000520177    1.169    0.145
       239 -13.8676     93.9821    139.4921   5.0780179667e+01   3.4758757952e+01      0.49976    0.4491506  -9.97  0.001623397    1.279    0.218
       240 -14.0779    102.7299    133.7155   4.6909341196e+01   3.4539481024e+01    0.6948461    0.3306044  28.82  0.002003386    2.471    0.595
       241 -10.8855    150.8851    141.4876   3.5683806299e+01   2.3359629400e+01    0.2123328    0.1402441  40.21 0.0003599925    1.461    0.316
       242 -12.9064     53.2411    135.6798   6.3689497945e+01   4.2139921633e+01    0.4087166    0.2242811  45.56  0.001742186    1.726    0.421
       243 -13.3876     72.1521    138.4934   5.7644935277e+01   3.8678570022e+01     0.387705    0.2140877 -56.46  0.001619333    1.871    0.466
       244 -12.5791     68.8551    131.1582   5.7469313125e+01   4.1082229626e+01    0.2618429    0.1808541 -58.90 0.0004481615    1.492    0.330
       245 -13.8356     66.7888    136.5650   5.9127840598e+01   3.9996708602e+01    0.5269189    0.3337336  35.42  0.002191229    1.473    0.321
       246 -12.6421     59.9600    139.3848   6.1919248363e+01   4.0256007479e+01    0.3259545    0.2157242 -62.47 0.0003915535    1.550    0.355
       247 -13.6447     59.7286    134.3134   6.1198349386e+01   4.1612777401e+01    0.5621769    0.3543085  51.23  0.002514914    1.571    0.364
       248 -13.5605     39.8878    138.4297   6.8761311752e+01   4.3041907980e+01    0.4517631      0.37197 -53.13 0.0009648434    1.318    0.241
       249 -10.8252     33.4355    140.4626   7.1247228500e+01   4.3198987058e+01    0.1424348    0.1295518  67.19  6.94309e-05    1.011    0.011
       250 -11.2801    132.4977    138.4857   3.9565174444e+01   2.7621910446e+01    0.2158117    0.1466445 -36.25  -1.3707e-05    1.621    0.383
       251 -12.6686    129.4841    137.1556   4.0062512755e+01   2.8509918517e+01    0.4325543    0.3113773  11.57  0.001239695    1.819    0.450
       252 -13.7998     86.7292    137.5844   5.2698251453e+01   3.6504824077e+01    0.6100408     0.259753  46.24  0.001985916    2.346    0.574
       253 -13.2255     78.0066    132.3421   5.4558202788e+01   3.9305857497e+01    0.3721768    0.2277728 -55.15 0.0007637211    1.697    0.411
       254 -13.9996     83.1162    128.0509   5.1989767856e+01   3.9522512536e+01    0.5622575    0.3980883 -17.27  0.002296636    2.069    0.517
       255 -10.9731     20.4568    138.2235   7.5556348827e+01   4.5001700380e+01    0.1915301     0.119662  78.62 0.0006448652    1.566    0.362
       256 -13.4415    123.1829    134.8257   4.1242973085e+01   3.0281831989e+01    0.5630862    0.3631414  32.41 0.0004133908    1.579    0.367
       257 -12.2391    174.3183    134.4523   2.9015908561e+01   2.0113557868e+01    0.3879332    0.2612357 -10.13  0.001055095    1.996    0.499
       258 -11.3902    166.6644    136.6670   3.1097299809e+01   2.1195872254e+01    0.1506459    0.1101921   2.44 0.0007052163    1.737    0.424
       259 -11.0222    210.1566    134.1589   2.2442758230e+01   1.3596684331e+01    0.1657765    0.1509982 -55.50 0.0004149805    1.316    0.240
       260 -11.7086    196.1079    134.0901   2.4806522347e+01   1.6085289554e+01    0.2006705    0.1884539 -19.91 0.0005911356    1.076    0.071
       261 -13.1585     36.9839    132.4624   6.9068258483e+01   4.4944375569e+01    0.4822462      0.25364 -77.18  0.002064688    1.924    0.480
       262 -10.8100    160.2541    129.9922   3.0984714346e+01   2.3738134830e+01    0.2108001    0.1512556 -40.23 0.0002042669    1.398    0.285
       263 -10.9242    162.7396    128.3201   3.0057496477e+01   2.3552454296e+01    0.2023848    0.1684019  -0.61 0.0002188109    1.347    0.258
       264 -12.4797    123.0050    128.4920   3.9859347904e+01   3.1729846262e+01    0.4572124    0.2761536 -31.97  0.001827142    2.116    0.527
       265 -12.1466    125.1008    123.3716   3.8079299467e+01   3.2432279658e+01    0.3793519    0.2855932  75.70  0.001689835    1.744    0.427
       266 -12.0253    121.6795    124.3071   3.9247935126e+01   3.2939231173e+01    0.2455555    0.2253684  87.79 0.0007032035    1.190    0.159
       267 -11.8484    126.3080    132.3156   3.9831438942e+01   3.0208256421e+01    0.2575377    0.2291024  47.13 0.0006645611    1.089    0.082
       268 -12.4202    130.2784    128.4011   3.7872121971e+01   3.0250371922e+01    0.2652687    0.2618951  46.67  0.000326332    1.036    0.035
       269 -13.2555     69.1938    158.7725   6.1764739925e+01   3.4008288932e+01    0.3377529    0.2734227  -5.36 0.0004447939    1.549    0.355
       270 -12.8341     64.9507    126.9926   5.8087972665e+01   4.2766203347e+01    0.3021471    0.2171518 -65.74 0.0007755989    1.428    0.300
       271 -10.8699    216.7006    127.6867   2.0057224626e+01   1.3470210023e+01    0.1279292   0.09271448  -1.53  0.000279039    1.607    0.378
       272 -14.5897     77.8084    113.1828   5.0613546137e+01   4.4230755367e+01     1.292548    0.7275149   4.90  0.003668374    4.567    0.781
       273 -15.1207     78.5388    119.5645   5.1773941704e+01   4.2475673193e+01    0.8503488    0.7333976   6.07  0.003060792    1.340    0.254
       274 -13.9185     82.0151    115.9770   4.9756495190e+01   4.2769312333e+01    0.5026277      0.42465 -38.53  0.001142723    1.307    0.235
       275 -10.7912     31.5550    131.2367   7.0900023280e+01   4.5834629418e+01    0.1946735     0.125623 -61.30 0.0006858939    1.547    0.354
       276 -12.3172     26.0971    125.7469   7.2311288446e+01   4.7821818823e+01    0.3083989    0.2480394 -14.67 0.0009649743    1.491    0.329
       277 -13.7162     12.1891    134.0818   7.8137963412e+01   4.6733056994e+01     0.779421    0.2237577 -64.51  0.002809238    3.074    0.675
       278 -12.5411     50.2357    123.4650   6.2875902559e+01   4.5773679861e+01    0.2613191    0.2166618 -14.61 0.0008550119    1.452    0.311
       279 -14.1659     13.2757    119.4347   7.6587034611e+01   5.0535530267e+01    0.6587934    0.4180177  72.37  0.002334377    1.545    0.353
       280 -12.9958      9.0418    117.4805   7.8067274902e+01   5.1333242160e+01    0.4193822    0.2550773   6.33    0.0017619    1.899    0.473
       281 -12.4696    194.1307    121.8369   2.2464143733e+01   1.8483402276e+01     0.327462    0.2003803  55.74  0.001592186    1.919    0.479
       282 -10.7739    179.1314    121.8036   2.5200801914e+01   2.1429947978e+01    0.1868688    0.1597521   0.28 0.0004030583    1.262    0.208
       283 -10.9180    169.8146    122.4315   2.7197419990e+01   2.3208449923e+01    0.1909034     0.134419  33.23  0.000919567    1.527    0.345
       284 -12.8436    104.9565    121.3079   4.3445617619e+01   3.7059122646e+01    0.3563314    0.2651617  61.32 0.0008455163    1.486    0.327
       285 -11.6681    202.0338    120.5093   2.0832194939e+01   1.7208959480e+01    0.1899946    0.1330901  49.52  0.001024649    1.574    0.364
       286 -12.0519    100.1021    119.5123   4.4539657700e+01   3.8456820430e+01    0.2419891    0.1514789  39.41 0.0004870368    1.524    0.344
       287 -14.2635     52.2948    143.0022   6.5061420812e+01   4.0344717030e+01    0.9136138    0.3605246  55.05  0.003015614    3.167    0.684
       288 -13.5598     93.2942    116.7766   4.6098730384e+01   4.0455556907e+01    0.4809208     0.304482  59.28   0.00194627    1.867    0.464
       289 -11.7740     29.8730    116.8930   6.9789268305e+01   4.9850815995e+01    0.2082926    0.1941546 -88.64 0.0003689297    1.033    0.032
       290 -10.6512    143.2425    114.7286   3.1261273288e+01   3.0367272474e+01    0.2925403    0.1902076 -88.87  0.001025276    3.137    0.681
       291 -13.4117    114.1744    114.5461   3.9015674778e+01   3.6727045729e+01    0.5654513    0.3232085  32.05  0.001667043    1.976    0.494
       292 -14.1415     62.2147    112.2872   5.6234103936e+01   4.7044321165e+01    0.6215527    0.4818297 -46.62  0.001963909    1.372    0.271
       293 -12.6479     66.9739    114.0298   5.4791033990e+01   4.5841183005e+01    0.2961817    0.2176354 -40.02  0.001249415    1.537    0.349
       294 -13.5586    106.0191    112.0254   4.0845473623e+01   3.9029466901e+01    0.4252629    0.3910725  88.42  0.001207774    1.151    0.131
       295 -10.7333    159.5136    112.5491   2.6983323156e+01   2.7239135078e+01    0.1457524     0.143913   1.08 0.0001342504    1.008    0.008
       296 -12.7343      5.7910    111.7931   7.8912667406e+01   5.3035492585e+01    0.3770174    0.2371874  52.76  0.001921395    1.548    0.354
       297 -12.6922      3.7192    107.5207   7.9433832738e+01   5.4278996522e+01    0.4897315    0.1964288  28.72  0.002076465    2.391    0.582
       298 -11.2084     22.5153    110.9916   7.2021137691e+01   5.2103453094e+01    0.3260013     0.125889  40.82  0.001248733    2.452    0.592
       299 -11.4271    210.1612    108.8157   1.6955261602e+01   1.7533352615e+01    0.1771256    0.1492023  -0.82 0.0006168938    1.308    0.236
       300 -10.6491     36.0793    109.7963   6.6247839137e+01   5.1134870285e+01    0.1775111    0.1135435  27.67 0.0003892969    1.562    0.360
       301 -12.5960     76.9195    107.8359   4.9684033835e+01   4.5748065148e+01    0.3009951    0.2397949  66.30 0.0009845941    1.368    0.269
       302 -11.7624     70.4833    108.4770   5.2239827457e+01   4.6703756054e+01    0.1541096    0.1513078  41.85 0.0006146792    1.046    0.044
       303 -10.8237    139.6695    107.3096   3.0235363771e+01   3.2679674317e+01    0.1579619    0.1232057 -89.96 0.0007041439    1.667    0.400
       304 -11.7542    121.9121    106.9152   3.4813312218e+01   3.6751462344e+01    0.2559868    0.2300725 -71.52  0.001283788    1.191    0.160
       305 -11.2009     98.1573    107.1802   4.2111614510e+01   4.1805834200e+01    0.2193909    0.1841452  71.65 0.0003642597    1.305    0.233
       306 -12.5384     11.2361    112.8408   7.6811699418e+01   5.2433152684e+01    0.2487692    0.2147612  81.51 0.0008301304    1.066    0.062
       307 -12.8916     11.6189    105.0831   7.5923151629e+01   5.4486480683e+01    0.3475859    0.2532648 -46.83  0.001016043    1.423    0.297
       308 -12.4038    104.4942    103.2652   3.9029121623e+01   4.1393061405e+01    0.3562737    0.2633855 -12.86  0.001366809    1.971    0.493
       309 -11.8665    185.2756    101.2701   1.9190010787e+01   2.3717473936e+01    0.2295382    0.2218195  71.96 0.0003427778    1.100    0.091
       310 -12.7787     78.8416    101.4234   4.7376541581e+01   4.7011858808e+01    0.2941911    0.2814958  89.05 0.0006201273    1.059    0.055
       311 -12.1132     55.8752    101.1879   5.6372113703e+01   5.0916587732e+01    0.2841863    0.2128816 -58.03 0.0004930513    1.333    0.250
       312 -11.9389     57.4808     97.5052   5.4858401482e+01   5.1639805830e+01    0.3169505    0.2534373  63.20 0.0005954674    1.343    0.255
       313 -12.5454    174.0320     99.6507   2.0813836880e+01   2.6420992336e+01    0.4262458    0.1979586 -28.95  0.001576983    2.635    0.620
       314 -13.5578     93.8057     98.7822   4.1321103745e+01   4.4703952013e+01    0.6559942    0.3562528  54.74  0.002420535    2.111    0.526
       315 -12.7636      5.4780     99.5003   7.8040301450e+01   5.6324245437e+01    0.3686538    0.2357142  46.85  0.001310981    1.576    0.365
       316 -11.3944    208.9791     99.7275   1.5072887834e+01   1.9157527521e+01    0.1741527    0.1693126 -50.38 0.0003877515    1.098    0.090
       317 -11.1522    194.3183    100.6700   1.7532800380e+01   2.1933514465e+01    0.1413838    0.1028737 -65.93  0.000661199    1.686    0.407
       318 -12.0739     85.8002    100.2075   4.4513466163e+01   4.5980070038e+01    0.2396704    0.2183754  68.03  0.001205575    1.115    0.103
       319 -11.5435    162.5083     99.5079   2.3035329159e+01   2.9017200458e+01    0.1478934    0.1419901 -68.91 -5.65323e-05    1.046    0.044
       320 -12.2906    178.6572     96.6855   1.9218595840e+01   2.5919906352e+01    0.3075543    0.2111271 -55.05  0.001488313    1.567    0.362
       321 -14.5744     78.8385     92.8124   4.5064023792e+01   4.9141076429e+01    0.8116664    0.5471526  67.28  0.002477993    1.944    0.486
       322 -13.9368     74.4842     90.6535   4.6144741451e+01   5.0494923876e+01    0.5007346    0.3949501  71.24  0.002339901    1.476    0.323
       323 -11.7317     62.3188     97.2945   5.2801541719e+01   5.0936842171e+01    0.1555921    0.1204582 -19.69 0.0002631167    1.608    0.378
       324 -11.1795    167.6743     96.6862   2.1269943524e+01   2.8361618390e+01    0.1482409    0.1162204  12.58 0.0003999454    1.666    0.400
       325 -10.9103    114.2723     97.9123   3.4550990112e+01   4.0445888205e+01    0.2860556    0.1831881  89.00 0.0009640497    3.029    0.670
       326 -10.9132    117.1589     91.6179   3.1895755934e+01   4.1149456356e+01    0.2377054    0.1450691  38.06  0.000950606    1.748    0.428
       327 -10.8847     41.6941     91.6376   6.0432897089e+01   5.5354284457e+01    0.2068663    0.1294349  37.38 0.0005186045    1.576    0.365
       328 -10.5418     12.6140     91.1960   7.3930681170e+01   5.8143016072e+01    0.2001499    0.1120126 -62.83 0.0009321867    1.616    0.381
       329 -10.6656     28.5106     90.5230   6.6331792850e+01   5.7083914763e+01    0.1424161    0.1360909 -63.96  0.000207917    1.024    0.023
       330 -12.9923      3.4001     88.1055   7.7934011750e+01   5.9445101077e+01    0.4712259     0.257574  83.93   0.00220408    1.838    0.456
       331 -10.6227    111.3661     89.2880   3.2914481752e+01   4.2994130290e+01    0.1631122    0.1271701  13.85 0.0007023101    1.701    0.412
       332 -11.2849    103.6606     89.3170   3.5320413402e+01   4.4746903635e+01    0.1666178    0.1261295  82.53  0.000439252    1.706    0.414
       333 -11.7939    171.2052     88.1760   1.8373785614e+01   2.9049580070e+01    0.2015601    0.1666797 -70.83 0.0003814329    1.310    0.236
       334 -11.7210    125.2070     87.4112   2.8410434341e+01   4.0126020937e+01    0.3062674    0.2257773 -41.28 0.0008099446    1.410    0.291
       335 -12.8486     55.0713     85.3830   5.2857875772e+01   5.5131888438e+01    0.5293218    0.5098648 -29.80  0.002155982    1.068    0.064
       336 -11.3201     52.7273     79.9891   5.2450188045e+01   5.6854829671e+01    0.2513849    0.2358482 -77.01 0.0004744255    1.098    0.089
       337 -12.2969     56.2097     78.0432   5.0281462899e+01   5.6796233911e+01    0.3372264     0.221447  25.49 0.0009067632    1.607    0.378
       338 -10.7888     11.8119     86.8032   7.3753859396e+01   5.9361759577e+01    0.1912525    0.1485767  56.29  0.000440284    1.336    0.251
       339 -12.2210    134.5210     84.1000   2.5030265678e+01   3.8534311587e+01    0.2752878    0.2591677  57.09 0.0003658127    1.048    0.046
       340 -10.2812    236.7227     83.7226   8.0335787577e+00   1.6301684622e+01    0.1107935   0.08997837  -2.60 0.0001766505    1.498    0.333
       341 -11.2856    208.2810     83.6827   1.1436773895e+01   2.1719926192e+01    0.1354772   0.09214187 -59.18 0.0001903662    1.579    0.367
       342 -11.5387     10.1652     82.1430   7.3952718461e+01   6.0691398768e+01    0.2325727    0.1834424 -72.47  0.001300737    1.168    0.144
       343 -12.7138     88.5549     79.5551   3.7437090204e+01   5.0272841731e+01    0.4517646     0.274181 -41.66  0.001682283    1.773    0.436
       344 -12.6486    155.6120     81.2207   1.9475835554e+01   3.3937158835e+01    0.3640349    0.1979602  71.16 0.0009217672    2.469    0.595
       345 -12.3439    113.0952     78.7383   2.9136348538e+01   4.4807229304e+01    0.4151072    0.2939958 -89.84  0.001699297    2.015    0.504
       346 -12.1615     65.5412     79.9848   4.6709586165e+01   5.4737501739e+01    0.2366197    0.1519677 -53.93 0.0007126885    1.586    0.369
       347 -10.6710     28.6681     80.3562   6.4281466201e+01   5.9761306361e+01    0.1559009    0.1019746  60.82 0.0007043835    1.791    0.442
       348 -10.9951      4.6973     79.9876   7.6443413694e+01   6.1529141414e+01    0.1933989    0.1618222 -79.37 0.0005259119    1.104    0.094
       349 -11.3597      8.8436     77.8686   7.4050083140e+01   6.1888414447e+01    0.2110004    0.1680431 -50.90 0.0004545832    1.189    0.159
       350 -11.4149    161.3347     77.3221   1.7253481486e+01   3.3232237422e+01    0.1505901    0.1174471  20.41 0.0007050321    1.707    0.414
       351 -12.1367     74.9958     76.4687   4.1644768585e+01   5.3792599482e+01    0.2821321     0.221648 -71.85 0.0006150732    1.485    0.327
       352 -12.2656    184.0074     75.3531   1.2843670635e+01   2.8224405670e+01    0.2520175    0.1943613 -39.50 0.0002260466    1.223    0.183
       353 -10.8715    150.6680     75.0610   1.8708562892e+01   3.6229592789e+01    0.2047748    0.1915072 -54.75 0.0004675199    1.065    0.061
       354 -11.7111    116.4820     75.0046   2.6959481646e+01   4.4735562740e+01    0.3179205    0.2140875  65.27  0.001352184    1.621    0.383
       355 -11.9407    105.0957     73.2929   2.9778454902e+01   4.7839571035e+01    0.3496582     0.266278  65.58 0.0009761658    1.392    0.282
       356 -11.9211      2.4282     72.6054   7.6762812668e+01   6.3549046640e+01    0.3695693    0.1702435 -47.36  0.001656104    2.015    0.504
       357 -10.3919    129.6720     73.7284   2.3054803578e+01   4.1708592440e+01    0.1551198    0.1217938  25.82 0.0003135984    1.583    0.368
       358 -10.9082    124.2009     72.1221   2.3933059158e+01   4.3379762111e+01    0.2142299    0.1800527 -84.76 0.0003990001    1.303    0.232
       359 -12.5532     68.4807     72.4685   4.3052620099e+01   5.5985140769e+01    0.2542799     0.198745  44.59 0.0006367136    1.252    0.202
       360 -12.6357     70.2721     69.2940   4.1206660014e+01   5.6369860331e+01    0.3684211    0.2837992  27.68 0.0008771803    1.360    0.265
       361 -10.8735    210.9851     75.4762   9.1475365201e+00   2.2367136772e+01    0.1732884    0.1062996 -77.51 0.0005026785    2.300    0.565
       362 -12.3974    154.3368     68.5501   1.6056553331e+01   3.6430257938e+01    0.2735156    0.2610391 -68.17 0.0001897237    1.040    0.039
       363 -12.4846     61.6808     69.3150   4.5014791994e+01   5.7972909747e+01    0.2314373    0.1950636  32.27 0.0003133888    1.167    0.143
       364 -12.7288     58.4394     65.9376   4.5372221720e+01   5.9332620907e+01    0.4734815     0.269132  51.10  0.001452167    2.020    0.505
       365 -12.6281     54.9110     68.9186   4.8059825895e+01   5.9227585320e+01    0.2928333    0.2225113  19.01 0.0006529406    1.417    0.295
       366 -12.2158     49.0074     66.8443   5.0293910290e+01   6.0659762536e+01    0.5728703    0.4075096  -8.13  0.002616492    1.822    0.451
       367 -11.5443     46.7308     62.8338   5.0140883012e+01   6.1963161827e+01    0.2587964    0.2048855  29.12 0.0006438562    1.251    0.201
       368 -11.6134      8.8058     66.9857   7.2437351545e+01   6.4723618612e+01    0.2861255    0.1888814  29.04  0.001135281    1.600    0.375
       369 -12.9805     12.3515     60.0748   6.9073165027e+01   6.6291585545e+01    0.4751747    0.2649431 -48.50  0.002299581    1.632    0.387
       370 -12.3694     41.7454     57.0131   5.0827486424e+01   6.4063869627e+01    0.4962934    0.2163319 -54.08  0.001825453    2.234    0.552
       371 -12.6884     37.1019     55.2205   5.2837271487e+01   6.5118566951e+01    0.5223842    0.2773144 -44.44   0.00152126    1.876    0.467
       372 -11.4960    160.5011     57.4906   1.1660852923e+01   3.6649507582e+01     0.149345    0.1346518 -75.62  0.000810327    1.038    0.037
       373 -11.4494    154.1378     57.1766   1.2672177279e+01   3.8311392999e+01    0.2150348    0.1657522 -70.24 0.0005049306    1.348    0.258
       374 -12.4824    111.4193     56.2219   2.1923249206e+01   4.9525598734e+01    0.3480825     0.208692 -51.44 0.0009693471    1.859    0.462
       375 -13.7736    115.2391     53.6260   1.9945744276e+01   4.8991819872e+01    0.5932792    0.4410065 -70.93 0.0009213527    1.590    0.371
       376 -11.5429    179.7230     56.0298   8.2964914465e+00   3.2135969767e+01    0.2212829     0.191105  82.79 0.0003513879    1.142    0.124
       377 -12.8013     22.9319     54.8816   6.1267430871e+01   6.6781516602e+01    0.3025299    0.2862708 -44.92 0.0008048188    1.041    0.039
       378 -11.0795    197.3910     54.3065   5.5830150315e+00   2.8268948940e+01    0.2283195    0.1475575 -78.87 0.0006673908    1.752    0.429
       379 -12.0217    109.0384     51.7177   2.0922251947e+01   5.0915750406e+01    0.2806612    0.2083162  62.17 0.0007255143    1.285    0.222
       380 -11.8548    174.5410     51.1205   7.6537357441e+00   3.4091881695e+01    0.2711091    0.1885848 -83.83 0.0009073538    1.543    0.352
       381 -13.4299     99.0445     48.8008   2.2733942290e+01   5.3957647663e+01    0.6986192    0.4027041 -77.18  0.002143271    4.063    0.754
       382 -12.9450     30.1747     49.9410   5.5168826728e+01   6.7214818263e+01    0.3690863    0.2680359  45.92   0.00154222    1.544    0.352
       383 -11.5276     19.0970     48.4029   6.1833088831e+01   6.8691485521e+01     0.253717    0.1646935 -50.80 0.0006398738    1.410    0.291
       384 -12.1148     32.2210     56.4158   5.6092926876e+01   6.5438671520e+01    0.3147419     0.189177  36.92  0.001055591    1.701    0.412
       385 -11.7674    142.7975     43.2123   1.0268017638e+01   4.3343291636e+01    0.3348359   0.08499949 -38.36  0.001025177    3.505    0.715
       386 -11.1358    184.0660     43.3062   4.2548159658e+00   3.2845497977e+01    0.1898841    0.1616117 -77.91 0.0003305328    1.080    0.074
       387 -11.4071    155.0571     41.0920   7.5388334384e+00   4.0417715023e+01    0.2155852    0.1943801 -79.60 0.0003520287    1.010    0.010
       388 -12.8230     34.4527     40.2721   4.8686591826e+01   6.8855838023e+01    0.4210094    0.2405202  21.84  0.001931224    1.841    0.457
       389 -12.1704    120.8383     39.4060   1.3331597260e+01   4.9749266338e+01    0.3040248    0.2499031 -85.43  0.001024434    1.242    0.195
       390 -10.7793    113.9528     38.9815   1.4772576109e+01   5.1648044866e+01    0.1824931    0.1661609  71.47 0.0003236706    1.005    0.005
       391 -11.4412    102.2923     37.6748   1.7274735433e+01   5.4915408683e+01    0.1538437    0.1144018 -73.59 0.0004462758    1.617    0.382
       392 -11.6161     80.5896     36.9508   2.3915155838e+01   6.0486544947e+01    0.2649318    0.2299014 -74.96 0.0009648948    1.341    0.255
       393 -12.2363     87.4857     35.4827   2.0833793285e+01   5.9031595745e+01    0.3360347    0.2196989 -86.84  0.001346926    2.432    0.589
       394 -11.4712    101.0248     33.9895   1.6086453178e+01   5.5787132527e+01    0.1878309    0.1640615  63.25  0.000411336    1.045    0.043
       395 -11.4003     42.6569     33.9151   4.0584146149e+01   6.8912387721e+01    0.1916487    0.1807041  -8.79 0.0006516002    1.059    0.056
       396 -12.5828     33.4971     33.4912   4.6233089996e+01   7.0418814501e+01    0.2806046    0.2402562 -33.35 0.0006296568    1.144    0.126
       397 -12.4726     30.3326     31.6782   4.7534201950e+01   7.1229907109e+01    0.2637047    0.1865958  28.82  0.001044688    1.372    0.271
       398 -11.1239      5.0205     34.3196   6.7933325121e+01   7.2971820715e+01    0.1748815    0.1534066 -20.17 0.0003965334    1.083    0.077
       399 -13.2317    174.4201     32.1895   2.2753285478e+00   3.6620285375e+01    0.2979383    0.2575378 -69.13 0.0006400534    1.019    0.018
       400 -11.5424     53.0167     33.5040   3.4491786254e+01   6.7113756347e+01    0.2161001    0.1333583  40.36 0.0004729142    1.527    0.345
       401 -11.3332     14.8493     33.1574   5.9750866364e+01   7.2597254318e+01    0.1834361    0.1726916  27.37  0.000350214    1.189    0.159
       402 -10.9114    141.4782     31.9838   6.7234375637e+00   4.5208354490e+01    0.2041465    0.1450198 -32.12 0.0003715739    1.506    0.336
       403 -11.2256    106.4058     32.2142   1.3930978542e+01   5.4616848098e+01    0.2019381    0.1365289 -45.79 0.0005315736    1.587    0.370
       404 -11.2009     24.3113     31.3238   5.1725601395e+01   7.2059843301e+01    0.1426334   0.09364905 -22.06 0.0003016279    1.655    0.396
       405 -12.8698     45.5303     26.2347   3.4814050289e+01   6.9826509190e+01     0.422678    0.3152513 -62.09  0.001671736    1.849    0.459
       406 -12.0435     67.4868     28.0646   2.4779507664e+01   6.4962916348e+01    0.2129462    0.1439704 -36.02  0.001031578    1.597    0.374
       407 -10.8906     19.3746     28.1070   5.4051140026e+01   7.3285676896e+01    0.1759153    0.1258276 -71.06  0.000933611    1.745    0.427
       408 -12.5882     85.5698     24.4510   1.6331614833e+01   6.1098243908e+01    0.3167033    0.2545906  66.23 0.0007720177    1.180    0.152
       409 -12.0345     89.5323     21.9859   1.3959853447e+01   6.0397454349e+01    0.2859902    0.2079685  35.01 0.0009275536    1.482    0.325
       410 -11.5775     74.6410     24.7287   2.0213983149e+01   6.3773495639e+01    0.2559308    0.2128579  56.69 0.0005389083    1.120    0.107
       411 -11.0342      1.6970     25.5618   6.8104877200e+01   7.5138467543e+01    0.1567203    0.1141756  19.45 0.0006451299    1.456    0.313
       412 -10.9324    124.4949     24.5188   6.9791833477e+00   5.0719645342e+01    0.1491012     0.132189  83.74 3.583189e-05    1.013    0.013
       413 -12.1438     69.9282     21.6712   2.0418956978e+01   6.5326615125e+01    0.2357993    0.1946958  -4.43 0.0005761811    1.371    0.271
       414 -11.1886     98.6469     20.0870   1.0645198108e+01   5.8229416731e+01    0.1964151    0.1871675  42.05 0.0008389294    1.124    0.110
       415 -10.9346    131.9472     17.2951   3.0523573960e+00   4.9503704307e+01    0.2005733    0.1682174  80.30 0.0004071114    1.053    0.051
       416 -10.5812    124.3936     16.4623   3.9315396944e+00   5.1650901636e+01     0.144061    0.1276149  89.49 6.092976e-05    1.031    0.030
       417 -11.6893     76.3698     15.1825   1.4617009902e+01   6.4577167553e+01    0.2342205     0.162464  65.52 0.0004966316    1.368    0.269
       418 -10.4609    140.2935     11.7248   3.5992470073e+02   4.7811954138e+01    0.1448858   0.09403696 -67.15 0.0001728964    1.523    0.343
       419 -11.9456    120.1031    248.8862   5.9603034637e+01   8.7120005860e+00     0.318478     0.134209  24.99 0.0009158126    2.051    0.512
       420 -11.7641    114.6406    248.1397   6.0694708177e+01   9.5215703099e+00     0.289216    0.1031576 -51.13  0.001364592    3.508    0.715
       421 -12.3026    100.3627    246.9296   6.3675166007e+01   1.1523776427e+01    0.3567939     0.206141  44.74  0.002086579    1.517    0.341
       422 -11.2108    215.0062    247.5279   4.1127947884e+01  -2.5068688712e+00    0.1528322    0.1102881  -1.55 0.0003150816    1.119    0.106
       423 -11.4523    178.1617    247.1894   4.7676745697e+01   1.7015599156e+00    0.1728712    0.1159687  11.15 0.0003619246    1.192    0.161
