#   1 NUMBER                 Running object number                                     
#   2 MAG_AUTO               Kron-like elliptical aperture magnitude                    [mag]
#   3 X_IMAGE                Object position along x                                    [pixel]
#   4 Y_IMAGE                Object position along y                                    [pixel]
#   5 X_WORLD                Barycenter position along world x axis                     [deg]
#   6 Y_WORLD                Barycenter position along world y axis                     [deg]
#   7 A_WORLD                Profile RMS along major axis (world units)                 [deg]
#   8 B_WORLD                Profile RMS along minor axis (world units)                 [deg]
#   9 THETA_WORLD            Position angle (CCW/world-x)                               [deg]
#  10 FWHM_WORLD             FWHM assuming a gaussian core                              [deg]
#  11 ELONGATION             A_IMAGE/B_IMAGE                                           
#  12 ELLIPTICITY            1 - B_IMAGE/A_IMAGE                                       
         1 -11.8084     76.6809     21.6665   8.4383516519e+01   6.2397868407e+01    0.5232138    0.3759075  41.42  0.001890202    1.413    0.292
         2 -11.7935     88.7667     13.6368   7.6219523420e+01   6.1021288285e+01    0.6481488    0.4024782 -38.02  0.003162476    1.812    0.448
         3 -11.3215     13.4387     20.7138   1.1512579517e+02   7.0770506128e+01    0.3063338    0.2508368 -59.87 0.0009056923    1.322    0.244
         4 -11.1525     13.7994     15.9768   1.1307933877e+02   7.1685137637e+01    0.3347283    0.1983295  18.53  0.001435137    1.886    0.470
         5 -11.4795     41.0128     19.5136   9.9374673684e+01   6.8408635522e+01    0.6788389    0.3535252 -31.93  0.003408954    1.748    0.428
         6 -11.0614     22.2043      9.1897   1.0490318713e+02   7.2281168713e+01    0.3407057    0.2088857  -6.02  0.001967855    1.709    0.415
         7 -12.1275     30.2881      7.3142   9.9090657360e+01   7.1769905935e+01    0.6237313    0.3813275 -24.08  0.002802689    1.436    0.304
         8 -11.6205     35.0261     12.9532   9.9351732097e+01   7.0272992558e+01    0.4658104    0.3004808 -42.42  0.002387217    1.477    0.323
         9 -11.9511     40.2005      8.4410   9.4151529716e+01   7.0361361010e+01    0.5307364    0.3226518 -31.33  0.001226915    1.434    0.303
        10 -10.0433    175.4838     20.5230   5.9796475077e+01   3.8516000870e+01    0.1435098     0.137063  59.63 6.374757e-05    1.001    0.001
        11 -10.5038    157.2589     12.3444   5.9814322311e+01   4.4169373307e+01    0.3422047    0.1996394 -21.76 0.0008555555    1.809    0.447
        12 -11.0557    100.0638     18.9290   7.5148046294e+01   5.7868384432e+01    0.4048331    0.2914201 -55.73  0.001583246    1.979    0.495
        13 -10.3181     62.5453     13.7191   8.6189113104e+01   6.6128894766e+01    0.2428249    0.1195628 -27.43 0.0007261287    1.956    0.489
        14 -10.3606    119.1696     12.0638   6.7057666854e+01   5.4085673851e+01    0.2418949    0.1878431  48.93 0.0003081647    1.171    0.146
        15 -11.8896     55.5137      6.0049   8.5162366556e+01   6.8400949415e+01    0.5541576    0.3300213 -34.35  0.002368711    1.687    0.407
        16 -11.1637     57.7065      2.3185   8.2074353227e+01   6.8500293959e+01    0.3619008    0.2729296  54.66 0.0005725108    1.789    0.441
        17 -10.4982      2.7646      2.6684   1.1450036029e+02   7.4897419442e+01    0.5986916    0.1817437  10.89  0.002592041    4.040    0.752
        18 -11.3731      4.4008      9.9050   1.1648535380e+02   7.3429196136e+01    0.6045376    0.2882836 -27.38 0.0008039137    1.946    0.486
        19 -11.4581      2.3344      6.1666   1.1632016152e+02   7.4256271948e+01    0.2619011    0.2041136 -21.66 0.0009118891    1.178    0.151
        20 -11.0367     14.2478      8.6012   1.0958557956e+02   7.3055714740e+01    0.3645931    0.1991762 -19.24  0.001346587    1.842    0.457
        21 -11.5118     10.9676      6.4741   1.1070881015e+02   7.3685660428e+01    0.3549953    0.3179168  63.25   0.00238507    1.795    0.443
        22 -11.5883    150.7465      7.3303   5.9062181295e+01   4.6361939976e+01    0.4688287    0.3049644  25.28  0.001817605    1.715    0.417
        23 -11.2511    210.1679      7.1828   5.1709580739e+01   3.0911315085e+01    0.2358088    0.2171403 -78.51  0.001099571    1.025    0.024
        24 -11.2653    194.6628      4.6871   5.2527700912e+01   3.5043599614e+01    0.3306897     0.174966 -46.38  0.001505409    1.937    0.484
        25 -10.9807     70.1587      6.9090   7.9451293323e+01   6.5642811839e+01    0.7491688    0.2928791  52.08  0.003008839    2.830    0.647
        26 -10.1996     73.5010      5.4632   7.7402634078e+01   6.5160102312e+01     0.307864    0.2115339  48.92  0.001633547    1.510    0.338
        27 -10.9106    144.9366      5.6782   5.9403535908e+01   4.8044139084e+01    0.2368346    0.1895032  11.86 0.0006086131    1.331    0.249
        28 -10.2871    235.3348      4.5512   4.8918182524e+01   2.5157376114e+01    0.2019467    0.1513773  11.09 0.0008522948    1.700    0.412
        29 -10.7705    119.7833      4.5290   6.3714025346e+01   5.4656425035e+01    0.4832918    0.1694247  49.18  0.001387467    2.370    0.578
        30 -10.2520    217.8308      3.8202   5.0120308768e+01   2.9342251329e+01    0.1864051    0.1374308 -61.55 0.0003839127    1.323    0.244
        31 -11.7559     80.1866      1.7945   7.3085533478e+01   6.4185576428e+01    0.4509579    0.2322551  43.90  0.001011413    1.719    0.418
        32 -11.0622    130.3488      3.8148   6.1278313887e+01   5.2019658641e+01     0.301604    0.1836707  55.90  0.001438091    1.441    0.306
        33 -10.0133    230.6113      3.2463   4.8949034032e+01   2.6364394338e+01     0.169812    0.1207303  -9.31 0.0006860839    1.621    0.383
        34 -10.4165    172.6211      3.0669   5.4516258570e+01   4.0928543597e+01    0.2367492    0.1854446  89.26 0.0005065737    1.290    0.225
        35  -9.7478    176.6143      2.2491   5.3772686311e+01   3.9944658520e+01    0.2261034    0.2037776  67.24  0.001322789    1.033    0.032
        36 -11.1004    160.3660      2.2458   5.5835001565e+01   4.4244320724e+01    0.3182345    0.2737623  88.28  0.001793439    1.179    0.152
        37  -9.9530    112.8965      2.9567   6.4558945947e+01   5.6515715932e+01    0.2185621     0.195511  44.24  0.001269359    1.066    0.062
        38 -10.8325     19.1828      2.7065   1.0341784346e+02   7.3689519791e+01    0.3309081    0.1923265   7.54  0.001663718    1.829    0.453
        39 -10.0179    100.0790      1.7600   6.7153284156e+01   5.9722418048e+01    0.1964353    0.1923867 -61.04  0.000445289    1.263    0.208
        40 -10.5320     92.5759      9.6234   7.3071006280e+01   6.0653577848e+01    0.2770024    0.2032374  28.12 0.0005637177    1.243    0.196
        41  -9.8048     49.4422      1.9470   8.5699592656e+01   6.9937044381e+01    0.2966664    0.1613321  35.47  0.001137513    1.781    0.439
        42  -9.6399     24.7640      2.5415   9.9780205415e+01   7.3160964936e+01    0.1422448    0.1092367  28.54 0.0005572874    1.566    0.361
        43  -9.4866     67.2480      1.4311   7.7585823968e+01   6.6845912354e+01    0.1599831    0.1235371  48.25 0.0004232512    1.432    0.302
        44 -11.4071     23.3207    120.9506   1.3098028093e+02   4.7456087022e+01    0.4980422    0.2145526  86.28  0.001350075    2.821    0.646
        45 -11.9949      4.8057    240.5629   1.4170439820e+02   2.5538204338e+01     0.415278    0.1470996  49.60  0.002772873    1.843    0.457
        46 -13.0647      3.4638    248.3927   1.4212904963e+02   2.4440984182e+01     1.651909    0.2975356  30.60  0.006900173    5.974    0.833
        47 -12.3312     10.7996    244.7032   1.4087241741e+02   2.4371165929e+01     0.271339     0.171851  59.48  0.001610194    1.084    0.077
        48 -13.5939     10.1483    229.6996   1.4049386707e+02   2.6825797567e+01     0.729099    0.3836819  64.25  0.005394131    1.427    0.299
        49 -10.7643     65.6244    111.4114   1.1696121638e+02   4.5445074382e+01    0.3565452    0.1504416 -54.44  0.001497946    2.142    0.533
        50 -10.1502    249.0015    111.9815   7.3805556200e+01   9.3013696871e+00    0.1692536     0.140894 -11.12  0.001009729    1.027    0.026
        51 -10.8543      4.1673    109.2119   1.3534076772e+02   5.1375614818e+01    0.2679663    0.1497718  25.57  0.001597442    2.079    0.519
        52  -9.9779     58.2091    107.7796   1.1859568431e+02   4.7204285133e+01    0.1825323    0.1519398 -28.67  0.001059609    1.353    0.261
        53 -10.6656     12.8444    108.1842   1.3269236759e+02   5.1116107606e+01    0.1672242    0.1235978 -52.24  0.001083939    1.351    0.260
        54  -9.2317     35.4530    130.5182   1.2864923745e+02   4.4250716598e+01    0.1222054    0.1061401 -72.57 0.0001420873    1.099    0.090
        55  -9.8812     93.0040    105.0098   1.0716843712e+02   4.2920276864e+01    0.2405448     0.176708 -17.89  0.001144366    1.745    0.427
        56  -9.8438    113.5235    102.4801   1.0044306502e+02   3.9808688701e+01    0.1488664    0.1440231  -4.12 0.0001039554    1.010    0.009
        57 -10.9999     57.6284    101.5054   1.1759462982e+02   4.8749276032e+01     0.331451     0.234593  42.10  0.001620216    1.518    0.341
        58  -9.7376     24.7187    101.6991   1.2826859442e+02   5.1826205040e+01    0.1240911    0.0800108 -46.85 0.0002470748    1.548    0.354
        59 -10.9061     27.4869     91.1679   1.2582731837e+02   5.4094839574e+01    0.4979898    0.2380564  46.76  0.002388079    2.475    0.596
        60 -11.2475     11.2105     87.9448   1.3090226754e+02   5.5903270124e+01    0.5958273    0.1987071 -71.72  0.002258052    2.376    0.579
        61 -10.0935     17.6364     88.5483   1.2879908946e+02   5.5388098658e+01    0.3774627    0.2267951 -25.17   0.00169931    2.094    0.522
        62 -10.5358     20.5091     99.5135   1.2932429212e+02   5.2635704429e+01    0.3129438   0.06157738 -62.41  0.001154472    3.256    0.693
        63 -10.9138     18.7191     93.8451   1.2916196162e+02   5.4080360418e+01    0.4360196    0.2361974 -54.17   0.00205994    1.609    0.378
        64 -10.0887     62.1296     98.6372   1.1554366334e+02   4.8879707364e+01    0.2369794    0.1795989 -72.32  0.001291221    1.336    0.252
        65  -9.4257    129.5012     97.5203   9.4619232619e+01   3.7632314929e+01    0.1528901    0.1473377   8.29 5.294028e-05    1.014    0.013
        66  -9.7523    101.0814     96.2352   1.0250762303e+02   4.3485778754e+01    0.3434598    0.2054788 -65.30  0.001387754    2.286    0.563
        67 -10.6081     78.9320     94.9743   1.0920070267e+02   4.7429478779e+01    0.2088719    0.1948676 -39.32 0.0003158747    1.032    0.031
        68 -10.8114     58.5289     91.4405   1.1521387616e+02   5.1006203669e+01    0.2802912    0.2252828 -18.54 0.0008567927    1.424    0.298
        69 -10.6374     76.4482     89.2209   1.0860008675e+02   4.9116183922e+01    0.2510881    0.2346186 -35.56 0.0005015029    1.028    0.027
        70 -10.2426     43.3973     89.1897   1.1998133442e+02   5.3184694137e+01    0.4454613    0.1667322  47.06  0.001667441    3.630    0.725
        71  -9.8030      1.5849     89.6963   1.3429961314e+02   5.5968819874e+01    0.2127305   0.08631334 -70.74 0.0006128143    1.868    0.465
        72 -10.0667    107.6863     89.3147   9.8601897330e+01   4.3758321102e+01     0.148147    0.1217906  86.62 0.0006370521    1.640    0.390
        73 -11.3613     98.8260     89.1107   1.0128145440e+02   4.5454878376e+01    0.2727195    0.2292585  14.76  0.001420641    1.279    0.218
        74  -9.5173     33.0055     88.0902   1.2340867761e+02   5.4382551032e+01    0.1578976    0.1152115 -65.34 0.0004101128    1.175    0.149
        75  -9.5840    124.1617     86.8557   9.3056981531e+01   4.0931964466e+01    0.2171943    0.1811828   1.55 0.0007838695    1.314    0.239
        76 -11.3862     54.7582     84.9420   1.1507658582e+02   5.2968755165e+01    0.3185707    0.2405259 -78.55  0.001742011    1.464    0.317
        77  -9.5655     72.0767     84.6041   1.0891050127e+02   5.0806073611e+01    0.3235252    0.1503884 -34.98  0.001192492    2.841    0.648
        78  -9.9601     25.3308     84.8143   1.2555141914e+02   5.5747068821e+01    0.2120096     0.156288 -89.56 0.0006226258    1.389    0.280
        79 -10.3382      3.7869     83.3966   1.3287408760e+02   5.7322547965e+01    0.2391158    0.1609662  68.68 0.0008258109    1.607    0.378
        80  -9.3494     78.2389     83.3932   1.0646994789e+02   5.0167450388e+01    0.1934379    0.1316781  45.70 0.0004204101    1.633    0.388
        81 -11.4150     64.1010     79.7741   1.1047402564e+02   5.3005590467e+01    0.5164671    0.3257643 -58.27  0.002324537    1.518    0.341
        82 -11.6496     56.5420     75.3903   1.1210834481e+02   5.4963749015e+01    0.5063272    0.3049319  18.48  0.001586141    1.991    0.498
        83  -9.7072    250.2681     81.0078   6.6289094768e+01   1.3152410844e+01    0.1790292    0.1052353 -27.01 0.0008462981    1.506    0.336
        84 -10.3150     89.1785     80.3903   1.0192806886e+02   4.9057151271e+01    0.2757321    0.2103405 -56.13 0.0007573468    1.374    0.272
        85  -9.4383    124.4796     79.0078   9.0590285525e+01   4.2427226635e+01     0.209051    0.1342338 -62.87  0.000623536    2.365    0.577
        86 -10.4510    176.8368     77.2073   7.7320733571e+01   3.0422740792e+01    0.3496346    0.2437389  39.33  0.001509531    1.439    0.305
        87  -9.9854      2.9834     78.4697   1.3256483953e+02   5.8492895315e+01    0.1419828      0.11888   6.62 4.251583e-06    1.495    0.331
        88 -10.2900     15.6618     75.9879   1.2761853005e+02   5.8437071164e+01    0.2110286    0.1557253  58.54  0.001310388    1.589    0.371
        89  -9.4140    160.5203     75.0165   8.0174950315e+01   3.4769658925e+01    0.2264903    0.1522743 -32.35 0.0003234296    1.491    0.329
        90  -9.1043     74.7488     75.6616   1.0553557709e+02   5.2425614810e+01    0.1449728     0.101618 -26.88 0.0001983678    1.568    0.362
        91  -9.4805     70.2960     75.3480   1.0704344749e+02   5.3151886826e+01    0.1483207     0.101439 -25.06 0.0006355762    1.677    0.404
        92 -10.3199     32.1995     73.1695   1.2083809356e+02   5.7942481669e+01    0.5389557    0.2008037  42.35 0.0002904494    3.396    0.706
        93 -10.8520     35.5488     71.9894   1.1929008325e+02   5.7932693465e+01     0.401895    0.2871656 -61.60  0.001607449    1.220    0.180
        94 -10.7523      4.1256     74.0230   1.3158577763e+02   5.9468673281e+01    0.4102534    0.1915084  20.26  0.002051592    2.559    0.609
        95  -9.0631    224.2840     74.2957   6.8210243591e+01   1.9606241101e+01    0.1416879    0.1049095  15.32 0.0002523648    1.543    0.352
        96  -9.5328    136.4845     74.4583   8.5877242991e+01   4.0596692960e+01    0.1556191    0.1481262  11.11 0.0001978153    1.013    0.012
        97  -9.2212     96.2229     73.4395   9.7487678293e+01   4.9283499085e+01    0.1995912    0.1416108  50.78 0.0009371989    1.605    0.377
        98 -11.4990    105.9275     71.6199   9.3782228503e+01   4.7782169506e+01    0.2951123    0.2608519  -3.32 0.0004226432    1.135    0.119
        99  -9.8138     92.0410     71.5194   9.8274607693e+01   5.0450772845e+01    0.3983993     0.198849 -61.95   0.00129699    3.666    0.727
       100  -9.4250     81.0054     72.5000   1.0238449528e+02   5.2137014155e+01    0.1941211    0.1227619  60.01 0.0005938855    2.424    0.587
       101 -10.4921     76.0019     70.9724   1.0370458044e+02   5.3264185426e+01    0.1757336    0.1581476 -33.94 0.0006191361    1.024    0.023
       102  -8.8071    122.3041     68.6755   8.7894415177e+01   4.4891069138e+01    0.1507541    0.1250288 -77.25 0.0007032388    1.641    0.391
       103  -9.4220     46.0317     69.0000   1.1448473208e+02   5.7612147304e+01    0.2018461   0.07651581  26.13 0.0006798023    2.972    0.664
       104  -9.3598    114.4249     66.5255   8.9485562677e+01   4.7017290634e+01    0.1513512    0.1437552  -6.64 7.497874e-05    1.032    0.031
       105 -10.6018     34.6805     64.7732   1.1796651713e+02   5.9668163952e+01    0.3071672    0.1913029 -49.88 0.0009247506    1.345    0.256
       106 -11.4176     39.3767     62.1299   1.1537961647e+02   5.9839862352e+01     0.635622      0.23001 -41.57   0.00132067    2.748    0.636
       107 -10.7874    131.4380     64.4689   8.3954768247e+01   4.3579814493e+01     0.426145    0.2941485  47.87  0.001461088    1.436    0.304
       108  -9.0725    109.6892     64.3407   9.0186597433e+01   4.8438968447e+01    0.1493692    0.1233948 -78.34 0.0005971328    1.694    0.410
       109 -11.1927      3.6967     61.5276   1.2993905038e+02   6.2350522763e+01    0.5023181    0.2195382  59.78  0.001920979    3.764    0.734
       110 -11.2491      9.6402     60.5103   1.2734757041e+02   6.2323272654e+01    0.3708875     0.190957 -49.23  0.002056879    1.590    0.371
       111  -9.6827     72.3108     63.0961   1.0260253018e+02   5.5528702849e+01    0.2004635    0.1673951 -42.78 0.0004368538    1.127    0.113
       112 -10.5861     62.7092     62.1349   1.0597902538e+02   5.7127987265e+01    0.2889206    0.2064801 -31.94  0.001044273    1.355    0.262
       113  -9.6240     66.7251     60.6139   1.0393229704e+02   5.6889547589e+01    0.2226623     0.131343  31.10 0.0006659892    1.819    0.450
       114  -9.9453    100.9963     61.7296   9.2045128277e+01   5.0723055317e+01    0.2047676    0.1933242  26.17  0.000558886    1.100    0.091
       115 -13.0601     20.8445     57.5635   1.2205111035e+02   6.2363258734e+01    0.6407197    0.3489176 -75.28  0.003272779    1.921    0.479
       116 -12.6078      5.3065     51.4854   1.2752166355e+02   6.4560785362e+01    0.4649722    0.2514345 -45.45  0.002694462    1.545    0.353
       117 -11.8511     15.9905     45.6360   1.2139172303e+02   6.5336370791e+01    0.7516689    0.4233965  -8.99  0.004087004    2.149    0.535
       118 -11.2058     54.6656     57.9777   1.0789526913e+02   5.9080709256e+01    0.6032455    0.4412636  88.54  0.002982672    2.230    0.551
       119  -9.9619    118.8785     59.0590   8.5598861492e+01   4.7420545950e+01    0.2214154    0.2072788 -61.91 0.0003656222    1.253    0.202
       120 -10.2000     83.5045     56.9641   9.6385513344e+01   5.4951025046e+01    0.3183949    0.2253881 -64.66  0.001247589    2.003    0.501
       121 -12.0910     88.2980     53.4719   9.3408574404e+01   5.4766428683e+01    0.4915072    0.3483803  40.55 0.0006500327    1.464    0.317
       122  -9.3266     71.5476     57.0641   1.0088722346e+02   5.6911868121e+01    0.2059638    0.1301477 -46.78 0.0004717192    1.498    0.332
       123 -10.5433    225.0590     54.7641   6.2947912369e+01   2.2024298710e+01    0.4400125     0.288084   3.30  0.002041107    1.978    0.495
       124  -9.9405     34.4631     53.4811   1.1511920160e+02   6.2229361443e+01    0.3032812    0.1382177 -34.85  0.001337319    2.359    0.576
       125  -9.9432    106.0076     53.4336   8.7466967171e+01   5.1241039655e+01    0.2311031    0.1447171  45.86 0.0008215466    1.616    0.381
       126 -12.3447     66.1912     52.5644   1.0142514122e+02   5.8652023889e+01    0.5004905    0.2440006  28.82  0.001275922    2.305    0.566
       127  -8.8868    176.2950     52.2878   6.9835747899e+01   3.4365158769e+01    0.1545365    0.1123185  25.15 0.0001690595    1.548    0.354
       128  -9.8161     99.7769     55.9928   9.0409601691e+01   5.2061151926e+01    0.1971181    0.1183695 -37.51 0.0005015456    1.625    0.385
       129 -10.7710    103.2687     47.3906   8.6064803075e+01   5.2888678753e+01    0.4209151     0.216355  30.98  0.001032432    2.348    0.574
       130  -9.6837     75.3519     50.2561   9.6997172089e+01   5.7672877599e+01    0.2503601    0.1618148 -10.02 0.0003150094    2.045    0.511
       131 -10.6212     77.9981     46.1221   9.4419257230e+01   5.8018374572e+01     0.333876    0.2405544  28.55 0.0009200848    1.419    0.295
       132 -10.2075     60.0376     58.0982   1.0575800317e+02   5.8360155141e+01    0.2396154    0.1816037 -47.00 0.0005800006    1.210    0.173
       133 -11.6934    114.4143     54.1036   8.5137614995e+01   4.9295236074e+01    0.3623467    0.3230217  30.20  0.000787793    1.088    0.081
       134  -9.3097     47.2927     47.3145   1.0755112647e+02   6.2246020798e+01    0.1385105   0.08916628 -26.22 0.0003665254    1.596    0.373
       135  -9.4629     65.0258     46.2650   9.9607646121e+01   6.0095515181e+01    0.1840753     0.163513   2.53 0.0003155209    1.105    0.095
       136  -9.5737     91.1730     44.7637   8.9081107683e+01   5.5824298726e+01     0.199004    0.1585688  -0.78 0.0004558832    1.285    0.222
       137 -10.9333     26.0035     43.8055   1.1618304109e+02   6.5056400316e+01     0.265628    0.2412784 -59.04 0.0009668249    1.198    0.165
       138  -9.9141     94.8783     42.1796   8.6780822768e+01   5.5531587204e+01    0.2072054    0.1974682 -42.74 0.0005683505    1.232    0.189
       139 -10.4715     70.1041     41.6649   9.5760414670e+01   6.0187439811e+01    0.3071616    0.2366616  11.18 0.0009945895    1.337    0.252
       140 -10.6208     36.5163     41.3964   1.1045185901e+02   6.4646825943e+01    0.2412444    0.1911469 -21.14 0.0009473329    1.187    0.157
       141  -9.6191      2.4615     42.3044   1.2698737498e+02   6.6717596012e+01    0.2093361    0.1237809 -18.33  0.001042655    1.871    0.466
       142  -9.8133      5.7498     39.0918   1.2469456268e+02   6.7294136618e+01     0.204843    0.1292293 -57.19  0.001267003    1.213    0.175
       143 -10.1683    181.4685     40.6312   6.5274886898e+01   3.4601463721e+01    0.2902894    0.2124179  50.37 0.0008976523    1.328    0.247
       144 -10.7675    139.3383     40.4963   7.3516266054e+01   4.5503187195e+01    0.3133045    0.2585873  79.62  0.001553984    1.451    0.311
       145  -9.1535    159.7143     40.6670   6.9205234965e+01   4.0250801915e+01    0.1585919    0.1115537  23.56 0.0007012959    1.621    0.383
       146 -10.5038    132.1674     38.7260   7.4579965532e+01   4.7549436428e+01    0.4546761    0.3654438 -85.02  0.002196904    1.672    0.402
       147 -11.5444    134.2365     34.0404   7.2316872005e+01   4.7681899076e+01    0.2489811    0.2049521  37.42 0.0003007335    1.144    0.126
       148  -9.5533     43.0318     40.4200   1.0706240229e+02   6.4163664746e+01    0.2005336    0.1436253 -13.54 0.0007413498    1.450    0.310
       149 -10.4027     12.5831     38.2368   1.2111334119e+02   6.7149747230e+01    0.3503138    0.1594545 -65.67  0.001756645    1.947    0.486
       150  -9.5051      9.1549     35.6271   1.2213437293e+02   6.7892043256e+01    0.1908886    0.1117906  16.25 0.0007403963    2.008    0.502
       151 -12.3123    121.6961     36.9560   7.6587683695e+01   5.0363171314e+01    0.5693722    0.4991863  63.89  0.001940079    1.276    0.216
       152 -10.5145    126.4308     32.3189   7.3551223027e+01   4.9860474313e+01    0.4726668    0.2914881  -3.45  0.001872492    2.043    0.511
       153  -9.2353    101.6846     39.6222   8.3511622900e+01   5.4528486229e+01    0.1602164    0.1085394   8.91 0.0007027537    1.805    0.446
       154 -10.6196     22.7820     38.5891   1.1616799877e+02   6.6422378557e+01    0.2224085    0.2054738  62.82 0.0007340747    1.426    0.299
       155 -11.2329     26.5189     35.2808   1.1324165000e+02   6.6831195167e+01    0.4177868    0.2049215 -42.77  0.001540417    1.664    0.399
       156 -10.9790      2.6335     34.3984   1.2513070901e+02   6.8440519222e+01    0.4500995    0.1892478 -56.48  0.002399597    1.685    0.407
       157 -10.1020     69.6783     36.6943   9.3903082749e+01   6.1173280999e+01    0.2651485    0.1419152 -12.31 0.0003092414    3.401    0.706
       158  -9.6630     38.9404     35.5067   1.0718983484e+02   6.5610714640e+01    0.2507518    0.1905071  47.95 -3.805462e-05    1.815    0.449
       159 -11.7843     43.9673     28.9594   1.0212584600e+02   6.6316708297e+01     0.527209    0.3531009 -23.94   0.00277838    1.395    0.283
       160 -11.0214     38.6145     30.9075   1.0556628715e+02   6.6560916065e+01    0.2712399     0.178183 -17.25 0.0002771116    1.569    0.363
       161 -10.0794     90.8959     34.4871   8.4970779673e+01   5.7617434792e+01    0.3395839     0.166568 -18.73  0.001239612    2.824    0.646
       162  -9.5826     54.8218     34.3954   9.9314190261e+01   6.3869916440e+01    0.1790481    0.1190605  13.12 0.0004306301    1.666    0.400
       163  -9.8468     15.8577     33.3803   1.1806362597e+02   6.8000786645e+01    0.2094179    0.1391805 -43.69  0.000622408    1.186    0.157
       164 -10.7578     20.0247     31.7752   1.1538949526e+02   6.8060838231e+01    0.3268782    0.1913722 -12.74  0.001295421    1.926    0.481
       165 -11.3417    145.0718     32.9560   6.9489183837e+01   4.5060291856e+01    0.2285358    0.2131878  36.09            0    1.010    0.010
       166  -9.7006     50.2855     33.4616   1.0100073952e+02   6.4661323798e+01    0.1550266    0.1255314  36.21 0.0003724749    1.462    0.316
       167 -10.2826    166.1913     31.2942   6.4838068999e+01   3.9749611353e+01    0.2582766    0.2036679 -30.50 0.0003296644    1.303    0.232
       168  -9.8225    204.7821     30.5581   5.8880173870e+01   2.9857501707e+01    0.1973952    0.1346586  86.52 0.0009357991    1.662    0.398
       169  -9.0725    187.6347     30.3152   6.1119883700e+01   3.4257020013e+01    0.1561995    0.1057352 -63.99  0.000703944    1.769    0.435
       170 -10.2063    149.8641     29.9026   6.7398838626e+01   4.4200460431e+01    0.3769629    0.2081225  70.99  0.001513026    2.096    0.523
       171 -10.8028      7.8656     28.6427   1.2085833740e+02   6.9446606362e+01    0.3156122    0.2132018  53.94  0.001701042    2.223    0.550
       172 -10.5853     70.1348     27.4724   8.9684876523e+01   6.2687234852e+01    0.3934703    0.2270326 -25.16   0.00186446    1.735    0.424
       173  -9.9825    140.1849     27.2332   6.8415240740e+01   4.7037602300e+01    0.2765304    0.1713474  55.16 0.0007040387    1.502    0.334
       174 -10.9843     76.9445     25.9397   8.6281329567e+01   6.1699502323e+01     0.286843    0.2461436  14.42 0.0004172027    1.075    0.069
       175  -9.3966    229.5281    248.0439   1.0287096953e+02  -3.8629614469e+00    0.1381234    0.0954838 -14.77 0.0009623567    1.543    0.352
       176  -9.8812    153.8850     25.6583   6.5108764436e+01   4.3652759207e+01    0.2131402    0.1796514  67.88 0.0006487129    1.194    0.162
       177 -10.8951    114.0413     24.2313   7.3489885989e+01   5.3937674735e+01    0.3503397    0.2799862  -1.10  0.001243715    1.261    0.207
       178 -10.4718    100.6397     25.5464   7.7915059898e+01   5.6868577910e+01    0.2507548    0.2320652 -30.76 0.0007827086    1.221    0.181
       179  -9.2578     18.3571     26.2898   1.1439185865e+02   6.9311022550e+01    0.1314305   0.07226702 -30.20 0.0007026808    1.684    0.406
       180 -10.1885     59.3090     24.3632   9.2870351465e+01   6.4997921307e+01    0.2729121    0.1832308 -20.91  0.001454551    1.412    0.292
       181 -10.7244    219.0377     23.6364   5.5308385018e+01   2.7106943484e+01    0.2855901    0.1636167  14.74  0.001185231    2.744    0.636
       182  -9.6951     89.4016     22.7543   8.0300996091e+01   5.9691404786e+01     0.254722     0.129142 -32.84 0.0009737951    1.956    0.489
       183 -10.6655     85.3104     20.9560   8.0880679508e+01   6.0791268935e+01    0.4492113     0.189994  32.81  0.001141932    2.863    0.651
       184  -9.5675    224.7491    246.9327   1.0351118762e+02  -3.1179811034e+00    0.1229315   0.08336283 -13.89 0.0007338913    1.560    0.359
       185  -8.8793    170.6957    246.6822   1.1289651722e+02   4.4842892559e+00    0.1120965   0.07251732  15.56 0.0004823704    1.627    0.385
       186  -9.3765    136.3387    245.6897   1.1901256819e+02   9.4998814839e+00    0.1133393   0.07057828  54.85 0.0007044665    1.688    0.408
       187 -10.6670      1.8664     21.6218   1.2210546948e+02   7.1181833449e+01    0.2881772    0.1421467 -63.53  0.001403867    1.696    0.411
       188  -9.7071    131.9882     20.6897   6.7677022389e+01   4.9912406348e+01    0.2123322    0.1791082  48.27 0.0007261878    1.101    0.091
       189 -11.0737     37.2630    241.6695   1.3640295375e+02   2.2335793071e+01    0.2611734   0.06064422  44.37  0.001363285    2.595    0.615
       190  -9.7111     60.5787    241.2647   1.3234853991e+02   1.9897773298e+01    0.1927925   0.07190833  36.17  0.001066412    2.174    0.540
       191  -9.5988    202.5684    240.2605   1.0638483999e+02   6.4964425623e-01     0.138771   0.09575206  -6.39 0.0009106643    1.558    0.358
       192 -11.8393      4.0986    232.5312   1.4158596762e+02   2.6880418490e+01    0.3100352    0.1451504  64.06 0.0003443104    1.590    0.371
       193 -12.6930     26.0163    235.9875   1.3805640613e+02   2.4351409026e+01    0.3262762    0.2736555  42.93  0.002090848    1.372    0.271
       194 -10.1639     31.0403     20.4754   1.0511409092e+02   6.9360801751e+01     0.238901    0.1439135 -37.52 0.0005399096    1.368    0.269
       195 -10.4016     26.5007     16.4130   1.0581642910e+02   7.0565306089e+01    0.2559865    0.2207187  41.37  0.001411441    1.635    0.388
       196  -9.1174     54.3053    236.3089   1.3315781603e+02   2.1385227338e+01   0.08568288   0.08004003   4.02 0.0004225732    1.610    0.379
       197  -9.4794     58.4679     18.9876   9.0662517955e+01   6.6010092401e+01    0.1756081    0.1121024 -54.74 0.0008090596    2.515    0.602
       198  -9.4486    148.5497     18.5673   6.3539303214e+01   4.5843528316e+01    0.1465271    0.1358116  46.22 6.643324e-05    1.008    0.008
       199  -9.9498    199.8688     17.1603   5.5602345078e+01   3.2534228616e+01    0.2115505     0.177783 -64.33 0.0004753439    1.208    0.172
       200 -10.5641     49.2465     16.2648   9.3634673495e+01   6.7853216787e+01    0.2204346    0.1976334 -17.64 0.0004445751    1.219    0.179
       201 -10.4348     20.1737     16.8155   1.0965203557e+02   7.1048417757e+01    0.1885906     0.143728 -17.40 0.0003331849    1.174    0.148
       202 -10.2825    154.3545     15.2552   6.1320873029e+01   4.4653110900e+01    0.3054967    0.1957516  51.50 0.0004976054    1.427    0.299
       203  -9.1272    210.6970    235.6969   1.0431100778e+02  -1.3905725854e-02    0.1171823   0.06948337  14.27 0.0003107017    1.593    0.372
       204 -10.4144    190.6328     13.9328   5.5728291452e+01   3.5223346300e+01     0.245739    0.1821144  56.89 0.0007199715    1.299    0.230
       205  -9.1775    200.2870    235.7000   1.0614868485e+02   1.4864722898e+00    0.1016854   0.08090129  44.37 0.0006975492    1.556    0.357
       206  -9.8621    249.1865    234.0940   9.7566950219e+01  -5.1468353919e+00    0.1683301    0.1067587  13.18 0.0004339955    1.165    0.142
       207  -9.8164    162.1607     13.1348   5.9324737088e+01   4.2791773287e+01    0.2262442     0.178767  41.59 0.0005100033    1.234    0.190
       208  -9.8758     68.9362     13.5098   8.3404078141e+01   6.5015398961e+01     0.194386    0.1262361  41.78 0.0008580902    1.543    0.352
       209  -9.4865    140.2846    227.2475   1.1619894237e+02   1.1513168982e+01    0.1950903   0.07151309  45.38 0.0008855775    2.364    0.577
       210 -10.2795     32.9591    225.0217   1.3634595466e+02   2.5488305455e+01    0.2602457   0.06908551  44.67  0.001360504    2.481    0.597
       211 -10.5773      4.4050    113.5528   1.3563814126e+02   5.0377010248e+01     0.263662    0.1588136 -10.40  0.001530639    2.426    0.588
       212 -12.2396      7.9636    217.3911   1.4044229257e+02   2.9085459398e+01    0.3049267    0.2034795  69.81  0.002166781    1.128    0.114
       213 -11.0243     16.0393    212.2590   1.3880520081e+02   2.9283878107e+01     0.172184    0.1546066  65.74  0.001499402    1.299    0.230
       214 -10.6266     20.5553    209.7483   1.3786625357e+02   2.9325885805e+01    0.1898002    0.1326906  59.99 0.0002489836    1.085    0.078
       215  -9.3512    209.4886    211.5253   1.0081423573e+02   2.9544971568e+00     0.124907   0.09438954  19.47 0.0005583633    1.005    0.005
       216  -9.2995    246.7835    207.0406   9.3539219191e+01  -2.1088393279e+00     0.146698   0.08403201 -23.17 0.0008791998    1.722    0.419
       217 -10.2571    123.9909    206.0053   1.1683155795e+02   1.7291103414e+01    0.1746383    0.1446417  39.38  0.001151539    1.025    0.025
       218  -9.3558    197.0191    203.9982   1.0189861537e+02   5.8857580253e+00    0.1541408    0.1223242  19.30  0.000560336    1.023    0.022
       219 -11.7156      9.2018    203.5882   1.3970019924e+02   3.1421623770e+01    0.2093984    0.1575342  45.10 0.0009058135    1.294    0.227
       220  -9.4729    180.5275    199.3759   1.0433081293e+02   9.2286472531e+00    0.2670801   0.09621606  48.55 0.0009677481    3.541    0.718
       221  -9.6160     23.0324    197.4832   1.3678702354e+02   3.1346635645e+01    0.1506824   0.09209016  36.76 0.0004704806    1.564    0.360
       222 -10.4306      6.8884    191.9254   1.3965925915e+02   3.3765322474e+01    0.2380985    0.1028067  65.15  0.001340608    1.950    0.487
       223  -9.6003     15.3269    185.1357   1.3767497043e+02   3.4377020296e+01      0.15725    0.0782895  84.08 0.0009384445    1.805    0.446
       224  -9.5909      1.3837    183.0057   1.4036683259e+02   3.5886356661e+01    0.1494202   0.08147186 -87.20 0.0004905065    1.550    0.355
       225  -9.9483     21.9504     22.6870   1.1105644370e+02   6.9763258154e+01    0.1624792    0.1347688 -24.78 0.0003863507    1.087    0.080
       226  -9.9776    100.9810    176.0047   1.1790316374e+02   2.6268285105e+01    0.1787073    0.1597609  49.86            0    1.017    0.016
       227 -11.2941      4.6708    167.2840   1.3899161884e+02   3.8754847956e+01    0.3021722    0.1764434  57.69  0.001396932    1.450    0.310
       228 -10.1941      3.0000    160.0106   1.3899130847e+02   4.0360010534e+01    0.1763163    0.0511927 -80.55  0.000797512    2.908    0.656
       229  -9.2249     41.6589    158.2992   1.2993025165e+02   3.7475059153e+01    0.1987685     0.103674 -86.67  0.001009488    1.960    0.490
       230  -9.0204     39.2997    155.6611   1.3025263369e+02   3.8279144075e+01    0.1218223    0.1072452  86.79 0.0004455433    1.068    0.064
       231  -8.9471    247.4606    155.5314   8.3637442514e+01   3.8450517925e+00    0.1324411    0.1039471   3.10  0.000105528    1.028    0.027
       232 -10.5513      2.4721    153.5033   1.3877210053e+02   4.1748933927e+01    0.2005258    0.1013492  27.40  0.001210805    2.173    0.540
       233 -10.1737     22.1445    143.4122   1.3339981780e+02   4.2486795932e+01    0.2015017    0.1214203 -85.56  0.001198917    1.455    0.313
       234 -11.5468      3.6067    138.4015   1.3763371235e+02   4.4900517257e+01    0.2341384    0.1581311  59.91  0.001585254    1.362    0.266
       235 -10.9429      9.0154    135.4742   1.3608954937e+02   4.5194333078e+01    0.1838335     0.125605 -83.13 0.0005102752    1.206    0.171
       236  -9.5171    212.3093    133.6945   8.5040222052e+01   1.3356881826e+01     0.129161    0.1157806 -69.57 0.0003536796    1.611    0.379
       237 -10.1483      9.3265    141.3040   1.3641931507e+02   4.3896522826e+01    0.1097963   0.07596692 -50.98 0.0007033665    1.645    0.392
       238 -11.7854     11.3135    129.1878   1.3502142325e+02   4.6437952963e+01     0.526243    0.2036067  60.10  0.002407956    2.897    0.655
