#   1 NUMBER                 Running object number                                     
#   2 MAG_AUTO               Kron-like elliptical aperture magnitude                    [mag]
#   3 X_IMAGE                Object position along x                                    [pixel]
#   4 Y_IMAGE                Object position along y                                    [pixel]
#   5 X_WORLD                Barycenter position along world x axis                     [deg]
#   6 Y_WORLD                Barycenter position along world y axis                     [deg]
#   7 A_WORLD                Profile RMS along major axis (world units)                 [deg]
#   8 B_WORLD                Profile RMS along minor axis (world units)                 [deg]
#   9 THETA_WORLD            Position angle (CCW/world-x)                               [deg]
#  10 FWHM_WORLD             FWHM assuming a gaussian core                              [deg]
#  11 ELONGATION             A_IMAGE/B_IMAGE                                           
#  12 ELLIPTICITY            1 - B_IMAGE/A_IMAGE                                       
         1 -13.9347      5.2793     75.8787   1.1630350275e+02   5.9488818012e+01     2.246058    0.6276932 -68.43  0.009276612    2.803    0.643
         2 -14.7516     44.2376     41.4996   9.1470088923e+01   6.3544107101e+01     2.851438     1.280722 -39.21    0.0129235    1.919    0.479
         3 -15.4801      9.1129     25.9889   1.0186556131e+02   6.9614735379e+01     2.663979    0.9363893 -47.92   0.01357594    2.031    0.508
         4 -13.2560     30.6260     10.3518   8.4129742368e+01   7.0261961875e+01     1.268863    0.4848437 -32.78  0.006149018    2.313    0.568
         5 -14.5605     96.6390     71.4303   8.2964812100e+01   4.9635438069e+01      1.80529     1.335371   1.19  0.002351913    1.713    0.416
         6 -14.5260     37.3190     85.0205   1.0693499894e+02   5.5071298710e+01     2.106946     1.065284 -50.23   0.01049689    1.627    0.385
         7 -14.2276     70.2383     55.8364   8.6556621661e+01   5.7277151496e+01     1.300674     1.236909  -8.23  0.005517221    1.136    0.119
         8 -13.8722     24.1538     49.2123   1.0264986070e+02   6.4030307954e+01      1.29578    0.7210702 -32.43   0.00718251    1.677    0.404
         9 -14.4626     79.2193     70.4426   8.8330946527e+01   5.2917362608e+01     2.717172     1.508344 -20.86   0.01034263    2.896    0.655
        10 -12.8514     80.5942     32.0974   7.3642460934e+01   5.9582189278e+01    0.7519855    0.6226684  45.81  0.002650306    1.359    0.264
        11 -12.8380    138.7813      4.1617   4.7926337997e+01   4.9743635180e+01     1.250129    0.3221297  60.63  0.004423642    2.946    0.661
        12 -11.7554     73.2186      1.5748   6.2207542600e+01   6.4664431253e+01    0.3065153    0.1503361  52.18 0.0006985151    1.981    0.495
        13 -13.3527     83.6704     22.5931   6.8546206132e+01   6.0316741148e+01     0.836352    0.5801381  46.31 0.0006764343    1.453    0.312
        14 -14.1673    120.9482     10.7438   5.3721205582e+01   5.3491051397e+01      2.19156    0.8078834  62.26  0.008523734    2.550    0.608
        15 -14.0936     86.1770     11.9624   6.3045477229e+01   6.1075039915e+01     1.459636    0.5381694  51.71  0.005257496    2.509    0.601
        16 -14.3934     84.6346      3.6781   5.9724772911e+01   6.2214645409e+01     3.123452    0.5449839  56.78  0.008998539    5.611    0.822
        17 -11.4276    153.6101     20.8033   5.1100439161e+01   4.4372272188e+01    0.4210656    0.2831791 -39.32  0.001307133    1.569    0.363
        18 -13.0992    185.9624     12.5408   4.3871429428e+01   3.6981942520e+01    0.7498658     0.609446 -35.11  0.003982359    1.299    0.230
        19 -12.4166    193.2260      6.7918   4.1436000630e+01   3.5733984701e+01    0.6477734    0.3697899 -41.52  0.003094893    1.725    0.420
        20 -11.4610    188.2029      5.4620   4.1614127696e+01   3.7127026697e+01    0.3328487    0.2502653 -30.86 0.0008610435    1.430    0.301
        21 -11.7818     64.8492     17.8115   7.2960322771e+01   6.4354356607e+01    0.4471809    0.2833417  22.78  0.001443643    1.568    0.362
        22 -12.4955    175.7299     13.4066   4.5420782802e+01   3.9501052218e+01    0.5450267    0.3679792  25.59  0.002358317    1.925    0.480
        23 -12.5657     75.8337     13.4475   6.7011988680e+01   6.2929921573e+01    0.4107122    0.3542733  -3.74  0.001293811    1.109    0.098
        24 -11.7688    169.4925     10.5176   4.5383664938e+01   4.1388485415e+01     0.335827    0.2386162  70.28  0.001093602    1.281    0.220
        25 -11.0162    156.3820     10.2381   4.7177296432e+01   4.4761340878e+01    0.2908213    0.2233807  80.50 0.0007531305    1.277    0.217
        26 -11.9892    149.2922      8.3301   4.7646340009e+01   4.6738898716e+01    0.6720801    0.3552125  75.05  0.002600648    1.942    0.485
        27  -9.3227     66.4652      8.4848   6.7896145022e+01   6.5202873421e+01    0.1263707     0.105133   9.05 0.0001157969    1.029    0.028
        28 -10.4572     49.1090      4.8256   7.2790744418e+01   6.8488179425e+01    0.3024243    0.1999947 -18.48  0.001870739    1.344    0.256
        29 -11.1425    168.3701      2.5954   4.3112336592e+01   4.2418139669e+01    0.2698496    0.2241858  53.11  0.001591838    1.180    0.153
        30  -9.6451    211.9403      1.4976   3.8237835947e+01   3.1646628845e+01    0.1941035    0.1156466  77.03 0.0005220752    1.530    0.347
        31 -10.2673    100.9981    175.9948   1.0584591667e+02   2.4886328629e+01    0.1910475    0.1744079  75.16  0.001136013    1.025    0.024
        32  -9.7191    185.6785    167.3317   8.5195377833e+01   1.0726479874e+01    0.1427925    0.1180727  88.72 0.0005517626    1.698    0.411
        33 -14.8001     60.4405     71.7651   9.5294476689e+01   5.5423586684e+01     1.813921     1.117268  30.89  0.003424349    1.818    0.450
        34 -12.6869    141.2924     95.9676   7.7930250439e+01   3.5117978799e+01    0.8771122     0.709124 -89.72  0.003921605    1.577    0.366
        35 -10.9120    114.2850     97.1801   8.5518794563e+01   4.0699879822e+01    0.3483263    0.2686573 -45.63  0.001682961    1.245    0.197
        36 -11.0314    198.9704    154.2691   7.9650817094e+01   1.0468815177e+01    0.3011094    0.1873069 -62.99  0.001184217    2.691    0.628
        37 -11.4948    188.6036     94.2995   6.6865409333e+01   2.4161534701e+01    0.4261968    0.3445743 -68.05  0.001569973    1.421    0.296
        38 -11.7605    122.3191     90.7004   8.1401255894e+01   4.0432842299e+01    0.3802733    0.3096066  -3.90  0.001817305    1.480    0.324
        39 -11.3907    233.3999    153.6788   7.3021176994e+01   3.7934534634e+00    0.2702029    0.1740687  38.15  0.001356024    1.601    0.375
        40 -10.8822    249.2852     86.1751   5.4883952668e+01   1.1683466815e+01    0.3722592    0.2804034 -45.61   0.00204201    1.192    0.161
        41  -9.7673    152.3206     88.4092   7.3028567762e+01   3.4072763007e+01    0.2114538    0.1540428  61.81 0.0008392262    1.515    0.340
        42 -12.6087    125.8545     72.7849   7.4891421421e+01   4.3284104011e+01    0.7399053    0.4029485  58.50  0.002415436    2.227    0.551
        43 -12.6322    128.2778     81.8323   7.7100670101e+01   4.0963183460e+01    0.5934488    0.4358207 -52.29  0.002746169    1.444    0.308
        44 -12.4930    121.6522     81.1602   7.8695372414e+01   4.2559632436e+01    0.4965745    0.4248297 -11.24  0.001148245    1.269    0.212
        45 -13.0378    115.2662     79.1026   7.9847705840e+01   4.4344556532e+01     1.077625    0.6907411 -30.94  0.004716674    1.657    0.396
        46  -9.6313    148.4927     80.5250   7.1579705276e+01   3.6520902959e+01    0.2208077    0.2100808  65.03 0.0006716218    1.087    0.080
        47 -12.7260    144.7776     76.0497   7.1095701505e+01   3.8260069342e+01    0.7618847     0.594148  78.90  0.002500439    1.600    0.375
        48 -10.9049     30.0775    153.3419   1.1970181098e+02   3.9528950808e+01    0.2299311    0.1434513 -67.17  0.001331157    1.379    0.275
        49  -9.4066    234.3293     76.3035   5.4528958115e+01   1.6478309317e+01    0.1395658    0.1108824  15.55 0.0004086379    1.651    0.394
        50 -11.7654    152.5408     72.6935   6.8223665284e+01   3.6998037348e+01    0.5954626    0.4685632  87.28  0.002389966    1.597    0.374
        51  -9.4909    250.3781     74.2023   5.1912670808e+01   1.3300977747e+01    0.2026655    0.1083276 -42.92  0.000597412    1.624    0.384
        52 -10.1921    171.1301     72.5662   6.4169403538e+01   3.2402263273e+01    0.3709393    0.2539134  71.35  0.001613695    1.706    0.414
        53 -10.0762    182.8865     71.9411   6.1685618238e+01   2.9559939532e+01    0.2269669    0.2180772 -82.67 0.0004937577    1.043    0.041
        54 -12.1808    117.1745     66.9143   7.5347072273e+01   4.6320568788e+01    0.6778352    0.4036734 -22.39  0.002751793    2.093    0.522
        55 -10.1993    146.4901     66.3543   6.7625735084e+01   3.9610287827e+01    0.3176641    0.2271426  24.86  0.001295858    1.713    0.416
        56 -10.9223     24.1753     65.8824   1.0721760343e+02   6.0504078977e+01    0.2452961     0.178712   1.96  0.001520056    1.632    0.387
        57 -11.2783    214.4854     60.8732   5.3385987191e+01   2.3516001845e+01    0.3954537    0.2746343 -20.45  0.001886956    1.650    0.394
        58 -10.7313    169.3435     62.9682   6.1639489823e+01   3.4483306353e+01    0.5627272    0.2046428  56.48  0.001884001    2.698    0.629
        59  -9.3984    132.9787     61.4350   6.9294140944e+01   4.3716745743e+01    0.2215037    0.1481803  52.43  0.000324983    1.504    0.335
        60  -9.5733    190.1250     59.1989   5.6723239115e+01   2.9816006280e+01    0.2086695    0.1685414 -71.84 0.0004632844    1.335    0.251
        61 -12.2571    124.8316     57.0824   6.9911395224e+01   4.6365203168e+01    0.3439444    0.3053506  27.84 0.0004616212    1.120    0.107
        62 -10.6794    227.2486     57.0694   5.0657008333e+01   2.1046247200e+01    0.2502889    0.2016967  84.40 0.0003989278    1.297    0.229
        63 -11.4289    174.6127     56.4868   5.8663846766e+01   3.4184190416e+01    0.2699913    0.2616861 -85.64 0.0003187274    1.014    0.014
        64 -12.5221    133.4412     53.7693   6.6582608951e+01   4.4898036338e+01    0.5159204    0.3269981  63.97  0.001016163    1.808    0.447
        65 -11.1307    153.3775     53.3668   6.1895387205e+01   4.0064184644e+01    0.5526457    0.2664632  40.99  0.002048571    2.367    0.577
        66  -9.6813    121.9866     52.6940   6.9129851567e+01   4.7754140057e+01    0.1985834    0.1834685  36.52 0.0002925727    1.067    0.062
        67  -9.0791    197.3222    102.6909   6.7422845768e+01   2.0529825983e+01    0.1571481    0.1203948 -71.80 0.0007035944    1.647    0.393
        68 -11.3455    145.3048     50.4305   6.2680599958e+01   4.2537352034e+01    0.3624142    0.2872509 -37.92 0.0007621338    1.285    0.222
        69 -11.6214     99.3639     50.0055   7.4623183577e+01   5.3097648883e+01      0.53638    0.2681224  32.81   0.00213368    2.383    0.580
        70 -11.1018    137.6655     48.4114   6.3733729662e+01   4.4726722729e+01    0.3925953    0.3130926 -66.84  0.001939674    1.534    0.348
        71 -10.7471    139.9730     43.7110   6.1589743220e+01   4.4866083347e+01    0.4488759    0.2438497  64.92  0.001827272    2.060    0.515
        72  -9.6638    126.8514     48.8470   6.6510432002e+01   4.7246913017e+01    0.2219726    0.1909674  16.70 0.0004714724    1.200    0.167
        73 -10.8925    175.9682     45.3072   5.5035565450e+01   3.5509676764e+01    0.4521939    0.3555862  17.88  0.002054639    1.574    0.365
        74 -11.1241    181.9225     43.4012   5.3469790424e+01   3.4250733038e+01    0.3537188    0.2569707  63.53 0.0003354027    1.338    0.253
        75 -11.5245    157.2371     43.5632   5.7923448116e+01   4.0557037715e+01    0.3902521    0.2745261  48.64  0.000870122    1.388    0.279
        76 -11.4692    122.2618     43.5010   6.5761981143e+01   4.9141075366e+01    0.2974767     0.268032  21.15 0.0005950681    1.076    0.071
        77 -10.7254    203.5865     43.3434   5.0206601506e+01   2.8760982299e+01    0.3485002    0.2265527  48.10  0.001594679    1.679    0.404
        78 -12.3720    216.6620     38.7959   4.7294122411e+01   2.6154499473e+01    0.7205312    0.2851608  58.86  0.001720982    2.454    0.593
        79 -11.6990    203.3337     37.6711   4.8688324647e+01   2.9594633415e+01    0.7123349    0.3780316  67.15   0.00315784    1.857    0.461
        80 -11.9605    136.0239     98.0475   7.9871684327e+01   3.5871217022e+01    0.6328691    0.3413019  36.30  0.002398561    2.148    0.534
        81 -11.0718    196.6666     40.8376   5.0484040318e+01   3.0845667293e+01    0.5465193    0.2485658 -38.61  0.002232831    2.076    0.518
        82 -10.6343    159.9607     36.2497   5.5037269160e+01   4.0868414996e+01    0.2201114    0.2094496 -24.79 0.0003504589    1.104    0.094
        83 -11.5306     19.0031    153.8510   1.2236540143e+02   4.0430958213e+01    0.2552525    0.1773542  34.93  0.001625065    1.689    0.408
        84 -10.4339    189.8321    153.1773   8.1275309426e+01   1.2556152862e+01    0.2169699    0.1768731   1.36  0.001093441    1.361    0.265
        85  -9.9242    139.0076    152.2841   9.2477864980e+01   2.3246924292e+01    0.2173766     0.198068  48.81 0.0009999253    1.077    0.071
        86 -11.2998     58.6582    144.3681   1.1140830229e+02   3.8491412126e+01    0.8042915    0.3814963  56.72  0.003400096    2.567    0.610
        87 -11.7568     51.5588    141.7224   1.1286646436e+02   3.9990249556e+01    0.6516224    0.2359437 -68.30  0.002582421    2.525    0.604
        88 -12.8275     47.2171    142.2151   1.1406633814e+02   4.0371020981e+01     0.508393    0.4960424 -49.96  0.002991831    1.266    0.210
        89 -11.1378    245.8777    145.4603   6.9080307843e+01   2.8063762450e+00    0.3884751    0.1694526 -49.71  0.001393511    3.422    0.708
        90 -11.0419    176.6237     33.5910   5.1374979140e+01   3.6930785933e+01    0.2889658    0.2517379  69.06 0.0006300644    1.095    0.086
        91  -9.9786     97.1353     34.0747   6.9143450752e+01   5.6053867646e+01    0.2201287    0.1748381  13.20 0.0007584837    1.250    0.200
        92  -9.5678    249.7829     31.9576   4.2120671144e+01   1.9371025821e+01    0.1703588   0.09613086 -34.02 0.0003847876    1.648    0.393
        93 -10.5302    151.2814     31.8298   5.5202840286e+01   4.3654076292e+01    0.4078671     0.259432  62.74  0.001915237    1.510    0.338
        94 -10.2421    104.2272     29.4532   6.5229237582e+01   5.5186782772e+01    0.2644162    0.1224499  47.59 0.0009074967    2.014    0.503
        95  -9.7147    216.2686     28.5508   4.4686411132e+01   2.7573791927e+01    0.1851687    0.1208729  58.98 0.0009367818    1.563    0.360
        96 -10.0042    109.1673     28.0456   6.3322791884e+01   5.4281241821e+01    0.2269949    0.1762982  20.22  0.001220864    1.293    0.226
        97 -10.4709    167.5737     27.0735   5.0806143026e+01   4.0070788004e+01    0.3557186    0.1980366  79.49  0.001494218    2.081    0.520
        98 -11.9871    241.0456     22.4834   4.0726759577e+01   2.2495677045e+01    0.5657485    0.2987417  87.51 0.0009137993    2.068    0.516
        99 -10.1354     90.3958    146.1845   1.0344970291e+02   3.3512193410e+01     0.208162    0.1306421 -71.92 0.0009493377    1.691    0.409
       100 -11.6802    149.8088     21.3999   5.1964299283e+01   4.5271547680e+01    0.3991531     0.331813  64.91  0.002039368    1.131    0.116
       101 -10.4901    139.3461     20.9378   5.3751139170e+01   4.7952331682e+01    0.2735092    0.1891681  53.42 0.0005715727    1.317    0.241
       102 -10.1741    143.2831     17.9881   5.1974235536e+01   4.7289575883e+01    0.2396822    0.1721594  51.74 0.0003033187    1.273    0.214
       103 -10.9505    208.9339     19.0513   4.3025839291e+01   3.0508065726e+01    0.3532261    0.2608877 -59.77  0.001515056    1.285    0.222
       104 -11.4323    214.5634    142.9196   7.4041268850e+01   9.3325644263e+00    0.4860181    0.2484676  48.16  0.002039808    2.068    0.516
       105 -11.6815     76.4948    137.4928   1.0554678854e+02   3.7734649440e+01    0.2710999    0.1937766 -47.21  0.001392988    1.452    0.311
       106 -11.6679     33.5952    135.7636   1.1675205307e+02   4.3342360476e+01    0.3059099    0.1945683  43.03  0.001137666    1.709    0.415
       107 -12.0357    199.0950    130.3020   7.4057725187e+01   1.4933281265e+01    0.4811963    0.1929105 -31.01  0.001564826    3.001    0.667
       108  -9.8363    240.6395     34.0993   4.3490143404e+01   2.1133891365e+01    0.1863197    0.1531583 -44.76 0.0004902415    1.134    0.118
       109 -10.9579    122.1156    127.4073   9.1179516989e+01   3.2252255044e+01    0.3973144    0.3591748 -62.22  0.001233704    1.089    0.081
       110 -12.1316    205.8384    125.8398   7.1655950387e+01   1.4290705109e+01    0.5291585    0.3073616 -58.04   0.00204659    2.451    0.592
       111 -11.5280    218.2640    121.4319   6.8277880811e+01   1.2390510979e+01    0.2860909     0.140282  45.22  0.001149945    2.160    0.537
       112 -10.0380    193.3162    113.3454   7.0976529191e+01   1.9459703863e+01    0.1609857    0.1216515   5.66 0.0004801933    1.719    0.418
       113 -10.4159    249.8369    243.1937   8.7140069960e+01  -1.1095909303e+01    0.1605644    0.1032609   9.42 0.0002935347    1.322    0.244
       114  -9.9299    124.0073    205.9798   1.0520507929e+02   1.4781736295e+01    0.1816176    0.1606839  53.74 -0.007547014    1.028    0.028
       115  -9.1724    246.2984    183.6473   7.7029337778e+01  -3.0842141510e+00    0.1169439    0.1027045 -55.79 0.0007036025    1.693    0.409
       116 -10.5274     34.4996    177.1304   1.2104818420e+02   3.3645000930e+01    0.2109212    0.1717857   2.58  0.001343618    1.964    0.491
