#   1 NUMBER                 Running object number                                     
#   2 MAG_AUTO               Kron-like elliptical aperture magnitude                    [mag]
#   3 X_IMAGE                Object position along x                                    [pixel]
#   4 Y_IMAGE                Object position along y                                    [pixel]
#   5 X_WORLD                Barycenter position along world x axis                     [deg]
#   6 Y_WORLD                Barycenter position along world y axis                     [deg]
#   7 A_WORLD                Profile RMS along major axis (world units)                 [deg]
#   8 B_WORLD                Profile RMS along minor axis (world units)                 [deg]
#   9 THETA_WORLD            Position angle (CCW/world-x)                               [deg]
#  10 FWHM_WORLD             FWHM assuming a gaussian core                              [deg]
#  11 ELONGATION             A_IMAGE/B_IMAGE                                           
#  12 ELLIPTICITY            1 - B_IMAGE/A_IMAGE                                       
         1 -12.9499    194.3598     31.6180   6.6809090926e+01   3.2641860280e+01    0.9328334    0.8364261  29.92  0.005653495    1.408    0.290
         2 -13.7480    208.3734     14.1571   6.0964483379e+01   3.1305624510e+01     1.369921    0.9822493  34.55   0.00764293    2.020    0.505
         3 -12.7265      3.1450      8.9401   1.1370478271e+02   7.1255627810e+01     1.345026    0.2756046 -41.54  0.006074185    3.533    0.717
         4 -12.0213     50.7036    235.5249   1.4182531848e+02   1.9636489457e+01    0.3866784    0.2697025 -86.68  0.001330347    1.270    0.212
         5 -12.1191    140.4055    249.2432   1.2601435897e+02   3.0407195271e+00    0.5171829    0.3080226  49.63  0.002781531    1.433    0.302
         6 -12.3995    127.8139    245.0186   1.2795548173e+02   5.9425716005e+00    0.4248886    0.3817195  52.04  0.002793355    1.116    0.104
         7 -12.8183     99.0826    245.7023   1.3367095534e+02   1.0572913370e+01    0.8151541     0.274653  50.04  0.003382853    2.569    0.611
         8 -11.7121     74.4945    244.6808   1.3823713809e+02   1.4530891263e+01     0.307191    0.2615065 -14.75  0.001923222    2.160    0.537
         9 -11.4809     65.4219    248.9548   1.4029335349e+02   1.5013057552e+01    0.3142067    0.2097823  60.45 0.0008593847    1.179    0.152
        10 -11.0919     41.3332    206.4730   1.4102778701e+02   2.6910033500e+01    0.2894281    0.2310912 -69.68 0.0002471847    1.317    0.241
        11 -14.6726      7.1303    245.0135   1.4996023096e+02   2.2884896018e+01     2.665272     1.565251  47.21   0.01877477    1.602    0.376
        12 -14.1475      8.8837    207.3692   1.4736142433e+02   3.0225469652e+01     2.141075    0.8139991 -81.94   0.01070306    2.260    0.558
        13 -15.0236     52.3268    209.4910   1.3909884989e+02   2.4871679081e+01     8.407276    0.8379726  47.22   0.02231892    7.057    0.858
        14 -11.2688     62.8977    195.2484   1.3528586292e+02   2.6627278962e+01    0.3572313    0.2475793 -46.60  0.001387019    1.829    0.453
        15  -9.5598    192.4850    193.9654   1.0600269604e+02   3.4745395337e+00    0.2047756    0.1290313 -67.14 0.0008093991    2.765    0.638
        16 -11.6946     55.1837    230.5802   1.4055702538e+02   2.0042091308e+01    0.3803451     0.243157 -85.87  0.002304768    1.428    0.300
        17 -11.5108     68.6910    187.6127   1.3302540816e+02   2.7566755183e+01    0.3011658    0.2418576 -54.25 0.0008152141    1.391    0.281
        18 -10.7230     78.4230    175.5487   1.2902661352e+02   2.8963605007e+01    0.2541238    0.2305129 -84.39 0.0004482683    1.061    0.057
        19 -12.8319     65.3536    173.2462   1.3182937685e+02   3.1405696171e+01    0.5240843    0.2788975 -44.98  0.001495242    2.334    0.571
        20 -11.7308     86.1390    166.7765   1.2572161111e+02   2.9853432426e+01    0.7186906    0.5547062  51.93  0.003832248    1.290    0.225
        21 -15.3746      9.0001    150.9137   1.4248932668e+02   4.2679996883e+01     6.925041     2.158191 -82.17   0.02457996    4.073    0.754
        22  -9.9996     98.4846    150.7622   1.1960793737e+02   3.1642636170e+01    0.2825331     0.266946  87.00 0.0008023216    1.022    0.022
        23 -12.2288     67.6103    144.0260   1.2657046172e+02   3.8109000444e+01    0.7393301    0.5106813  68.66  0.002645768    1.718    0.418
        24 -11.5799     58.2864    134.1473   1.2733807513e+02   4.1712296664e+01    0.6474731    0.2958606 -77.44  0.002241544    3.548    0.718
        25  -8.7613    134.3682    148.7350   1.0989623603e+02   2.5217081090e+01    0.2152276    0.1461129 -41.86 0.0005446867    1.552    0.356
        26 -11.7485     87.0344    149.9891   1.2248092489e+02   3.3753313793e+01    0.2997931    0.2555101 -44.52 0.0004936618    1.243    0.195
        27 -10.6235    249.1129    248.1871   1.0495540308e+02  -1.4523971287e+01    0.2630506    0.1369791  24.20  0.001445827    1.765    0.434
        28  -8.7023    192.3371    144.2214   9.5337293226e+01   1.3434627062e+01    0.2109766    0.1403836 -50.18 0.0004014813    1.558    0.358
        29 -11.3438     58.2247    240.5095   1.4087014529e+02   1.7642169590e+01    0.3743207    0.1753876  86.12  0.001764388    2.621    0.619
        30  -9.5341    110.0524    136.3691   1.1346720162e+02   3.2974240274e+01    0.3035226     0.207368 -35.56 0.0009281275    1.677    0.404
        31 -10.3030     97.1933    133.5066   1.1634312355e+02   3.6000060756e+01    0.2815866    0.2263269 -29.65 0.0005226827    1.425    0.298
        32 -10.4743     50.1457    129.9742   1.2886342610e+02   4.3686710525e+01    0.2135279     0.192692  52.73 0.0006587546    1.233    0.189
        33  -9.0287    106.9849    123.3050   1.1126274065e+02   3.6612162023e+01    0.2016475    0.1864988  39.44 0.0002374032    1.116    0.104
        34 -12.4688     36.3636    228.4631   1.4387956676e+02   2.2867146211e+01    0.3412405    0.2896161 -77.16 0.0007585161    1.368    0.269
        35 -10.4991    168.0545    113.1647   9.3056324869e+01   2.5508044106e+01    0.3613425    0.2995605 -82.11 0.0009948668    1.404    0.288
        36  -8.5553    203.3373    111.3362   8.5255520489e+01   1.7488082535e+01    0.1562223    0.1226878  10.48 0.0007051638    1.750    0.429
        37 -14.0896     43.1288    219.7211   1.4188496313e+02   2.3850304398e+01     1.001038    0.6910657  61.64  0.003955926    1.226    0.184
        38 -12.2063     81.6684    249.2290   1.3733814943e+02   1.2602710696e+01    0.6498145    0.2732289  35.01  0.002904246    2.780    0.640
