#   1 NUMBER                 Running object number                                     
#   2 MAG_AUTO               Kron-like elliptical aperture magnitude                    [mag]
#   3 X_IMAGE                Object position along x                                    [pixel]
#   4 Y_IMAGE                Object position along y                                    [pixel]
#   5 X_WORLD                Barycenter position along world x axis                     [deg]
#   6 Y_WORLD                Barycenter position along world y axis                     [deg]
#   7 A_WORLD                Profile RMS along major axis (world units)                 [deg]
#   8 B_WORLD                Profile RMS along minor axis (world units)                 [deg]
#   9 THETA_WORLD            Position angle (CCW/world-x)                               [deg]
#  10 FWHM_WORLD             FWHM assuming a gaussian core                              [deg]
#  11 ELONGATION             A_IMAGE/B_IMAGE                                           
#  12 ELLIPTICITY            1 - B_IMAGE/A_IMAGE                                       
         1 -12.2756    221.5806     37.4518   2.8949402752e+02   6.0134667791e+00    0.1279755   0.06661992  76.33  0.008240967    4.846    0.794
         2 -10.9016    215.0364      3.8506   2.8936108555e+02   6.4387338981e+00   0.03117467    0.0206542  62.39  0.002913523    1.900    0.474
         3 -13.3095    223.3635     16.7340   2.8934489958e+02   6.2406022158e+00    0.1470669   0.06372937  39.49   0.01145312    2.287    0.563
         4 -11.7703    232.2498      9.7165   2.8919875378e+02   6.2675147673e+00   0.03042017   0.01739649 -53.21  0.002047794    1.692    0.409
         5 -10.1209    192.8774     13.9067   2.8967948513e+02   6.4569300703e+00   0.03286992     0.013044  52.45  0.002153831    4.184    0.761
         6 -10.0970     15.2468     12.5078   2.9172735121e+02   7.5390340178e+00   0.01759851  0.009383746 -67.77  0.001597166    2.035    0.509
         7  -8.3198    115.9121     12.5373   2.9056119375e+02   6.9357953008e+00   0.01212384  0.008684315  15.91 0.0007729077    1.505    0.336
         8 -10.3224    120.3635      9.1103   2.9048842764e+02   6.9484257591e+00   0.01929032   0.01784712  57.85  0.001578192    1.126    0.112
         9 -10.1258    173.4452      4.5945   2.8984632001e+02   6.6809485981e+00   0.03900756   0.02108523  83.67  0.002795752    3.869    0.742
        10  -9.9543    180.5209      5.5348   2.8977035175e+02   6.6275243481e+00    0.0362336   0.01358242  49.60  0.002435235    3.895    0.743
        11  -8.4318    163.2016      4.4889   2.8996411666e+02   6.7438514568e+00   0.01667169   0.00943592 -87.65  0.001365322    2.823    0.646
        12  -9.6401    248.6224      2.6346   2.8896583399e+02   6.2498994045e+00   0.02190372   0.01482007  42.96  0.002296174    1.514    0.339
        13  -8.3110     44.3292      3.6708   2.9133553044e+02   7.4667823063e+00  0.007037704  0.004981627  63.20 0.0007051359    1.711    0.415
        14  -8.5287      1.7632      1.9624   2.9181852993e+02   7.7406924445e+00  0.009046341  0.005469106 -60.49 0.0008836381    1.632    0.387
        15  -8.0739    104.5179      1.5273   2.9062488896e+02   7.1306964596e+00   0.00650618  0.006476415 -30.30 0.0008097676    1.009    0.009
        16  -8.4542     53.5140      1.5175   2.9121573941e+02   7.4365629125e+00  0.006552192  0.006431563  64.96 0.0003650284    1.044    0.042
        17  -8.7854    233.9741    145.4790   2.9002009890e+02   4.6971030385e+00  0.009887391  0.006522854  27.02 0.0005828709    1.526    0.345
        18  -9.4118    126.8309    250.0158   2.9190081605e+02   4.1374289937e+00   0.01320848  0.007965277  41.59  0.001297063    1.687    0.407
        19  -7.7612    192.4637    144.4778   2.9049280410e+02   4.9583896126e+00  0.006539448  0.006448334  70.81 6.232887e-05    1.036    0.035
        20  -7.9260    132.4854    138.4978   2.9114855258e+02   5.3875383016e+00  0.006569784  0.006439258 -30.50 0.0008104775    1.013    0.013
        21  -8.6120    197.0211    127.8716   2.9033754622e+02   5.1220237510e+00  0.009788563  0.009547416 -34.90 0.0004571649    1.017    0.017
        22  -8.4335    201.8332    125.8206   2.9026931979e+02   5.1166618699e+00  0.009204634  0.007694206  63.95 0.0004771343    1.320    0.242
        23  -8.1867    129.5358    123.3289   2.9108898299e+02   5.5798371255e+00   0.00869257  0.006093956 -49.05 0.0006472224    1.409    0.290
        24 -10.6557    243.0704    118.8421   2.8975040282e+02   4.9486072877e+00   0.01548944   0.01447773  40.83 0.0005671704    1.082    0.076
        25  -7.4974    205.6640    121.7081   2.9019966931e+02   5.1409111601e+00  0.006930345  0.004987366 -23.77 0.0005183303    1.640    0.390
        26  -8.6858    200.5111    115.9709   2.9022365590e+02   5.2379103299e+00    0.0100298  0.006540235 -63.56 0.0006438345    1.548    0.354
        27  -9.7797    187.6796    113.9529   2.9035931286e+02   5.3383300947e+00   0.01183496  0.009558488   4.80  0.001333291    1.356    0.263
        28  -9.9881    240.6564    111.4189   2.8973228680e+02   5.0484917194e+00   0.01482078  0.009922748 -71.79  0.001513051    1.629    0.386
        29  -8.8449    205.6462    109.9677   2.9012723946e+02   5.2760439993e+00   0.01291461  0.007723864   3.04  0.001143884    2.334    0.571
        30 -10.1817    188.3773    105.0855   2.9029640090e+02   5.4361256705e+00   0.01803494   0.01202707 -72.54  0.001008468    1.651    0.394
        31 -11.0472    244.8579    100.5137   2.8961630691e+02   5.1485247284e+00   0.02338149   0.01755847 -51.42  0.001833387    1.309    0.236
        32  -8.5717    192.6024    100.2403   2.9021763252e+02   5.4664241860e+00  0.009494031  0.005866333 -50.41 0.0003607758    1.586    0.370
        33  -8.4059    144.0568     97.9337   2.9076421649e+02   5.7848681994e+00   0.01091805  0.007707153 -25.76  0.001119012    1.670    0.401
        34 -10.7979    186.6962     91.5013   2.9023175393e+02   5.6024670724e+00   0.04343724   0.01315894 -67.11  0.002686701    4.421    0.774
        35  -9.1731    150.5336     91.1475   2.9064738778e+02   5.8240195003e+00   0.01764399    0.0111367 -33.43  0.001308886    1.848    0.459
        36  -8.5567    135.7740     90.4522   2.9081370779e+02   5.9206931659e+00   0.01237136  0.009460052  61.79 0.0009389832    1.497    0.332
        37 -10.0335    242.9150     89.1780   2.8956849604e+02   5.2905216119e+00   0.01577977  0.009176554 -55.57  0.001281519    1.662    0.398
        38 -10.4977    241.8217     83.1728   2.8954390004e+02   5.3661251957e+00   0.01799915   0.01372096  47.95  0.001993633    1.376    0.273
        39 -10.4197    183.2595     78.4067   2.9019038776e+02   5.7737199376e+00   0.02973697   0.02202766 -83.08  0.003189098    1.566    0.361
        40 -11.7399    176.2412     64.4810   2.9018523875e+02   5.9760613683e+00   0.05471757   0.03890024  77.70  0.005599316    1.812    0.448
        41  -9.0385    159.6866     81.6801   2.9048302638e+02   5.8778904843e+00   0.01305058  0.009984472 -21.66  0.001022548    1.496    0.331
        42 -10.0003    163.0615     78.7794   2.9042607083e+02   5.8909535579e+00   0.01691097   0.01403405 -44.70 0.0009946182    1.204    0.170
        43  -9.6965    144.3410     79.2227   2.9064520622e+02   5.9983969098e+00   0.01554805   0.01190173 -70.18 0.0007551115    1.365    0.268
        44  -8.7462    231.6656     80.0701   2.8964183869e+02   5.4630132195e+00    0.0116577   0.00874952  39.51 0.0007405077    1.340    0.254
        45 -10.1135    236.9151     77.3825   2.8956462053e+02   5.4622495744e+00   0.01519821  0.009623423 -79.73   0.00145558    1.953    0.488
        46  -7.6646    212.7455     78.6520   2.8985140728e+02   5.5933377381e+00  0.006897778  0.004804781 -33.97 0.0002116366    1.592    0.372
        47  -8.4663    220.4590     74.4540   2.8973636473e+02   5.5951072290e+00   0.01946927   0.01328605   8.21  0.001980586    1.728    0.421
        48 -10.9476    159.6335     67.1969   2.9039399428e+02   6.0447556913e+00   0.01774916    0.0112429 -48.11  0.001526324    1.568    0.362
        49 -10.1822    202.4975     61.2046   2.8986163295e+02   5.8556127455e+00   0.04045919   0.01877647  63.01  0.002415636    5.408    0.815
        50  -9.2055    195.8466     56.8810   2.8991165449e+02   5.9453680654e+00    0.0169807   0.01230775 -19.43 0.0006754998    1.658    0.397
        51 -10.2719    186.4321     39.9464   2.8991545699e+02   6.1966716054e+00   0.04741159   0.02297723  63.26  0.003155555    4.356    0.770
        52  -9.7108    200.5206     53.5525   2.8983704089e+02   5.9554588725e+00   0.02255413   0.01406851  75.49  0.002021387    2.407    0.585
        53 -11.1131    196.1180     45.7526   2.8983954578e+02   6.0716096088e+00   0.02805131   0.02047889 -69.30  0.001261484    1.434    0.303
        54 -10.2565    229.7991     61.4952   2.8954825798e+02   5.6877086989e+00   0.02638628    0.0182205  70.15  0.002021826    1.873    0.466
        55  -9.7831    209.0442     62.2205   2.8979233237e+02   5.8044911662e+00   0.04380727   0.01987136  62.90  0.002419671    6.326    0.842
        56  -9.2703    144.1073     59.2283   2.9052416612e+02   6.2297303288e+00   0.01367551   0.01064821  49.81 0.0006324775    1.358    0.264
        57  -7.5335     72.7609     58.3606   2.9134437998e+02   6.6678358955e+00  0.006642813  0.005050806  75.59 0.0002772218    1.592    0.372
        58  -9.9943    185.5236     55.8185   2.9002432333e+02   6.0197515222e+00   0.01319603   0.01207611 -40.12 0.0003807117    1.093    0.085
        59  -8.4713    245.3080    249.6742   2.9053287712e+02   3.4305001906e+00  0.006914993  0.005025004  64.65 0.0007037388    1.653    0.395
        60 -10.0710     73.3141    248.4429   2.9250877345e+02   4.4758356973e+00    0.0132117   0.01142078   4.99  0.001555218    1.224    0.183
        61 -11.8154      3.4730    240.9711   2.9326934277e+02   4.9788627197e+00   0.04760461    0.0232214 -62.18  0.004257891    2.043    0.511
        62 -10.8438    162.3873     50.9926   2.9026181105e+02   6.2144778823e+00   0.03559582   0.01719936  54.10  0.002815869    2.895    0.655
        63  -8.4262    154.5606     54.2473   2.9037245481e+02   6.2241444856e+00   0.01009726  0.005726798 -48.96 0.0009565349    1.742    0.426
        64 -11.9904    178.9360     43.1057   2.9002166325e+02   6.2055158823e+00   0.03004676   0.01344203 -47.17  0.001999776    2.268    0.559
        65  -8.7312    135.9317     47.1327   2.9054383178e+02   6.4179294712e+00  0.009883348  0.009266772 -42.91 0.0005663402    1.059    0.056
        66  -9.4546    250.2129     42.8309   2.8919698840e+02   5.7789212483e+00   0.01103086  0.009098779 -51.58 0.0004055273    1.195    0.163
        67 -10.4361    202.8988     38.9049   2.8971876606e+02   6.1094184936e+00   0.01802667   0.01297638 -25.22  0.001001418    1.625    0.385
        68  -9.0675     75.7485     38.0942   2.9118447108e+02   6.8830052684e+00   0.01552284   0.01025837  83.88  0.001476738    2.093    0.522
        69 -10.4546    131.6366     37.6183   2.9053459756e+02   6.5531071627e+00   0.02002791  0.009480034  32.47  0.001778778    2.042    0.510
        70  -7.7804     49.3014     38.6823   2.9149444909e+02   7.0345870149e+00  0.006838242  0.005027033  64.55   0.00060695    1.621    0.383
        71  -8.9820    242.7484     32.8231   2.8922100879e+02   5.9388901487e+00   0.01786277   0.01369246  61.19   0.00153554    1.486    0.327
        72  -7.6421    250.2904     31.3296   2.8912473198e+02   5.9105040580e+00  0.006947695  0.004904595 -29.70 0.0007017942    1.623    0.384
        73  -7.8674    158.4923     34.2095   2.9020285632e+02   6.4307956023e+00   0.00895822  0.006453267 -83.50 0.0009232181    1.643    0.391
        74  -9.9902     69.9434     27.8271   2.9118819154e+02   7.0358203365e+00    0.0210411   0.01293891  83.03  0.001210751    2.494    0.599
        75  -8.1144    198.1279     27.1383   2.8970090389e+02   6.2733308515e+00   0.01085694  0.007605808  63.44  0.001101163    1.742    0.426
        76  -9.3178    179.7152     23.7036   2.8989237077e+02   6.4237287517e+00   0.02156357   0.01413912  20.15  0.002203923    1.620    0.383
        77  -7.4201    162.6777     24.6966   2.9009549365e+02   6.5149079669e+00  0.006938079  0.004967483 -25.57 0.0003155921    1.635    0.388
        78 -10.2853    144.8875     23.5734   2.9029428285e+02   6.6348474924e+00   0.01174095   0.01112016 -39.17 0.0002915699    1.051    0.049
        79 -10.2504     67.5118    245.2556   2.9255619258e+02   4.5472373606e+00   0.01238525   0.01127432 -17.45 0.0002834731    1.143    0.125
        80  -8.6856    154.9802     18.7172   2.9014743983e+02   6.6299222951e+00  0.009219599  0.008565136  31.75 0.0003696636    1.080    0.074
        81  -9.4905    248.0068     17.3127   2.8906407552e+02   6.0851869723e+00   0.02033565   0.01117363  51.22  0.001831425    2.159    0.537
        82  -9.4027    236.1152    237.0272   2.9056078295e+02   3.6311917991e+00   0.01501785  0.008685488 -12.03  0.001229037    2.834    0.647
        83  -7.8889    134.0369    231.4579   2.9170353648e+02   4.3079327068e+00  0.008879466  0.005638029 -11.14 0.0004516102    2.216    0.549
        84 -10.6553    150.0752     42.9015   2.9035404536e+02   6.3815379411e+00   0.03440421  0.009878482  42.00  0.002297624    3.717    0.731
        85  -7.6343    184.5125     12.5212   2.8976756111e+02   6.5232520915e+00  0.006520838  0.006471543 -30.60 3.104193e-05    1.004    0.004
        86 -12.6645     20.8592    221.7889   2.9295098848e+02   5.0961992360e+00   0.03917822   0.03473399  79.52  0.002567737    1.226    0.184
        87  -8.5434     45.1460    224.1626   2.9268501158e+02   4.9238693723e+00   0.01004936  0.008670192 -23.08 0.0004558512    1.231    0.188
        88 -12.8384     39.7474    203.5001   2.9262053133e+02   5.1941600121e+00   0.05665028   0.04546703   5.72  0.002830325    1.363    0.266
        89 -11.8066     45.4769    196.8342   2.9251337968e+02   5.2367309105e+00   0.03798101   0.02384988  44.13  0.003827216    1.656    0.396
        90  -9.8819    187.9597    191.4143   2.9083459959e+02   4.4453438843e+00   0.01135179  0.009819532 -59.27 0.0001971328    1.147    0.128
        91 -11.4538     57.7669    184.1324   2.9229327311e+02   5.3096017386e+00   0.04278644   0.04024777 -60.37  0.005316711    1.059    0.056
        92  -7.5712    243.2717     11.3198   2.8908150396e+02   6.1825620010e+00  0.006811405  0.004891291 -30.88 0.0003477799    1.566    0.362
        93  -8.2647    213.2872    167.2381   2.9039317056e+02   4.5712946929e+00   0.01725883  0.005669476  47.61  0.001067756    4.402    0.773
        94  -8.8227     15.9505    151.7235   2.9257749718e+02   5.9326958530e+00  0.009381264  0.008687097  16.80 0.0004988192    1.093    0.085
        95 -10.0783     67.5575    144.2532   2.9193462380e+02   5.7103631394e+00   0.02603854   0.01729218  49.37  0.001719439    1.639    0.390
