#   1 NUMBER                 Running object number                                     
#   2 MAG_AUTO               Kron-like elliptical aperture magnitude                    [mag]
#   3 X_IMAGE                Object position along x                                    [pixel]
#   4 Y_IMAGE                Object position along y                                    [pixel]
#   5 X_WORLD                Barycenter position along world x axis                     [deg]
#   6 Y_WORLD                Barycenter position along world y axis                     [deg]
#   7 A_WORLD                Profile RMS along major axis (world units)                 [deg]
#   8 B_WORLD                Profile RMS along minor axis (world units)                 [deg]
#   9 THETA_WORLD            Position angle (CCW/world-x)                               [deg]
#  10 FWHM_WORLD             FWHM assuming a gaussian core                              [deg]
#  11 ELONGATION             A_IMAGE/B_IMAGE                                           
#  12 ELLIPTICITY            1 - B_IMAGE/A_IMAGE                                       
         1 -12.4002    135.4324      5.0673   6.9019371259e+01   5.0084555742e+01     1.927502    0.6625731  49.43  0.008120492    2.362    0.577
         2 -12.2914     81.6164     78.1683   1.0766032725e+02   5.1114553243e+01     1.731109    0.4802543 -48.98            0    3.843    0.740
         3 -11.7181     99.0841     59.4605   9.6152751371e+01   5.1404213478e+01     2.782659     1.508444  -6.51  0.008879249    4.511    0.778
         4 -12.6605     82.4052     55.4343   1.0013784539e+02   5.5119416028e+01     1.898094     1.310729  32.27  0.006022543    1.398    0.285
         5 -12.0800     62.2353      4.0886   8.7289016967e+01   6.5141063973e+01     2.075814     0.590759  51.73  0.007678808    4.489    0.777
         6 -12.9861     30.5056     86.5289   1.2732150510e+02   5.5639042421e+01     2.195673     1.420486  72.40   0.01085098    2.725    0.633
         7 -12.2602    130.0546     20.3736   7.4934697581e+01   4.9921482334e+01     1.256497    0.7411134  61.41  0.005582031    1.526    0.345
         8 -12.1604      8.7685     26.4038   1.1926053353e+02   6.8512638420e+01     1.240844     0.363205  15.51  0.005530392    4.138    0.758
         9 -13.3691      5.4622     11.8569   1.1540449109e+02   7.0928640292e+01     1.195471    0.6625732 -33.72   0.00607914    1.378    0.274
        10 -12.0633    116.2723      6.4852   7.3255755740e+01   5.4353874621e+01     1.341386    0.3610971  48.82  0.004421126    2.765    0.638
        11 -12.1138    112.9496     21.7792   7.9303858542e+01   5.3643519777e+01    0.7395191    0.5715512 -33.26  0.002199436    1.494    0.331
        12 -12.5390    117.1874     15.4691   7.6124421347e+01   5.3343370910e+01    0.2946197     0.261623  52.09 0.0002628188    1.104    0.094
        13 -11.8891     24.8917     35.8872   1.1535934016e+02   6.5754648453e+01    0.6401969    0.2459915 -55.05  0.001135735    3.735    0.732
        14 -11.9901     29.5944     25.9005   1.0963941614e+02   6.6865483913e+01     1.057003    0.3433914 -36.98  0.004960915    2.674    0.626
        15 -12.9436     61.5597     70.7408   1.1228163842e+02   5.5533313843e+01      3.51986     2.372934  73.26   0.01469375    3.702    0.730
        16 -10.8995     52.1747     36.4287   1.0428196957e+02   6.2690506946e+01      1.93527     1.265039 -40.60   0.01153787    1.612    0.380
        17 -12.8057     40.2823     65.5412   1.1851051486e+02   5.9027774741e+01     1.620665       1.2959  43.64   0.01029414    1.645    0.392
        18 -12.1331     19.1775     13.6506   1.0946065503e+02   6.9587534525e+01    0.7177273    0.4106369  20.84  0.003814701    1.684    0.406
        19 -12.4675     17.8676     40.7524   1.1999396901e+02   6.5503167156e+01    0.8584717    0.7430947 -55.55  0.005757241    1.499    0.333
        20 -12.2035     37.9261     46.1186   1.1341278349e+02   6.2806751679e+01     1.074712    0.7291831  48.91  0.006120271    2.412    0.585
        21 -12.3908     43.5606     16.6722   9.9889270491e+01   6.6521200203e+01     1.633488    0.8448616  -8.06  0.008351108    2.408    0.585
        22 -11.0250     26.9230      4.5027   1.0180579053e+02   6.9964821893e+01      0.73745    0.3638884  23.19  0.004137954    1.855    0.461
        23  -9.7778    207.7709     44.4291   6.8438257458e+01   2.7869874838e+01     2.449711    0.6351514 -51.24  0.006326054    6.156    0.838
        24 -10.4789    210.4933     33.1492   6.5397555152e+01   2.8720367459e+01    0.5859308    0.3588246 -73.24  0.002887984    1.764    0.433
        25 -11.4340     69.8044     19.4712   9.1084471670e+01   6.2295564400e+01     1.294568    0.4870591  32.58  0.005488779    2.820    0.645
        26 -10.0808    177.9581     20.4730   6.6599549956e+01   3.8253492161e+01    0.6176183    0.4083296  23.18  0.003029352    2.285    0.562
        27  -9.4483    184.5740     14.3651   6.4123594614e+01   3.7274355400e+01    0.4023634    0.1573222  57.52   0.00141485    2.167    0.539
        28 -10.1668    186.7099     21.2697   6.5586460726e+01   3.5995953331e+01    0.7010114    0.3083051 -53.09  0.002716835    2.699    0.630
        29 -12.7132     73.2125     30.7523   9.4345007940e+01   6.0341366347e+01     2.711184     1.021783  45.48   0.01169094    2.676    0.626
        30 -10.5042    167.8547     25.9318   6.9611223585e+01   4.0153607338e+01    0.6868956    0.4473027  47.88  0.003548063    1.503    0.334
        31 -11.0731    147.6072     26.2358   7.3250943710e+01   4.5109901139e+01    0.7384617    0.4637658  21.86  0.002829743    2.197    0.545
        32  -9.7457    154.1157     24.3935   7.1505911640e+01   4.3724259326e+01    0.4824663    0.2687291 -39.36  0.002334231    2.004    0.501
        33 -10.2106    169.9674     13.7918   6.5976004213e+01   4.0933669790e+01    0.2588941    0.1889433 -53.47 0.0003080346    1.509    0.338
        34 -11.7290    164.6738      7.0277   6.4908189016e+01   4.2883747957e+01    0.8253325    0.5466422 -26.00  0.003115552    1.826    0.452
        35 -10.5715    161.8556     17.1939   6.8139903069e+01   4.2586813076e+01     0.440374    0.2977628  60.95  0.001547683    1.247    0.198
        36 -10.4069    156.5889     16.2837   6.8732738819e+01   4.3972750388e+01    0.4600477    0.3653597 -22.02  0.002363421    1.513    0.339
        37 -11.1275    149.8197     16.4559   6.9928097639e+01   4.5606312014e+01    0.8363727    0.4235234  36.07  0.003380909    2.413    0.585
        38 -10.9758    147.8739     11.1923   6.8705770845e+01   4.6583880563e+01    0.4483127    0.3682171 -69.55 0.0007035075    1.392    0.282
        39 -10.9029    247.8668      5.3250   5.5799567235e+01   2.3481126228e+01    0.6684269    0.4253308 -62.59  0.004171707    1.324    0.245
        40  -9.1050    241.9353      1.6570   5.5549264346e+01   2.5173867038e+01    0.1765797    0.1252766 -86.43 0.0009863705    1.113    0.101
        41 -10.0416    232.3006     19.2745   5.9925774153e+01   2.5312998475e+01     0.536261    0.3509054 -43.38  0.001568713    1.538    0.350
        42 -10.7940    233.0556     10.8129   5.8103585575e+01   2.6130909110e+01    0.4143223    0.2862651 -54.54  0.001295844    1.343    0.256
        43  -9.9827    243.3969     12.9466   5.7638835906e+01   2.3579100230e+01    0.3206876    0.2597522  66.67  0.001828449    1.394    0.283
        44 -10.6240    244.8140     19.5383   5.8826588996e+01   2.2478129056e+01    0.5147741     0.264843  82.74  0.002208397    1.827    0.453
        45 -10.2500    239.3923     16.6052   5.8718904164e+01   2.4033211285e+01     0.499181    0.1966346 -49.09  0.001817146    2.277    0.561
        46 -11.0895    202.6089     19.6708   6.3182445166e+01   3.2276338565e+01    0.4340227     0.299263  74.44  0.001261544    1.243    0.196
        47 -10.5001    212.2330     14.5194   6.0917008290e+01   3.0546317295e+01    0.5120003    0.2593508 -43.06  0.002594404    1.966    0.491
        48 -13.7201     99.3024      7.0733   7.7429797488e+01   5.7955795814e+01     1.023227     0.632056  33.71   0.00259616    1.446    0.308
        49  -9.7650    218.3697     13.7871   6.0121040096e+01   2.9178592690e+01    0.3428484     0.212663  81.07   0.00127468    1.391    0.281
        50 -10.1852    222.0924     11.7209   5.9307026417e+01   2.8541431219e+01    0.5968575    0.2874394 -86.31  0.002735098    2.271    0.560
        51  -9.3370    225.4115      9.1887   5.8457053643e+01   2.8055980048e+01    0.3439727    0.1487536  68.89  0.001322968    1.975    0.494
        52  -9.6377    189.4988      8.6458   6.2092592809e+01   3.6655645502e+01    0.9383661    0.2223397  52.35  0.003083552    4.203    0.762
        53 -10.8393    200.3255      6.6615   6.0395930416e+01   3.4235397164e+01    0.6851143    0.3506795 -49.23  0.003483467    1.999    0.500
        54 -10.4463    204.4817      6.8920   6.0007935502e+01   3.3215865565e+01    0.2875208    0.2506285  78.54  0.000568093    1.150    0.131
        55 -11.4756    208.6973      3.4885   5.8815374907e+01   3.2561926195e+01    0.6156536    0.3345087  86.42  0.001884369    1.671    0.402
        56  -9.5760    174.3699      8.9502   6.4079820220e+01   4.0328168199e+01    0.2558206     0.183078 -77.79 0.0006564118    1.451    0.311
        57 -10.0825    180.9897      4.6446   6.2129115069e+01   3.9119019619e+01    0.4712437    0.3849134 -45.98  0.002987368    1.379    0.275
        58  -9.9865    175.8741      4.2110   6.2656887341e+01   4.0406788557e+01    0.4433424    0.2445633  75.81 0.0007844362    1.575    0.365
        59  -9.0843    157.6637      6.4990   6.5788328590e+01   4.4639906979e+01    0.3157355    0.2430566 -51.73  0.001895517    1.483    0.326
        60  -9.7881    220.4225      2.7894   5.7562930540e+01   2.9893093186e+01    0.3489777    0.2487527  23.82  0.001938474    2.493    0.599
        61  -9.7176    223.7256      1.9981   5.7105312420e+01   2.9215834741e+01    0.3253763    0.2087124 -65.41 0.0008840358    1.409    0.290
        62  -8.6930     44.9549      5.0000   9.4208656621e+01   6.7668633349e+01    0.2491282   0.08983651  32.85 0.0007418173    2.549    0.608
        63  -9.0723     42.0000      3.9377   9.4937714780e+01   6.8182521865e+01    0.2513279    0.1238425 -22.16   0.00146076    1.935    0.483
        64  -8.1979     37.3245      5.6580   9.7694384562e+01   6.8606811843e+01   0.09308814   0.08848225 -12.91  0.000705094    1.732    0.422
        65  -9.6523    230.3808      2.7242   5.6686205900e+01   2.7625930933e+01    0.2690451      0.19314  55.83  0.001323257    1.637    0.389
        66  -8.6529    152.2691      5.5403   6.6342187714e+01   4.6031244007e+01    0.3488868    0.1533028  80.15  0.001373522    2.861    0.650
        67  -9.5690     37.3287    242.1597   1.4537716835e+02   2.0146143649e+01    0.2174349   0.08001671 -65.69  0.001095997    2.643    0.622
        68  -9.0279    184.1902    250.4007   1.1797332450e+02  -4.5186714679e+00    0.1916072    0.1019879  46.39 0.0009542707    1.722    0.419
        69  -8.9139    125.1706    249.8150   1.2959789110e+02   5.6989180221e+00    0.1728923    0.1441447  30.22  0.001081572    1.354    0.261
        70  -9.0402    211.0003    241.0220   1.1121411243e+02  -7.6081003335e+00    0.1542518    0.1327728   7.73 0.0008336105    1.100    0.091
        71 -12.1156     53.9093     87.6599   1.1961558482e+02   5.3042454972e+01     1.661823    0.8525863 -36.48  0.007728702    1.980    0.495
        72  -9.2549    114.0173    238.7982   1.3047069521e+02   9.5979563642e+00    0.1936614     0.134049  77.49  0.001061325    1.603    0.376
        73 -11.5478    107.8773     29.7481   8.3391601560e+01   5.3845330317e+01    0.8298757    0.4903705  55.56  0.001961133    1.646    0.393
        74  -9.4344     13.9288    237.1577   1.4906582636e+02   2.3778089632e+01    0.2776404    0.1253089 -57.02  0.001497618    2.975    0.664
        75  -9.5647     12.3525    232.3457   1.4904967463e+02   2.4883570658e+01    0.3022954    0.1321879  71.45  0.001571523    2.027    0.507
        76  -8.4390    222.3203    226.6743   1.0653018911e+02  -7.3434048561e+00     0.117955    0.1047159  68.68 0.0004622063    1.681    0.405
        77  -8.3438    109.5964    225.1956   1.2965892803e+02   1.3013714512e+01    0.1771411    0.1242788 -50.90  0.000955058    1.700    0.412
        78  -8.6288     40.6519    221.6774   1.4320116579e+02   2.3868081904e+01    0.1071121   0.09024959 -48.26 0.0007049288    1.743    0.426
        79  -8.3800    244.5122    204.5070   9.8191532382e+01  -7.5921417102e+00    0.1335807     0.110452   0.36 0.0008099439    1.054    0.051
        80  -8.6737    234.1260    200.8546   9.9423610608e+01  -5.2808277424e+00    0.1934759    0.1462556  -0.87  0.001077354    1.331    0.249
        81 -10.9996      6.0501    185.5754   1.4708606189e+02   3.5233108927e+01    0.5137132     0.166532  55.22  0.002309822    3.188    0.686
        82  -8.8692     35.4754    130.0800   1.3391741562e+02   4.5345925973e+01     0.195083    0.1083117 -64.85   0.00057645    1.505    0.336
        83 -10.9688    100.1211    115.3331   1.1203106644e+02   3.9953034113e+01     1.040688    0.3364933  46.10  0.003241453    3.494    0.714
        84  -8.8361     38.5452    115.0468   1.3048656823e+02   4.8556208021e+01    0.2667854    0.1186983 -72.86  0.001094105    2.615    0.618
        85  -9.8291     35.8710    109.3431   1.3024109270e+02   5.0118102168e+01    0.4542251    0.3086064  27.85  0.002036585    1.715    0.417
        86  -9.4109     13.4117    117.2944   1.3818105891e+02   5.0098924916e+01    0.2328773    0.2001094  24.91  0.001109443    1.451    0.311
        87  -9.3620     17.6788    116.6324   1.3687169672e+02   4.9949829422e+01    0.3679989    0.1024647 -44.50  0.001348062    3.892    0.743
        88  -9.0830     83.3279    114.2736   1.1675252656e+02   4.3049264100e+01    0.4310864    0.2388749  12.35  0.001521544    3.476    0.712
        89  -8.9672     23.0046    134.0369   1.3788623501e+02   4.5533635074e+01    0.1880178    0.1447906 -56.76 0.0004331279    1.186    0.157
        90 -10.1176    132.9986    112.0632   1.0198424406e+02   3.4067153794e+01    0.5046755    0.4228373 -54.20  0.002376693    1.229    0.187
        91  -9.8322    133.5576    103.2198   9.9462894312e+01   3.5842493037e+01    0.5057393    0.2524489 -44.32  0.001779395    2.029    0.507
        92  -9.3882     41.8605    118.1967   1.3007300360e+02   4.7497758502e+01    0.2614648    0.1810946  71.06 0.0007587462    1.857    0.461
        93 -10.4237     18.9417    184.4728   1.4435767401e+02   3.4310769886e+01    0.2468599    0.2093852  45.99  0.001758166    1.395    0.283
        94  -9.7063    105.5540    109.3893   1.0894040235e+02   4.0292495558e+01    0.3699023    0.2944257  19.59  0.001822441    1.426    0.299
        95  -9.2205    120.6652    109.0771   1.0455245182e+02   3.7357292805e+01    0.2181848    0.2014537 -36.29 0.0005867294    1.087    0.080
        96 -10.0168     11.8511    184.6484   1.4583880959e+02   3.4928324577e+01    0.2115572    0.1263879 -70.90 0.0008714078    1.405    0.288
        97  -8.0763     44.5830    181.4565   1.3848182400e+02   3.2270220773e+01    0.1271515     0.106662 -82.35 5.583645e-05    1.085    0.078
        98  -9.6897     75.5931    102.2299   1.1620455476e+02   4.6973181297e+01    0.3518936     0.230249 -62.75  0.001287385    1.674    0.403
        99  -9.2798    105.9528    102.8872   1.0710607359e+02   4.1652526806e+01    0.2246308    0.2152868 -25.30 0.0008305326    1.019    0.019
       100  -9.0356    140.9955    101.9740   9.7177171588e+01   3.4423024273e+01    0.2455436    0.2420341  78.85 0.0008968749    1.028    0.027
       101  -9.4068     81.1500    102.0732   1.1442246385e+02   4.6159511004e+01    0.2959811    0.2040801  39.96  0.001095669    1.546    0.353
       102  -9.2176      1.5761    177.7615   1.4739716087e+02   3.7310781696e+01    0.2118842    0.1130625 -87.34   0.00103365    1.511    0.338
       103 -10.1060      5.8805     71.2098   1.3262940495e+02   6.0490952713e+01    0.4020973    0.3399643  62.19  0.001479747    1.627    0.385
       104 -10.9065      4.4983     99.0345   1.3807872038e+02   5.4698958853e+01    0.7080365    0.4878018 -65.19   0.00470428    1.142    0.125
       105  -9.4235      2.7933     75.0053   1.3447920929e+02   5.9872572974e+01    0.2353431     0.175198 -10.40  0.001376498    1.507    0.336
       106 -11.1064     13.9704     88.6242   1.3329933677e+02   5.6399497752e+01    0.4905853    0.3296626  26.14  0.002621728    1.808    0.447
       107 -11.2446      4.9152     81.1209   1.3491175689e+02   5.8502352121e+01    0.6693044    0.1856407 -48.53  0.002298807    2.495    0.599
       108 -10.5086      3.3086     88.7174   1.3678496173e+02   5.6982591612e+01    0.4234459    0.1956837 -30.62  0.002235861    2.419    0.587
       109 -10.3780      8.9913     85.9139   1.3443755623e+02   5.7274136805e+01    0.2287902    0.1632322 -60.87 0.0004280863    1.142    0.124
       110 -10.4522     13.4758     56.6822   1.2638784809e+02   6.2913050608e+01    0.3355748    0.2058634  25.89  0.001626219    1.940    0.484
       111 -10.6912     10.9747     63.7781   1.2911019749e+02   6.1693327575e+01    0.4859242    0.2541106 -61.99  0.002142832    1.751    0.429
       112 -11.6948     16.4423     61.3956   1.2644742547e+02   6.1817164125e+01    0.6838657      0.27514  24.30  0.003534604    2.786    0.641
       113  -9.6998     20.4013     58.4481   1.2414340373e+02   6.2108640072e+01    0.1830416    0.1351991 -28.81 -2.673843e-05    1.136    0.120
       114 -10.5140    116.4522     99.7263   1.0320708884e+02   4.0248103578e+01    0.5472446    0.3908691  10.88  0.002383315    1.927    0.481
       115 -10.2289    114.4826     95.3766   1.0255621263e+02   4.1566465361e+01    0.3761325    0.3378747  89.88  0.001561329    1.313    0.238
       116  -9.3224    151.0035     99.4959   9.3985419023e+01   3.2598503885e+01    0.2521082    0.2112376 -42.06 0.0006659161    1.222    0.182
       117  -9.1778     63.0103     98.7898   1.1937015204e+02   4.9493170770e+01    0.2555265    0.1830063 -49.97 0.0007892187    1.254    0.203
       118  -9.7521    159.0723     97.0222   9.1376035566e+01   3.1163749088e+01    0.3850234    0.2954934  48.69  0.001621531    1.271    0.213
       119  -8.4322     80.7610     97.3966   1.1333327603e+02   4.7250162514e+01    0.1905038    0.1360728  20.95 0.0004854263    1.581    0.367
       120  -7.9460    140.6681     95.3464   9.5426794212e+01   3.5853012614e+01    0.1627913    0.1251274 -85.02 0.0007049618    1.763    0.433
       121  -8.8212    188.2059     94.2247   8.4328409846e+01   2.4567925323e+01    0.2159553    0.1792503 -81.03 0.0005475043    1.320    0.243
       122 -11.0411    119.8224     86.4545   9.8472634782e+01   4.2261805565e+01     0.771505    0.3216959  48.11   0.00266985    2.429    0.588
       123 -10.8641    115.6786     70.5570   9.4832525455e+01   4.6123475620e+01    0.6475155    0.5121225  68.36  0.003257168    1.574    0.365
       124 -11.2454    102.1579     70.7378   9.8856086633e+01   4.8844858743e+01    0.7657436     0.504365 -54.11  0.002462661    1.879    0.468
       125 -11.9823    121.9355     66.1172   9.1707822509e+01   4.5541680509e+01     1.669999     1.134152 -78.54  0.006716216    2.811    0.644
       126 -10.7533    126.7106     63.7698   8.9698239934e+01   4.4870498229e+01    0.3237235    0.2695894  11.90 0.0002513787    1.311    0.237
       127 -11.1130    121.6209     56.0732   8.8598287563e+01   4.7246561837e+01    0.6326893    0.5873421  62.32  0.002071465    1.170    0.145
       128 -11.7915    107.1506     86.2530   1.0207363842e+02   4.4902644657e+01      1.05354    0.8546899  11.30   0.00397652    1.367    0.269
       129 -10.5330    112.0509     62.1648   9.3201574254e+01   4.8333959390e+01    0.6884465    0.3744752  20.98  0.001911752    3.136    0.681
       130 -10.6828    102.6601     80.7941   1.0179891611e+02   4.6855588956e+01    0.5211604    0.3404194 -30.10  0.001499572    1.636    0.389
       131 -11.0475     98.2622     77.4375   1.0212757241e+02   4.8339712170e+01    0.5180095    0.4420354 -57.72  0.002185213    1.364    0.267
       132  -9.8810    121.3394     91.5678   9.9530135947e+01   4.0917393280e+01    0.2701568    0.2435897 -50.11 0.0007133559    1.156    0.135
       133  -8.4915    194.3176     90.3180   8.2139301547e+01   2.3789259839e+01    0.1523626    0.1220197  18.59 0.0007040291    1.657    0.396
       134  -8.5954     80.2292    176.7029   1.2948961322e+02   2.8577108127e+01    0.2187815   0.09540572 -52.49 0.0008788084    2.331    0.571
       135  -9.9138    153.0965     87.4005   9.0122621859e+01   3.4469979130e+01    0.3612009    0.2699806  39.59 0.0007382117    1.368    0.269
       136  -9.6589    145.7267     86.3917   9.1620454937e+01   3.6423246340e+01    0.3155135    0.2591693 -57.71  0.001545517    1.334    0.250
       137  -9.4100    238.6088     86.1978   7.3826047606e+01   1.4103075040e+01    0.2017258    0.1304482 -30.82 0.0009615596    1.716    0.417
       138  -8.8836    186.5094     84.3719   8.2099020406e+01   2.6791436022e+01    0.3002826    0.1841796  54.56  0.001167543    1.580    0.367
       139  -9.8881    217.7596     79.6496   7.5438938242e+01   1.9992405619e+01    0.7802023    0.3572447 -23.75  0.002432149    4.232    0.764
       140  -9.7099    160.3090     81.7823   8.6876033133e+01   3.3757466896e+01    0.4156297    0.3250646  64.31  0.001636871    1.295    0.228
       141  -8.9137    140.2906     83.6390   9.2185592907e+01   3.8223174998e+01    0.1568407    0.1218847 -77.69 0.0007027164    1.695    0.410
       142 -10.6088    134.5486     80.6274   9.2774835308e+01   4.0116569371e+01    0.6294519    0.3731596 -33.51  0.002492412    1.829    0.453
       143  -9.8441    138.7180     76.0358   9.0351721946e+01   3.9989992431e+01     0.590269    0.1454079 -35.74   0.00153972    4.847    0.794
       144 -10.7657    144.6913     77.3796   8.9270084277e+01   3.8338108882e+01    0.6291384    0.4834999 -28.25  0.003054402    1.424    0.298
       145  -9.0289    155.1094     70.8330   8.4928178921e+01   3.6962591923e+01    0.2551411    0.2261506 -29.21 0.0006895794    1.217    0.179
       146 -10.6864    151.9357     66.7939   8.4468060624e+01   3.8417519491e+01    0.5482522    0.2936344  45.12  0.000466215    1.828    0.453
       147 -10.1703    150.4568     73.3769   8.6729282840e+01   3.7660248112e+01     0.649208    0.4435643 -49.08  0.002438444    1.595    0.373
       148 -10.7711    140.1108     68.2256   8.7672583605e+01   4.1024188279e+01    0.7236514    0.4842834  59.35  0.003334196    1.528    0.345
       149  -9.9879    132.4041     68.2148   8.9597628085e+01   4.2825249847e+01    0.4685794    0.2954773  64.32  0.002023994    1.899    0.473
       150  -9.6862    123.5833     80.8717   9.5775815637e+01   4.2528421462e+01    0.3753779    0.2608123  18.92  0.001047253    1.848    0.459
       151 -10.3022     17.7776     81.8601   1.3067551164e+02   5.7588396233e+01     0.226597    0.1930331  -6.79 0.0008307682    1.311    0.237
       152  -9.0426    188.5670     80.2466   8.0626251736e+01   2.7010452004e+01     0.280494    0.1410464 -43.12 0.0008286556    1.998    0.500
       153  -9.9578     90.4670     77.9236   1.0472166442e+02   4.9663288986e+01    0.5741764    0.2251236  39.07  0.002181394    2.591    0.614
       154 -10.4500    109.2767     67.5236   9.5718378171e+01   4.7994042635e+01    0.5073783    0.3807019  14.42  0.002541909    1.512    0.339
       155  -8.8012     62.9620    167.9801   1.3242206458e+02   3.3132498121e+01    0.2223459    0.1472215  75.66 0.0009496133    1.649    0.394
       156  -9.2287    192.9171     74.2499   7.8268174771e+01   2.6958389048e+01    0.2658036    0.2188684 -35.41 0.0004651327    1.305    0.234
       157  -9.0236     25.4632     74.4375   1.2630568283e+02   5.8573457683e+01    0.3478377    0.1627901 -18.02  0.001521551    3.214    0.689
       158  -9.0745    131.9818     73.9381   9.1445743138e+01   4.1923676756e+01    0.2178047    0.2150622  35.12 0.0004912791    1.049    0.046
       159  -9.5439    215.2244     71.5835   7.3899069659e+01   2.1938157984e+01    0.3004082    0.2635539 -24.88   0.00108604    1.351    0.260
       160  -9.5783    167.3851     69.8904   8.2013907715e+01   3.4079737789e+01    0.4030609    0.2406499  80.07  0.001119528    2.473    0.596
       161 -11.3075    164.6619     63.1526   8.0678837451e+01   3.5861385647e+01    0.7491538    0.6224996   8.57  0.003674836    1.507    0.336
       162 -10.5700    165.1219     56.2989   7.8643158956e+01   3.6811580602e+01    0.4847847    0.4022561 -12.45  0.001573832    1.460    0.315
       163 -10.6499    250.2705     66.8826   6.8060914017e+01   1.4682334038e+01    0.5500547     0.186223 -34.46  0.002002949    3.252    0.693
       164  -8.6417    202.5038     68.4950   7.5159731097e+01   2.5535666366e+01    0.1478726    0.1345621 -87.01 0.0008106435    1.010    0.010
       165 -10.9788     67.1899     62.1831   1.0762693576e+02   5.6354176232e+01    0.3318307    0.2639033 -18.93 0.0008833525    1.149    0.130
       166  -8.1312      5.2734     63.6369   1.3121682106e+02   6.2033737917e+01    0.1026451   0.08255423 -88.99 0.0002768821    1.661    0.398
       167  -9.3298    185.8843     61.0461   7.6066309429e+01   3.0862717900e+01    0.2256287    0.1827262 -79.35 0.0002784852    1.290    0.225
       168 -11.1797    191.9874     53.2875   7.3008092034e+01   3.0509130228e+01     0.733495    0.4270881  84.59  0.003080731    2.160    0.537
       169  -9.7590    171.1897     49.1155   7.5470452393e+01   3.6343331916e+01    0.5089055    0.2540973  51.48  0.001801578    1.858    0.462
       170 -10.3917    178.8108     59.0536   7.6802124618e+01   3.2951013732e+01    0.8536253    0.5486788  -7.36  0.003492282    2.646    0.622
       171 -10.4122    174.0507     57.4049   7.7232761711e+01   3.4401854105e+01    0.4460649    0.3120978 -13.70 0.0007764928    1.963    0.491
       172 -10.7868    178.1419     51.3803   7.4843417250e+01   3.4267760629e+01    0.4647078    0.3468542  34.82  0.001051985    1.594    0.373
       173 -10.3614    221.4749     57.7461   6.9716165758e+01   2.2623520404e+01    0.4457926    0.3758229  34.32  0.001993428    1.557    0.358
       174 -11.4480    139.7694     51.8550   8.2758009237e+01   4.3694237241e+01     1.093471    0.3599972  47.36  0.003676515    2.789    0.641
       175  -9.8662    152.9758     55.6304   8.0954304126e+01   3.9929234797e+01    0.4169675    0.3167035  25.62  0.002063923    1.557    0.358
       176 -10.7121    150.6745     51.2724   8.0154009063e+01   4.1140134671e+01    0.4883607    0.3528403   3.91  0.001793266    1.914    0.477
       177  -9.7749    200.4313     59.0316   7.3119530471e+01   2.7541144670e+01    0.4088294    0.2375315  51.19  0.001766224    1.749    0.428
       178  -9.1284    202.3288     55.6933   7.1989710083e+01   2.7578180120e+01    0.2299006    0.2102615  48.03 0.0007835765    1.243    0.196
       179  -9.0864    158.3769     58.8507   8.0749890320e+01   3.8102457176e+01    0.3084019    0.1666246  43.36 0.0009641261    1.909    0.476
       180  -9.6061      2.9232     56.8719   1.3055630508e+02   6.3464374403e+01    0.4521423    0.2335603 -65.40  0.002621464    1.905    0.475
       181  -9.1838     10.5330     52.0279   1.2633157759e+02   6.3968349824e+01    0.1804504    0.1523155  20.42    0.0005839    1.481    0.325
       182  -9.8140      7.0168     48.8968   1.2692032593e+02   6.4749703543e+01    0.2636721    0.1757765 -30.95  0.001160174    1.213    0.175
       183 -10.2150    158.4391     50.4151   7.8289017790e+01   3.9347171651e+01    0.5872967    0.3727691  61.73   0.00261716    1.473    0.321
       184  -8.6126     27.2258    168.2322   1.4096840828e+02   3.7199368253e+01     0.202761   0.08627792 -83.27 0.0008790723    2.449    0.592
       185  -9.3323    235.8350     55.1811   6.7277893592e+01   1.9666087138e+01    0.1698287    0.1656342  34.37 0.0009504887    1.344    0.256
       186 -10.6735    115.5541     50.4419   8.8389480248e+01   4.9434128855e+01    0.5075968    0.3715291  10.20  0.001685938    1.604    0.376
       187 -10.6375    118.6854     42.1220   8.4792139497e+01   4.9928672088e+01    0.5336588    0.3358248 -40.82   0.00216942    1.798    0.444
       188  -8.2671    126.6855     50.7280   8.5566075258e+01   4.6914885699e+01     0.145453    0.1031298  26.17 0.0004991708    1.557    0.358
       189  -8.4610    198.2892     63.6751   7.4636853561e+01   2.7349610758e+01    0.1516622    0.1060779 -71.74 0.0003063167    1.610    0.379
       190  -9.3848      9.1200    167.7943   1.4497910839e+02   3.8918454147e+01    0.2240151    0.1920065  60.03 0.0009569214    1.288    0.224
       191 -10.3156    221.8070     45.3375   6.6806476208e+01   2.4359442865e+01    0.4554377    0.2960301 -64.53  0.001485943    1.533    0.348
       192 -10.3406    134.8369     33.5161   7.8121343523e+01   4.7326353259e+01    0.5600965    0.3249267  34.36  0.001352037    1.909    0.476
       193  -9.4530    129.7769     46.4395   8.3423820257e+01   4.6820535235e+01    0.2708392    0.2008282 -22.89 0.0005574909    1.497    0.332
       194  -9.9442    130.3582     40.1918   8.1277436097e+01   4.7533467563e+01     0.312876    0.2771381  14.28 0.0008718118    1.181    0.153
       195 -10.0115    143.9938     43.0035   7.9088650540e+01   4.3923930365e+01    0.5202198    0.2420834  63.53  0.002061481    2.245    0.554
       196 -10.1834    135.8368     39.8786   7.9915167311e+01   4.6289336769e+01    0.5667825    0.3879398 -33.14  0.002820056    1.609    0.379
       197 -10.0399    140.1750     42.3466   7.9719696337e+01   4.4930917395e+01    0.3638912    0.2536662  59.29   0.00130394    1.331    0.249
       198  -9.4175    142.4223     38.7888   7.8129700655e+01   4.4857504075e+01     0.325527    0.2381208  50.43  0.001095548    1.216    0.178
       199 -10.1972    149.9650     34.7891   7.5365509104e+01   4.3528546127e+01    0.3355213    0.2697021 -80.75  0.001539556    1.442    0.306
       200  -9.8944    145.8542     35.3787   7.6367762302e+01   4.4457903970e+01    0.3229192    0.2074194  51.06 0.0007961778    1.374    0.272
       201  -8.6554    125.5804     47.3473   8.4753099798e+01   4.7655138513e+01    0.1808591    0.1372159 -13.28 0.0008187842    1.500    0.333
       202 -10.0965    232.5348     43.6724   6.5138839494e+01   2.2084771981e+01    0.2511778    0.2321668  21.89  0.001141516    1.518    0.341
       203  -9.8641    228.2600     43.9250   6.5697013087e+01   2.3040053244e+01    0.4936137    0.2580127 -67.33  0.001431634    2.255    0.556
       204 -10.0715     14.0757    165.2587   1.4364716020e+02   3.9079638214e+01    0.2931777    0.2065211  74.95  0.001279887    1.307    0.235
       205  -9.4121    214.7791     42.2559   6.6988321044e+01   2.6469749217e+01    0.5114147    0.3323377  19.59  0.002139187    3.270    0.694
       206 -10.3683    216.5995     35.0306   6.5084607309e+01   2.7005295081e+01    0.7068462    0.2916331  73.78   0.00285996    2.492    0.599
       207 -10.0214      2.5363    161.2968   1.4584858469e+02   4.0885588280e+01    0.3217332    0.1882249 -70.78  0.001814854    1.343    0.256
       208 -11.0337    202.5741     38.1500   6.7627291801e+01   2.9999437181e+01    0.6118636    0.3657457 -59.90  0.001067505    1.790    0.441
       209 -10.0745    205.6859     35.6891   6.6615137858e+01   2.9560397454e+01    0.2480949     0.221721  67.60 0.0007748522    1.172    0.146
       210  -8.9717    152.7025     45.9356   7.8140510557e+01   4.1398438852e+01    0.1901288     0.187171 -22.93 0.0005418999    1.126    0.112
       211  -8.1934    134.3236     46.6884   8.2415729467e+01   4.5725390511e+01    0.1410694    0.1116743 -81.18 0.0002342455    1.656    0.396
       212 -10.0839    105.7523     44.4559   8.9101404443e+01   5.2378486412e+01    0.4277188     0.325383  35.99  0.002374335    1.193    0.162
       213  -9.0080    248.8799     44.8706   6.3591767510e+01   1.8247612285e+01    0.1844496    0.1731142  86.94  0.001219545    1.263    0.208
       214  -8.0327      1.4279     44.2628   1.2798756441e+02   6.5884898901e+01    0.1189367   0.05769807 -29.48 0.0001582109    1.794    0.443
       215  -9.6519    190.5554     41.3717   7.0165489556e+01   3.2550538579e+01    0.3682612     0.241081 -13.29  0.001705559    2.286    0.563
       216  -9.8782    192.6645     36.5206   6.8615872648e+01   3.2666688604e+01     0.387485    0.2737257 -87.53  0.001638475    1.444    0.307
       217 -10.3378    194.3719     31.1704   6.7030162407e+01   3.2923490312e+01    0.3816108    0.2972552   9.32  0.001389939    1.910    0.476
       218  -9.8125    161.7045     41.3181   7.5025068689e+01   3.9791304654e+01    0.4137194    0.2983999  89.63  0.002056318    1.609    0.379
       219  -9.8136    162.0157     37.9922   7.4014085017e+01   4.0147289866e+01    0.8313652    0.3771042 -60.56  0.002587101    4.582    0.782
       220  -9.3799    196.9542     41.9675   6.9364244357e+01   3.0875593285e+01    0.2126138    0.1840143  87.45 0.0003548053    1.027    0.026
       221  -9.2906     76.8149     41.3569   9.7072694833e+01   5.8265888509e+01    0.2560565    0.1840711  44.44 0.0008377645    1.515    0.340
       222 -10.3113     17.1257    158.5782   1.4227944854e+02   4.0346262513e+01    0.4228981    0.2613718 -42.76  0.002422415    1.998    0.499
       223  -9.5125    156.9335     44.0625   7.6737304874e+01   4.0609540679e+01    0.2171919    0.1949938  57.96 0.0003651796    1.021    0.021
       224 -12.1521     19.0937    148.0187   1.4064324745e+02   4.2614805016e+01    0.7074599    0.5681618 -59.53  0.003779563    1.217    0.178
       225 -11.4463    181.6251     35.9510   7.0129927637e+01   3.5498424745e+01    0.6172562    0.4025182 -14.93 0.0008260994    2.165    0.538
       226  -9.7254     77.5103    156.4107   1.2691419074e+02   3.3858706841e+01    0.5041889    0.2763098  76.37  0.001843713    3.174    0.685
       227  -9.7276     32.8771    155.7670   1.3818711056e+02   3.9547187889e+01    0.2256713    0.1592921 -76.25  0.001140698    1.187    0.157
       228  -9.7703    177.5117     31.5160   6.9593998706e+01   3.7083080304e+01    0.2835807    0.2423816 -84.50 0.0009137512    1.143    0.125
       229 -10.9929    183.5361     27.2685   6.7568378053e+01   3.6090412765e+01    0.4068355    0.2777929  48.44  0.001007966    1.517    0.341
       230 -10.2284    178.8691     26.8092   6.8135261152e+01   3.7307511257e+01    0.4753636    0.2379136  47.25  0.001955498    2.096    0.523
       231 -10.4943    169.6184     37.3511   7.2481516325e+01   3.8329553226e+01    0.4651379    0.3275959 -87.11  0.001381895    1.620    0.383
       232  -9.9750     34.2020    150.1785   1.3714238068e+02   4.0731053055e+01    0.2674532    0.2286316 -88.85  0.001067811    1.074    0.069
       233  -9.9080    124.8004     37.3116   8.1666699083e+01   4.9185484661e+01    0.3357407    0.3017466  20.74  0.001439176    1.109    0.099
       234  -9.8752    125.4755     32.5437   7.9935749009e+01   4.9621979601e+01    0.3513965    0.2294704   4.15 0.0009314045    2.056    0.514
       235 -10.5868    246.3668     33.1335   6.1430715333e+01   2.0403983552e+01    0.4726556    0.2367695  56.39  0.001250388    2.196    0.545
       236 -11.2182    236.8666     32.5650   6.2269174470e+01   2.2601381535e+01    0.5229126    0.4162239  61.54  0.003219304    1.393    0.282
       237  -9.5738    242.5954     31.1920   6.1402413773e+01   2.1494298894e+01    0.2395167    0.2035625 -25.42  0.000667277    1.587    0.370
       238  -9.2545    155.0373     33.3740   7.3970081608e+01   4.2455416368e+01    0.2468468    0.1927244  10.50 0.0006036128    1.625    0.385
       239 -10.7049    226.7704     28.7291   6.2510858892e+01   2.5418139817e+01      0.52349    0.2728091 -52.03  0.001403119    1.823    0.451
       240 -11.2785     38.9755    146.1229   1.3536616542e+02   4.1206307932e+01    0.5251428    0.3361244 -72.63  0.002138689    1.356    0.263
       241 -10.1503     18.6265    121.5128   1.3732340967e+02   4.8767163209e+01     0.602275    0.2217917 -49.70  0.001986908    2.366    0.577
       242  -9.9914    159.4419     24.6779   7.0658089809e+01   4.2381159075e+01    0.3344601    0.2350458  64.88 0.0008693635    1.233    0.189
       243 -10.7577      6.3493    144.3246   1.4334279792e+02   4.4439121178e+01    0.5392228    0.3086639 -69.10   0.00323945    1.352    0.260
       244  -9.7973      1.4494    143.8614   1.4447125827e+02   4.4876754300e+01    0.4494554   0.07504974 -70.34  0.001588314    3.927    0.745
       245 -11.3105     13.7466    131.0065   1.3993757278e+02   4.6951409290e+01     0.542285    0.4015288  72.44  0.002065026    1.445    0.308
       246 -10.1419     12.4135    125.1563   1.3953613003e+02   4.8382093299e+01    0.2211592    0.2015124  49.97 0.0009400447    1.321    0.243
       247 -10.5013      4.0705    135.6964   1.4297726130e+02   4.6547749157e+01    0.4270618    0.3158662 -88.58  0.002896217    1.193    0.162
       248  -9.7470      9.2062    134.9862   1.4159957348e+02   4.6364114711e+01    0.2160101    0.2028021 -14.53 0.0006529463    1.379    0.275
       249  -9.0333     60.9400    147.1157   1.2972465916e+02   3.8417035648e+01    0.2108961     0.154555 -34.53 0.0005945702    1.670    0.401
       250  -9.1485    193.4219     24.5800   6.5519714581e+01   3.3956248992e+01    0.2985251     0.191063  23.99  0.001058417    2.690    0.628
       251 -10.0254     49.7819     25.5505   1.0101541779e+02   6.4557144674e+01    0.4118097    0.1642842  33.04  0.001997407    2.414    0.586
       252  -8.6820     54.0600     24.8130   9.9034219046e+01   6.4068864686e+01     0.163338    0.1383497  22.69 0.0007967159    1.286    0.222
       253 -10.0709    215.2914     21.6989   6.2201385467e+01   2.8988362045e+01    0.5261704    0.2477336  53.87  0.002407784    2.228    0.551
       254  -9.5144     10.2089    157.0620   1.4372706582e+02   4.1258010170e+01     0.434027   0.08030601 -62.13  0.001648797    3.453    0.710
       255  -9.9793     66.7631    148.4587   1.2839479409e+02   3.7319830327e+01     0.277071    0.2415547 -76.06  0.001263959    1.034    0.033
       256  -8.8016     80.5983    140.1862   1.2311884160e+02   3.7322209775e+01    0.2101611    0.1223437 -48.25 0.0006847463    1.686    0.407
       257 -10.1000     54.4311    137.9580   1.2995595201e+02   4.1431188642e+01    0.3545675    0.2230547 -63.76   0.00183094    1.400    0.286
       258  -9.6189    241.2014     23.6706   5.9990901139e+01   2.2766820793e+01    0.3086579    0.1740891 -60.84   0.00118797    1.629    0.386
       259  -9.4116     48.2976    138.3180   1.3169848748e+02   4.2058422887e+01    0.4056683    0.2281941  56.67  0.001924261    2.176    0.541
       260 -10.4633     21.9654    138.0297   1.3868929122e+02   4.4692458845e+01    0.3055132    0.2069353 -27.75  0.001765759    1.975    0.494
       261  -9.5465     28.0902    120.6936   1.3451784348e+02   4.8200387505e+01    0.3776006      0.15129 -72.47  0.001091898    2.530    0.605
       262  -9.0626     98.4505     22.4763   8.3343785391e+01   5.6633069121e+01    0.2316522    0.1797255  36.23 0.0007981698    1.094    0.086
       263 -11.5306     24.9907    128.9101   1.3663316027e+02   4.6558679654e+01    0.6074343    0.4376331 -10.03  0.001777177    1.905    0.475
       264  -9.4543    197.6507     16.8351   6.3099088423e+01   3.3802661872e+01    0.2821653    0.1614292  75.07 0.0008497862    1.528    0.346
       265  -9.8356    209.9496     18.7084   6.2114563645e+01   3.0615229026e+01    0.2227287    0.1736694 -75.02 0.0003409319    1.158    0.136
       266  -8.4977     78.8245    127.8227   1.2111224006e+02   4.0561589209e+01    0.1966418    0.1646874  84.90 0.0004302064    1.332    0.249
       267  -9.4003    178.9202     14.9766   6.5031579226e+01   3.8603703249e+01    0.2007941    0.1639903  64.91 0.0002824434    1.108    0.097
       268 -10.7684     72.0777    129.5443   1.2341376249e+02   4.1139487632e+01     0.451841     0.340828 -54.15  0.001807758    1.217    0.178
       269  -9.4069     74.6558    125.0207   1.2173257999e+02   4.1846370966e+01    0.2841308    0.2049812  44.30 0.0008510189    1.494    0.330
       270 -11.7050     67.5556    121.8395   1.2315443228e+02   4.3598670790e+01    0.9962106    0.3307718 -49.12  0.003604846    2.730    0.634
       271  -9.5656     64.0013    114.0189   1.2255912894e+02   4.5903868648e+01      0.26058    0.2034524  41.70 0.0007332049    1.417    0.294
       272  -8.0544    192.2476     12.6661   6.2742595412e+01   3.5571536482e+01    0.1307348   0.08676209 -67.73 0.0004558297    1.554    0.356
       273 -10.9415     67.8165    107.4189   1.1989673188e+02   4.6911607443e+01    0.7367071    0.3781757 -39.32  0.002782457    2.056    0.514
       274 -10.1210     73.7257    107.9914   1.1819338152e+02   4.5948334967e+01    0.3414887    0.2783976  41.56 0.0008529074    1.337    0.252
       275 -11.8943     47.5816    125.7065   1.2975432361e+02   4.5133920754e+01     1.034009    0.4039683 -50.99  0.004371282    2.235    0.553
       276  -9.7552     47.4599    121.0054   1.2893468719e+02   4.6253008932e+01    0.3087497    0.1908144  29.69 0.0005976721    1.850    0.459
       277  -8.5625     95.4373    130.7753   1.1699845054e+02   3.7167561506e+01    0.2178694    0.1327569 -43.60 0.0008047779    1.677    0.404
       278 -10.6925     56.1038    127.2492   1.2757604690e+02   4.3786270656e+01    0.6167958    0.2651443 -50.41  0.002067146    2.088    0.521
       279  -9.2510     38.4671    127.4418   1.3265556727e+02   4.5674748228e+01    0.2356603   0.08932475 -54.28 0.0008164294    2.165    0.538
       280  -9.9046     92.3162    120.5307   1.1556210606e+02   4.0119552135e+01    0.4337083    0.1748499 -43.02  0.001525404    2.648    0.622
       281  -8.9003     41.3234    122.2992   1.3096389910e+02   4.6595007007e+01    0.1331273   0.08842276 -37.32 0.0002894118    1.628    0.386
       282  -9.3913    234.6250    249.0248   1.0806630076e+02  -1.2410456202e+01    0.2358405    0.1660422  67.65  0.001089723    3.917    0.745
       283 -13.2142     15.6051    104.7637   1.3562053237e+02   5.2765324745e+01     2.145755    0.9189625 -38.92   0.01027538    2.484    0.597
       284  -8.6122      3.5876    246.2385   1.5123378503e+02   2.3116274793e+01    0.1408617   0.07743508 -74.88 0.0009547939    1.678    0.404
       285 -11.6719     26.3973     52.3528   1.2003708232e+02   6.2779338968e+01    0.5244488    0.2425966 -25.97  0.002242395    2.398    0.583
       286  -9.9719    142.4527    243.5528   1.2533501589e+02   3.8404515938e+00    0.3455465    0.2013976  27.59  0.001077174    2.059    0.514
