#   1 NUMBER                 Running object number                                     
#   2 MAG_AUTO               Kron-like elliptical aperture magnitude                    [mag]
#   3 X_IMAGE                Object position along x                                    [pixel]
#   4 Y_IMAGE                Object position along y                                    [pixel]
#   5 X_WORLD                Barycenter position along world x axis                     [deg]
#   6 Y_WORLD                Barycenter position along world y axis                     [deg]
#   7 A_WORLD                Profile RMS along major axis (world units)                 [deg]
#   8 B_WORLD                Profile RMS along minor axis (world units)                 [deg]
#   9 THETA_WORLD            Position angle (CCW/world-x)                               [deg]
#  10 FWHM_WORLD             FWHM assuming a gaussian core                              [deg]
#  11 ELONGATION             A_IMAGE/B_IMAGE                                           
#  12 ELLIPTICITY            1 - B_IMAGE/A_IMAGE                                       
         1 -14.5254    196.0177    107.4915   1.2759952581e+01   2.1079398410e+01     2.962691    0.8428837 -34.29  0.009837056    3.403    0.706
         2 -13.0262     57.5396     17.4071   1.6650764870e+01   6.8302280134e+01     1.219719    0.5732054 -33.14  0.005254587    2.176    0.540
         3 -13.4237    141.4765     24.8724   3.5764923757e+02   4.6509827857e+01     1.719358     1.090253 -82.09  0.007859698    1.784    0.439
         4 -12.6598    241.7273     21.5609   3.4700512621e+02   2.3509422132e+01    0.6802971    0.2359636 -60.57  0.002830236    3.287    0.696
         5 -11.9323     27.4057     23.2558   3.7258960465e+01   7.2497957745e+01    0.3120736    0.2620799   0.56  0.001316638    1.195    0.163
         6 -11.7194    112.7243      4.2194   3.5409239073e+02   5.6305180168e+01    0.4004363    0.2592262 -58.71  0.001950446    1.665    0.399
         7 -11.2868      4.4013      3.7843   4.5301225984e+01   7.8849220935e+01     0.181748   0.09290951 -45.16 0.0009573904    1.683    0.406
         8 -11.2584     43.9695      1.9709   1.3111616246e+01   7.3185500418e+01    0.2785124    0.1737424  50.17  0.001469533    1.543    0.352
         9 -13.7705    240.8766    215.8001   2.6227410385e+01  -6.2228143164e-01    0.7303463    0.4577838 -21.74  0.005322377    1.393    0.282
        10 -12.2905    249.4307    246.6635   2.9404781315e+01  -4.5773239720e+00    0.3635474    0.1823074 -26.86  0.002649846    1.867    0.465
        11 -13.7304     95.1562    244.6389   5.6536520685e+01   1.3505642773e+01     1.369047    0.5652897  40.53  0.006192906    1.823    0.452
        12 -11.8030     79.9628    235.6198   5.8923895134e+01   1.6794694689e+01    0.5508198    0.4773321  -3.38  0.003856572    1.471    0.320
        13 -12.8620     24.8845    246.3250   7.0827173418e+01   2.0902887536e+01    0.7007493    0.2467538  59.88  0.003721603    2.469    0.595
        14 -12.1148     28.9392    237.3301   6.9670059549e+01   2.2071900110e+01    0.6572679    0.2256403  62.93  0.003111424    2.884    0.653
        15 -12.3113     16.9650    249.2240   7.2469842186e+01   2.1152121044e+01    0.4342734    0.1579935  43.24  0.001895287    1.751    0.429
        16 -12.9873     18.0124    233.9329   7.1785528786e+01   2.3717592570e+01     0.476107    0.4253197  63.68  0.002992559    1.266    0.210
        17 -13.7997      6.6800    233.3048   7.4076228489e+01   2.4843874872e+01     1.626962    0.4785255  75.73  0.007452302    3.574    0.720
        18 -14.3652     10.9140    213.7534   7.2628827846e+01   2.8157959100e+01     2.034577    0.3102815  46.30  0.008405271    3.182    0.686
        19 -13.2206    242.7428    231.9454   2.8332948788e+01  -2.4994894737e+00    0.8057317    0.3959935  11.64   0.00509254    1.987    0.497
        20 -13.1259    240.2930    225.3302   2.7739488554e+01  -1.5672442662e+00    0.5554246    0.3101684  -9.80  0.003354165    1.621    0.383
        21 -11.8644     90.2981    225.6665   5.5868092985e+01   1.7229075654e+01    0.6164115    0.1613238  36.71  0.002558012    2.705    0.630
        22 -11.3716     69.0733    225.1910   6.0435725924e+01   1.9911996754e+01    0.2369444    0.1700169  89.97  0.001546739    1.615    0.381
        23 -10.9820    137.5584    223.1116   4.5647871223e+01   1.1439621790e+01    0.3555817    0.1632168  37.74  0.001853022    1.794    0.443
        24 -10.8429    152.9626    222.2857   4.2463512294e+01   9.4962209333e+00    0.3003519    0.1331388  35.09  0.001554298    1.852    0.460
        25 -10.8089     63.0892    215.5239   6.1015726187e+01   2.2414059110e+01    0.2642443    0.1720591  82.06  0.001577605    1.734    0.423
        26 -12.7914    157.7798    211.8757   4.0094680351e+01   1.0390612239e+01    0.4351346    0.3770603 -60.70  0.002984032    1.607    0.378
        27 -13.0897    170.1665    206.4540   3.6881794333e+01   9.4737587430e+00     0.953298    0.5120763 -28.57  0.005067951    2.177    0.541
        28 -12.8607    169.4549    191.0815   3.4621456082e+01   1.1919893257e+01    0.8237621    0.5708703  -7.34  0.003883485    1.634    0.388
        29 -11.3706    144.8104    212.0684   4.2736376696e+01   1.2170634769e+01    0.4513756    0.1571129  35.96  0.001988387    2.383    0.580
        30 -12.7598    114.8644    208.2147   4.8616561403e+01   1.7026388390e+01    0.5389202    0.4521182  66.84  0.001980297    1.382    0.276
        31 -13.9506     26.1346    193.5667   6.8243070055e+01   3.0895600502e+01     1.955767     0.822175  68.18  0.009144115    2.406    0.584
        32 -14.8684     19.8646    170.6930   6.8559808959e+01   3.6584710499e+01     2.382302    0.9514558  31.14   0.01114057    2.175    0.540
        33 -14.7391      9.9646    156.9267   7.0531818682e+01   4.0668793470e+01     1.666729    0.7879217  66.94  0.008073634    1.929    0.482
        34 -13.7650      3.8231    182.6371   7.3251344757e+01   3.5235784019e+01    0.8596304    0.4712447  72.41  0.004916826    1.561    0.359
        35 -12.8036    101.3679    206.3723   5.1418758654e+01   1.9232769482e+01    0.8103958    0.4556882  37.15  0.003767526    1.466    0.318
        36 -12.1879     83.1263    206.1328   5.5580650936e+01   2.1724933673e+01    0.7999694    0.3563076  47.00  0.003790201    1.997    0.499
        37 -13.2950     84.4781    199.1048   5.4530615085e+01   2.2920300048e+01     1.332273    0.7602881 -89.10  0.006427769    2.529    0.605
        38 -11.6165     52.0472    205.1617   6.2776390834e+01   2.5731672153e+01    0.3271611    0.1525331  42.62  0.001686725    1.680    0.405
        39 -11.4827    105.6888    197.3342   4.9340317211e+01   2.0324050973e+01     0.285103    0.1894879  59.01  0.001540178    1.698    0.411
        40 -13.6382    249.4437    184.3808   1.9912973138e+01   1.9143603672e+00     1.096739    0.2060259 -34.78  0.004153715    4.625    0.784
        41 -12.3981    205.7216    167.6025   2.3773091426e+01   1.0014344000e+01    0.6502146    0.4318078 -10.35  0.003736423    1.572    0.364
        42 -12.6486     79.7068    166.3190   5.1787994478e+01   3.0557724292e+01    0.6088601    0.4257794  50.03  0.002447841    1.321    0.243
        43 -13.2894    139.2644    174.8667   3.8302800375e+01   1.9432314345e+01     1.324526     0.583073  49.40  0.005262907    2.741    0.635
        44 -12.3484     93.4512    172.6594   4.9042819980e+01   2.7133541895e+01    0.7188309    0.5094854 -88.27  0.003480169    1.742    0.426
        45 -12.5713     38.3605    166.6401   6.3211649981e+01   3.5705608438e+01    0.4398124    0.3052048  52.73  0.001962732    1.254    0.202
        46 -13.7474    132.3468    154.7616   3.6325910207e+01   2.4521461215e+01     1.178949    0.8000904  87.91  0.005015014    2.697    0.629
        47 -13.9518    192.1743    147.1231   2.2180772906e+01   1.5337304179e+01     1.700531    0.8291886 -40.64  0.007951345    1.996    0.499
        48 -13.2699     47.1109    152.4429   5.9315048358e+01   3.8136797619e+01    0.8205225    0.4097994 -76.65  0.003681808    2.042    0.510
        49 -12.5241    118.2388    149.5925   3.8845214402e+01   2.8087180531e+01    0.6678368    0.5802444  77.84  0.002845071    1.298    0.229
        50 -13.6431     10.5013    190.6533   7.1906143251e+01   3.2945252010e+01    0.8806431    0.3131663  59.30  0.004048941    2.373    0.579
        51 -12.5407    238.2994    141.5035   1.3656962519e+01   8.7810755423e+00    0.5863392    0.2265042 -35.06  0.002804789    2.190    0.543
        52 -12.1855    123.1378    131.5424   3.3918787103e+01   3.1098405182e+01    0.3039794    0.2721895 -61.62  0.001644783    1.167    0.143
        53 -12.2512     74.1916    124.5227   4.6725774250e+01   4.1418108545e+01    0.5205958    0.4735087 -50.71  0.002868275    1.172    0.147
        54 -11.9942     68.3812    121.9023   4.8129984475e+01   4.2969204911e+01    0.4814982    0.4365228  31.69  0.001946251    1.172    0.147
        55 -11.7946     63.2825    120.5768   4.9590788137e+01   4.4057930323e+01    0.5224928     0.327204  44.54    0.0023491    1.557    0.358
        56 -13.4298    187.4832    245.5984   3.9105747300e+01   2.1220071636e+00    0.8705363    0.6557169 -11.35  0.005770868    1.307    0.235
        57 -12.0095    120.0139    119.5102   3.2017780083e+01   3.4344384708e+01    0.3209066    0.2389243 -49.92  0.001549972    1.359    0.264
        58 -11.2603      5.3505    110.5152   6.9093066115e+01   5.2656973644e+01    0.2427599    0.1104014 -81.31  0.001087332    1.928    0.481
        59 -12.3178    155.1968    101.4527   1.8941666131e+01   3.0652479571e+01     0.568392    0.4438784 -71.00  0.002790011    1.562    0.360
        60 -11.2595     33.1179     92.3234   5.5770051181e+01   5.5213884828e+01     0.266068    0.1796706 -58.00  0.001333036    1.384    0.278
        61 -11.6244     18.9454     89.9901   6.1426587724e+01   5.7117102464e+01    0.3054073    0.1821558 -64.77  0.001508181    1.487    0.327
        62 -13.0276    246.7961     84.6398   7.4172867319e-01   1.5012698502e+01    0.8349825    0.4656291 -33.77  0.004216075    1.423    0.297
        63 -11.9626     58.6670     85.4366   4.3651436872e+01   5.3718805141e+01    0.3606262    0.2897381 -40.11  0.001842378    1.320    0.242
        64 -12.2298     88.3691     77.8303   3.0262258229e+01   5.0214647092e+01    0.6644999    0.4402905  81.21   0.00258329    2.478    0.596
        65 -12.8134     35.0270    118.0177   5.9049653700e+01   4.8250199179e+01    0.7147511    0.4627954  84.27  0.003496623    1.577    0.366
        66 -13.4954    161.5521     67.0987   8.0408075189e+00   3.5307863227e+01     1.732304    0.7651157 -49.67  0.006387123    2.482    0.597
        67 -11.6821     57.0041     74.7412   4.1388147664e+01   5.6631900733e+01    0.2896011    0.1823999 -43.39  0.001303933    1.639    0.390
        68 -12.1409     24.9347     66.5731   5.4261335810e+01   6.2701571961e+01    0.6349744    0.3656494  64.40  0.002791894    2.299    0.565
        69 -12.5885     18.8432     54.9716   5.4704409675e+01   6.6154985142e+01    0.6271284    0.4900091  18.12  0.002703602    1.401    0.286
        70 -11.5087     95.5687     49.2695   1.7642378426e+01   5.4512862004e+01    0.3019477     0.140997 -43.31  0.001148872    2.154    0.536
        71 -10.9255     32.3339     49.9259   4.5547479369e+01   6.6025202884e+01     0.269776    0.2127318   6.80  0.001480476    1.412    0.292
        72 -11.3420     62.6653     46.9044   2.9039162498e+01   6.1995578959e+01    0.4386782     0.346727  -6.77  0.002209292    1.560    0.359
        73 -10.6942     80.5722     45.8646   2.1350720365e+01   5.8543487117e+01    0.2590258    0.1831618  54.92  0.001229815    1.458    0.314
        74 -12.0972     20.1727     43.6443   5.0641190012e+01   6.8794816550e+01    0.4488523    0.2949204 -83.17  0.002255308    1.832    0.454
        75 -11.4190    207.6590     39.1943   3.5392103402e+02   2.8551911389e+01    0.5097044    0.2237886 -61.69  0.002033594    2.877    0.652
        76 -11.2347    175.6934    241.9594   4.0723220911e+01   3.9519400686e+00    0.9123878     0.305371  28.38  0.004362823    2.618    0.618
        77 -10.7562     45.3334    248.6669   6.6863718542e+01   1.8473112745e+01    0.1950445    0.1494437 -14.48  0.001345817    2.080    0.519
        78 -11.5827    215.4016     26.5227   3.4998738090e+02   2.8357212298e+01    0.4184111    0.2162013 -32.17   0.00212826    1.666    0.400
        79 -12.1155    149.1728    241.1974   4.5532378179e+01   7.3122448617e+00    0.5266299    0.3041066  44.81  0.003210803    1.812    0.448
        80 -10.4138     55.4937    242.9919   6.4506980502e+01   1.8343321796e+01    0.1883738    0.1192014  37.62  0.001045687    1.193    0.162
        81 -11.3554      8.9939     12.9962   4.6263718734e+01   7.6606417672e+01    0.1567216    0.1349501 -30.58  0.001025791    1.000    0.000
        82 -11.6078     64.9672    231.3750   6.1778906517e+01   1.9287670965e+01    0.3586998    0.2383102  51.87  0.002149665    1.264    0.209
        83 -11.9771    132.9219    232.9743   4.7753565718e+01   1.0554385040e+01    0.4449526    0.3822327  -1.26  0.002284158    1.252    0.201
