#   1 NUMBER                 Running object number                                     
#   2 MAG_AUTO               Kron-like elliptical aperture magnitude                    [mag]
#   3 X_IMAGE                Object position along x                                    [pixel]
#   4 Y_IMAGE                Object position along y                                    [pixel]
#   5 X_WORLD                Barycenter position along world x axis                     [deg]
#   6 Y_WORLD                Barycenter position along world y axis                     [deg]
#   7 A_WORLD                Profile RMS along major axis (world units)                 [deg]
#   8 B_WORLD                Profile RMS along minor axis (world units)                 [deg]
#   9 THETA_WORLD            Position angle (CCW/world-x)                               [deg]
#  10 FWHM_WORLD             FWHM assuming a gaussian core                              [deg]
#  11 ELONGATION             A_IMAGE/B_IMAGE                                           
#  12 ELLIPTICITY            1 - B_IMAGE/A_IMAGE                                       
         1  99.0000    205.9064     76.0106   6.1389500283e+01   2.2969408094e+01     3.742992     2.479737 -81.62   0.01012532    2.155    0.536
         2 -11.6620    201.4077     18.4540   4.5996563439e+01   3.2303631470e+01     1.524503    0.5371352 -28.30  0.003466183    2.841    0.648
         3 -15.2857    238.5026    149.0230   7.3827900683e+01   3.4178585090e+00     15.81069     7.881361 -44.14   0.06861523    2.187    0.543
         4 -14.3984    218.7342     27.4482   4.6445402800e+01   2.6866039051e+01     3.149537     1.950433 -28.99   0.01549887    1.658    0.397
         5 -14.6016    248.2785     20.4697   4.1833392975e+01   2.0703098545e+01     2.562132    0.7307543 -46.32  0.009694503    2.950    0.661
         6 -15.2515    244.4291     49.7397   4.9201692887e+01   1.7768882864e+01     2.379745     1.018654  53.71  0.007226197    2.567    0.610
         7 -13.1111    220.2595     77.0244   5.9355420385e+01   1.9314348532e+01     3.431638    0.7745927 -46.20  0.008064869    5.915    0.831
         8 -11.5588    119.0009     10.0097   5.6360381913e+01   5.4163026636e+01     0.726579    0.5061083  43.01   0.00264466    1.303    0.233
         9 -11.9498    130.6987     18.9842   5.7314531141e+01   5.0404591675e+01    0.9174517    0.4672344  37.14  0.003857349    2.141    0.533
        10 -11.5056    126.8736     15.0237   5.6622801089e+01   5.1766358197e+01    0.8832415    0.3533586  63.97  0.003396956    2.527    0.604
        11 -11.2761    142.0618     11.9772   5.2539797630e+01   4.8316445279e+01    0.9233022    0.4621567 -15.15  0.003571624    2.363    0.577
        12  -9.5229    136.4952      8.0042   5.2108824017e+01   5.0096739883e+01    0.2779575    0.2454802  71.96 0.0003350488    1.131    0.116
        13  -9.2714    156.7580      9.5234   4.9253169854e+01   4.4807339331e+01    0.3949201    0.2063336 -15.48  0.001722566    2.271    0.560
        14  -5.9047    205.0726      9.1666   4.3053481137e+01   3.2391782913e+01    0.4114613    0.3142459 -72.54  0.001435188    1.242    0.195
        15 -14.1774    239.5925     26.6870   4.4094673382e+01   2.1940198890e+01     2.157044    0.7312438 -28.61  0.008151486    2.981    0.665
        16  -8.1631    215.0387      4.2032   4.0785841281e+01   3.0419988569e+01    0.1698637    0.1442168 -76.95 0.0002143681    1.030    0.029
        17  -7.7348    139.0874    157.1928   9.5888346497e+01   2.2238637680e+01    0.1957618    0.1659797  82.49 0.0003310762    1.288    0.223
        18 -12.0297     68.6320    145.1125   1.1090229177e+02   3.7044008705e+01     1.476773    0.9076187 -74.81  0.005370473    1.558    0.358
        19 -10.7522     45.0107    153.7675   1.1787460024e+02   3.7968053875e+01    0.3227751    0.2982698  -5.35 0.0008639577    1.543    0.352
        20 -12.0995     52.7256    149.5800   1.1549384465e+02   3.8040179322e+01    0.9669609    0.7579954 -63.38  0.003682896    1.245    0.197
        21 -11.1874     59.6080    146.7093   1.1340218755e+02   3.7860685052e+01      0.67515    0.3750386 -78.75  0.001657925    1.793    0.442
        22 -10.1138    123.9371    241.0107   1.1159931189e+02   9.0699094425e+00    0.1903646    0.1716829  88.16 0.0003319817    1.260    0.207
        23  -8.4112    149.3275    146.4617   9.1285828794e+01   2.2449720900e+01    0.3377775    0.2248843 -85.32   0.00132163    2.540    0.606
        24  -9.5528    133.8676    146.4399   9.4919805938e+01   2.5609822791e+01    0.6453751    0.2103698 -56.31  0.001862515    4.062    0.754
        25  -9.3659    143.2485    144.5520   9.2289886181e+01   2.4118913389e+01    0.3317137    0.1836293 -60.12  0.001302271    2.197    0.545
        26 -13.4439    249.3379     58.6578   5.0805130489e+01   1.5396704966e+01    0.8053334    0.3509343 -42.27  0.002712484    1.977    0.494
        27  -8.0287    188.8105    140.9663   8.1370155522e+01   1.5074192465e+01    0.1913004    0.1852722 -17.28            0    1.033    0.032
        28  -7.5983    126.4742    226.5538   1.0945850929e+02   1.1044714812e+01    0.1241607    0.1019032  51.12 0.0001509383    1.039    0.038
        29  -9.1840    160.5160    128.6463   8.4597780666e+01   2.3803909741e+01    0.3142757    0.2680852 -70.16  0.001554728    1.312    0.238
        30 -10.1218    135.6298    126.7048   9.0071918244e+01   2.9624851226e+01    0.5955471     0.145805 -51.76  0.001455449    5.059    0.802
        31  -9.4687    162.7685    120.9135   8.2165283274e+01   2.4908102193e+01      0.30566    0.2510523 -62.39 0.0004311858    1.336    0.251
        32 -11.2940    127.5110    111.8125   8.8444641125e+01   3.4647274081e+01    0.5206203    0.3684952 -48.97  0.002256774    1.380    0.275
        33 -10.9804    139.8584     95.1853   8.0739198028e+01   3.5539099399e+01    0.5885888    0.4597165 -20.21  0.000725785    1.488    0.328
        34 -11.2449    134.8689    111.7278   8.6528868510e+01   3.3099218107e+01    0.8997395    0.3407933 -41.10  0.002939589    2.761    0.638
        35 -11.7156    133.5653    100.7676   8.3917166503e+01   3.5766661757e+01    0.8720689    0.3598973 -45.28  0.003032324    2.372    0.578
        36  -9.2503    155.7309    112.7300   8.1686577614e+01   2.8223694922e+01    0.3052224     0.250812  34.49 0.0006027424    1.292    0.226
        37  -9.3154    235.0290    215.1524   8.7530326102e+01  -5.4559686950e+00    0.1835735     0.146718  17.99 0.0003783095    1.036    0.035
        38  -8.7922    211.9482    108.3417   6.8873483626e+01   1.5918718008e+01    0.2117607    0.1951181 -46.27 0.0002670535    1.085    0.078
        39  -9.9196    118.0893    108.9859   9.0211669526e+01   3.7217105287e+01    0.2340095    0.2237616 -48.26 0.0004736792    1.034    0.033
        40  -9.8428    141.1199    106.7985   8.3647476950e+01   3.2795057968e+01    0.3635279    0.2787931  79.41  0.001629056    1.673    0.402
        41 -12.2438    122.0261    102.3392   8.7390917774e+01   3.7895833010e+01    0.8306534     0.690984 -82.51   0.00408321    1.412    0.292
        42  -9.8663    147.4649    103.8742   8.1288566942e+01   3.1979518798e+01    0.3365996    0.2931356  56.03  0.001117146    1.179    0.152
        43 -10.7240    155.7435     99.7286   7.8162955535e+01   3.0910909612e+01    0.6168577    0.3505002  39.57  0.001833408    1.935    0.483
        44 -11.8569    118.6804     89.1093   8.4568444115e+01   4.1468402911e+01    0.7305309    0.4341505 -39.85   0.00310361    1.659    0.397
        45  -9.8718    170.5531     92.2533   7.2719818080e+01   2.8825386002e+01    0.6515437    0.3966182  49.01  0.002718383    1.659    0.397
        46 -10.4254    154.0093     90.8363   7.6039761298e+01   3.3114446290e+01    0.3540924    0.3028883 -24.61 0.0008701067    1.228    0.186
        47  -8.2882    168.4235    114.6073   7.9271108628e+01   2.4900867136e+01    0.2999329    0.1480542 -45.56   0.00111246    2.042    0.510
        48  -9.0894     99.8340     89.6900   9.0142389464e+01   4.5074529915e+01     0.319771    0.2411347 -75.37 0.0004652148    1.684    0.406
        49  -9.3640    178.2219     88.8973   7.0152293758e+01   2.7572860785e+01    0.3253771    0.2334576  37.66 0.0002414062    1.532    0.347
        50  -9.6105    179.0662     82.8250   6.8248361708e+01   2.8480338240e+01    0.5156095    0.3232655 -69.80  0.001668801    2.477    0.596
        51  -8.9319    157.6526     86.0667   7.3800274878e+01   3.3170573307e+01    0.2219451    0.2013327 -37.12  0.000446813    1.091    0.084
        52  -9.9718    186.6913     84.5889   6.7243159934e+01   2.6259116135e+01    0.4720906    0.2542577  47.21   0.00152044    1.921    0.479
        53  -9.2409    191.5482     82.5265   6.5738627973e+01   2.5416963916e+01     0.285416    0.2441185  33.97 0.0006024425    1.272    0.214
        54  -8.2459    209.4161     95.4972   6.6008599154e+01   1.8779388535e+01    0.1557403    0.1386557 -56.79  0.000184377    1.149    0.130
        55 -11.2672    168.9162     79.9149   6.9499002662e+01   3.1549674814e+01    0.4801644    0.3640847  -5.26  0.001228901    1.691    0.409
        56 -13.6576    249.8092     33.4391   4.4731275980e+01   1.8741564022e+01    0.6205831    0.4588204 -37.72  0.000912648    1.256    0.204
        57  -8.1359    184.4256     77.8462   6.5761732415e+01   2.8024830252e+01    0.2250566    0.2024684 -22.33  0.001143773    1.153    0.133
        58 -10.4728    115.1591     68.8178   7.9229026157e+01   4.6347512503e+01    0.2719879    0.2562161  38.98 0.0002539691    1.096    0.087
        59 -10.0714    191.4951    192.4236   9.1482111360e+01   5.3235704219e+00    0.6365761    0.3411995 -62.63   0.00221287    4.608    0.783
        60  -9.2174    153.9897     62.0588   6.7233722800e+01   3.8460117705e+01    0.2609075    0.1886367  22.63  0.001144983    1.737    0.424
        61  -9.9611    123.4322     60.3914   7.4114926645e+01   4.6090326870e+01    0.4646749    0.1343688 -40.21  0.001413338    3.348    0.701
        62 -10.0161    206.2077    191.3853   8.8455272591e+01   2.7798725058e+00    0.2433099    0.2031218  68.72  0.001111992    1.658    0.397
        63  -7.6843    189.7412     35.9253   5.2542377565e+01   3.3161163073e+01    0.3367896    0.2365808  -7.20  0.001571409    1.831    0.454
        64 -10.2850    188.7235     46.5857   5.5845419910e+01   3.1947912057e+01     1.071491    0.2027336 -37.53  0.002948043    4.241    0.764
        65  -9.1101    192.0153     45.9998   5.5152323850e+01   3.1180032025e+01    0.3714081    0.2692086 -61.10  0.001170853    1.476    0.323
        66  -8.0028    209.5867     44.8677   5.2261646452e+01   2.6847838474e+01    0.2088493    0.1686251 -45.63  0.001098463    1.179    0.152
        67  -9.0660    198.9922     44.6832   5.3714386303e+01   2.9569928865e+01     0.554429    0.1999705 -31.38  0.001951303    2.703    0.630
        68 -10.3626    160.4224     38.5905   5.8272368546e+01   4.0437797364e+01    0.5160025    0.3108442 -15.05  0.001843831    2.057    0.514
        69 -12.5514    239.7193     70.6898   5.4950405573e+01   1.5772560822e+01     0.782222     0.479796  40.82  0.002080491    2.037    0.509
        70 -10.8942    122.5724     35.3021   6.5318768622e+01   5.0303378944e+01    0.5278874    0.2674758 -16.63  0.002033737    2.576    0.612
        71  -7.9628    171.1430     35.1869   5.5261327164e+01   3.8110766298e+01     0.201458    0.1676074 -74.79 0.0003969205    1.284    0.221
        72  -9.1546    164.7694     33.1813   5.5718234107e+01   4.0035195601e+01      0.37003     0.230464 -87.05  0.001075773    2.180    0.541
        73 -10.3997    145.0685     30.6693   5.8581650095e+01   4.5423295068e+01    0.5161785    0.2981629   0.77    0.0020106    2.674    0.626
        74  -8.0100    163.9012     29.1000   5.4543683230e+01   4.0781232516e+01    0.2015044    0.1652857  36.10 0.0004834259    1.289    0.224
        75  -8.7821    159.8862     29.0648   5.5231790541e+01   4.1828097304e+01    0.2196694    0.2120927  74.16  0.000573248    1.022    0.021
        76  -9.4094    112.0567     29.0670   6.5609440207e+01   5.3573981754e+01    0.2178963    0.2084563  -3.83 0.0009512271    1.086    0.079
        77 -10.0624    112.6938     24.0332   6.3447705309e+01   5.4075819368e+01    0.4148729    0.2291875  -1.32  0.001623318    2.645    0.622
        78  -9.1263      2.2054    181.8559   1.2941751007e+02   3.5957222382e+01    0.1753982    0.1114826  77.34  0.001075196    1.179    0.152
        79 -10.8613    191.3394    179.0812   8.8990216426e+01   7.5940063352e+00    0.6124055    0.2886863  37.63  0.002575343    2.067    0.516
        80  -8.9934     76.0170    177.9997   1.1376145814e+02   2.8489087443e+01    0.1889637    0.1602614  81.22  0.001185121    1.018    0.018
        81  -8.3617    142.9970    180.3073   9.9314432091e+01   1.6708914262e+01    0.1948876    0.1605419  47.12 0.0001795583    1.117    0.104
        82 -12.2060     16.1258    167.0492   1.2563699735e+02   3.7898087627e+01    0.7900316    0.6001124  88.30  0.003764368    1.035    0.034
        83  -8.6068    211.0704     15.1125   4.4020192412e+01   3.0236625802e+01    0.1990836    0.1767456 -76.75 0.0004540062    1.005    0.005
        84  -8.3805    167.7276     13.7079   4.8974887947e+01   4.1545486824e+01     0.182107    0.1494974 -67.53 0.0003083064    1.278    0.217
        85  -8.0044    163.7331     13.3808   4.9460751002e+01   4.2616839109e+01    0.1844599    0.1747294 -76.85 0.0008825496    1.078    0.073
        86  -8.5592    210.8874    162.8325   8.1844344195e+01   6.5384961039e+00    0.2013482    0.1725927   8.57 0.0003021277    1.131    0.115
        87 -12.7477    231.4341     76.2937   5.7504460770e+01   1.6802181783e+01     1.752439    0.7093145 -55.68  0.005269838    4.162    0.760
        88  -8.6337     76.0631    162.3343   1.1165373295e+02   3.1992987948e+01    0.1995137    0.1661093 -65.96 0.0003833688    1.208    0.172
