#   1 NUMBER                 Running object number                                     
#   2 MAG_AUTO               Kron-like elliptical aperture magnitude                    [mag]
#   3 X_IMAGE                Object position along x                                    [pixel]
#   4 Y_IMAGE                Object position along y                                    [pixel]
#   5 X_WORLD                Barycenter position along world x axis                     [deg]
#   6 Y_WORLD                Barycenter position along world y axis                     [deg]
#   7 A_WORLD                Profile RMS along major axis (world units)                 [deg]
#   8 B_WORLD                Profile RMS along minor axis (world units)                 [deg]
#   9 THETA_WORLD            Position angle (CCW/world-x)                               [deg]
#  10 FWHM_WORLD             FWHM assuming a gaussian core                              [deg]
#  11 ELONGATION             A_IMAGE/B_IMAGE                                           
#  12 ELLIPTICITY            1 - B_IMAGE/A_IMAGE                                       
         1 -12.2860    228.9622     47.1137   5.9073766919e+00   2.6416213446e+01     2.098291    0.3649299 -44.75  0.008947561    3.576    0.720
         2 -12.2012    242.5799     39.8095   3.7142708021e+00   2.5164225908e+01     2.212904    0.6069275 -60.75  0.008741787    5.039    0.802
         3 -13.2071    242.2730    114.9114   1.6325040788e+01   1.5098574392e+01     2.967794     1.055002  41.73   0.01344005    5.065    0.803
         4 -12.9624    245.1542     94.0098   1.2557962021e+01   1.7724125895e+01     4.406196     1.070754 -36.87   0.01470318    6.030    0.834
         5  -8.7791    249.9316     15.6197   3.5937910095e+02   2.6759545732e+01    0.1971974    0.1290252 -87.05  0.001646974    1.416    0.294
         6  -9.9850    199.4669     15.3202   2.1709471467e+00   3.5232169213e+01    0.3470729    0.2078876 -84.86  0.002372314    1.425    0.298
         7  -8.5203    219.4642      7.9669   3.5960718032e+02   3.2454740731e+01    0.1621943    0.1198139 -89.08 0.0005166808    1.281    0.219
         8  -7.5334    150.1273      7.1369   4.4020964930e+00   4.5913210775e+01     0.163405    0.1071389 -71.02 0.0004534394    1.320    0.243
         9  -8.1698    102.0106      6.9171   1.0534483657e+01   5.6614517725e+01     0.178095    0.1427505  76.77            0    1.006    0.006
        10  -8.1196    234.1861      2.8138   3.5801554100e+02   3.0534076027e+01    0.1171773   0.09561548 -74.15 0.0003660431    1.299    0.230
        11  -9.8936    218.0839    185.2889   3.1098664743e+01   7.0091437986e+00    0.3901358    0.2965088  -8.90  0.002728856    1.346    0.257
        12  -9.1448    249.4415    248.9779   3.5716488852e+01  -5.0506479172e+00    0.3423844   0.09972486 -36.55  0.001873906    2.520    0.603
        13  -7.7537    236.5095    186.5062   2.8589108142e+01   4.8686377277e+00    0.1096421   0.08338567 -32.67 0.0008104307    1.028    0.027
        14  -9.7909    246.0383    181.0174   2.6458059016e+01   4.7412830580e+00     0.286707    0.1747433 -31.20  0.001696435    1.333    0.250
        15  -8.8497     97.0475    180.9454   5.6185625182e+01   2.4221378039e+01    0.3332875    0.2518553 -23.73 0.0008906675    1.480    0.324
        16 -10.1767    222.3907    177.2138   2.9154362676e+01   7.8312676816e+00    0.4652356    0.2126246 -32.57   0.00242599    2.131    0.531
        17  -8.0688    219.4977    173.4760   2.8978527912e+01   8.7674485733e+00    0.1954612   0.09384985 -51.87 0.0006418797    2.143    0.533
        18  -7.6307     35.5686    176.3187   7.4191817211e+01   3.3158446873e+01    0.1915124     0.131188 -55.89 0.0003934224    1.484    0.326
        19 -11.2457    195.9289    170.7258   3.2271010468e+01   1.2137586797e+01    0.4743222    0.3090698 -48.73  0.001401127    1.422    0.297
        20 -10.4297    230.5314    168.0201   2.6507916787e+01   8.3750718693e+00      0.43066    0.2994107 -57.31  0.002867792    1.651    0.394
        21  -9.5226    249.3062    168.6437   2.4139964680e+01   6.2489432880e+00    0.3168103    0.1562412 -27.20  0.001794232    2.296    0.564
        22  -8.0879    203.5269    164.0813   2.9878028079e+01   1.2308259169e+01    0.3226932    0.2189065 -28.41  0.001079907    1.434    0.302
        23  -9.2850    203.7423    168.9870   3.0679818645e+01   1.1435454400e+01    0.2791301    0.1945979 -39.29 0.0009308466    1.197    0.164
        24  -8.6822    206.5020    167.4472   2.9976709713e+01   1.1349319049e+01    0.2183655    0.1731014 -25.17 0.0006097402    1.172    0.147
        25  -9.0751    185.7595    168.7763   3.3708460831e+01   1.3843761890e+01    0.3657601    0.3086345  63.64  0.002312023    1.598    0.374
        26  -8.1881    189.2481    164.4073   3.2324978021e+01   1.4160739574e+01    0.2480246    0.1306975 -37.42 0.0009699863    1.755    0.430
        27  -8.4361    221.5256    162.8243   2.6930041716e+01   1.0260523822e+01    0.2101357    0.1562227 -51.02  0.000596882    1.302    0.232
        28 -11.3910    218.6793    106.7679   1.7589369048e+01   1.9653659676e+01    0.9602891     0.701549  58.47   0.00660454    1.652    0.395
        29  -9.5928    245.9728    244.0246   3.5551875337e+01  -4.1603788797e+00    0.1793621    0.1038972  -3.77 0.0007903213    1.626    0.385
        30  -8.1807     22.5596    226.1674   8.2180363341e+01   2.1869602929e+01     0.199467    0.1707448  -7.70 0.0003869243    1.317    0.241
        31  -9.7976     76.7373    223.0370   6.7434323423e+01   1.6988886191e+01    0.2726319     0.224505 -45.17 0.0004622756    1.311    0.237
        32  -6.9971     83.2877    156.3448   5.6052653051e+01   3.2310129017e+01    0.1579297    0.1138436 -25.75 0.0007022342    1.651    0.394
        33  -9.0596    191.8267    152.5159   2.9766566783e+01   1.5941862741e+01    0.3646107    0.1793375 -55.86 0.0005217041    2.312    0.567
        34 -10.7967    234.1766    105.6434   1.5628567538e+01   1.7570576685e+01    0.4252249    0.3550446  81.10   0.00165336    1.423    0.297
        35  -9.9794    144.5202    143.5032   3.7222112183e+01   2.5151089275e+01    0.3469943     0.275742 -48.26  0.001833927    1.201    0.167
        36  -9.0026    160.5016    147.8221   3.4674479375e+01   2.1616628919e+01    0.3168546     0.237903 -29.04  0.001636851    1.410    0.291
        37  -8.9816    133.1545    141.8081   3.9503700214e+01   2.7465783929e+01    0.5105656    0.1957294 -58.01  0.001681806    3.401    0.706
        38  -7.1082    126.3135    147.2599   4.2274383559e+01   2.7448190219e+01    0.1407858    0.1118696  -7.93 0.0001677761    1.534    0.348
        39  -9.2034     68.6775    144.4555   5.8596621903e+01   3.7519814034e+01    0.5261741    0.3455892  69.09  0.002195017    2.062    0.515
        40  -8.1558     19.9444    141.6963   7.5625125529e+01   4.3974428700e+01    0.2007326    0.1817681  19.51 0.0003005392    1.117    0.105
        41 -10.3705    151.4007    149.3063   3.6860776250e+01   2.2800483918e+01    0.8714981    0.3377179  37.72  0.003388347    2.797    0.642
        42  -7.0944    137.3276    138.6482   3.7874705928e+01   2.7414823078e+01    0.1460873    0.1118276  86.90 0.0007047756    1.766    0.434
        43  -8.7234     20.5080    151.2262   7.6520055308e+01   4.1334381489e+01    0.3310721     0.169315  12.28  0.001356401    2.100    0.524
        44 -10.4372      9.5325    136.7303   7.8987293180e+01   4.6125967187e+01    0.2884117    0.2562276  18.59 0.0003753809    1.153    0.132
        45  -9.5495    159.0283    134.5861   3.2362526081e+01   2.4479856346e+01    0.2853406    0.2421952  66.79 0.0008345479    1.340    0.254
        46  -9.5168    171.5807    132.8686   2.9617291580e+01   2.2692689891e+01    0.2717908     0.210376  75.87  0.000940235    1.659    0.397
        47  -9.7524    191.0415    131.1388   2.5952979742e+01   1.9867835801e+01    0.3747838    0.2310691  35.00  0.002035539    2.082    0.520
        48  -7.8504    197.9170    131.5360   2.4953141343e+01   1.8739461636e+01    0.1559517    0.1226388  48.21 -6.877366e-06    1.495    0.331
        49  -8.8349    227.9227    128.2992   2.0240276860e+01   1.4972937947e+01    0.2620422    0.1287232 -53.33  0.000848368    1.907    0.476
        50  -9.5806    161.3398    128.7916   3.0733365578e+01   2.5210801074e+01    0.3736929    0.2420738  56.46  0.001905742    1.790    0.441
        51  -8.6441    153.2913    127.0369   3.1979138102e+01   2.6969552693e+01    0.2012652     0.168958 -51.76 0.0006668475    1.119    0.106
        52  -9.8926      1.8438    122.7631   8.0527210580e+01   5.0373237763e+01    0.6763981     0.198162 -75.09  0.002260404    3.238    0.691
        53 -11.2969     38.6981    119.1414   6.4929015684e+01   4.8133962931e+01     1.014851    0.7939731 -39.05   0.00399706    1.308    0.235
        54 -10.2571     31.0519    120.0119   6.8171044198e+01   4.8757857286e+01    0.5210639    0.3314499  12.65  0.001193491    1.651    0.394
        55  -7.1629     92.7893    122.8420   4.6396514810e+01   3.8953915535e+01    0.1942793    0.1678938  66.98 0.0002706977    1.252    0.201
        56  -8.6845    187.0551    121.3622   2.4717907624e+01   2.2227156503e+01    0.3320248    0.1585165 -55.69  0.001519022    2.241    0.554
        57 -10.6868     46.7096    121.3113   6.2177915362e+01   4.6577858599e+01    0.8413607    0.4837875 -59.37  0.002883509    1.728    0.421
        58  -8.0172     86.9742    118.0665   4.7140197849e+01   4.1109833820e+01    0.2088251    0.2050745   2.70  0.001152641    1.046    0.044
        59  -7.4332     78.1188    161.1534   5.8481180341e+01   3.1858823285e+01    0.2016382    0.1673915  55.01  0.001010107    1.276    0.216
        60  -6.9778    128.7014    114.3400   3.4654175652e+01   3.4103403585e+01    0.1460414    0.1108622 -87.97 0.0007034459    1.664    0.399
        61  -8.8021     61.5303    113.0836   5.4818864480e+01   4.6559006164e+01    0.3672291     0.157002 -72.24  0.001039827    4.450    0.775
        62  -8.2125    150.8644    111.7362   2.9208419990e+01   3.0391376928e+01    0.2413626    0.1822303  76.12  0.000772925    1.567    0.362
        63  -9.4996    192.6051    105.7652   2.0834385386e+01   2.3971954603e+01    0.2846057    0.2732694  25.50 0.0003998941    1.318    0.241
        64  -9.8461    202.7880    107.2654   1.9704230249e+01   2.2048578156e+01    0.4015701    0.2824828  76.94  0.001092335    1.773    0.436
        65  -9.5339    197.2902    107.3783   2.0481422333e+01   2.2924831915e+01    0.2595972    0.2234641 -77.66  0.001579972    1.178    0.151
        66  -9.2935    179.5553    109.0724   2.3479855772e+01   2.5650519222e+01    0.3591695    0.2757519  58.66  0.001135803    1.434    0.303
        67  -8.9504     56.9897    110.3189   5.5921223807e+01   4.7931460846e+01    0.2134651    0.1851451  25.89 0.0002710545    1.123    0.110
        68  -9.4435    187.0690    108.3525   2.2162407038e+01   2.4475356977e+01     0.251291    0.2231229  89.63 0.0004083182    1.182    0.154
        69  -7.1271    129.9946    108.0270   3.2897711057e+01   3.5136782910e+01    0.1648265    0.1545523 -67.29            0    1.035    0.034
        70  -9.6554    160.3459    104.0480   2.5716183580e+01   3.0036690501e+01    0.2818148    0.2215749 -53.26 0.0007114454    1.176    0.150
        71  -8.5310    157.2043    101.0302   2.5633935602e+01   3.1179454155e+01    0.3131889     0.176464 -48.88 0.0008564093    1.666    0.400
        72  -8.3697    135.7873    105.1347   3.0908351136e+01   3.4572353186e+01     0.217012    0.1835272 -84.43 0.0005156748    1.255    0.203
        73 -10.5031    178.5780    100.4007   2.1861886493e+01   2.7317900259e+01    0.3543733     0.286264 -43.82  0.001094155    1.202    0.168
        74  -8.3842    144.3546    103.1290   2.8615191440e+01   3.3277773739e+01    0.2486366    0.1901295  65.82 0.0006360835    1.383    0.277
        75  -8.7140     62.2942     99.0485   5.1229317953e+01   4.9814598313e+01    0.2550299    0.2026606  37.25 0.0003556615    1.206    0.171
        76  -8.3544    217.6095     95.7849   1.5727450681e+01   2.1501043576e+01    0.2022861    0.1627312 -49.13 0.0004859574    1.105    0.095
        77  -8.0173    227.1712     91.8744   1.3977234927e+01   2.0619270846e+01    0.1433293    0.1176541 -38.29  0.000478969    1.319    0.242
        78  -7.7491    219.0431     89.1189   1.4354133478e+01   2.2274588606e+01    0.1761434    0.1109078 -67.17 0.0005691522    1.621    0.383
        79  -8.4309    184.6278     86.2452   1.8050041609e+01   2.8553963581e+01    0.3212538    0.1526651 -35.25  0.001493362    2.420    0.587
        80  -8.1668    114.7406     88.0051   3.1703727023e+01   4.2154561306e+01    0.2194621    0.1889699  53.83   0.00034197    1.127    0.113
        81  -8.1562    232.1793     84.7345   1.2219211164e+01   2.0895463856e+01    0.2041961    0.1229625 -38.10 0.0005341269    1.583    0.368
        82  -7.8349    227.3623     85.0159   1.2744881800e+01   2.1583206949e+01    0.1586773    0.1116854 -46.96 0.0007044432    1.181    0.153
        83  -7.3147     63.7748     82.6393   4.6314076109e+01   5.3247000830e+01    0.1416549    0.1086934 -22.08 0.0002932214    1.573    0.364
        84  -8.8670    183.5946     78.8683   1.6666462579e+01   2.9901599520e+01    0.2723354    0.2402221 -80.54   0.00133303    1.089    0.082
        85  -8.3553    155.0184     75.5737   2.0251219770e+01   3.5986816525e+01    0.2014797    0.1711864 -35.97 0.0001881597    1.363    0.266
        86 -10.5018    245.0403    124.5715   1.7619440151e+01   1.3314016147e+01    0.4869701    0.2850349 -35.95 0.0007797161    1.533    0.347
        87 -12.1507    241.0617     79.0921   1.0429014866e+01   2.0371344248e+01    0.9985572    0.6513519 -40.52  0.002072029    1.405    0.288
        88 -10.0036    241.6424     60.8893   7.3089018834e+00   2.2700460511e+01    0.2120626    0.1814601  53.88   0.00127794    1.744    0.427
        89  -7.6883    197.0324     67.8104   1.2753319351e+01   2.9096765945e+01      0.15861    0.1282102 -63.80 0.0004515788    1.019    0.019
        90  -7.8528    224.4976     65.9887   9.6281916255e+00   2.4684589013e+01    0.1603042   0.08740174 -44.59 0.0004685852    1.504    0.335
        91  -7.8661    164.7692     64.1869   1.6109777203e+01   3.5781984312e+01      0.15694    0.1520898  56.00 0.0007783476    1.329    0.248
        92  -7.1053    197.3304     59.3251   1.1032818100e+01   3.0235852776e+01    0.1007547   0.09277117  17.11 0.0003543058    1.704    0.413
        93  -8.4198    197.0734     50.9138   9.3842631850e+00   3.1417615102e+01    0.1648129    0.1328878 -69.16 0.0002793259    1.036    0.035
        94  -8.5889    218.0970     46.7861   6.6998175449e+00   2.8250072899e+01    0.1742678    0.1611746 -70.33 0.0007513291    1.370    0.270
        95 -11.9608    249.5569    140.7630   1.9731497045e+01   1.0366198577e+01     1.632629      1.17843 -17.78  0.009150881    1.713    0.416
        96  -8.4307    216.6745     41.8018   5.8999898722e+00   2.9112617860e+01    0.1523237    0.1195547 -45.49 0.0005514274    1.353    0.261
        97  -8.8946    250.2397     37.2124   2.8189633614e+00   2.4315560159e+01    0.2782712    0.1054584 -38.98  0.001044573    2.293    0.564
        98  -7.8764     81.9852     33.9941   2.4286668245e+01   5.8103808080e+01    0.1911244    0.1646229  63.60  0.001185054    1.032    0.031
        99  -8.1137     83.0671    221.9922   6.5650617880e+01   1.6482180961e+01    0.2123805    0.1871383  -0.57 0.0004854034    1.114    0.102
       100  -7.6731    112.4832     25.5241   1.4509934339e+01   5.2309426338e+01    0.1290025    0.1055935  85.75 -0.0001398281    1.075    0.070
       101  -8.2756    103.9245     23.2457   1.5432017855e+01   5.4508801833e+01    0.1874008    0.1716623 -64.37 0.0004671915    1.209    0.173
       102  -8.0178    216.4874     22.8792   2.4555514345e+00   3.1368070565e+01     0.145848   0.08627321 -43.39 0.0008959924    1.523    0.344
       103  -8.5480     87.8993     22.8593   1.8818933117e+01   5.8171444232e+01    0.1976132    0.1689446 -87.55 0.0002840578    1.197    0.164
       104  -8.0270    168.9420    213.0261   4.4221209408e+01   7.8553420394e+00    0.1841689    0.1583939 -20.55  0.000402914    1.066    0.062
       105  -7.5495    214.4551    206.9385   3.5050783591e+01   3.9214167087e+00    0.1418783   0.09431721 -61.80  0.000487614    2.435    0.589
       106  -7.6810    250.2513    204.1561   2.9349983292e+01   9.8134100442e-01    0.1760475    0.0847245 -18.03 0.0007589314    2.794    0.642
       107  -8.9469     21.2337    198.3930   8.0621203774e+01   2.8760734024e+01    0.2314022    0.2260079 -37.11 0.0005808143    1.120    0.107
       108  -8.2588    192.6965    194.5518   3.6797191195e+01   8.3551714554e+00    0.2434625    0.1801831 -79.05  0.001303268    2.604    0.616
