#   1 NUMBER                 Running object number                                     
#   2 MAG_AUTO               Kron-like elliptical aperture magnitude                    [mag]
#   3 X_IMAGE                Object position along x                                    [pixel]
#   4 Y_IMAGE                Object position along y                                    [pixel]
#   5 X_WORLD                Barycenter position along world x axis                     [deg]
#   6 Y_WORLD                Barycenter position along world y axis                     [deg]
#   7 A_WORLD                Profile RMS along major axis (world units)                 [deg]
#   8 B_WORLD                Profile RMS along minor axis (world units)                 [deg]
#   9 THETA_WORLD            Position angle (CCW/world-x)                               [deg]
#  10 FWHM_WORLD             FWHM assuming a gaussian core                              [deg]
#  11 ELONGATION             A_IMAGE/B_IMAGE                                           
#  12 ELLIPTICITY            1 - B_IMAGE/A_IMAGE                                       
         1 -10.2870      9.9209     18.8694   1.1328230939e+02   6.9438107639e+01     1.039129    0.4092156 -13.52  0.003635828    6.324    0.842
         2 -10.7524     36.3339      9.5438   9.7722614974e+01   6.7948503566e+01    0.8092813    0.4616371 -22.48  0.002370048    1.574    0.365
         3 -10.7037     19.2400      6.7545   1.0389168652e+02   7.0210099949e+01    0.8436918    0.7124609 -68.92  0.005565289    3.149    0.682
         4 -11.2073     23.7805     32.3418   1.1224058022e+02   6.6242955890e+01     1.957536    0.5445293 -33.15  0.003547138    4.373    0.771
         5  -9.6053      2.2786     14.4709   1.1515189137e+02   7.0631931739e+01    0.4052425    0.1954956 -53.47  0.002200804    2.781    0.640
         6 -10.3884      5.2025      4.5567   1.0958472455e+02   7.1753942439e+01    0.4119851    0.3074289  -2.33  0.001427404    1.172    0.147
         7 -10.6495      6.7662     30.1049   1.1881526310e+02   6.7956426786e+01     0.587923    0.3013978 -41.33  0.002279076    1.495    0.331
         8 -10.5998     35.8718     37.9985   1.0932040120e+02   6.4146294851e+01    0.6140019     0.329671 -16.35 0.0004012103    2.174    0.540
         9 -10.3038     69.4431     40.4866   9.7779063752e+01   5.9276604927e+01     1.426373    0.4002348 -35.47  0.005291722    3.579    0.721
        10 -10.3072     76.0718     31.9920   9.2429884632e+01   5.9349018877e+01    0.5466823    0.4377488 -89.94  0.001058103    2.406    0.584
        11  -9.3627    100.9736     31.8687   8.5029104777e+01   5.4702348615e+01    0.5719723    0.2030875 -32.24  0.001788587    2.929    0.659
        12  -9.3844    103.0650     21.2255   8.0707960384e+01   5.5482717317e+01    0.4378811    0.2129096 -30.66  0.001404383    2.214    0.548
        13  -8.7965    104.3221     15.0673   7.8208780612e+01   5.5841291371e+01    0.3403927    0.1856158   2.51  0.001590225    2.618    0.618
        14  -8.2862     67.5469      9.4300   8.6288121502e+01   6.3346050042e+01    0.2181834    0.1193615  37.36 0.0006720264    1.562    0.360
        15  -9.8794     63.7418      3.3637   8.4979193747e+01   6.4545524602e+01    0.4971817    0.2495295 -21.89  0.002838653    2.037    0.509
        16  -9.6891     63.0069     20.9770   9.2506196364e+01   6.2855397856e+01      0.45394    0.2720357 -45.90  0.001874826    2.448    0.592
        17  -9.7355     64.4857     13.3968   8.8922197269e+01   6.3456697384e+01    0.3073373    0.2552862  -3.06 0.0003077919    1.151    0.131
        18 -10.2291     46.2235     29.4989   1.0205086141e+02   6.4175188920e+01    0.4862329    0.2443719 -44.18  0.001103394    2.303    0.566
        19 -10.1735     51.6994     14.1688   9.3738250320e+01   6.5348107046e+01    0.7828932    0.3942434  10.26  0.003716418    2.843    0.648
        20  -8.8183    128.4015     25.8354   7.6422540845e+01   4.9483016531e+01    0.2550341     0.226379 -24.84 0.0006883472    1.255    0.203
        21  -9.3651    139.7321     22.1420   7.3003325592e+01   4.7267412905e+01    0.2893845    0.2212545 -60.97  0.001640725    1.566    0.361
        22  -8.8873    120.8286     15.3045   7.4579299739e+01   5.2266053591e+01    0.4202707    0.2214946   9.07  0.001780225    3.173    0.685
        23  -9.0044    112.2507     15.8870   7.6644395227e+01   5.4084363483e+01    0.3828068     0.199202 -33.54  0.001429773    2.149    0.535
        24  -9.2308    114.1878     10.0664   7.4228124281e+01   5.4203294225e+01    0.4355923    0.1627652  43.64 0.0004494012    2.402    0.584
        25  -8.2334     72.0234      8.4756   8.4493455619e+01   6.2666862231e+01    0.1852488    0.1471083 -18.79 0.0003518625    1.352    0.261
        26  -9.7542     73.3842     18.4662   8.8073519090e+01   6.1421292157e+01     0.535865    0.1963802 -32.91  0.002245785    2.820    0.645
        27  -8.7787     76.4186      8.3815   8.3132182935e+01   6.1895236047e+01    0.4968262     0.239719   3.10  0.002191549    3.232    0.691
        28  -8.6803     78.4737      3.0260   8.0400182236e+01   6.1987768109e+01    0.2088797    0.2012751 -41.21 0.0007672058    1.428    0.300
        29  -8.5433    121.4921      6.4843   7.1537664034e+01   5.2908315189e+01    0.2568047    0.2002168 -77.23  0.001548869    1.641    0.390
        30  -8.8741    125.0587     13.0536   7.2977151335e+01   5.1533491933e+01     0.238884    0.2000042 -53.40 0.0008152266    1.439    0.305
        31  -8.4155    126.8189      9.1531   7.1375716867e+01   5.1488649034e+01    0.2308787    0.1493179  44.62   0.00045401    1.375    0.273
        32  -9.0534    125.5265      5.4174   7.0420219698e+01   5.2097012141e+01    0.3115322    0.2100158  30.08   0.00171546    1.566    0.361
        33  -8.5550     95.8198     16.6173   8.0901284824e+01   5.7423951104e+01    0.2605389    0.1771417 -24.76 0.0004878647    1.590    0.371
        34  -8.4657     96.6687     12.6480   7.9225681479e+01   5.7636442373e+01     0.265627    0.1484554  22.22  0.001341191    2.075    0.518
        35  -9.5613     85.1834     13.0766   8.2449647235e+01   5.9836689408e+01    0.3571714    0.2459976 -54.33  0.001767496    2.367    0.578
        36  -7.7962     80.4792     12.5961   8.3607684585e+01   6.0759263336e+01    0.2175877    0.1309512 -45.20  0.001159244    2.420    0.587
        37  -9.2106    133.3867     11.9540   7.1032444521e+01   4.9743659656e+01    0.3450783    0.1677725 -38.45  0.001275194    2.351    0.575
        38  -8.4487    141.2185     12.1850   6.9706628198e+01   4.7909947323e+01    0.1785167    0.1459282 -78.01  0.001079957    1.384    0.277
        39  -8.6861    102.0383      8.4325   7.6383161917e+01   5.6919956175e+01    0.1911331    0.1676504 -43.36  0.000494329    1.427    0.299
        40  -8.3595    110.0719      7.7688   7.4328853332e+01   5.5288041927e+01    0.1802212    0.1596805  69.68    0.0005477    1.240    0.193
        41  -8.8246    110.9739      4.5146   7.3012506771e+01   5.5364658477e+01    0.2150835    0.1340542  26.64 0.0008752019    1.696    0.410
        42  -7.4103    174.1794      7.1070   6.3391746475e+01   4.0560863543e+01    0.1667566     0.128665 -79.00  0.001004285    1.274    0.215
        43  -8.6299     85.6714      4.8161   7.9133329863e+01   6.0487467869e+01    0.3564065    0.2474073  -1.24  0.002245921    1.501    0.334
        44  -8.3822     88.8402      2.8205   7.7541463623e+01   6.0038665834e+01    0.1938015    0.1606636   2.24 0.0007361866    1.232    0.189
        45  -8.3349    131.3480      6.2154   6.9608358522e+01   5.0714874888e+01    0.1640168    0.1425122 -75.95 0.0004680534    1.329    0.248
        46  -8.7962    135.2913      2.2401   6.7696774712e+01   5.0140923581e+01    0.4777345    0.2277756  30.20  0.002118147    2.858    0.650
        47  -8.5081     97.6596      5.7037   7.6434906601e+01   5.8048293494e+01    0.2470311    0.1349371  38.59 0.0007041524    1.604    0.377
        48  -8.7532     95.8836      3.1283   7.5914640337e+01   5.8616939431e+01    0.2643889    0.1744571  38.72 0.0008543396    1.273    0.214
        49  -8.1063    142.8822      5.0845   6.7307415062e+01   4.8154032463e+01    0.1987284    0.1239686 -55.87  0.000492255    2.001    0.500
        50  -8.9719    115.2903      4.0438   7.1959849992e+01   5.4470495113e+01    0.2956335    0.1760108 -40.36  0.001089736    2.060    0.514
        51  -8.7001    104.3693      2.1478   7.3610268702e+01   5.6950227159e+01    0.2714496    0.1412445  38.53  0.001061655    1.735    0.424
        52  -7.8624      1.3618    115.3247   1.3949239933e+02   5.1392668403e+01    0.2412347    0.0785925 -65.14   0.00112562    2.165    0.538
        53 -10.0669    206.6905    249.8034   1.1302963058e+02  -8.0582944194e+00    0.6046436     0.179388  33.37  0.002150119    3.725    0.732
        54 -10.1853    197.6004    249.0115   1.1462101167e+02  -6.4777755829e+00    0.3234923    0.2566536  -7.52  0.002052012    1.375    0.273
        55 -10.6313    187.6051    245.7544   1.1602410308e+02  -4.3325058177e+00    0.4133703    0.1994751  37.30  0.001810634    1.794    0.443
        56  -8.9199    152.7161    115.3543   9.7102961006e+01   2.8833003030e+01    0.2512639    0.1899508 -84.91 0.0009385791    1.733    0.423
        57  -7.7078    167.3427    114.1672   9.3431572582e+01   2.5695076207e+01    0.2242889    0.1408357 -52.11 0.0004324785    1.657    0.396
        58  -9.6598     14.1182    111.5986   1.3535347730e+02   5.1394425277e+01    0.4542617    0.2308871 -84.43  0.001743404    2.397    0.583
        59  -8.7352     14.0813    105.0115   1.3428493140e+02   5.2866253336e+01    0.1858146    0.1443334 -57.08 0.0004515632    1.040    0.038
        60  -9.1908    158.8608    112.0396   9.4806474981e+01   2.8116092280e+01     0.310485    0.2045895 -49.70 0.0006363193    1.535    0.349
        61  -9.4761     66.9973    104.1081   1.1785859167e+02   4.7632326195e+01    0.6248204     0.406076 -20.57  0.002936059    2.086    0.521
        62  -8.9849     63.2871     87.1039   1.1470064625e+02   5.1820027832e+01    0.7835167    0.4251595   3.66  0.002854052    3.951    0.747
        63 -10.2154     65.5448    110.9140   1.1989418913e+02   4.6292263807e+01    0.7458581    0.5134085  76.86  0.001229504    2.189    0.543
        64  -9.5105     59.0082    109.3281   1.2151016299e+02   4.7512529722e+01    0.4103172    0.2195484 -61.51   0.00130737    1.805    0.446
        65  -9.3990     35.5348    112.4576   1.2922208263e+02   4.9410846767e+01     0.301479    0.1764458  22.85  0.001601921    2.095    0.523
        66  -8.5615    149.7943    109.9613   9.6395821860e+01   3.0643434512e+01    0.2570668    0.1779451 -69.36 0.0005518686    1.883    0.469
        67 -10.8974     44.4888    102.3574   1.2444199607e+02   5.0783957919e+01    0.7774063    0.4592002  72.86  0.003216798    3.449    0.710
        68  -8.8414     40.0201    106.9659   1.2679416393e+02   5.0215097391e+01    0.1927112    0.1465782  84.94 0.0005309948    1.626    0.385
        69 -10.8451     20.7822    101.2500   1.3158748599e+02   5.3206779448e+01    0.9132758     0.487013  80.38  0.003714865    3.937    0.746
        70 -10.5670     19.2292     86.8555   1.2924546297e+02   5.6440824240e+01      1.09129    0.1880309 -52.98   0.00364799    3.364    0.703
        71 -10.4123     25.8048     78.2114   1.2508126092e+02   5.7730547054e+01    0.6526595    0.4258076  86.96  0.002432663    2.789    0.641
        72 -10.3445     36.7419     81.1710   1.2203611827e+02   5.6136826481e+01    0.8585008     0.405592 -16.61  0.003072841    4.653    0.785
        73  -9.4032     81.5304    100.4033   1.1248794969e+02   4.6291371786e+01    0.3951229    0.2763301 -72.91  0.001044557    1.891    0.471
        74  -8.2155     81.8747     94.4107   1.1079383037e+02   4.7529260852e+01    0.3783434    0.2225217 -17.29  0.001454949    2.963    0.662
        75  -9.8779      6.5593    103.9519   1.3634451059e+02   5.3594361486e+01    0.4065228    0.2450713  83.08  0.002113829    2.143    0.533
        76  -9.5833    149.5061    103.1389   9.4650928360e+01   3.2126237512e+01    0.4312473    0.2793167 -56.98 0.0009262981    1.741    0.425
        77  -8.6024    165.9284    103.8686   9.1074667564e+01   2.8130055139e+01    0.3092451    0.2174997 -48.48  0.000441296    1.426    0.299
        78 -10.4256     62.8119     95.6998   1.1709268767e+02   5.0053057277e+01     0.687259    0.4071399 -73.86  0.001459049    2.661    0.624
        79  -7.8462    196.7545    102.0016   8.4310324813e+01   2.1155994867e+01    0.2096669    0.1873148 -55.07 0.0004313857    1.076    0.071
        80  -8.8662    158.9073    101.1231   9.1920113198e+01   3.0340722906e+01    0.2994408    0.2014857 -48.79 0.0006614704    1.506    0.336
        81  -9.0988    244.1941     99.3562   7.5885512438e+01   1.0976491421e+01    0.1989799    0.1694079 -42.45  0.001140867    1.126    0.112
        82  -9.3475    164.7594     95.1526   8.9015502494e+01   3.0126774634e+01    0.5639142     0.357286 -62.42  0.001720515    1.990    0.498
        83  -8.8973    150.0985     96.6864   9.2760424849e+01   3.3291460894e+01    0.4159267     0.254642  24.80  0.001431592    2.593    0.614
        84  -8.2758    239.3096     96.6695   7.5993955058e+01   1.2476505676e+01    0.1481587   0.09981136 -67.85 0.0002222147    1.667    0.400
        85  -8.0224    170.9781     96.0947   8.7929953035e+01   2.8453769287e+01    0.2332827    0.1593441 -57.04 0.0005880978    1.596    0.373
        86  -9.8250    138.5180     92.4097   9.4376689768e+01   3.6800707662e+01     0.502728    0.3708974 -55.63   0.00137144    1.468    0.319
        87 -10.3906      4.1854     89.4406   1.3463015445e+02   5.6869775013e+01     0.715023    0.3430176 -82.89  0.001824167    2.914    0.657
        88  -9.5725      6.5092     78.3275   1.3174496646e+02   5.9059145537e+01    0.6463409    0.2198329 -30.43  0.002538672    4.276    0.766
        89 -10.8686    178.0348    247.5030   1.1814319293e+02  -2.9926142284e+00    0.4695068    0.3906939  -4.92  0.002527681    1.385    0.278
        90 -10.1038    160.0282    247.5520   1.2165364450e+02   6.8565211595e-02    0.4102573    0.2802851  76.69  0.002111058    2.246    0.555
        91  -7.6492    107.8014    248.2174   1.3187832353e+02   8.7306953586e+00    0.1532991    0.1391884  42.38 0.0003852236    1.292    0.226
        92 -10.4811     15.7413     70.7221   1.2683975770e+02   6.0011768351e+01     1.370096    0.2531863 -56.91  0.004194943    3.740    0.733
        93 -11.5896    250.5181    233.0932   1.0218521224e+02  -1.2413019589e+01    0.2258845    0.1397845 -27.44            0    1.546    0.353
        94 -10.8969     21.9772     53.8224   1.2001790713e+02   6.2772374886e+01    0.7366039    0.5751232 -88.02  0.002967142    2.217    0.549
        95  -9.5090    187.6006    233.5842   1.1407302110e+02  -2.3940207085e+00     0.261327    0.2245727  61.65  0.001251728    1.377    0.274
        96  -8.5535     18.0153    233.5617   1.4697061586e+02   2.3945251820e+01    0.1896841    0.1271723 -78.79 0.0004411371    1.346    0.257
        97 -10.1402     13.2726     45.4509   1.2098511464e+02   6.4931491449e+01    0.6689475    0.3295078  -8.86  0.002411772    2.606    0.616
        98 -10.1961      4.6835     41.9855   1.2348488216e+02   6.6101262734e+01    0.5688785    0.2664343 -53.44  0.002414578    1.806    0.446
        99  -7.2182    129.5933    221.4832   1.2401887925e+02   1.0185933624e+01    0.1351375    0.1214208  59.14 0.0001280258    1.032    0.031
       100  -9.1756    150.6859     89.1671   9.0546027209e+01   3.4620147007e+01    0.3085545    0.2594483 -38.47  0.001114846    1.216    0.178
       101  -9.5698    157.7726     90.3503   8.9256940930e+01   3.2717359070e+01    0.5167078    0.2906604 -23.24  0.001881923    2.666    0.625
       102  -9.1887    111.4371     89.7968   1.0078466761e+02   4.3128694640e+01    0.6690175    0.3537082  28.49  0.002509625    2.639    0.621
       103  -7.6399     78.1982     89.9523   1.1071593591e+02   4.9052104785e+01    0.1901169    0.1030299 -48.74 0.0004609945    1.730    0.422
       104 -10.4464     48.0964     83.2751   1.1871763292e+02   5.4504179017e+01    0.9697409    0.3954743 -51.28  0.002672906    2.090    0.522
       105 -10.6748     55.2722     71.0095   1.1285627413e+02   5.6100813030e+01    0.6680473    0.4304032  55.94  0.001326382    2.524    0.604
       106 -10.1967     62.3438     60.7767   1.0723445169e+02   5.7054041007e+01    0.6894588    0.2858206  30.79  0.002976421    2.670    0.626
       107  -8.4690    174.5003     88.9969   8.5313530217e+01   2.8946252397e+01    0.2340485     0.148679 -42.49 0.0006838297    1.572    0.364
       108 -10.2048     85.2560     86.5524   1.0756594435e+02   4.8612431436e+01     0.459313    0.3595155 -76.76 0.0009109844    1.759    0.432
       109  -9.4423     87.4808     78.7262   1.0458558063e+02   4.9790989263e+01    0.6104567    0.3459795  18.93  0.001742753    2.652    0.623
       110  -8.9166    163.3099     86.5793   8.7005931548e+01   3.2100510357e+01    0.3724637    0.2210248 -36.00  0.001134088    1.772    0.436
       111  -8.0871     78.1621    105.3827   1.1477326453e+02   4.5717543820e+01    0.3768819    0.2322329  -3.77  0.001456924    3.122    0.680
       112  -9.5084    240.3581     85.2500   7.3300034485e+01   1.4202953480e+01    0.3812066    0.1532279  51.34  0.001510055    2.781    0.640
       113 -10.3407    103.8462     82.4994   1.0081322206e+02   4.6066811335e+01    0.5590538    0.3142686 -53.22 0.0009146688    2.057    0.514
       114  -9.4526    104.9207     71.9127   9.7285729695e+01   4.7841402354e+01    0.6246805    0.3949718 -14.29  0.002505345    2.241    0.554
       115  -8.3222    170.4912     83.9331   8.4775584244e+01   3.0848515786e+01    0.2223819    0.1493326 -40.68 0.0006477425    1.507    0.336
       116  -8.8073    157.8474     83.6448   8.7386587830e+01   3.3954482599e+01    0.3082922    0.2399946 -63.20 0.0008443441    1.429    0.300
       117  -9.2713    157.4289     77.3825   8.5725590898e+01   3.5183328051e+01    0.5799178    0.2747582 -46.45  0.001602965    2.234    0.552
       118  -9.7901    140.5346     82.1695   9.0966958081e+01   3.8301380273e+01    0.8912615    0.3284341 -36.02  0.002955079    2.992    0.666
       119  -8.7870    139.8605     75.5882   8.9215033682e+01   3.9651669004e+01    0.4452705    0.2205774 -35.74  0.001463332    2.132    0.531
       120  -8.8406    118.9368     80.5160   9.6002859418e+01   4.3391445906e+01    0.3523884    0.2519538 -65.10 0.0008504662    1.855    0.461
       121  -8.1771    120.0081     76.0094   9.4363746282e+01   4.3998604438e+01    0.2813437    0.1935702  -7.56 0.0007961946    2.070    0.517
       122  -8.9659     74.0114     80.1774   1.0927683945e+02   5.1692193046e+01    0.4276021    0.2193521 -59.90  0.001141598    2.746    0.636
       123  -7.8564     75.0578     74.4566   1.0723998442e+02   5.2648676558e+01    0.2763891    0.1737059  12.23  0.001286282    2.136    0.532
       124  -8.0714     63.3083     82.0185   1.1329939454e+02   5.2865232774e+01    0.1880096    0.1565309 -45.45 0.0005045739    1.131    0.116
       125  -9.0818    149.9283     80.1349   8.8175577894e+01   3.6480610995e+01    0.4815358     0.223573 -34.49  0.001645251    2.363    0.577
       126  -8.8658     54.6107     63.2379   1.1072927386e+02   5.7646326658e+01    0.6099581    0.2617864  36.82  0.002805538    2.533    0.605
       127  -8.4477    248.1674     79.1998   7.0942476240e+01   1.3533145497e+01    0.1955284    0.1416291 -67.65 0.0006368925    1.339    0.253
       128  -8.9524    166.1717     78.8288   8.4274403037e+01   3.2812921581e+01    0.2636312    0.2071323 -33.58 0.0008072036    1.355    0.262
       129  -8.2208    184.2396     77.9875   8.0506982322e+01   2.8548607213e+01    0.2548026    0.2103603  60.80 0.0004755437    1.184    0.156
       130  -9.4888    127.4821     75.3320   9.2204851976e+01   4.2497501834e+01    0.3919421    0.2755902 -61.62 0.0007505464    1.814    0.449
       131  -8.8168    129.2687     68.8544   8.9795775254e+01   4.3235370805e+01    0.4290837    0.2556505  26.85  0.001741309    2.327    0.570
       132  -8.7162    130.4995     64.9908   8.8311384147e+01   4.3608147330e+01    0.4322268    0.2088798 -42.69  0.001759984    2.176    0.540
       133  -9.8958     81.5770     72.4586   1.0453126998e+02   5.1981798715e+01    0.4085989     0.301493 -66.70 0.0009485585    1.925    0.480
       134  -9.1626     83.6173     64.4917   1.0136577577e+02   5.3086416084e+01    0.5572119    0.3493879  -5.54  0.002490076    2.354    0.575
       135  -9.1864    115.1945     71.8674   9.4397939108e+01   4.5761267115e+01     0.526669    0.2976763 -35.70  0.001688242    1.818    0.450
       136  -8.8108    162.5678     72.8526   8.3364128126e+01   3.4727699993e+01    0.2823845    0.2054449 -64.42 0.0008102068    1.600    0.375
       137  -9.9881    237.4100     69.4160   7.0175059211e+01   1.7439863705e+01    0.2702999    0.2215607 -54.52 0.0002425168    1.105    0.095
       138  -9.1542    169.4324     70.3292   8.1277381450e+01   3.3479235336e+01    0.4170039    0.1664953 -40.73  0.001509538    2.508    0.601
       139  -8.6903    170.1302     65.2931   7.9755985208e+01   3.4135001637e+01    0.2827297    0.2262475 -28.09 0.0008603764    1.398    0.285
       140  -9.2381    146.9440     69.3097   8.5729404981e+01   3.9080899154e+01    0.3568491    0.2554738 -58.33 0.0009381663    1.625    0.385
       141  -8.1730    156.6235     70.1067   8.3838232969e+01   3.6632533394e+01    0.2296708     0.177627 -56.46 0.0005543008    1.396    0.284
       142  -9.8008     94.7051     68.1893   9.9121051927e+01   5.0460396902e+01    0.4570831    0.2497874 -48.17 0.0009443087    2.013    0.503
       143  -8.7015     95.7569     60.6251   9.6366684180e+01   5.1568003129e+01    0.4324876     0.251925 -14.17  0.001537368    2.559    0.609
       144  -8.7208     98.5379     56.4977   9.4184085520e+01   5.1711876656e+01    0.3314728    0.2257639 -15.02   0.00123694    1.699    0.411
       145 -10.2495     31.8320     64.8362   1.1945523241e+02   5.9857938206e+01    0.8624712    0.3487413 -28.23  0.002778452    3.680    0.728
       146  -8.8974     37.9128     59.2978   1.1558480151e+02   6.0299367327e+01    0.3694078    0.2039458 -46.83  0.002045247    1.580    0.367
       147  -9.5733    109.8089     64.0036   9.3414901468e+01   4.8236618434e+01    0.4614129    0.3162089 -48.84 0.0007747456    1.643    0.391
       148  -8.9637    110.6949     58.0369   9.1253857259e+01   4.9030744737e+01    0.3482258    0.2701049  12.85 0.0009108658    1.437    0.304
       149 -10.1265     34.4840     90.7359   1.2506497859e+02   5.4335183522e+01    0.5969564    0.3058435 -75.33  0.001739491    3.033    0.670
       150  -9.2014    138.1026     64.9259   8.6463595050e+01   4.1880603440e+01     0.578012     0.244405 -33.86  0.001200308    2.567    0.610
       151  -9.1944    121.2126     66.1182   9.1012913022e+01   4.5474864994e+01    0.3497271    0.2545414 -60.72 0.0006996868    1.759    0.432
       152  -8.3601    122.1832     61.2396   8.9236926431e+01   4.6068967814e+01    0.3095509    0.2071786  23.43 0.0009069642    1.856    0.461
       153  -9.8839    241.8169     65.0580   6.8665846135e+01   1.7155198501e+01    0.2932586    0.2398411 -23.28   0.00101838    1.568    0.362
       154  -7.9210    157.6093     63.1102   8.1633336404e+01   3.7541235045e+01    0.2335619    0.1963119  79.81 0.0006842663    1.240    0.194
       155  -8.2772    164.5779     60.7745   7.9573885492e+01   3.6213036284e+01    0.2068477     0.131086 -49.38  0.000468193    1.686    0.407
       156  -7.9755    152.6053     60.3978   8.1892883408e+01   3.9178269178e+01    0.3299699    0.1482069 -29.21  0.001230687    2.682    0.627
       157 -10.2163     85.0565     48.0408   9.5384298888e+01   5.5529378864e+01    0.3807345    0.2872684 -55.83 0.0009514537    1.821    0.451
       158 -10.5913     89.1401     38.1204   9.0622693984e+01   5.6202961691e+01    0.8572507    0.2997033  37.60   0.00324604    3.085    0.676
       159 -10.1184     73.4064     57.4171   1.0236212288e+02   5.5985457614e+01     1.094572    0.3744185 -34.81  0.002407405    3.206    0.688
       160  -8.7326     79.8493     46.9650   9.6659439852e+01   5.6600680258e+01    0.3788436    0.2228941 -21.26  0.001183387    1.880    0.468
       161  -7.9965    147.4206     64.0352   8.4076101931e+01   3.9838990010e+01    0.3327223    0.1560263  40.69  0.001245809    2.441    0.590
       162  -8.1898    231.9620     59.0092   6.8547270771e+01   2.0279678188e+01    0.1652832    0.1412155 -69.66 0.0003088393    1.018    0.018
       163  -9.1944    146.9549     56.2989   8.1889443785e+01   4.1162178692e+01    0.7398416    0.2988959 -22.92  0.002249119    4.455    0.776
       164  -8.5428    129.9594     57.9500   8.6270992982e+01   4.4860409121e+01    0.2935971    0.1995825 -49.18 0.0005687078    1.667    0.400
       165  -8.3772    130.3303     54.2960   8.5043033523e+01   4.5335735460e+01    0.2711915    0.2191778  34.84  0.001061837    1.229    0.186
       166  -9.1353     88.0447     56.3472   9.7293708758e+01   5.3691298164e+01    0.7392706    0.3369086 -27.18   0.00283007    2.750    0.636
       167  -9.4692    138.8778     57.0678   8.3907151017e+01   4.2948001090e+01    0.3804804    0.2438662 -47.25  0.001012764    1.725    0.420
       168  -8.6882    142.0225     48.7416   8.0679676797e+01   4.3439517173e+01    0.2422234    0.2046968 -45.00 0.0004310176    1.276    0.216
       169  -8.2120    123.0911     40.5995   8.2397795437e+01   4.8895268516e+01    0.4101301    0.2350094   3.37  0.001599958    3.205    0.688
       170  -8.8307    121.0322     46.8662   8.4933104734e+01   4.8496719212e+01    0.2875492    0.2131874 -20.39 0.0003962734    1.477    0.323
       171  -9.1928    118.2074     55.4093   8.8408340362e+01   4.7852449203e+01    0.3798739    0.3132464 -63.38 0.0007727375    1.510    0.338
       172  -8.3338    119.0085     51.3248   8.6885503559e+01   4.8295244190e+01    0.3657235    0.1494589  38.25  0.001326497    2.864    0.651
       173  -9.2768     44.6904     52.9409   1.1104470753e+02   6.0690834711e+01     0.611357    0.2138634 -32.92  0.002319552    3.513    0.715
       174  -9.9202     50.0003     54.6421   1.0963792919e+02   5.9759755223e+01    0.4587654    0.2904457 -58.43  0.001674328    2.184    0.542
       175  -9.8058     55.5293     43.8699   1.0391487845e+02   6.0820050255e+01    0.8740889    0.4417527  -2.44   0.00299245    5.033    0.801
       176  -9.3655     42.2390     49.7745   1.1092109105e+02   6.1515641444e+01    0.2956273    0.2695211 -81.16  0.001532953    1.705    0.413
       177 -10.1860     37.4962     41.9692   1.1008614737e+02   6.3337551836e+01    0.4569776    0.3185169 -67.32  0.002458197    2.828    0.646
       178  -7.2600     15.7518    220.3258   1.4647482946e+02   2.6872680531e+01    0.1175844   0.06412511  74.79 0.0002303485    1.539    0.350
       179  -9.7731    163.2799     54.8603   7.8159294749e+01   3.7433750051e+01    0.4280177    0.2603328 -78.34  0.001365845    2.622    0.619
       180  -7.6289    157.5167     55.5300   7.9476344159e+01   3.8737720904e+01    0.1443151    0.1346166  68.20 6.776492e-05    1.007    0.007
       181  -8.6502    238.7393     58.5232   6.7612483236e+01   1.8835790737e+01    0.2414864     0.120342  60.20  0.001123817    2.042    0.510
       182  -7.8404    179.9643     53.4074   7.4753385413e+01   3.3549182512e+01    0.2111086    0.1815801 -43.93 0.0004975122    1.221    0.181
       183  -8.3926    152.5060     53.5824   7.9923591514e+01   4.0239509113e+01    0.2476308     0.123986 -46.18 0.0008130354    2.212    0.548
       184  -9.3884    105.2705     51.6774   9.0658099678e+01   5.1129182246e+01    0.5859853    0.2416276 -35.88  0.002230179    2.488    0.598
       185  -9.2228    157.3254     48.9064   7.7605175542e+01   3.9750689023e+01    0.3285537    0.2004258 -55.82  0.001085128    1.975    0.494
       186  -9.7835    130.6960     45.7883   8.2284185723e+01   4.6481310114e+01    0.8632565    0.4215825 -15.55  0.001635406    3.529    0.717
       187  -8.6571    132.8003     36.0665   7.8743547992e+01   4.7276448290e+01     0.259504    0.2326441 -16.03 0.0005585182    1.220    0.180
       188 -10.5082    134.0585     30.8273   7.6825506637e+01   4.7619285664e+01     0.323577    0.2454754  13.65  0.001778915    1.567    0.362
       189  -9.4938    153.3321     41.2843   7.6157762833e+01   4.1759558135e+01    0.3651064    0.2949637 -87.84  0.001176627    1.363    0.266
       190  -9.2212    144.1637     36.4673   7.6511095828e+01   4.4570802521e+01    0.2925617    0.2071342 -57.54 0.0007521164    1.697    0.411
       191  -9.1979    148.1275     42.9882   7.7679401293e+01   4.2782910492e+01    0.4139014    0.2748297 -68.38  0.001927207    2.057    0.514
       192  -8.6493    111.9281     46.8390   8.7244502432e+01   5.0462341093e+01    0.2384686    0.1941925 -40.56 0.0005494165    1.349    0.259
       193  -8.0357    113.0045     42.4964   8.5516289365e+01   5.0838199338e+01    0.2605969    0.1601754  18.07   0.00114881    2.222    0.550
       194  -7.2133    162.4418     46.4876   7.5947289698e+01   3.8843939598e+01    0.1416767    0.1294112  81.09 5.215166e-05    1.051    0.049
       195 -10.0600    164.2364    212.0727   1.1520465932e+02   5.6723991126e+00    0.2315679    0.2249312  35.29 0.0002275412    1.064    0.060
       196  -7.5320     38.4944    211.5804   1.4153173813e+02   2.6173259568e+01    0.1223386   0.09584185  81.06 0.0001591178    1.022    0.022
       197  -9.9388     79.5791     23.8793   8.8246206376e+01   5.9726200745e+01    0.6958976    0.2461045  35.29  0.002719095    3.140    0.682
       198  -9.1726     84.7074     21.9296   8.5964177865e+01   5.9010782131e+01    0.2953522    0.2259942  26.83  0.001287219    1.136    0.120
       199  -8.1529    142.2989     44.3994   7.9300896806e+01   4.3977057809e+01    0.3177454    0.1800141  54.69  0.001476007    1.601    0.375
       200  -8.9635    139.5047     39.9016   7.8511529985e+01   4.5231449931e+01    0.4465058    0.2334073 -37.96  0.001540771    2.050    0.512
       201  -8.7942    104.9809     41.0276   8.7134716806e+01   5.2711723147e+01    0.2875293    0.1974266 -43.89 0.0006881122    1.690    0.408
       202  -8.6113    105.4995     36.9877   8.5605819626e+01   5.3137947491e+01     0.303243    0.1950039  19.93  0.001510388    1.843    0.457
       203  -8.8666     53.0570     39.5017   1.0324298250e+02   6.1825673066e+01    0.2904102    0.1562611 -30.41  0.001562267    1.735    0.424
       204  -8.6247    118.8662     34.7899   8.1494041864e+01   5.0569390904e+01    0.2557999    0.1810883 -31.83 0.0007150467    1.528    0.346
       205 -10.1198     10.6292    207.4408   1.4649406695e+02   3.0090755268e+01    0.3779934    0.2818419  28.34  0.002609334    1.900    0.474
       206  -8.4690     97.0079     32.9805   8.6509766693e+01   5.5357587761e+01    0.2045593    0.1402441  15.13 0.0004118627    1.610    0.379
       207  -9.1894    191.9459    194.3478   1.0613647704e+02   3.7706264370e+00    0.8300024     0.411778 -64.13  0.002322847    5.793    0.827
       208  -7.2620    165.5594    197.4546   1.1230510550e+02   8.2993809531e+00    0.1438148    0.1352418  50.71 7.970619e-05    1.031    0.030
       209  -8.4137    153.4905     34.9220   7.4267620585e+01   4.2533765449e+01    0.1923464    0.1368296 -33.28  0.001015543    1.545    0.353
       210  -9.3835     60.2416     33.4246   9.8352575748e+01   6.1688682900e+01    0.4385402    0.2071814 -39.71  0.002107906    2.195    0.544
       211  -8.2795     63.4679     26.5361   9.4552921266e+01   6.2107675256e+01    0.2991932    0.1083244  42.87  0.001214282    2.687    0.628
       212  -9.7914    100.9961    176.0015   1.2320935318e+02   2.5252405990e+01     0.205254    0.1868429  86.09  0.001155124    1.003    0.003
       213  -7.5511     40.7766    170.4083   1.3669310418e+02   3.5234536732e+01    0.1483977    0.1280419  10.76 0.0004713972    1.633    0.387
       214  -9.1341    111.9578    155.4764   1.1667967536e+02   2.8163304801e+01    0.2573993    0.2069686 -57.20 0.0001158053    1.210    0.173
       215  -8.0817    133.5959    144.7695   1.0894156715e+02   2.6424417949e+01    0.3659489    0.1594241 -48.01  0.001304841    2.271    0.560
       216  -7.3076     50.3206     35.2572   1.0268988556e+02   6.2820212226e+01    0.1201995   0.07969187  -0.07            0    1.543    0.352
       217  -9.1020    110.2348     33.1285   8.3051954406e+01   5.2633190307e+01    0.3259829    0.2143174 -44.38 0.0007897706    1.820    0.450
       218  -8.1958    110.2042     26.3853   8.0742507731e+01   5.3428587213e+01    0.2970796    0.1692504 -26.49  0.001514373    1.909    0.476
       219  -8.3516    177.6137    149.2440   9.9650229038e+01   1.5916250200e+01    0.2513178    0.2090443  47.13 0.0003497837    1.210    0.173
       220  -8.2063     42.1863     27.8775   1.0299474389e+02   6.4909976646e+01    0.1789267    0.1262425  -2.46 -0.0006383859    1.265    0.209
       221  -8.7282     46.5121     19.9795   9.8123917220e+01   6.5389259613e+01    0.2891934    0.1667959  -9.95  0.001333134    1.839    0.456
       222  -9.3507     68.0000    145.0348   1.2610193340e+02   3.7884654221e+01    0.4116895    0.2515914 -66.70   0.00185614    1.527    0.345
       223  -8.3656    152.4964     30.0990   7.3038817897e+01   4.3353741738e+01       0.1852    0.1361545 -30.76 0.0004064477    1.521    0.342
       224  -8.4220    149.7411     47.8761   7.8806880071e+01   4.1726272257e+01    0.2638128    0.1846803 -46.68 0.0005098265    1.552    0.356
       225  -7.3506    147.6784     28.7004   7.3503603315e+01   4.4668124241e+01    0.1396651   0.09412976  36.00 0.0001977199    1.625    0.385
       226  -9.1665     91.3749     26.2195   8.5643831434e+01   5.7265629418e+01    0.3682595    0.2154032 -46.27  0.001148262    2.339    0.572
       227  -8.4296     92.0031     20.9798   8.3534449300e+01   5.7726108958e+01      0.27847    0.1724882  29.79 0.0009108899    1.553    0.356
       228  -8.7225    154.7721     23.9585   7.0858905768e+01   4.3504812904e+01    0.2574048   0.09903105 -31.28 0.0009229331    2.805    0.644
       229  -8.7707    144.1040     25.6874   7.3263195253e+01   4.5856071631e+01    0.2133529    0.1782271 -47.09 0.0005565549    1.340    0.254
       230  -9.4177     65.6294    143.2886   1.2641958370e+02   3.8632668751e+01     0.301636    0.2350612 -78.09  0.000853502    1.229    0.186
       231  -7.4987    149.7293     25.6583   7.2230109800e+01   4.4523704137e+01    0.1343291   0.09549078  31.83 0.0003858576    1.609    0.379
       232 -10.3763    223.9741    143.4357   8.9046213999e+01   7.1281600927e+00    0.2813391    0.2681152 -57.89 0.0004117282    1.081    0.075
       233  -9.4427    229.9308     20.5573   6.0385310141e+01   2.6002687273e+01     0.340874    0.2069123 -44.80  0.001039213    1.577    0.366
       234  -9.1272    118.7241     21.5286   7.7105046480e+01   5.2109753385e+01     0.248966     0.208817  36.90 0.0006374163    1.082    0.076
       235  -8.2701    112.3053    134.1869   1.1200501778e+02   3.3148157071e+01    0.3220952    0.2099798  74.93  0.001176296    2.342    0.573
       236  -7.5841    111.4552     21.9297   7.8906614339e+01   5.3645740122e+01    0.2501402    0.1419684 -49.93 0.0008752259    2.517    0.603
       237  -9.3140    134.6784    131.7636   1.0563924294e+02   2.9188671882e+01    0.5226308    0.4739346  35.30  0.002256743    1.164    0.141
       238  -7.2525     86.9918    134.0000   1.1880632987e+02   3.7677030279e+01    0.2334918   0.08411846  37.18 0.0008077142    2.979    0.664
       239  -9.6392     98.5569    128.7247   1.1446693103e+02   3.6966310245e+01    0.6023112    0.3765224  78.37  0.002263892    2.861    0.650
       240 -10.5046     70.2404    125.2554   1.2165066335e+02   4.2304621442e+01    0.9773196    0.5309662 -53.41  0.002321822    1.639    0.390
       241  -9.7629    117.1696    125.5393   1.0867410158e+02   3.4212647657e+01    0.5916563    0.3927954  81.48  0.001659059    2.481    0.597
       242  -9.2898    118.8313    118.7495   1.0655367555e+02   3.5427818110e+01    0.6109056    0.3367003  21.13  0.001968185    3.605    0.723
       243  -8.8839     40.9491     20.6535   1.0058465867e+02   6.6028108473e+01    0.1925412    0.1388768 -23.32 0.0002485372    1.252    0.201
       244  -9.2951    132.6610     17.2730   7.2837053301e+01   4.9403541404e+01    0.2349436    0.1609347  59.90 0.0005272778    1.274    0.215
       245 -10.0266     58.1884    124.6695   1.2497447448e+02   4.4055992412e+01    0.5794991    0.3511085  84.88  0.002427945    2.645    0.622
       246  -7.5442    171.0331    126.9584   9.5818046301e+01   2.2152816508e+01     0.182692    0.1778317  79.71 0.0003354492    1.023    0.022
       247  -9.4006    242.4082    125.0642   8.1828512360e+01   6.7813018165e+00    0.2324787    0.2189726  59.29 0.0002221155    1.176    0.150
       248  -9.3709     41.3496    122.0701   1.2930239814e+02   4.6607502381e+01    0.5064408     0.240613 -77.82  0.001579319    2.842    0.648
       249  -9.5363     27.2484    122.9703   1.3344734497e+02   4.7757238470e+01     0.474964    0.2652903  72.88  0.001891458    2.693    0.629
       250  -8.0158    228.2319    124.3884   8.4008891251e+01   9.8300346889e+00    0.1925624     0.138771  70.05 0.0004505449    1.678    0.404
       251  -8.9380     44.2673     15.8591   9.7275314652e+01   6.6189728477e+01    0.3468865    0.1171864  33.22  0.001591321    2.931    0.659
       252  -7.6321    202.1647     14.8882   6.1983492217e+01   3.3087144434e+01    0.1678981    0.1361088  59.62 0.0003152651    1.302    0.232
       253 -10.4186    140.7671    117.6511   1.0060200123e+02   3.1024942589e+01     1.054596    0.4510866 -46.72  0.001591319    2.325    0.570
       254 -10.0527    139.4671    103.6749   9.7245130843e+01   3.4300453949e+01    0.7110922    0.3553508 -41.74  0.001576879    2.013    0.503
       255 -10.7360    133.6271    109.7264   1.0034075985e+02   3.4310669641e+01    0.9520342    0.4084338 -46.61   0.00227863    2.321    0.569
       256  -9.5134    134.7647    122.3000   1.0329182878e+02   3.1306120640e+01    0.4244793    0.2858369 -46.89  0.001776567    1.465    0.318
       257  -9.8541    130.3178    118.7172   1.0352530210e+02   3.3055223798e+01    0.4945829    0.3338604 -72.19  0.001117058    2.028    0.507
       258 -10.1447    128.2174    100.8723   9.9355309298e+01   3.7359784166e+01    0.9938043    0.4689388 -30.15  0.002531711    3.178    0.685
       259 -10.3034    108.4928     99.4526   1.0432460570e+02   4.1713849417e+01    0.9003171    0.5522943  65.16  0.002756405    2.508    0.601
       260  -9.9968    108.4936    114.4408   1.0827881969e+02   3.8431558768e+01    0.6049978    0.3925866 -76.26  0.001575848    2.382    0.580
       261  -9.1164    109.7161    106.8868   1.0598327429e+02   3.9873097157e+01    0.6549487    0.3798167  25.05  0.002552231    2.447    0.591
       262 -11.0748    120.6971    109.4882   1.0366756279e+02   3.7104638290e+01     1.268172    0.5952135 -51.86  0.004716075    2.240    0.554
       263 -10.5445    123.5597     91.2066   9.7880118432e+01   4.0334259633e+01     1.294121    0.5891266 -33.34  0.003164495    2.684    0.627
       264 -10.1023     91.9522    113.2304   1.1265281952e+02   4.1706721540e+01    0.5920001    0.4216018 -81.89  0.001629638    1.945    0.486
       265  -8.8835     92.6555    103.6539   1.1001545165e+02   4.3726907402e+01    0.6277998    0.4245597  13.47  0.002774815    2.074    0.518
       266  -9.3194     94.2758     97.2221   1.0781958342e+02   4.4834569954e+01    0.3220545    0.2592949 -55.98 0.0005896788    1.274    0.215
       267  -8.6957     95.7200     91.1653   1.0571032015e+02   4.5847370553e+01    0.4740023    0.3013737  -6.69  0.001819041    2.771    0.639
       268 -10.1729     78.0721    113.0605   1.1666140008e+02   4.3993854247e+01    0.5254457    0.3196391 -75.53  0.001628224    2.400    0.583
