#   1 NUMBER                 Running object number                                     
#   2 MAG_AUTO               Kron-like elliptical aperture magnitude                    [mag]
#   3 X_IMAGE                Object position along x                                    [pixel]
#   4 Y_IMAGE                Object position along y                                    [pixel]
#   5 X_WORLD                Barycenter position along world x axis                     [deg]
#   6 Y_WORLD                Barycenter position along world y axis                     [deg]
#   7 A_WORLD                Profile RMS along major axis (world units)                 [deg]
#   8 B_WORLD                Profile RMS along minor axis (world units)                 [deg]
#   9 THETA_WORLD            Position angle (CCW/world-x)                               [deg]
#  10 FWHM_WORLD             FWHM assuming a gaussian core                              [deg]
#  11 ELONGATION             A_IMAGE/B_IMAGE                                           
#  12 ELLIPTICITY            1 - B_IMAGE/A_IMAGE                                       
         1 -12.3665    179.9360     45.3892   5.1071994652e+01   3.4643391968e+01     1.074096     0.928582  33.29  0.003797406    1.272    0.214
         2 -12.9393    199.6929     14.1517   3.9733377686e+01   3.3533036242e+01     1.395304     1.051655 -43.57  0.006102173    1.314    0.239
         3 -11.6189    215.7246      9.4205   3.6969697842e+01   3.0214143523e+01     0.875221    0.4148736 -82.74  0.003821026    2.528    0.604
         4 -10.0773    120.3073      9.5357   5.0163378828e+01   5.3572795554e+01     0.578757    0.3206221  38.63    0.0027969    1.733    0.423
         5  -8.9483      9.3241      9.6654   9.2261570308e+01   7.2492110153e+01   0.09297369   0.08986491 -43.16 0.0007050956    1.712    0.416
         6  -9.3365    236.9538      7.3366   3.4738743273e+01   2.5629521773e+01    0.2036231    0.1702759 -35.96 0.0003278836    1.302    0.232
         7  -9.6070      2.1381      4.9750   9.4263940010e+01   7.3753838245e+01    0.2212273    0.1070804 -43.64  0.001335606    1.677    0.404
         8  -9.3301      3.8529    177.0413   1.2568263647e+02   3.6201095872e+01     0.158822    0.1238367 -87.96 0.0003287806    1.085    0.078
         9 -18.5948     43.9450    226.0191   1.2114386383e+02   2.1984061940e+01     5.016357     3.956349 -82.77   0.02156562    1.260    0.207
        10  -9.0385    221.0711    175.5862   7.6425292634e+01   2.9464558305e+00    0.2355027    0.1798974 -36.83 0.0005695795    1.347    0.258
        11 -10.0714    186.0432    175.2784   8.3397376688e+01   9.4559940741e+00    0.5245396     0.286974  39.25  0.002077426    1.768    0.434
        12  -8.8618    133.9991    170.2842   9.4188063855e+01   2.0400024013e+01    0.2435301    0.2036434 -17.27 0.0002508888    1.412    0.292
        13  -8.6199    243.6581    174.7107   7.2133800264e+01  -7.6208888592e-01    0.1380986   0.09137801   3.09 0.0003887537    1.648    0.393
        14  -8.9425    217.8869    212.9641   8.4282164864e+01  -2.3722323780e+00    0.2558269    0.2207282 -57.86  0.001570728    1.814    0.449
        15  -9.3477    158.3820    171.9703   8.8812553466e+01   1.5419463294e+01    0.5498626    0.3672378 -85.19  0.002096759    3.078    0.675
        16  -8.4760      1.9908    167.5060   1.2544271715e+02   3.8458414325e+01    0.1313823    0.1158884  30.66 0.0006314324    1.490    0.329
        17  -9.3601    207.0109    202.6779   8.4487373547e+01   9.6507749077e-01    0.2328729    0.1844286 -24.09 0.0003124608    1.257    0.205
        18  -9.6635    194.6737    198.1877   8.6103388076e+01   3.8109377554e+00    0.3495867    0.3288288 -57.66  0.002148021    1.391    0.281
        19 -10.1354    148.2234    156.4699   8.7970727787e+01   2.0683001736e+01    0.5492381     0.368012 -89.14  0.002064074    2.882    0.653
        20  -9.2072    191.8423    192.8478   8.5670378861e+01   5.2219755020e+00     0.814718    0.4093124 -60.33  0.002455235    5.726    0.825
        21 -11.0705    133.6956    148.8009   8.9883076511e+01   2.5251405021e+01     1.261644     0.389625 -52.11  0.003762249    3.524    0.716
        22  -9.6550    207.8420    198.0024   8.3445700672e+01   1.5712723944e+00    0.2243263    0.1751223  25.42 0.0003428877    1.161    0.138
        23 -10.2365    142.9303    147.3528   8.7262132811e+01   2.3744890616e+01    0.4913915    0.4525968 -28.32  0.002446034    1.103    0.093
        24  -8.5318    234.1633    194.1265   7.7721840974e+01  -2.1738848840e+00    0.1611679    0.1497386  -5.91 0.0003418899    1.294    0.227
        25  -8.5530    150.5529    148.2934   8.5613325980e+01   2.1993630164e+01    0.2846137     0.150227 -51.11  0.000920715    2.011    0.503
        26 -10.4001    126.6035    140.4214   8.9844799721e+01   2.8552342115e+01    0.4970631    0.3514282  12.54  0.001264935    1.964    0.491
        27 -10.1288    119.9221    139.8127   9.1461823060e+01   2.9975656662e+01    0.3571839    0.2664331 -81.19  0.001114175    1.735    0.424
        28 -10.1853    132.5994    137.2660   8.7569284837e+01   2.8094059698e+01    0.7280139    0.4270913  75.80  0.002071036    4.743    0.789
        29 -10.0806    117.1426    128.5310   8.9621004059e+01   3.3148632032e+01    0.3692473     0.287155  18.52   0.00109132    1.522    0.343
        30 -10.1585    175.3970    193.3443   8.9197151005e+01   8.0911293868e+00    0.2480827    0.2294062  25.85 0.0002383076    1.072    0.067
        31  -9.0149    143.5074    125.0529   8.1813506864e+01   2.8586229300e+01     0.285924     0.235806  41.18 0.0004193302    1.230    0.187
        32  -9.5917    105.5403    123.9559   9.1766857533e+01   3.6391368631e+01    0.3091005    0.2562619 -19.09 0.0005364025    1.389    0.280
        33  -9.4799    200.0609    123.9339   6.8778446170e+01   1.6388979948e+01    0.2245682    0.2134985  19.88 0.0002993631    1.080    0.074
        34 -11.0509    149.1362    191.9941   9.4668617278e+01   1.3103989689e+01    0.6521437    0.3291729 -59.20  0.002595723    2.655    0.623
        35  -9.4961    112.0904    123.2329   8.9747735804e+01   3.5352276058e+01    0.4932562    0.2700698 -61.64  0.001310229    2.208    0.547
        36  -7.8950    112.1699    118.1853   8.8481138056e+01   3.6520187335e+01    0.2004524    0.1799189  83.59 0.0002878977    1.265    0.210
        37 -10.7407    144.0765    186.3067   9.4797770768e+01   1.5160915081e+01    0.4374464    0.3766409  53.02 0.0007320399    1.169    0.145
        38 -10.0497    127.3375    192.3510   9.9633115322e+01   1.6881471330e+01    0.2709187    0.2158234  42.93  0.000572331    1.164    0.141
        39  -8.1178    167.9427    113.4607   7.2907732260e+01   2.5640641606e+01    0.3224069    0.1969221 -72.05  0.001036995    3.439    0.709
        40  -9.8613    158.2516    194.6514   9.3129186701e+01   1.0946063697e+01    0.3181325     0.279624 -82.14  0.001802117    1.427    0.299
        41  -8.3762     12.1936    190.7474   1.2486806677e+02   3.2524259626e+01    0.1798475    0.1140185  71.24   0.00115613    1.312    0.238
        42  -9.3232    166.1354    185.1321   8.9651917083e+01   1.1331684078e+01    0.4558865    0.3206364  78.65  0.001966336    2.572    0.611
        43 -10.5672     43.1194    102.8324   1.0626848567e+02   5.0425258694e+01    0.4413034    0.2567226   3.23  0.002032742    2.542    0.607
        44 -10.3983    237.5338    205.9379   7.9367008789e+01  -4.4100050623e+00     0.230332    0.1938329  15.70 0.0003375369    1.182    0.154
        45 -10.0693     48.9921     99.0930   1.0353626044e+02   5.0704981057e+01    0.5471562    0.1936864  31.75  0.002158782    3.066    0.674
        46  -8.9508     89.6400     99.1925   9.0259487033e+01   4.5008728379e+01    0.2204025    0.2023397  49.38 0.0003241834    1.204    0.169
        47  -7.9687    169.3405     96.7031   6.8025803647e+01   2.8650929282e+01    0.1592844     0.125582 -79.28  0.000459505    1.661    0.398
        48  -8.4180      4.2234     96.3877   1.1784307705e+02   5.4886412609e+01    0.1408182    0.1093908  41.75 0.0002557579    1.593    0.372
        49  -8.2077      1.4655     92.4954   1.1818396461e+02   5.5928434062e+01    0.1225092   0.09418805 -67.73 2.749511e-05    1.028    0.027
        50 -11.0039    138.1779    176.6113   9.4390228811e+01   1.8262440001e+01    0.8951068    0.4654442 -67.40  0.002391364    3.254    0.693
        51 -11.7808    123.9792    171.4297   9.6814250621e+01   2.1974460909e+01    0.9149115    0.3820069 -49.62  0.003490109    2.441    0.590
        52 -11.4063    129.6030    165.8388   9.4395949270e+01   2.2194836317e+01    0.8294823    0.4706633 -66.41  0.003305574    2.373    0.579
        53  -8.7140     61.9544     88.2960   9.6500656819e+01   5.1689134477e+01    0.2123645    0.1713668  49.65 0.0009869258    1.493    0.330
        54  -7.7589     58.6181     84.2720   9.6596785543e+01   5.3039809049e+01     0.133734    0.1074818  70.05 0.0006996053    1.701    0.412
        55 -10.2311    105.9163     79.3302   7.9322493054e+01   4.6351982334e+01    0.2638148    0.2240333 -33.89 0.0002349508    1.126    0.112
        56  -8.7311    202.1351     76.5160   5.6094179896e+01   2.4426357630e+01    0.3057286    0.2075489 -23.39  0.001033315    1.616    0.381
        57  -8.7786    206.0369    207.0838   8.5489467611e+01   4.3473571165e-01    0.1938148    0.1642003   9.84 0.0003402487    1.011    0.011
        58 -11.6937    165.3575     60.0324   5.8101885563e+01   3.6126860352e+01     1.585721     1.015746  31.37  0.005357954    1.942    0.485
        59 -10.2671    248.6849    241.0196   8.3592283116e+01  -1.0462245415e+01    0.2445057    0.1882853 -20.66 0.0009505399    1.411    0.291
        60 -11.1524    184.5526     39.0976   4.8523800593e+01   3.4334520347e+01    0.4601307    0.3824928  30.69  0.001157586    1.386    0.278
        61  -8.2526    176.9713     66.0209   5.7637015968e+01   3.2277794489e+01    0.1773978    0.1711935 -44.07  0.000334645    1.029    0.028
        62  -7.9674    152.0132     53.4997   5.8803381530e+01   4.0461586835e+01    0.2193687    0.1435103  54.96 0.0003694155    1.482    0.325
        63  -8.0821    141.6103     42.1793   5.7307261097e+01   4.4679032727e+01    0.1937788    0.1404769 -11.82 0.0003529769    1.574    0.365
        64  -7.7338    133.4569     32.4741   5.5733952944e+01   4.7949558539e+01    0.1420149    0.1327912  40.48 -1.510782e-05    1.016    0.016
        65  -8.1654    164.0392     23.7876   4.7134770969e+01   4.1359039055e+01    0.1848989    0.1654502  61.51 -0.000430966    1.045    0.043
        66  -8.7863    151.0629    242.6840   1.0201283912e+02   3.7801348389e+00    0.1807798    0.1678546  78.71 0.0005202921    1.316    0.240
        67  -9.7874    149.3435    177.9401   9.2050493696e+01   1.5908005184e+01    0.3603249    0.2366195 -71.89  0.001064913    2.320    0.569
        68  -9.4074     31.7909     22.4266   8.6261849321e+01   6.8347696800e+01    0.4432243    0.1085557  31.68  0.001682036    4.261    0.765
        69  -8.5793    131.2314     19.9651   5.1752171589e+01   4.9933185460e+01    0.2299191    0.1843832  57.71 0.0003644971    1.155    0.134
        70  -8.2688    219.3096    230.1375   8.7006565499e+01  -4.9961643448e+00    0.1591298    0.1334625   1.16 0.0003198374    1.133    0.117
        71  -8.8127    196.8116    177.7973   8.1670351866e+01   6.9708739237e+00    0.2281145    0.2023233   5.61 0.0005018982    1.019    0.019
        72  -9.0208    167.3594    224.7844   9.6209363926e+01   4.0318376086e+00    0.2083025    0.1872279  53.69 0.0009909484    1.270    0.213
