#   1 NUMBER                 Running object number                                     
#   2 MAG_AUTO               Kron-like elliptical aperture magnitude                    [mag]
#   3 X_IMAGE                Object position along x                                    [pixel]
#   4 Y_IMAGE                Object position along y                                    [pixel]
#   5 X_WORLD                Barycenter position along world x axis                     [deg]
#   6 Y_WORLD                Barycenter position along world y axis                     [deg]
#   7 A_WORLD                Profile RMS along major axis (world units)                 [deg]
#   8 B_WORLD                Profile RMS along minor axis (world units)                 [deg]
#   9 THETA_WORLD            Position angle (CCW/world-x)                               [deg]
#  10 FWHM_WORLD             FWHM assuming a gaussian core                              [deg]
#  11 ELONGATION             A_IMAGE/B_IMAGE                                           
#  12 ELLIPTICITY            1 - B_IMAGE/A_IMAGE                                       
         1 -10.9966     10.1644     15.4861   1.0428735265e+02   6.9806562722e+01    0.2363919    0.1392988  -5.99 0.0006337512    1.507    0.336
         2 -11.5803      4.3379     18.0105   1.0810695648e+02   6.9966927692e+01    0.3593831    0.2207407   7.38  0.001867361    1.442    0.306
         3 -11.6258    129.4893     24.4723   6.9333065540e+01   4.8791542661e+01    0.4129637    0.2589572 -44.80  0.001706036    1.860    0.462
         4 -11.9850     21.3847     18.6257   1.0040331181e+02   6.8297038197e+01     0.484719    0.3937998  34.55  0.002501324    1.743    0.426
         5 -10.4509     87.9538     25.1024   7.9118180639e+01   5.7405984214e+01    0.4642711    0.3102978  87.03  0.002151603    3.318    0.699
         6 -11.8325     60.8530     23.3422   8.6772806784e+01   6.2408811739e+01     0.490944    0.3389984 -61.83  0.002471355    3.452    0.710
         7 -10.2691     34.8524     16.0377   9.3565142971e+01   6.7018759775e+01    0.3400685    0.1827598 -11.93  0.001950606    2.010    0.503
         8 -12.4312     82.1479      6.6654   7.4104189952e+01   6.0247715795e+01    0.7838454    0.2677251  51.82   0.00369504    2.302    0.566
         9 -11.7789     70.2914     15.0691   8.0567416490e+01   6.1675567760e+01    0.3391457    0.2032839 -10.63  0.001198101    1.857    0.462
        10 -11.1105     75.8380     15.2379   7.8983002839e+01   6.0666861215e+01    0.4708211    0.2780794   7.82  0.002075437    2.060    0.514
        11 -10.4015     64.6601     13.6503   8.1775019353e+01   6.2785908546e+01     0.240985     0.139733  20.01  0.001289299    1.776    0.437
        12 -10.2383    100.1656     12.9094   7.1873633488e+01   5.6167511073e+01     0.224016    0.1675411  -2.71  0.001068533    1.529    0.346
        13 -10.7501     54.9293     13.2171   8.4830519225e+01   6.4425963995e+01    0.3043879    0.1680848 -20.91  0.001491737    1.873    0.466
        14 -10.7324     26.3565     13.8458   9.6222468462e+01   6.8318618497e+01    0.2012921    0.1285992   3.38 0.0002749656    1.363    0.266
        15 -10.5471      6.6436      8.0992   1.0286542576e+02   7.1049064108e+01    0.3517332    0.1176594  28.26  0.001888372    2.822    0.646
        16 -10.2526     11.0878      9.8536   1.0147105448e+02   7.0423064509e+01    0.2346728    0.1575354 -40.17  0.001117362    1.881    0.468
        17 -11.9647     23.1910      7.8724   9.5032134029e+01   6.9359918956e+01    0.5888783    0.3578626  40.82  0.003845537    2.083    0.520
        18 -13.1142     31.5676      2.1744   8.8938575560e+01   6.8891522647e+01     0.383801    0.1606169  33.14 0.0007773994    2.028    0.507
        19 -12.0006     11.8838      2.3210   9.7743348039e+01   7.1203972766e+01    0.3604899     0.207021   9.58  0.002483037    1.496    0.332
        20 -11.1381     16.9774      1.6645   9.5051252243e+01   7.0726593572e+01    0.1787042    0.1207892  11.90  0.001340351    1.139    0.122
        21 -10.5403    118.4749     12.0155   6.7731163640e+01   5.2398598164e+01    0.2226741     0.201293  58.42 0.0008475088    1.089    0.082
        22 -11.9934    116.0812      3.9158   6.5714021798e+01   5.3581810698e+01    0.4574193    0.2022678 -29.04 0.0006526259    2.607    0.616
        23  -9.6942      5.1882     11.7851   1.0515493937e+02   7.0719332350e+01    0.1526334   0.09187828 -11.65  0.001061164    1.358    0.264
        24  -9.6453    185.7965     10.8448   5.7552548165e+01   3.7471401734e+01    0.1627404    0.1173695 -77.82 0.0003738215    1.270    0.212
        25 -10.3847     59.6029     10.3520   8.2111573222e+01   6.3944548800e+01    0.2100738    0.1508004  44.20 0.0006637578    1.355    0.262
        26 -11.2336     74.2392      7.0332   7.6377515017e+01   6.1689196126e+01    0.2413662    0.1787704   5.31 0.0003333841    1.362    0.266
        27  -9.8374    108.0812      9.3547   6.8984145361e+01   5.4835522511e+01    0.1943979    0.1542413  12.91  0.001286034    1.403    0.287
        28 -10.0841    127.6478      8.3592   6.4964971493e+01   5.0719664518e+01    0.1780485    0.1316192 -79.14  0.000842734    1.622    0.384
        29 -10.1658    123.2085      7.5077   6.5496541172e+01   5.1759130674e+01    0.2411243    0.1247821  33.75  0.001206402    2.312    0.567
        30 -10.2622    228.8806      5.5422   5.2495209084e+01   2.8792799712e+01    0.2092245    0.1274933 -71.58 0.0003625783    1.370    0.270
        31 -10.2394    146.1952      5.0858   6.1133838236e+01   4.6889056040e+01    0.2274754    0.1034775 -15.43  0.001046517    3.386    0.705
        32  -9.6056    176.4092      4.7987   5.7230279367e+01   4.0153207629e+01    0.1465773    0.1181394  -1.96 0.0009550215    1.837    0.456
        33  -9.5508     50.9476     11.0438   8.5344123997e+01   6.5261596156e+01    0.1866607    0.1080333  17.42 0.0008469229    1.703    0.413
        34  -9.0223    139.3090      1.6979   6.1231832739e+01   4.8697839860e+01    0.1172716   0.08261281 -78.06 0.0003433219    1.603    0.376
        35 -10.8294      5.0571    226.2958   1.4412119467e+02   2.5357415274e+01    0.3154111     0.111764  55.96  0.001487024    2.603    0.616
        36 -10.8740    250.3930    245.5610   9.6624543790e+01  -1.4183365973e+01    0.3797712    0.1332192 -35.04  0.001745326    2.628    0.619
        37  -9.8772     72.6440    250.1912   1.3302593302e+02   1.1977556130e+01    0.2003449    0.1659911  -4.32  0.001184091    1.976    0.494
        38 -12.0076     27.9010    247.1612   1.4135362587e+02   1.8445736210e+01    0.4521736     0.268606 -89.45  0.002732171    1.470    0.320
        39 -12.7009     16.6093    238.1530   1.4278895000e+02   2.1613372321e+01     1.086524    0.4561115  31.21  0.005381671    2.870    0.652
        40 -12.9070     20.0909    248.4258   1.4286178551e+02   1.9079209033e+01      1.17132    0.2669378  46.18  0.005012264    3.200    0.687
        41 -12.2565      5.8603    244.9054   1.4515873843e+02   2.1335899541e+01    0.5817842    0.3360706  72.36  0.002704302    1.385    0.278
        42 -10.8232      1.4612    244.9959   1.4592858466e+02   2.1764137400e+01    0.2497767   0.08917063 -77.53  0.000512555    2.352    0.575
        43  -9.6110     13.3791    221.7433   1.4221227183e+02   2.5522884705e+01    0.1627599   0.09181792 -70.30 0.0006283859    1.563    0.360
        44 -10.0523    141.8500    220.8558   1.1425910591e+02   7.0156906710e+00    0.2176557    0.1926179  14.75 0.0009178633    1.216    0.178
        45  -9.4282    250.4863    219.4514   9.1984640969e+01  -1.0249846703e+01    0.1259489     0.101097 -14.15 0.0002064221    1.026    0.025
        46  -9.7607    191.8303    218.1112   1.0296941208e+02  -1.1117288497e+00     0.277315    0.1692448 -64.46  0.001167958    2.746    0.636
        47  -9.6266    174.0202    220.0000   1.0706178483e+02   1.5615755972e+00    0.2307309    0.0761222  38.53 0.0007318984    2.907    0.656
        48 -10.8574      9.6322    216.9921   1.4258745566e+02   2.6959863540e+01    0.2870204    0.1744864  68.76 0.0009519267    1.434    0.303
        49 -10.8169    241.3526    211.5551   9.2148667164e+01  -7.6945885464e+00    0.3122314    0.2679868  13.34  0.002026004    1.187    0.158
        50 -10.9069    235.3330    216.6932   9.4195556979e+01  -7.6899968675e+00    0.1862809    0.1634436  39.70 0.0009669475    1.418    0.295
        51 -11.2892    236.0124    213.5271   9.3483753457e+01  -7.2552757023e+00    0.2483098     0.163771  31.59 0.0006905893    1.582    0.368
        52 -10.4392     31.1299    215.7920   1.3814540997e+02   2.4942398127e+01    0.2353495    0.1755658  41.72  0.001384538    1.452    0.311
        53  -9.5753    194.5559    215.4911   1.0192551458e+02  -1.0747904623e+00    0.1379072    0.1255286  -3.29  6.99612e-06    1.010    0.010
        54  -9.4489    136.9867    216.0000   1.1454723447e+02   8.9104641354e+00    0.2389542   0.07838883  38.48 0.0007969074    2.904    0.656
        55  -9.6592    170.2942    213.3262   1.0666792658e+02   3.5460851146e+00    0.1444401    0.1091608  -7.97  0.000455951    1.624    0.384
        56 -11.0763     21.3366    212.3110   1.3986087348e+02   2.6822221873e+01    0.3531269    0.1767773  62.42  0.001794802    1.962    0.490
        57 -10.1269    208.9625    212.0759   9.8373595617e+01  -2.8217711796e+00    0.2058573    0.1812608  -8.42  0.000433339    1.030    0.029
        58  -9.3564      2.2906    212.3378   1.4368342928e+02   2.8703280552e+01    0.1134164   0.07790489 -57.88 0.0004437131    1.641    0.391
        59 -11.9683      4.6554    207.2392   1.4284034385e+02   2.9636310453e+01    0.6061258    0.2586334  87.03  0.002844698    2.331    0.571
        60 -11.3836     18.7575    202.7942   1.3956249172e+02   2.9294631848e+01    0.4103158    0.2402372 -63.45  0.001189222    1.573    0.364
        61  -9.4647    223.5836    201.8063   9.3578774702e+01  -3.2998507776e+00    0.1854264    0.1206606 -50.67 0.0008136199    1.704    0.413
        62 -10.1148    175.1544    202.6452   1.0362495087e+02   4.8671860137e+00    0.2284003    0.2012829 -60.92 0.0005732939    1.262    0.208
        63  -9.7047     34.6175    201.0521   1.3595130670e+02   2.7993268807e+01    0.1814242    0.1406218 -80.53 0.0004856472    1.103    0.093
        64  -9.4904    227.1461    196.8488   9.1950207420e+01  -2.9642337242e+00    0.1909174     0.145893 -10.61 0.0006872191    1.353    0.261
        65 -10.0786    215.4041    194.7597   9.3776219549e+01  -6.4907635594e-01    0.1924055    0.1205131 -31.86 0.0003033399    1.557    0.358
        66  -9.4170    203.0269    195.7712   9.6427645344e+01   1.2769490521e+00    0.1793563     0.116011  38.40 0.0005641614    1.600    0.375
        67  -9.2211    245.6721    190.6810   8.7424085844e+01  -4.7324213935e+00    0.1354127   0.09263133 -10.87 0.0007046995    1.683    0.406
        68  -9.3204      1.6030    188.2141   1.4195847063e+02   3.4296631512e+01    0.1704387   0.08909596 -67.88 0.0005073659    1.559    0.359
        69  -9.5204     61.7759    185.0077   1.2760958605e+02   2.8513976098e+01    0.1937901    0.1062367 -66.06 0.0007969373    1.668    0.400
        70 -11.2857     16.0731    182.7389   1.3824608571e+02   3.4317305641e+01    0.4233279    0.2181939  85.68  0.001770914    2.013    0.503
        71  -9.3502      8.6336    184.2938   1.4007531572e+02   3.4619512989e+01    0.1317328   0.07684687  67.98 0.0007028698    1.716    0.417
        72  -9.9708    167.2974    183.6424   1.0163151430e+02   1.0415201817e+01    0.1532845    0.1210078 -89.53 0.0007034449    1.703    0.413
        73  -9.4911     58.6640    182.2994   1.2799456992e+02   2.9608967142e+01    0.1473598   0.09787036  70.77 0.0007033772    1.656    0.396
        74  -9.7324      1.9973    180.2776   1.4118674277e+02   3.6129987058e+01    0.1684685    0.1368311  87.78 0.0005550081    1.079    0.073
        75 -10.1746    244.4105    178.3072   8.5229212284e+01  -2.3244073549e+00    0.2575675    0.1116368 -37.61  0.001106807    2.056    0.514
        76 -10.8222    224.2453    178.3500   8.8821988878e+01   9.8589252893e-01     0.251388    0.2228768 -49.27 0.0004641012    1.179    0.152
        77  -9.7619     70.0608    177.6650   1.2443468882e+02   2.9188680467e+01    0.1866163    0.1783706  51.30 0.0004723475    1.161    0.138
        78  -9.0111     36.4281    178.4811   1.3295859533e+02   3.3277240647e+01    0.1355009    0.1128526 -80.69  0.000266004    1.014    0.013
        79 -10.0734    200.1530    176.8227   9.3180825920e+01   5.6057218841e+00    0.2053321    0.1673367 -13.87 0.0006135776    1.340    0.254
        80  -9.6942     46.2124    177.3708   1.3040641265e+02   3.2420015235e+01    0.1854265    0.1182975  46.95 0.0006552736    1.632    0.387
        81 -10.9381     18.0137    172.8292   1.3674636184e+02   3.6535043621e+01    0.3701544    0.1620572  57.28  0.001603873    2.763    0.638
        82  -9.4528     74.9792    171.0210   1.2208536489e+02   3.0142063595e+01    0.2321557    0.1711353 -31.43  0.001117715    1.728    0.421
        83  -9.8770      4.6711    168.6840   1.3948087814e+02   3.8675206211e+01    0.1258528   0.07893845 -49.56 0.0003712667    1.678    0.404
        84 -11.0179     36.5041    166.0274   1.3132171885e+02   3.6361311828e+01    0.3360363    0.2391969  49.62  0.001867582    1.506    0.336
        85 -10.9559     36.8200    162.1705   1.3070760249e+02   3.7288837886e+01    0.3568369    0.1950865 -49.70  0.001666641    1.798    0.444
        86 -11.2228     36.9037    157.8536   1.3007034300e+02   3.8356874878e+01    0.2277002    0.1787247 -65.13  0.000304356    1.099    0.090
        87  -9.7608     67.1682    165.1498   1.2315739877e+02   3.2760806849e+01     0.205702    0.1618768  76.35 0.0007682876    1.354    0.261
        88 -10.8364     51.8384    163.6884   1.2698793899e+02   3.5164344167e+01    0.3075328    0.1908898 -42.74  0.001466731    1.800    0.444
        89 -11.0280     44.5553    162.7561   1.2876704235e+02   3.6275083858e+01    0.3369736     0.177924 -75.01  0.001505468    1.870    0.465
        90 -10.5206     48.3079    160.0938   1.2737007861e+02   3.6500687750e+01    0.3075582    0.2515611   4.40  0.001253266    1.593    0.372
        91  -9.5590    200.5667    162.7593   9.0134236846e+01   8.4371885216e+00    0.2005859    0.1349306 -53.60 0.0004827292    1.523    0.343
        92  -9.6634    238.4659    159.0057   8.2373585141e+01   2.2317870558e+00    0.1978485     0.108977 -24.26 0.0008084402    2.500    0.600
        93 -11.4557     22.5485    156.3777   1.3363965383e+02   4.0148087025e+01    0.3984785    0.3563888  87.00  0.002304551    1.129    0.115
        94  -9.1016    147.4977    156.5048   1.0049909204e+02   2.0581770471e+01    0.1571775    0.1519433 -71.66 -3.21686e-05    1.025    0.024
        95 -10.3454     11.9674    153.3155   1.3599173192e+02   4.1804439385e+01    0.2784426    0.1617835   8.86  0.001439319    2.513    0.602
        96 -10.3128    178.2208    151.5740   9.2334251018e+01   1.5327447087e+01    0.2769272    0.2093619 -47.95 0.0005506207    1.267    0.210
        97  -9.5023    119.9875    147.7637   1.0550320632e+02   2.8196380151e+01    0.2047943    0.1328632  40.44 0.0003727968    1.593    0.372
        98  -9.9128     27.3011    147.3228   1.3112554701e+02   4.1936164220e+01    0.2493013     0.119013 -30.72 0.0009516338    3.543    0.718
        99 -10.8948     12.7818    146.6608   1.3494830802e+02   4.3353380395e+01    0.2159517    0.1727098  76.51  0.000646985    1.300    0.231
       100 -10.0459    207.0141    146.0617   8.5260029383e+01   1.0620563949e+01    0.2263812    0.2097164 -45.04 0.0006327523    1.014    0.014
       101  -9.2915     41.4544    146.4621   1.2707731020e+02   4.0703734402e+01    0.1384628    0.1193264 -72.99 5.822691e-05    1.044    0.042
       102  -9.6398     19.0000    145.9512   1.3318749219e+02   4.3016591047e+01    0.2185956    0.0622105 -67.87 0.0004326373    2.872    0.652
       103  -9.1529    229.3609    146.6785   8.1371316712e+01   6.2108979336e+00    0.1438857    0.1067068 -75.46 0.0007042692    1.774    0.436
       104  -9.6868      2.3279    144.3389   1.3741747681e+02   4.4677963170e+01    0.1320844   0.07390133 -47.50 0.0007051718    1.732    0.423
       105  -9.7498     49.7852    141.4922   1.2386333364e+02   4.0984551324e+01    0.2731777    0.1497616 -35.77 0.0009773822    2.267    0.559
       106  -9.5027     19.6099    139.8086   1.3215530049e+02   4.4460577128e+01    0.2067277    0.1089642 -67.22 0.0004746179    1.555    0.357
       107 -10.2779     15.8332    139.8201   1.3320388945e+02   4.4767605125e+01      0.30927    0.1260703  11.94  0.001242389    3.920    0.745
       108 -10.3849     56.4308    137.7328   1.2124057391e+02   4.1097395053e+01     0.445307    0.2554797  89.26  0.001699399    2.957    0.662
       109  -9.7449    236.7579    138.5847   7.8457035622e+01   6.4044710959e+00    0.1665951    0.1348191  68.90 0.0003634815    1.482    0.325
       110 -10.2674     87.8994    137.9905   1.1215834239e+02   3.6410549130e+01    0.2184609    0.2058132 -44.58 0.0003598969    1.053    0.050
       111 -10.6782      9.1946    136.6947   1.3460705526e+02   4.6024849247e+01    0.2314155     0.154473 -58.44 0.0003041688    1.228    0.186
       112 -10.5090      2.8146    136.2830   1.3630124346e+02   4.6562616153e+01    0.2732751     0.125201 -61.93  0.001391212    1.646    0.392
       113 -10.2196     21.0340    135.7621   1.3115575818e+02   4.5321909570e+01    0.2358079    0.1609567 -67.07 0.0005916178    1.213    0.176
       114  -9.3148    250.3217    134.3001   7.5487906991e+01   4.7808365304e+00    0.1277193    0.1011813 -13.23 0.0005720113    1.626    0.385
       115 -10.1879    107.0080    133.2342   1.0568004983e+02   3.4188611829e+01    0.2705069    0.2247302 -49.65 0.0009451933    1.156    0.135
       116 -10.3454     33.1239    133.6841   1.2733433769e+02   4.4722296441e+01    0.2889382    0.1638228 -67.72 0.0001413329    1.573    0.364
       117 -10.6744     37.2690    130.5763   1.2556993701e+02   4.5062072298e+01    0.3159647    0.2612596 -46.06 0.0009006977    1.141    0.124
       118 -11.5910     33.3248    126.0332   1.2593608715e+02   4.6555804837e+01    0.3195358    0.2456069  59.72 0.0003601533    1.566    0.362
       119 -10.2252     73.9668    129.4974   1.1436110237e+02   4.0690702382e+01    0.2774173    0.1877543 -43.11 0.0007845976    1.431    0.301
       120  -9.9468     82.0520    125.3927   1.1102676120e+02   4.0425334500e+01    0.2445202    0.1884833 -42.79  0.001228326    1.242    0.195
       121 -11.2031      2.3743    123.3369   1.3469195434e+02   4.9638395858e+01    0.5930423    0.1394596 -63.24  0.002330311    2.791    0.642
       122  -9.7661    226.3232    124.2921   7.7130479980e+01   1.1105934933e+01    0.1335561    0.1112706  -4.85 0.0004925897    1.613    0.380
       123  -9.4230    219.5692    124.5036   7.8292787484e+01   1.2407449316e+01    0.1444368     0.127634 -52.46 0.0002209845    1.014    0.014
       124 -11.1896     10.6826    122.4879   1.3213207094e+02   4.9291214862e+01    0.2540377    0.2026757 -64.25  0.001187063    1.031    0.030
       125 -10.5779     20.4291    121.6830   1.2907944394e+02   4.8744569123e+01    0.2164323    0.1414841 -23.37  0.001172429    1.840    0.457
       126  -9.9657     33.5126    118.8447   1.2454209164e+02   4.8252795943e+01    0.1980066    0.1135629 -59.31 0.0003451233    1.470    0.320
       127 -11.9081     17.3206    115.7088   1.2900879949e+02   5.0391954010e+01    0.4806274    0.2476605 -52.16  0.001584048    1.555    0.357
       128 -12.2436     15.8441    109.3349   1.2834373706e+02   5.1975455617e+01    0.5040028    0.3636379  21.22 0.0006951902    1.653    0.395
       129 -11.4242     23.3735    106.9534   1.2546671644e+02   5.1929719217e+01    0.3229918    0.2710848 -65.06  0.001501212    1.150    0.130
       130 -11.2253     21.3582    103.3432   1.2541340126e+02   5.2913242144e+01    0.2135665    0.1784333  -7.33  0.001376542    1.328    0.247
       131  -9.5333    220.3801    117.1620   7.6558135807e+01   1.3653897245e+01    0.2090713     0.117583 -52.51 0.0004814571    1.686    0.407
       132 -10.0894     86.0577    116.6413   1.0773435520e+02   4.1830830061e+01    0.1986085    0.1911075   9.78 0.0004625715    1.084    0.077
       133 -10.7573     51.0904    115.9224   1.1841214587e+02   4.7035353725e+01    0.4113373    0.1733537 -55.27 0.0006484425    2.046    0.511
       134  -9.1000    214.2863    115.3716   7.7175140934e+01   1.5248827138e+01    0.1412838    0.1136523 -10.99 0.0007019172    1.710    0.415
       135  -8.9684    166.3105    115.6858   8.6472483467e+01   2.5661114686e+01    0.1578406     0.119995 -81.85 0.0002751542    1.633    0.387
       136 -10.1784     35.3619    114.2121   1.2304998536e+02   4.9161201278e+01    0.2696866    0.1869858 -65.13  0.001476327    1.345    0.257
       137 -11.6813     35.6283    108.7534   1.2184006863e+02   5.0400415238e+01    0.3951747    0.2826537  86.12 0.0007316808    1.938    0.484
       138 -10.9748    249.0195    111.8254   7.1148346127e+01   9.0796368517e+00    0.2426376    0.1671507 -48.19 0.0006179857    1.215    0.177
       139 -10.4145     56.1167    107.9695   1.1499562314e+02   4.8255139926e+01    0.4320905    0.1789038 -54.97  0.001746746    2.187    0.543
       140 -10.6422      6.7738    107.1979   1.3085437511e+02   5.3081530551e+01    0.2754461    0.1944383 -74.91 0.0007519635    1.364    0.267
       141 -10.9534      2.5045    105.3689   1.3190139936e+02   5.3751290521e+01    0.2393259     0.186681 -71.44 0.0001872954    1.196    0.164
       142 -10.8616    243.5001    104.5109   7.0420494757e+01   1.1413508437e+01    0.1851656    0.1624308 -16.76 0.0001042404    1.499    0.333
       143 -11.0262    247.8455    102.1738   6.9364145571e+01   1.1000270084e+01    0.2367311    0.1871676  67.39 0.0008679124    1.415    0.293
       144 -10.0835    223.3427    103.9434   7.3215409171e+01   1.5516533422e+01    0.2184526    0.1819933 -81.70 0.0004102322    1.207    0.171
       145 -10.3972     35.4717    101.4563   1.2030894147e+02   5.2072456075e+01    0.2697836     0.202236  34.86  0.001572936    1.553    0.356
       146 -12.0575      3.1250    100.2950   1.3083697761e+02   5.4848810773e+01      0.39407    0.2503789  36.13 0.0003951672    1.977    0.494
       147 -10.6811      1.7605     94.2009   1.3019838351e+02   5.6265269636e+01    0.4200221   0.09150203 -58.23  0.001062063    2.824    0.646
       148  -9.8648    119.7627    101.4236   9.4066304723e+01   3.8838050851e+01     0.212374    0.1425981  32.29 0.0008864584    1.655    0.396
       149 -10.8832     62.0162     98.6735   1.1076774499e+02   4.9549389677e+01    0.2971838     0.273973  34.44 0.0007317834    1.213    0.176
       150 -10.4956     66.5117     98.4548   1.0923542275e+02   4.8963954155e+01     0.277067    0.2014014 -34.38  0.001196697    1.318    0.241
       151  -9.6154     30.1449     97.9967   1.2133784446e+02   5.3352202592e+01    0.1772313    0.1568611 -63.94 0.0003141483    1.197    0.164
       152 -10.5938    142.6541     97.2398   8.7126658112e+01   3.4738111803e+01    0.2867863    0.1869355  61.96  0.001050701    1.731    0.422
       153 -10.4242     92.5932     96.7791   1.0055430615e+02   4.5089434999e+01    0.2906806    0.1331609 -42.36  0.001138857    2.142    0.533
       154 -10.1682     57.4298     96.6631   1.1177228077e+02   5.0603399281e+01    0.2020177    0.1726873  35.93 0.0008203955    1.312    0.238
       155 -10.9386     20.1146     96.2098   1.2437013137e+02   5.4601222928e+01    0.2887859    0.1611526 -63.79  0.001514273    1.658    0.397
       156  -9.4178    249.4995     95.4970   6.7814544710e+01   1.1841791693e+01    0.1329135    0.1088788 -59.90 0.0008106914    1.001    0.001
       157 -10.8152     31.2272     92.0875   1.1961443877e+02   5.4543592710e+01    0.3315607    0.2096398 -63.22   0.00178517    1.606    0.377
       158 -11.2066     25.5872     91.7344   1.2150109601e+02   5.5127351871e+01     0.258701     0.207633 -30.26 0.0008344309    1.139    0.122
       159 -12.0193     12.2547     78.5106   1.2324619352e+02   5.8942315438e+01    0.4695984    0.2334684 -45.25  0.001507246    1.570    0.363
       160 -11.0868      4.6839     86.0329   1.2761718297e+02   5.7854035866e+01    0.4563299    0.2089746 -56.82  0.002425828    1.666    0.400
       161 -10.7243      2.9773     78.9615   1.2675388679e+02   5.9429787178e+01     0.271572    0.2135739 -10.28  0.001183545    1.346    0.257
       162 -11.6271      6.9772     73.6615   1.2408432813e+02   6.0272110563e+01    0.3638951    0.2340352  -8.40  0.001153923    1.664    0.399
       163 -10.3119    162.6145     91.9997   8.1281981128e+01   3.1212144886e+01    0.2486891    0.2016994  35.73 0.0003496616    1.398    0.285
       164 -10.9589     48.8244     86.7978   1.1212442381e+02   5.3781451416e+01    0.5281973    0.2257321 -51.01  0.002308787    2.107    0.525
       165 -10.3923     46.0000     84.9839   1.1263038844e+02   5.4491692191e+01    0.5257753   0.09647973 -49.31  0.001628692    4.177    0.761
       166 -11.2373     41.0247     81.6283   1.1350130608e+02   5.5742655149e+01    0.5339622    0.2903658  51.37  0.002008938    3.198    0.687
       167  -9.2203     21.2892     91.3311   1.2291166737e+02   5.5571615477e+01    0.1343192    0.0762229 -35.99 0.0003416581    1.624    0.384
       168 -10.5617     95.9418     90.5552   9.7798612879e+01   4.5755334304e+01    0.4218822    0.2386197  14.44   0.00146479    3.446    0.710
       169 -10.1938    158.0014     89.9868   8.1736438142e+01   3.2649306984e+01    0.2321485    0.2233029 -83.94 0.0009250038    1.012    0.012
       170  -9.8660    103.7680     88.6065   9.4943292691e+01   4.4654480665e+01     0.194578    0.1369086  51.73 0.0003877815    1.538    0.350
       171 -10.5868     22.9728     86.6842   1.2126059777e+02   5.6427882510e+01    0.2701781    0.1664835 -36.68 0.0009985799    1.427    0.299
       172 -10.4850    112.0861     85.7511   9.1776250198e+01   4.3547399091e+01    0.3440299    0.2307548  59.18  0.001582466    1.761    0.432
       173 -11.0162     66.8603     85.0568   1.0545654507e+02   5.1719177037e+01     0.375728    0.2335033 -15.90  0.001470107    2.140    0.533
       174 -11.9941     11.0283     90.9836   1.2641011874e+02   5.6398868562e+01    0.3785151    0.2360685  21.05  0.002249087    1.879    0.468
       175 -10.4032    118.0199     82.6777   8.9283936457e+01   4.2895702438e+01     0.283722    0.2107744 -29.42 0.0008239309    1.444    0.307
       176  -9.3704     88.2410     83.6209   9.8133748431e+01   4.8520910949e+01    0.1357011    0.1110788 -72.46 0.0006930039    1.633    0.388
       177 -10.1866     29.4635     81.8469   1.1774306146e+02   5.6868893710e+01    0.2072633     0.170751   4.06  0.000772407    1.278    0.218
       178 -11.2050     23.2228     80.0068   1.1956357986e+02   5.7798367023e+01    0.3540262    0.2103751 -32.38 0.0006979241    1.542    0.352
       179 -11.8663     21.2244     76.8386   1.1951174185e+02   5.8608827671e+01    0.4726342    0.2418934 -26.03  0.002099471    2.125    0.529
       180 -10.4662     91.6217     77.7451   9.5347607808e+01   4.9022999363e+01    0.3594671    0.2927332 -33.22  0.001990105    1.210    0.174
       181 -10.1613     71.0023     79.3309   1.0240556860e+02   5.2220433527e+01    0.1904461    0.1671781  11.83 0.0005373615    1.113    0.101
       182 -10.5002    151.4435     77.6758   7.9872112125e+01   3.6376100220e+01    0.3846133     0.240364  51.53   0.00178575    1.546    0.353
       183 -12.0519     57.9012     74.3013   1.0539194713e+02   5.5099383872e+01    0.4517181    0.3526194  70.28 0.0004620094    2.141    0.533
       184 -11.8415     62.5401     71.8036   1.0301455687e+02   5.4912331284e+01    0.3562775    0.3226545 -10.73  0.001253117    1.057    0.054
       185  -9.7662    122.0406     76.4679   8.6436255059e+01   4.3163503259e+01    0.2206649    0.1378371  49.26  0.001018742    1.556    0.357
       186 -12.2827     44.7781     75.2944   1.1038315748e+02   5.6578818549e+01    0.2910067    0.2503437  48.87 0.0003039775    1.531    0.347
       187 -11.3908     36.0338     68.6158   1.1169669047e+02   5.8836103141e+01    0.5055764     0.387344  48.54  0.002739882    1.843    0.457
       188 -11.5361     31.0146     66.0938   1.1287707179e+02   5.9824601898e+01    0.5298967    0.2689829 -28.31  0.001934576    2.040    0.510
       189 -10.7270    138.6606     74.7899   8.1916065418e+01   3.9788924004e+01    0.2976625    0.2373415 -77.86  0.000378767    1.518    0.341
       190 -10.5517    109.0875     74.6053   8.9333313637e+01   4.6203648418e+01    0.2815716    0.2500796 -38.62  0.001191663    1.165    0.142
       191 -11.1955    102.6756     73.3292   9.0749341596e+01   4.7713560926e+01    0.3280414    0.2780685 -86.14  0.001666226    1.585    0.369
       192  -9.7498     16.4582     72.7207   1.2026588767e+02   5.9808503057e+01     0.219203    0.1058792 -58.35 0.0008080017    1.939    0.484
       193 -12.0495     17.7040     67.2354   1.1835723583e+02   6.0786150751e+01    0.5699515    0.3086879  -2.76   0.00111644    2.211    0.548
       194 -10.3939     18.4417     60.4524   1.1618474877e+02   6.2007305512e+01      0.31564    0.2269537  57.85  0.001818175    2.528    0.604
       195 -10.1047     83.9576     72.3487   9.6076773473e+01   5.1378530289e+01    0.1869201    0.1624851  22.23 0.0003456266    1.107    0.096
       196 -11.4210     76.3876     70.8888   9.8057742512e+01   5.2928567672e+01    0.4411565    0.3310671  63.03  0.002289824    1.961    0.490
       197  -9.6691    178.2289     91.9690   7.8151347608e+01   2.7628920122e+01    0.1983211    0.1824721 -55.14            0    1.081    0.075
       198  -9.3107    212.3993     70.1967   6.7430703054e+01   2.3678762338e+01    0.1919562     0.109243 -53.75 0.0008052366    1.658    0.397
       199  -9.9599    144.7010     69.8494   7.9188327843e+01   3.9245396432e+01    0.2168631    0.1829877  -1.10 0.0008583268    1.469    0.319
       200 -11.3530     94.7154     67.9651   9.1419140771e+01   5.0180656545e+01    0.4057813    0.3094392 -13.03  0.001144112    1.445    0.308
       201 -10.6282     99.7774     64.4641   8.8850360841e+01   4.9787613332e+01    0.2466163    0.1864174 -28.69 0.0007049764    1.366    0.268
       202  -9.8266     68.6835     69.9924   1.0034631211e+02   5.4322473522e+01    0.2260996    0.1502877 -36.98 0.0002544796    1.434    0.303
       203  -9.3751     68.6951     66.7276   9.9316751557e+01   5.4902268162e+01    0.1883015    0.1394948   1.11 0.0002517599    1.436    0.304
       204 -11.7039     50.5859     68.2596   1.0618103851e+02   5.7200260067e+01    0.4726831     0.276182  -0.08  0.002214556    2.366    0.577
       205 -10.8244     50.7734     63.9842   1.0478449517e+02   5.7950362683e+01     0.426117    0.2030896 -34.84  0.001758092    2.039    0.510
       206  -9.0649    167.9947     70.0000   7.4539626483e+01   3.3828241597e+01    0.2231881   0.07742447  57.05 0.0003479575    2.769    0.639
       207  -9.4451    160.7376     69.6763   7.5837937096e+01   3.5569760775e+01    0.1348533    0.1125129  16.24 0.0002829378    1.558    0.358
       208 -10.0377    123.2604     68.5547   8.3813185028e+01   4.4250131505e+01     0.243882    0.1644854 -48.23 0.0005881859    1.628    0.386
       209  -9.5223     33.9722     75.0476   1.1428994400e+02   5.7804998292e+01    0.1547738    0.1197154 -38.96 0.0009572344    1.107    0.097
       210 -11.9564      3.9449     64.9928   1.2316529559e+02   6.2164896117e+01    0.3857269    0.3081654  77.84  0.001539258    1.991    0.498
       211 -10.1663    139.2649     65.7654   7.9240117318e+01   4.1144917743e+01     0.191316    0.1600859  28.49 0.0006328906    1.323    0.244
       212 -11.4382     57.7917     62.2846   1.0169926525e+02   5.7296976053e+01    0.6266473    0.2268016 -31.23   0.00216163    3.938    0.746
       213 -11.7285     63.4982     60.2231   9.9012714679e+01   5.6816311563e+01    0.4608627    0.2391991  36.56  0.002142184    1.921    0.479
       214 -10.4411     77.2116     63.8629   9.5566443329e+01   5.4014274900e+01    0.3514141    0.2326872 -40.47  0.001091077    1.533    0.348
       215  -9.6922    216.3514     64.5858   6.5672230200e+01   2.3704276414e+01    0.2513822    0.1233231  69.99  0.001134499    2.156    0.536
       216  -9.9460     41.8119     64.2006   1.0818874966e+02   5.9014225175e+01    0.1713058    0.1554729 -19.42 0.0004815581    1.162    0.139
       217 -11.0341     84.0098     61.7993   9.2729162964e+01   5.3178257266e+01    0.4174025    0.3211447  17.43  0.002356715    1.306    0.234
       218 -11.0168     86.8515     56.2170   9.0034591749e+01   5.3552322612e+01    0.3202101     0.240674   9.01 0.0007474114    1.431    0.301
       219 -11.1653     87.4520     52.5006   8.8628080942e+01   5.4004671086e+01    0.2523036    0.2139426 -36.31 0.0008854231    1.292    0.226
       220 -10.6188      4.3445     47.1433   1.1814656737e+02   6.5421572474e+01    0.3268109    0.1358259 -30.32  0.001698789    2.208    0.547
       221 -10.4102      6.9900     41.2505   1.1517362697e+02   6.6244057464e+01    0.2573429    0.1170397 -42.44 0.0007909418    1.728    0.421
       222 -10.4424     11.1031     62.7906   1.1976443594e+02   6.2124524235e+01    0.1908303    0.1479438 -48.95 0.0003876429    1.227    0.185
       223 -10.8038      6.7760     58.8155   1.2043613340e+02   6.3161891659e+01    0.3957865    0.2741017 -73.39  0.002417133    2.064    0.516
       224 -11.7342      5.1361     51.8012   1.1916750155e+02   6.4548443450e+01    0.3766342    0.2159133 -30.70 0.0008875144    1.428    0.299
       225  -9.8477    201.2848     61.9517   6.7147486562e+01   2.7443102089e+01    0.1825099    0.1572026 -63.20 0.0002927291    1.099    0.090
       226 -10.7829     45.3167     50.6876   1.0247565318e+02   6.0908419225e+01    0.3704807    0.2030992 -27.11  0.001951558    1.813    0.448
       227 -11.5007     29.7567     60.8289   1.1180429677e+02   6.0920433386e+01    0.6041697    0.2265851  18.13  0.002417422    3.440    0.709
       228 -12.6735     37.5683     51.0553   1.0560970553e+02   6.1784275939e+01    0.7197601    0.5124415  -8.00  0.003697622    1.303    0.232
       229 -10.4268     47.6641     58.5538   1.0420066213e+02   5.9300128227e+01    0.2814398    0.2211794 -56.05  0.001435166    1.665    0.399
       230 -10.0240     43.8248     57.1726   1.0520200245e+02   6.0015194453e+01    0.2000758    0.1430808 -18.87 0.0002829133    1.276    0.216
       231 -11.0224    128.6123     57.3124   7.9215565071e+01   4.4838744186e+01    0.3501346    0.2606294  16.45 0.0008925998    1.708    0.415
       232 -10.5748    123.2095     56.5911   8.0272073069e+01   4.6135117990e+01    0.2459889    0.2023142 -73.65  0.001074067    1.510    0.338
       233  -9.0501    160.6725     60.6863   7.3481601959e+01   3.7001386446e+01    0.1396765    0.1069295  28.78 0.0007043242    1.669    0.401
       234 -10.1761    114.7362     57.3592   8.2597499929e+01   4.7844046699e+01    0.2683104    0.1258585  49.16 0.0002909045    1.974    0.493
       235 -11.0383    118.4593     53.7910   8.0576193349e+01   4.7575125153e+01    0.4775071    0.2939121  38.61  0.001878415    1.629    0.386
       236 -10.9415    101.3829     55.8817   8.5688580983e+01   5.0816769725e+01    0.5587851    0.1870588  51.32  0.002010101    3.082    0.676
       237 -10.3985     75.1455     56.0436   9.3685104723e+01   5.5639145185e+01    0.1895158    0.1697744   2.56 0.0003591624    1.038    0.037
       238  -9.8450     62.6707     54.6660   9.7458561874e+01   5.7853217130e+01    0.2401836    0.1989643  78.14  0.001363613    2.120    0.528
       239 -10.6362     12.5990     51.8847   1.1606373236e+02   6.4012793283e+01    0.2840063    0.1656525 -49.91    0.0017269    1.563    0.360
       240 -11.9031    128.6516     50.0418   7.7061809335e+01   4.5874878597e+01    0.5769191    0.3552161  -9.25   0.00257145    2.549    0.608
       241 -10.8129     69.9479     50.3957   9.3505818063e+01   5.7372343534e+01    0.3051268    0.2794291  88.00  0.001729442    1.638    0.389
       242 -10.7113     81.7139     50.1148   8.9594103001e+01   5.5400709711e+01     0.207192    0.1684531  44.21  0.000353235    1.283    0.221
       243  -9.9119    220.7598     48.9787   6.1815690678e+01   2.5077008758e+01    0.1742224    0.1414392 -67.75            0    1.072    0.067
       244 -11.3645    152.8840     48.0685   7.1563053590e+01   4.0631037233e+01    0.3942217    0.2600794  70.36  0.001262574    1.505    0.335
       245 -10.0831    113.5933     48.1348   8.0032409533e+01   4.9411630183e+01    0.2276726    0.1738908  60.68 0.0005359828    1.345    0.257
       246  -9.2852     78.5076     47.4352   8.9693766646e+01   5.6357252180e+01    0.1295671    0.1120784  14.53 0.0001127113    1.011    0.011
       247 -10.8453     60.7695     46.4661   9.5312178440e+01   5.9406449171e+01    0.3205247    0.2758476  50.92  0.001427034    1.557    0.358
       248 -11.1433     11.1108     44.7665   1.1449962415e+02   6.5353487334e+01    0.4293482     0.187631 -32.90  0.001747821    1.984    0.496
       249 -10.4985    142.5654     45.5305   7.2834365393e+01   4.3346222182e+01    0.3104349    0.2162507 -68.86  0.001038987    1.826    0.452
       250  -9.3286    233.4204     45.4674   5.9718724885e+01   2.2905065195e+01    0.1247784    0.1005574 -73.82 0.0001237191    1.022    0.021
       251 -10.2850    103.8660     45.8826   8.1809438628e+01   5.1742167998e+01    0.2333424    0.1965003  -2.81  0.000559276    1.257    0.204
       252  -9.5442     86.2748     45.3426   8.6585390900e+01   5.5248272669e+01    0.1321641   0.09256089   9.51 0.0002988302    1.619    0.382
       253 -10.0830     51.2560     44.9785   9.8247480175e+01   6.1009855402e+01    0.1889159    0.1524513   0.69 0.0003283013    1.051    0.048
       254 -10.9511     51.9834     41.0127   9.6558792474e+01   6.1491137017e+01    0.2375309    0.2129827  27.19 0.0007102297    1.332    0.249
       255 -10.5657    121.8789     42.7774   7.6412136348e+01   4.8338988919e+01    0.3047876    0.2586618  85.93  0.001808497    1.368    0.269
       256  -9.8145    110.5559     41.7002   7.8762280569e+01   5.0905903275e+01    0.2134063    0.1554118  74.26 0.0005396944    1.739    0.425
       257 -11.3464     98.0195     31.9215   7.8759509574e+01   5.4671767226e+01     0.302959    0.2167753  33.63 0.0003889062    1.287    0.223
       258 -10.5439    101.0888     28.5597   7.6856607281e+01   5.4429667214e+01    0.2214661    0.2023091  86.84 0.0003951642    1.353    0.261
       259 -10.9478     97.2211     41.0317   8.2007462579e+01   5.3719201284e+01    0.3261068    0.2177844  42.93 0.0007956276    1.340    0.254
       260 -11.6710    101.8202     36.8419   7.9403023175e+01   5.3320410188e+01    0.5469812    0.2697512  31.96  0.002402865    2.442    0.590
       261 -11.9438     97.1436     36.9133   8.0658807197e+01   5.4252817438e+01    0.2870526    0.2150994  45.35 0.0003069599    1.200    0.167
       262 -11.3675     67.1296     40.6978   9.1067175162e+01   5.9227850148e+01    0.4824024    0.2632029  -0.81   0.00204083    3.155    0.683
       263 -10.3622     23.5445     41.4582   1.0807582562e+02   6.4820405024e+01    0.2251237    0.1693236   1.68  0.001102345    1.185    0.156
       264 -12.5905     26.0115     36.4508   1.0525718706e+02   6.5345594410e+01    0.3992926    0.3832503   3.28  0.003058036    1.527    0.345
       265  -9.5928    220.2162     41.5935   6.0347017781e+01   2.6221482778e+01    0.1609483    0.1064415  63.22 0.0002921234    1.526    0.345
       266  -9.9263    226.0452     40.0277   5.9403076818e+01   2.5193949597e+01    0.2027049    0.1213752 -70.97  0.000633478    1.601    0.375
       267  -9.7614    183.9974     41.4949   6.4846125761e+01   3.4307874238e+01    0.1944349    0.1171468  67.86 0.0004375739    1.506    0.336
       268 -10.8793     89.2776     39.4325   8.3695564019e+01   5.5469598199e+01    0.2331038     0.205745 -49.71 0.0005533299    1.429    0.300
       269 -10.3105     85.0001     34.9990   8.3411143417e+01   5.6831987114e+01    0.3153915    0.1613628  58.40  0.001439584    2.503    0.601
       270 -10.4815     82.8039     30.1903   8.2367275249e+01   5.7813326461e+01    0.2906146    0.2236942 -76.63   0.00160997    2.357    0.576
       271 -12.0618     81.3098     38.0815   8.5587237065e+01   5.7126267102e+01    0.5196502    0.3747203 -59.15  0.002820392    2.243    0.554
       272 -11.1216     77.4692     34.0186   8.5331595860e+01   5.8328202435e+01    0.4491526     0.233238  -5.71  0.001853514    3.403    0.706
       273 -10.2467     43.5228     38.5536   9.8885839302e+01   6.2992363707e+01    0.3651439    0.2265621 -52.75  0.001464118    2.527    0.604
       274  -9.4308     61.9606     37.9607   9.1855922638e+01   6.0426711526e+01      0.14535    0.1207633  -2.29   0.00030513    1.072    0.067
       275 -10.3763    166.5260     36.9327   6.6320903207e+01   3.8922572282e+01    0.2050251    0.1580022  69.46 0.0004164295    1.146    0.128
       276  -9.1460    127.4942     36.4498   7.3277722436e+01   4.7890027235e+01    0.1313375    0.1161048  54.45 9.156935e-05    1.009    0.009
       277 -10.4917     10.0783     25.1253   1.0813722079e+02   6.8500680863e+01     0.253555    0.1461359  -2.55 0.0007806902    1.645    0.392
       278 -11.6901      5.2705     31.5090   1.1268714479e+02   6.7928642700e+01    0.5996174    0.2814658 -29.64  0.002659196    1.796    0.443
       279 -11.2354     10.3186     34.5355   1.1144566247e+02   6.7074233088e+01    0.3854097    0.1901365  11.30  0.001981474    2.102    0.524
       280 -10.4776      2.5213     24.2192   1.1135602643e+02   6.9225692532e+01      0.36664    0.1737003 -23.85  0.001861487    1.897    0.473
       281 -12.2811    226.4455    246.1944   1.0110323618e+02  -1.1162371125e+01    0.5362349    0.3579477  -8.30  0.003141314    1.518    0.341
       282 -10.0933      7.7921     21.0105   1.0762906599e+02   6.9272310836e+01    0.1823197    0.1274198 -26.58 0.0005485984    1.192    0.161
       283 -12.0612     74.3895    238.3452   1.3142049884e+02   1.4218446914e+01    0.4908741    0.3762197  89.06  0.002942131    1.237    0.192
       284  -9.7836    129.9225     33.3620   7.1861443155e+01   4.7714902293e+01    0.3331683    0.1346647 -48.07  0.001300042    3.410    0.707
       285  -9.6738    206.1794     33.8157   6.0285527705e+01   3.0303058702e+01    0.1573889    0.1373002  63.95 0.0002309046    1.312    0.238
       286 -11.6901     20.7814     37.8004   1.0797955968e+02   6.5657546480e+01    0.2785756    0.1890107 -24.92 0.0005683217    1.197    0.164
       287  -9.1781     60.3112     33.6774   9.0860073639e+01   6.1249480796e+01    0.1049108   0.09977243 -89.64 0.0003721296    1.652    0.395
       288 -10.8412     18.3700     31.6425   1.0681335328e+02   6.6814951104e+01    0.3211082    0.2138927  32.63  0.002131517    1.820    0.451
       289 -10.0154    145.0556     32.0857   6.8618482499e+01   4.4446492314e+01    0.1909686     0.166878  68.16  0.000359218    1.017    0.016
       290 -10.4420     49.6690     31.3251   9.3834702366e+01   6.3145620843e+01    0.2020418    0.1773597  71.77  0.001316385    2.054    0.513
       291 -10.6683     50.5259     28.0054   9.2245598665e+01   6.3444148453e+01    0.2396858    0.1743969 -12.52 -2.296583e-05    1.261    0.207
       292  -9.8787     42.7399     31.8066   9.6675059798e+01   6.4033616925e+01    0.1742575    0.1306234   1.64 0.0006831223    1.122    0.109
       293 -10.1181    177.1687     31.1998   6.3340322582e+01   3.7171845258e+01    0.1820333    0.1344305 -72.56 0.0005579382    1.354    0.262
       294  -9.1082     90.2502     31.6535   8.0757179388e+01   5.6233065622e+01    0.1123276   0.09808187 -65.37 0.0003217658    1.582    0.368
       295  -9.8911     73.5714     31.4690   8.5633287067e+01   5.9326342558e+01    0.1249219    0.1022776  17.41 -7.145343e-05    1.048    0.046
       296  -9.6811     56.1977     30.5146   9.1133510352e+01   6.2286622561e+01    0.2355473    0.1248715 -12.17  0.001148845    2.449    0.592
       297  -9.5950    153.6353     28.8275   6.6274311701e+01   4.2856245952e+01    0.1697522    0.1123793 -47.44 0.0004749009    1.654    0.395
       298 -10.9921    214.6830     27.3606   5.8010036336e+01   2.9256622537e+01    0.2095482    0.1754108 -88.40 0.0002445372    1.095    0.087
       299  -9.2302    192.2840     28.3226   6.0714183189e+01   3.4081382521e+01     0.116412   0.09347369  42.90 0.0002181723    1.595    0.373
       300 -11.7334     70.6071     25.9682   8.4556128377e+01   6.0482071239e+01    0.4714348    0.2561719  36.83  0.002382585    1.614    0.380
       301  -9.4328    115.5045    244.5116   1.2352635740e+02   6.5711706581e+00     0.133066    0.1190933  50.88  7.01611e-05    1.037    0.035
       302 -10.3882    129.4389     19.0544   6.7756941353e+01   4.9350569767e+01     0.166013    0.1253615 -24.10 0.0005666887    1.565    0.361
       303  -9.7129     24.8106     26.8167   1.0216039979e+02   6.6853436706e+01    0.1716797    0.1392587 -24.53 0.0005258637    1.302    0.232
       304  -9.2542    206.2800    246.2982   1.0499377979e+02  -8.3096320458e+00    0.1265633   0.08805765  -2.51 0.0003798414    1.540    0.351
       305 -10.0002    109.4864    242.9161   1.2459067395e+02   7.8634481136e+00    0.2627333    0.1607218  53.47 0.0007954701    1.556    0.357
       306 -11.1840     84.5282     21.0650   7.8637679056e+01   5.8480454632e+01     0.480262    0.2532316  32.61  0.002507846    1.866    0.464
       307 -11.4953     36.2266    241.7487   1.3937416296e+02   1.8590570655e+01    0.4256103     0.278231  61.10  0.002621168    1.289    0.224
       308  -9.5533    112.0083     24.9679   7.3109519133e+01   5.2540965656e+01    0.1485175     0.134264  38.48 0.0005598469    1.065    0.061
       309 -10.3623    210.6868     24.2411   5.7778508036e+01   3.0499721175e+01    0.2103902    0.1384745  88.30 0.0008146678    1.331    0.249
       310 -10.1766    173.8514     24.1617   6.2097871835e+01   3.8746856574e+01    0.1894172    0.1475628 -87.30 0.0003317145    1.182    0.154
       311  -9.9560     93.9813     24.0408   7.7144372391e+01   5.6341830746e+01    0.1776262    0.1508377 -75.82 0.0006969589    1.662    0.398
       312  -9.8555    135.2339     22.0999   6.7577120579e+01   4.7755990634e+01    0.2795363    0.1165829  42.07  0.001178952    2.694    0.629
       313  -9.4714    120.4952     21.4843   7.0217274906e+01   5.1072860164e+01    0.1265498     0.107497  51.84 0.0002698341    1.009    0.009
       314  -9.7531    113.9698     20.9528   7.1414281643e+01   5.2531544473e+01    0.1946678    0.1476817 -84.77  0.001134706    1.744    0.427
       315 -10.3303     45.9975     20.7862   9.1112204487e+01   6.4960661663e+01    0.2194135    0.1473793  29.45  0.000770014    1.307    0.235
       316 -10.5010    162.1217     20.0981   6.2721456429e+01   4.1865559887e+01    0.1826076    0.1524925  56.69 0.0003142463    1.193    0.162
       317 -10.7007    156.5146    241.0611   1.1431683112e+02   4.7671550314e-01    0.1933813    0.1340893 -48.46  0.001031254    1.586    0.370
       318 -10.6162    108.2128     17.1775   7.1464017432e+01   5.4113781388e+01    0.2361902    0.1678851  63.80 0.0004682527    1.353    0.261
       319 -10.4505     88.8900    241.2142   1.2872175734e+02   1.1445139101e+01    0.2411851    0.1633264 -38.27  0.001231871    2.146    0.534
       320  -9.3541     50.3349    240.2915   1.3650173469e+02   1.7121893749e+01    0.1100477   0.09821855 -37.50 0.0005006983    1.637    0.389
       321 -10.4606    195.7401    238.2820   1.0573233114e+02  -5.3788158109e+00    0.2627506    0.2054089   3.71  0.001542936    1.267    0.211
       322 -10.0110    217.5282     16.4988   5.5546162520e+01   2.9937490750e+01    0.2019695   0.08766401  61.80 0.0009469668    2.170    0.539
       323 -10.3936    166.8466     16.0173   6.1056535855e+01   4.1212055836e+01    0.3151678    0.1513464  85.06  0.001402279    2.509    0.601
       324 -10.6897     31.4953    237.4694   1.3993474350e+02   2.0073794891e+01    0.2632169    0.1839077  86.09 0.0009327728    1.190    0.160
       325  -9.4834    146.9620     15.5085   6.3788097239e+01   4.5771238611e+01    0.1831131    0.1053745  65.63 0.0003723799    1.463    0.317
       326 -10.6629     29.1824    232.8753   1.4001092551e+02   2.1340277960e+01    0.2713846    0.1587798  74.09  0.001004047    1.543    0.352
       327 -10.3493    181.2042    248.2292   1.1032690141e+02  -4.8047872061e+00    0.2806519   0.09129319 -39.83  0.001038472    3.560    0.719
       328  -9.8491     49.9983     15.0000   8.7295896118e+01   6.5007639932e+01    0.2451873   0.08648413  47.09  0.001106461    3.023    0.669
       329 -10.1587    159.9071    235.8598   1.1277097883e+02   8.9511673299e-01    0.2118695    0.1779309   8.32 0.0006766725    1.264    0.209
       330 -10.2179    177.6028    234.8222   1.0886674068e+02  -1.8554618926e+00    0.2581078    0.1975655   5.05 0.0009399572    1.433    0.302
       331 -11.0342    153.4059    234.2624   1.1390540593e+02   2.2996139242e+00    0.2958358    0.2222495 -24.72 0.0009684707    1.601    0.375
       332  -9.8326    231.4555    235.4596   9.8303521665e+01  -1.0192470163e+01    0.1261505    0.1036107  -5.50 0.0001721804    1.014    0.014
       333  -9.6818    142.3224    232.2859   1.1599029779e+02   4.5753645204e+00    0.1352936    0.1069688   0.92 0.0002345483    1.599    0.374
       334 -10.2285      5.7412    235.3808   1.4458974172e+02   2.3338675954e+01     0.227073    0.1866078  61.92  0.000888559    1.259    0.206
       335  -9.9029     79.9250    231.4882   1.2947033409e+02   1.4896444975e+01    0.1971104    0.1203292  42.43 0.0004354621    1.527    0.345
       336  -9.5724     16.4478     26.7539   1.0584014432e+02   6.7701644629e+01    0.1510993   0.08238734 -27.79 0.0004412423    1.557    0.358
       337 -12.4390    234.0978    246.8587   9.9791910115e+01  -1.2291585112e+01    0.5560417    0.3498867  19.27  0.003291921    1.505    0.335
       338  -9.2899     58.3204    230.2891   1.3390273209e+02   1.8244668120e+01    0.1155885    0.1015535 -35.97 0.0003486608    1.601    0.375
       339  -9.8261     30.5378     12.9962   9.4077259667e+01   6.7909197956e+01    0.1537523   0.09323011 -23.70 0.0004969378    1.533    0.348
       340  -9.4184    249.3109    227.2984   9.3609818031e+01  -1.1326619370e+01     0.125816   0.08144683  -7.51 0.0003849435    1.600    0.375
       341  -9.9788    190.5181    226.4339   1.0473725613e+02  -2.4410920847e+00    0.2551706    0.1299948 -43.23 0.0006358188    2.005    0.501
       342  -9.3004    176.3178     11.6581   5.8823154046e+01   3.9510995095e+01    0.1289238       0.0796 -72.28 0.0007049089    1.714    0.417
       343  -9.1130    140.3115    227.3042   1.1564505769e+02   5.9366039504e+00    0.1373897    0.1093907  -4.08 0.0007020232    1.613    0.380
       344 -10.0816    129.7004    226.6989   1.1789617266e+02   7.8864726194e+00    0.3089089    0.1472224  54.93  0.001183979    2.621    0.618
       345  -9.9623     87.5022    227.4909   1.2734093745e+02   1.4631470486e+01    0.1364436    0.1206915  70.34  0.000810579    1.015    0.015
       346 -10.4653     66.6954    226.6898   1.3174703453e+02   1.7889841891e+01    0.3566851    0.1498056  50.24  0.001143835    2.254    0.556
       347 -10.3382    120.4469    226.4984   1.1992091490e+02   9.5030182527e+00    0.1395845    0.1278475  59.50  9.10279e-05    1.014    0.014
       348 -10.5326    115.7518    225.7187   1.2085054878e+02   1.0461553721e+01    0.2101181    0.1170632 -72.55 0.0005294345    2.367    0.578
       349  -9.8727    181.0000    224.9512   1.0645629439e+02  -5.8314259958e-01    0.2185227   0.07739732 -46.45 0.0008014467    2.936    0.659
       350  -9.3347    156.2909    224.3688   1.1165637952e+02   3.7678863959e+00    0.1433789    0.1076758 -10.72 0.0007025076    1.715    0.417
       351 -10.4889    123.4992    221.3978   1.1846280428e+02   1.0087139069e+01    0.5038041    0.2765629  46.26  0.002269018    1.730    0.422
