#   1 NUMBER                 Running object number                                     
#   2 MAG_AUTO               Kron-like elliptical aperture magnitude                    [mag]
#   3 X_IMAGE                Object position along x                                    [pixel]
#   4 Y_IMAGE                Object position along y                                    [pixel]
#   5 X_WORLD                Barycenter position along world x axis                     [deg]
#   6 Y_WORLD                Barycenter position along world y axis                     [deg]
#   7 A_WORLD                Profile RMS along major axis (world units)                 [deg]
#   8 B_WORLD                Profile RMS along minor axis (world units)                 [deg]
#   9 THETA_WORLD            Position angle (CCW/world-x)                               [deg]
#  10 FWHM_WORLD             FWHM assuming a gaussian core                              [deg]
#  11 ELONGATION             A_IMAGE/B_IMAGE                                           
#  12 ELLIPTICITY            1 - B_IMAGE/A_IMAGE                                       
         1 -10.8737     18.3429     27.6477   8.0241199225e+01   6.9033760044e+01    0.4979895    0.2731052 -49.67  0.002826997    1.667    0.400
         2 -10.3326     13.8743     38.1012   8.6265731881e+01   6.7387011783e+01     0.612726    0.2707461 -52.04  0.003181557    1.817    0.450
         3 -10.5475     71.9446     28.0528   5.5696866016e+01   6.1735467605e+01    0.7115048    0.3430376 -16.13  0.002775085    3.080    0.675
         4 -12.1988    108.0228     29.1327   4.4589854735e+01   5.4083025020e+01    0.5048155    0.3730409  25.30  0.002658396    1.380    0.275
         5 -10.4721     36.8676     17.4512   6.6113939385e+01   6.8775365655e+01    0.5456752    0.2726313  22.89  0.002738984    2.068    0.516
         6 -10.9796     50.5128     22.1132   6.1837946847e+01   6.6178531365e+01    0.3079499    0.2051677 -25.52  0.000489223    1.391    0.281
         7 -10.9772    174.5043     12.5579   2.6448502675e+01   3.9450715390e+01    0.6042913    0.4892654  35.11  0.003506224    1.442    0.307
         8 -11.1267    182.3932     18.3634   2.7076951594e+01   3.6867296013e+01    0.2728333    0.2577962  79.90 0.0003638857    1.097    0.088
         9  -9.7653    182.2580     13.5771   2.5779893803e+01   3.7408739111e+01    0.5775871     0.195622  66.98  0.002256135    2.543    0.607
        10 -10.4356    131.3518     21.8680   3.6398032733e+01   4.9352946759e+01    0.5114875    0.2748898 -22.15  0.002311571    2.118    0.528
        11 -11.2103    151.8250     18.6346   3.1550057228e+01   4.4559394367e+01     0.564442    0.4042587  -6.90   0.00139825    1.734    0.423
        12 -12.3123    105.1985     21.2267   4.2259721737e+01   5.5682927361e+01    0.3740518    0.3213153 -29.28  0.000535982    1.290    0.225
        13 -11.0217    107.0932      5.4592   3.5523590525e+01   5.6825871150e+01    0.5972175    0.4780249  18.88  0.002640327    1.272    0.214
        14 -10.4267    101.2499     11.2465   3.9272763268e+01   5.7642637421e+01    0.3422933    0.2802786 -78.38 0.0008111945    1.647    0.393
        15 -10.0924     96.9566     12.9413   4.1104496692e+01   5.8442430674e+01    0.2365199    0.1866141  31.68 0.0004203298    1.132    0.117
        16 -10.6109     69.7613     11.6830   4.9096333488e+01   6.4228529819e+01     0.328062    0.2160185  36.72 0.0009618763    1.326    0.246
        17 -10.9021     68.7210     16.9811   5.1954819876e+01   6.3800240835e+01     0.441914    0.3955088  17.03  0.002083599    1.140    0.122
        18 -11.4960     61.7428     21.8616   5.6926940881e+01   6.4407591684e+01    0.5114399    0.4373937 -82.11  0.001510441    2.114    0.527
        19 -10.6048     62.2030     16.8259   5.4403827941e+01   6.4995270049e+01    0.3869548    0.2845669  14.62  0.001112988    1.228    0.186
        20 -10.2078    217.3055     17.2998   2.3019131137e+01   2.8565508630e+01      0.29682    0.2548576  20.99  0.001036216    1.596    0.373
        21 -10.4892    165.9622     18.5495   2.9342482906e+01   4.0982669671e+01    0.4108429    0.2506644  34.38  0.001248796    2.060    0.515
        22  -8.8851    160.2092     18.4012   3.0151095559e+01   4.2457201638e+01    0.4962674    0.1528133 -43.41   0.00170551    3.581    0.721
        23 -10.0235    237.9202     17.9620   2.1371878734e+01   2.3879971140e+01    0.3350532    0.2459377   7.63  0.001415724    2.286    0.563
        24 -10.2723    145.3305     12.7263   3.0718987325e+01   4.6801916043e+01    0.4944592    0.1706211  59.83  0.001386406    2.342    0.573
        25  -8.7681     15.5887      8.1815   7.3220444012e+01   7.2541392912e+01    0.6825889    0.2225405 -27.68  0.002466281    4.547    0.780
        26 -10.2848     13.8258     18.9183   7.9190631336e+01   7.0943526598e+01    0.3474969    0.1987647 -11.66  0.001434041    1.738    0.424
        27 -11.2640      6.3083     16.5372   8.2560487227e+01   7.1903835437e+01    0.3644536    0.3151126  41.30  0.001670687    1.763    0.433
        28 -10.4257      9.6290     14.7223   7.9826256930e+01   7.1983404067e+01    0.3194614    0.1810739  -6.40  0.001333142    1.757    0.431
        29  -9.0972    225.4840     15.9607   2.1970132098e+01   2.6850004164e+01     0.247926    0.1270702 -23.07  0.001111399    2.408    0.585
        30  -9.2404    127.2601     16.4748   3.5326318318e+01   5.0937244295e+01    0.3275511    0.1890975  14.88 0.0008580828    2.479    0.597
        31  -8.7811     92.0000     15.5741   4.3607518571e+01   5.9257583721e+01    0.3803282    0.1350184 -30.93  0.001237568    2.912    0.657
        32 -10.7943    210.8115     12.0486   2.2374114933e+01   3.0651324400e+01    0.5767155    0.2795818 -17.14  0.002229036    3.008    0.668
        33 -11.0059    208.1039      3.7200   2.0619033479e+01   3.2142302439e+01    0.4898067    0.2801261 -69.61  0.002561754    1.730    0.422
        34 -10.3533    116.9344     14.9946   3.6990388370e+01   5.3597211790e+01    0.3117153    0.2409194  36.55  0.001017309    1.215    0.177
        35  -9.3499    243.9282     13.6195   1.9974677829e+01   2.3087245725e+01    0.3184536    0.1911205  43.26  0.001663694    2.528    0.604
        36 -11.2897    133.0392     12.6872   3.2863091698e+01   4.9885149717e+01    0.2521192    0.2295234  47.63 0.0002683983    1.060    0.056
        37 -10.3328     30.8358     12.2375   6.6673040699e+01   7.0298018431e+01    0.3520751    0.2695373  39.39  0.001629871    1.761    0.432
        38  -9.5840     24.3179     11.5247   6.9854747798e+01   7.1152665572e+01    0.3088122    0.1390505  12.07  0.001387132    3.017    0.669
        39  -9.6311     51.1909     12.3027   5.6834117666e+01   6.7416852695e+01    0.3913806    0.1703467  34.26  0.001280129    2.176    0.540
        40 -10.0674     54.2805      8.2280   5.3457622151e+01   6.7404936883e+01    0.3496922     0.306352 -12.72  0.001751401    1.271    0.213
        41  -9.6699    219.1237     11.3879   2.1470943914e+01   2.8795430651e+01    0.3747818    0.2071881  79.88  0.001964273    1.703    0.413
        42 -10.4489    196.3810      3.4527   2.1614262384e+01   3.4956357790e+01    0.7044474    0.2250838  62.14  0.002881415    2.658    0.624
        43  -8.8337    191.4379     11.7132   2.4236623660e+01   3.5334856585e+01     0.346821    0.1780852 -42.92  0.001163298    1.904    0.475
        44  -9.3123    191.1704      7.1966   2.3087470864e+01   3.5855649754e+01    0.2987077    0.2059313 -76.55  0.001101156    1.402    0.287
        45  -9.3869    119.6956      9.5867   3.4370728223e+01   5.3454547221e+01    0.3876066    0.2217956  82.34  0.001674166    2.319    0.569
        46  -8.4346    120.3669      2.8227   3.1729337847e+01   5.3880525786e+01    0.2767607    0.1365299  55.23  0.001308025    1.658    0.397
        47  -9.1803    126.8336      7.6559   3.2253810584e+01   5.1887360754e+01    0.3230176     0.186559  64.39  0.001322026    1.532    0.347
        48  -9.0501    123.2789      5.5548   3.2172018086e+01   5.2942423812e+01    0.3357893    0.1951057  46.29  0.001122112    1.534    0.348
        49 -11.2621     23.4087      6.4894   6.7799877392e+01   7.1989735381e+01    0.3571314    0.2465966  38.87  0.002255484    1.957    0.489
        50  -9.7257    200.0102      9.1271   2.2689756246e+01   3.3520906608e+01    0.3672375     0.199363  52.09  0.001530525    1.987    0.497
        51  -9.7979     90.6637      8.9863   4.1167833415e+01   6.0224816201e+01    0.4482138    0.1838811  46.64   0.00197296    2.030    0.507
        52  -9.2219     87.7612      6.4241   4.0873558598e+01   6.1098254342e+01    0.1923639    0.1354903  47.65 0.0006473091    1.233    0.189
        53  -9.1102     44.0640     10.2417   5.9041765205e+01   6.8781941300e+01    0.1940024    0.1364098   5.16 0.0007326219    1.268    0.211
        54 -10.0576      7.8157      9.2565   7.8461358126e+01   7.3026423594e+01    0.2060902    0.1547299  11.43  0.001474895    1.384    0.277
        55 -10.1714      1.7302      8.7496   8.2037459180e+01   7.3529022190e+01    0.2434439    0.1604502 -26.50  0.001566233    1.142    0.124
        56 -10.2907    165.1815      1.6110   2.4462230243e+01   4.2818287226e+01    0.2731786    0.1687669  60.31 0.0003041372    1.428    0.300
        57 -11.9043    156.0637      3.5757   2.6217187218e+01   4.4937948097e+01    0.4618579    0.2273147  47.88 0.0003950445    2.001    0.500
        58 -12.0618    160.1945      1.6756   2.5101345579e+01   4.4063615373e+01    0.5149797    0.4303201 -71.70  0.001410824    1.214    0.176
        59 -11.4917     74.4286      3.5942   4.3653407669e+01   6.4146013515e+01    0.4793204    0.3259873  -1.39  0.001218574    1.507    0.336
        60 -11.4097     79.4085      4.3322   4.2415046041e+01   6.3059910671e+01    0.2476189    0.2053315  17.89 0.0004206802    1.088    0.081
        61  -8.9851     48.8280      8.0342   5.5725315034e+01   6.8322604595e+01    0.1731566    0.1534352  -5.76 0.0007996707    1.261    0.207
        62  -9.6457    171.1562      6.0287   2.5008751941e+01   4.0924099564e+01    0.3625307    0.1853258  42.62  0.001367736    2.297    0.565
        63 -10.3166    238.4279      3.0383   1.8134680647e+01   2.5396004368e+01    0.3566546    0.2359303  60.68  0.001543471    1.684    0.406
        64  -9.6697    233.2337      2.4227   1.8363757631e+01   2.6581277117e+01    0.2293049    0.1525482 -67.07 0.0008578608    1.291    0.226
        65  -9.2582     98.5875      6.1571   3.7849407394e+01   5.8724771779e+01    0.2647454    0.1623989  47.64  0.001397541    1.372    0.271
        66  -9.0496     62.0662      6.2511   4.9330743067e+01   6.6257075370e+01    0.2221277    0.1742682  55.93  0.001356007    1.602    0.376
        67 -11.3823     37.6245      4.6253   5.9218086513e+01   7.0429412842e+01    0.2677574    0.1949968   8.38 0.0004671218    1.132    0.117
        68  -9.6793     43.1350      1.3707   5.4793808442e+01   6.9992524814e+01    0.3464019    0.1054322  43.77  0.001069807    3.161    0.684
        69 -10.0855    218.3540      2.8359   1.9564999480e+01   2.9858285181e+01    0.3207496    0.2284804  61.47  0.001951026    1.479    0.324
        70 -10.7497    178.1168      2.8908   2.3329502112e+01   3.9478150552e+01    0.4736051    0.2009524  62.48  0.001274192    2.007    0.502
        71  -9.7611     13.3818      2.9828   7.1889108900e+01   7.3526627084e+01    0.2607926    0.1767019 -43.17  0.001720936    1.671    0.402
        72  -9.7032    135.3191      1.8559   2.8740794683e+01   5.0282121733e+01    0.3470067    0.2028025  80.10   0.00168642    1.771    0.435
        73  -9.0937     17.9275      2.2025   6.8703371536e+01   7.3186991264e+01    0.2098838    0.1114407 -15.72 0.0007679129    1.883    0.469
        74 -10.9912    249.8336      1.5749   1.7091452379e+01   2.3155345456e+01    0.1894005    0.1332967  88.46 0.0003187075    1.295    0.228
        75 -10.3647    115.6664      1.9218   3.2314868673e+01   5.5088184256e+01    0.2348878    0.1681213  58.26 0.0003013145    1.194    0.162
        76  -8.9212     50.1736      1.9952   5.1975158993e+01   6.8789511952e+01      0.20608    0.1572431  51.57  0.001284126    1.688    0.408
        77  -9.9386      4.9765      1.7101   7.6576067803e+01   7.4433445968e+01    0.2531019     0.126201   1.23 0.0009852666    2.129    0.530
        78 -10.1984     30.7347      2.8443   6.1801522768e+01   7.1592733844e+01     0.255071    0.1644618 -36.33 0.0009666761    1.717    0.418
        79 -10.3807     92.3188      2.5330   3.7925067797e+01   6.0446711283e+01    0.4167355     0.238589  74.26  0.001945121    2.342    0.573
        80  -8.3254     22.7007      1.3173   6.5411344535e+01   7.2781412045e+01   0.09623902   0.09038308 -13.30  0.000702004    1.615    0.381
        81  -8.5727    105.0492    119.0000   7.4152111812e+01   3.7464563539e+01    0.2614234   0.08756735  38.76  0.000587579    3.027    0.670
        82 -10.0735    201.2566    249.5732   7.6197652663e+01  -4.8177964832e+00    0.2255627    0.1733315  15.09 0.0007228284    1.048    0.046
        83 -10.6178    115.8747    248.3711   9.2700704221e+01   8.1117783384e+00    0.2527841    0.2313266  87.44  0.001316704    1.284    0.221
        84  -9.9136     62.3362    120.5396   8.7600515088e+01   4.3911345602e+01    0.3408504    0.2239137 -12.63  0.001355429    2.301    0.565
        85  -8.1507    162.2195    115.0055   5.7942272951e+01   2.6250724811e+01     0.201732    0.1275505 -40.63 0.0003443604    1.579    0.367
        86  -8.9700    104.1557    115.1702   7.3479854294e+01   3.8531096285e+01    0.2255097    0.2061021  -5.57 0.0003781797    1.174    0.149
        87  -8.7949     80.9671    115.7572   8.0725300151e+01   4.2398024585e+01    0.1850278    0.1264515  32.99 0.0006145365    1.542    0.352
        88  -9.4786     46.4711    113.9314   9.1417763810e+01   4.7439862958e+01    0.2483368    0.2399259  55.25 0.0006975762    1.140    0.122
        89 -10.4929     33.0652    113.2574   9.5636831689e+01   4.8939119108e+01    0.3990363    0.2325333  67.46  0.001447434    2.292    0.564
        90 -10.4901     21.0594    109.9460   9.8995280496e+01   5.0733059184e+01    0.3798873    0.2934861  83.19  0.001309648    1.340    0.254
        91  -8.9226     16.4720    107.9755   1.0019222331e+02   5.1535553685e+01    0.1922353    0.1068848 -71.14 0.0003508879    1.510    0.338
        92  -8.4971     36.6942    110.2930   9.3960266948e+01   4.9327760002e+01    0.2075565    0.1483337 -65.30 0.0002464494    1.223    0.182
        93 -10.0759     37.1400    106.7674   9.3189757279e+01   5.0145510657e+01    0.4082087    0.1306248 -48.11  0.001516088    2.870    0.652
        94  -9.3573    134.9787    109.0029   6.3159776208e+01   3.3620355470e+01    0.2450224     0.198135 -89.16 0.0005246974    1.622    0.383
        95  -8.8109    116.4847    108.4632   6.8143335020e+01   3.7660409823e+01    0.1551087    0.1511399  -6.94 0.0001123836    1.020    0.019
        96  -9.5107     91.2962    107.1189   7.5402973542e+01   4.2749133839e+01    0.3744171    0.2593821 -19.92  0.001318545    1.914    0.478
        97 -10.1243     31.7877    106.2655   9.4890698254e+01   5.0757937747e+01    0.3334777    0.2379873 -14.41  0.001317893    1.738    0.425
        98  -9.7648     47.3187    104.0444   8.9230393699e+01   4.9762868437e+01    0.5781855    0.2273213 -41.51  0.001333123    2.882    0.653
        99 -10.8303     50.9318     99.6120   8.7055064709e+01   5.0425537280e+01    0.6502278    0.2471333 -66.94  0.002275188    3.128    0.680
       100  -9.2122    132.0197    104.0022   6.2598238777e+01   3.5348049061e+01    0.2313721    0.2268244  39.10 0.0003644331    1.031    0.030
       101  -8.4622     20.4088    104.2371   9.8353294825e+01   5.2159786719e+01    0.1762756    0.1090299 -80.91 0.0007104889    1.574    0.365
       102 -10.1542    102.9513    101.6384   7.0340289649e+01   4.1883469195e+01    0.6929858    0.4133741  11.03  0.002376131    3.198    0.687
       103  -9.5551    100.3976     98.3563   7.0233703065e+01   4.3112716073e+01    0.3446965    0.2593468 -33.62 0.0009204534    1.372    0.271
       104 -10.5836     70.8473    101.8370   8.0753040841e+01   4.7281825358e+01    0.4046951     0.236319 -53.24 0.0009208588    1.588    0.370
       105  -9.5807     85.1758    101.9974   7.6055265654e+01   4.4996045621e+01    0.2626107    0.2115499  33.07 0.0008091565    1.291    0.226
       106  -9.5958     80.7204    101.3372   7.7343612588e+01   4.5882773559e+01    0.3462772    0.2429268  81.98   0.00102392    2.255    0.557
       107 -10.1189     77.6532    101.6949   7.8447042828e+01   4.6285570387e+01    0.3966969    0.2477294 -30.00  0.001468793    1.941    0.485
       108  -9.8298     56.6958    100.9600   8.5361570959e+01   4.9408180005e+01    0.2714839    0.2284552 -26.70  0.001064643    1.239    0.193
       109 -11.6308    117.6556     98.0395   6.4955877349e+01   3.9727592413e+01    0.2912619    0.2742636   4.60 0.0003098686    1.076    0.071
       110  -9.7573     44.2513     99.8477   8.9426863673e+01   5.1109011085e+01    0.3000321    0.2059659  29.51  0.000615891    1.615    0.381
       111  -8.9373     42.3998     96.1820   8.9312204487e+01   5.2183008134e+01    0.2172855    0.1227246 -62.14    0.0010423    1.593    0.372
       112  -8.7697     36.5322     99.9680   9.2131701540e+01   5.1851528965e+01    0.2025929   0.07986975 -45.12 0.0008084922    2.440    0.590
       113  -8.9150     23.1681     99.9522   9.6737103789e+01   5.2987038659e+01    0.1923218    0.1607078  89.63 0.0004660453    1.243    0.195
       114  -8.4802     16.5006     98.5348   9.8787297393e+01   5.3798543786e+01    0.1293828    0.1042184 -58.14 0.0008090106    1.057    0.054
       115  -9.5322      5.5659     98.1453   1.0242198597e+02   5.4539532446e+01    0.4377033    0.1773046  23.50  0.002123932    2.830    0.647
       116  -9.2825      3.7274     79.0590   1.0025448848e+02   5.9082943584e+01    0.2597465    0.1583517 -57.34 0.0003738656    1.273    0.214
       117 -10.3723      2.3119     92.2688   1.0272985576e+02   5.6083917484e+01    0.4355874    0.2286613  58.89 0.0009469332    2.525    0.604
       118  -9.9293      2.7628     85.5248   1.0161375581e+02   5.7634752580e+01    0.4466085    0.2069589 -66.42   0.00182519    1.662    0.398
       119 -10.6911    124.2826     96.3436   6.2586050877e+01   3.8676842972e+01    0.5301834    0.3744338  78.36  0.002092851    2.227    0.551
       120  -9.4614     85.2479     94.9796   7.4176324717e+01   4.6608578337e+01    0.3875124    0.2752979 -89.15  0.001192163    2.276    0.561
       121  -9.1819     80.2872     94.9721   7.5828691377e+01   4.7435262799e+01    0.3465276     0.197102  43.10  0.001111807    1.893    0.472
       122 -11.1449     31.8044     92.6887   9.2381866410e+01   5.4024892574e+01    0.4269547    0.3453118 -49.68  0.001024324    1.080    0.074
       123  -9.5428     19.7699     81.5370   9.4630528789e+01   5.7587635755e+01    0.3864375    0.2301647  44.85  0.001699302    2.114    0.527
       124 -10.0757     23.2015     93.1703   9.5553439208e+01   5.4605943478e+01    0.4592896    0.2486896 -76.84  0.002240962    1.902    0.474
       125 -11.0251     26.5675     87.0486   9.3172220660e+01   5.5795313744e+01    0.5248467    0.3248284 -38.70   0.00117048    1.551    0.355
       126  -9.4485     13.1933     94.1857   9.9248558691e+01   5.5043789914e+01    0.3565507    0.1958878 -60.75  0.001930823    1.440    0.305
       127  -9.4337     18.0612     90.9176   9.6992105282e+01   5.5504942726e+01    0.2200163    0.1759079  -6.22 0.0004631583    1.457    0.314
       128 -10.8754    133.7290     92.4543   5.8882991224e+01   3.7391291709e+01    0.5482541    0.3871889  29.25  0.001944901    1.596    0.373
       129 -10.5483     47.3688     92.3208   8.6689071898e+01   5.2570448376e+01    0.3562427    0.2768268 -79.49  0.001955119    1.450    0.311
       130  -9.4348     44.3391     88.3143   8.6870433244e+01   5.3845543871e+01    0.2278492    0.1209116 -53.95  0.001027564    1.616    0.381
       131  -9.9114    109.1676     90.9773   6.5442108792e+01   4.3012800278e+01    0.5923492    0.3404518  22.71  0.002155878    2.537    0.606
       132  -9.6377     59.1599     92.1558   8.2422988914e+01   5.1186847441e+01    0.2462984    0.1668822 -45.57 0.0002719445    1.347    0.258
       133  -9.7923     58.1319     87.5991   8.1642993559e+01   5.2382318722e+01    0.4217869    0.2744538  69.75  0.001558425    2.637    0.621
       134  -8.6974     71.4551     91.5052   7.7925028818e+01   4.9616058061e+01    0.1441358    0.1345314 -40.17 9.447143e-05    1.025    0.025
       135  -8.8422    104.2569     90.4291   6.6785797174e+01   4.4118545876e+01    0.1900647    0.1471517  50.74 0.0002092937    1.389    0.280
       136 -10.2067     85.7800     89.8822   7.2585767473e+01   4.7672471519e+01    0.4457742    0.3305676 -19.27  0.002134175    1.570    0.363
       137  -9.3872     86.8795     83.8240   7.0459884800e+01   4.8819922408e+01    0.4051867    0.2722619 -71.67 0.0003767984    2.270    0.559
       138 -10.1838     97.6058     88.8113   6.8406745446e+01   4.5762185268e+01    0.3164573    0.2481741  47.21 0.0009772289    1.353    0.261
       139 -11.5627    123.9835     85.8905   5.9609811425e+01   4.0917283768e+01     1.222332    0.4870847  38.41 0.0007826817    2.846    0.649
       140 -10.2902    120.7815     83.3878   5.9757247511e+01   4.2131451242e+01    0.6085382    0.2493976  42.81  0.002118614    2.447    0.591
       141  -9.5441     39.8411     87.9055   8.8437027023e+01   5.4406405474e+01    0.2135766    0.1602553 -39.54  0.001007096    1.235    0.190
       142  -9.1979     14.2140     88.0266   9.7881962191e+01   5.6434132701e+01    0.2671092    0.1117563 -50.01  0.001267924    1.943    0.485
       143  -9.9558    140.8056     96.4707   5.8180260248e+01   3.4955335646e+01    0.2971234    0.2598043  -9.22 0.0006808573    1.251    0.201
       144 -11.0110     65.1323     86.1391   7.8724821007e+01   5.1769535485e+01    0.7039407    0.3753783  25.61   0.00306487    2.131    0.531
       145  -9.8268     74.9881     66.0234   6.9059243715e+01   5.4604475350e+01    0.6371124    0.2077417  42.15  0.002176464    3.299    0.697
       146  -9.8165     77.5423     61.7167   6.6667407680e+01   5.5026933838e+01    0.3965632    0.2724751 -15.20 0.0008131235    1.699    0.411
       147 -11.2109     79.9864     83.4143   7.2697149306e+01   5.0093372926e+01    0.6572786    0.4174119  15.59 0.0009943979    2.041    0.510
       148 -10.7991     73.1719     80.1899   7.4152918407e+01   5.1904521744e+01    0.5327855    0.3164387 -31.55  0.001584011    1.863    0.463
       149 -10.6225     88.3051     74.4017   6.7077144104e+01   5.0563680967e+01    0.6062125    0.4200854 -12.59  0.001639488    1.839    0.456
       150 -11.4103     87.8620     67.9539   6.5128705435e+01   5.1950821282e+01      1.04395    0.5843749  53.07  0.003223939    2.296    0.564
       151  -9.7620     83.5281     65.4278   6.5787674096e+01   5.3243470616e+01    0.2491963    0.2170383  -7.66 6.487266e-05    1.111    0.100
       152  -9.9933     82.1814     61.8935   6.5057242893e+01   5.4174843331e+01    0.2824515    0.2384236 -16.56 0.0005209956    1.142    0.124
       153 -10.1567    155.1290     85.0251   5.1393273387e+01   3.3832183902e+01     0.297391    0.2813677  89.30 0.0002949259    1.124    0.110
       154 -11.1556    155.2876     79.3493   4.9703773610e+01   3.4843967942e+01    0.5905641    0.3877406  35.85  0.001900327    1.698    0.411
       155  -9.5789    150.7488     80.5763   5.1116522560e+01   3.5717204006e+01     0.348261    0.2664725  80.51  0.001223986    1.660    0.398
       156  -9.4694    110.7514     85.3780   6.3300680261e+01   4.3873085197e+01    0.2783664    0.2580665  42.58 0.0006463373    1.103    0.093
       157  -9.9681    143.0259     83.9935   5.4000759918e+01   3.6916862022e+01    0.3322894    0.2211369 -43.66  0.001023824    1.534    0.348
       158  -9.1888    139.2266     83.7946   5.4900297049e+01   3.7849466096e+01    0.3211031    0.2043347  23.98  0.001254896    2.169    0.539
       159 -10.3498     45.2763     69.0774   8.1543446969e+01   5.8113354286e+01    0.2839914    0.2299735 -62.57 0.0003601855    1.336    0.251
       160  -9.3572     47.7940     63.8131   7.8958666069e+01   5.8954118010e+01    0.2178703    0.2023072  52.66 0.0004391612    1.358    0.264
       161 -10.5355     51.6581     82.4277   8.2697945165e+01   5.4381070593e+01    0.3940761    0.3027411 -19.47 0.0007823062    1.382    0.276
       162 -13.0582     52.9547     74.5257   8.0058382806e+01   5.6002710760e+01    0.7285106    0.3508929 -54.63  0.001123739    1.950    0.487
       163  -8.2794     99.2626     83.3505   6.6249844033e+01   4.6617854742e+01    0.1543564    0.1154028 -12.99 0.0005049487    1.612    0.380
       164  -8.9326     77.5521     74.9594   7.1001970297e+01   5.2327006889e+01    0.2065997    0.1721125 -38.77 8.424007e-06    1.140    0.123
       165 -10.9139     39.4899     81.4758   8.7075662574e+01   5.5939021102e+01    0.4508216    0.2887075   9.63  0.002337544    1.856    0.461
       166  -9.2475     92.7539     79.5924   6.7213761145e+01   4.8656264787e+01    0.3618867    0.2407194   2.62  0.001496156    2.244    0.554
       167 -10.4214    165.3556     71.2257   4.5139133267e+01   3.3804287136e+01    0.4175076    0.2527943 -57.06  0.001017663    2.055    0.513
       168 -11.2577    167.0481     77.9024   4.6714380414e+01   3.2231891746e+01     0.297673    0.2757002 -69.99 0.0002759423    1.128    0.113
       169 -10.1842    169.7471     73.9945   4.5040211662e+01   3.2248064675e+01     0.351009    0.2880436 -27.36  0.001007192    1.283    0.220
       170  -8.8573     12.8987     77.8621   9.6553194104e+01   5.8876444508e+01    0.1902974    0.1295339 -45.87 0.0002670851    1.250    0.200
       171 -10.0725    134.8125     76.3828   5.3785392955e+01   4.0298322377e+01    0.3675559    0.2269268  71.40   0.00138255    2.479    0.597
       172  -9.5093    110.5063     75.4762   6.0300538347e+01   4.5936143041e+01    0.4946925     0.283411 -59.09   0.00186201    2.569    0.611
       173  -9.5821    100.0092     75.5621   6.3586299944e+01   4.8084304397e+01    0.3147534    0.2047341 -40.64 0.0006608304    1.522    0.343
       174 -10.0731     63.9039     74.7348   7.5937563480e+01   5.4489267223e+01    0.3716329    0.2618786  54.95  0.001824677    1.910    0.476
       175 -10.3607     29.1087     74.8905   8.9559539591e+01   5.8403193347e+01    0.3291813    0.1913112 -42.59   0.00089702    1.505    0.336
       176 -10.2343     15.5146     64.7234   9.2760854469e+01   6.1686520283e+01    0.6201018    0.3440963 -13.42  0.003253405    2.142    0.533
       177 -11.6527      8.7565     51.4567   9.2545191742e+01   6.4959716416e+01    0.6787299    0.6220802  -3.46  0.003530248    1.268    0.212
       178 -10.6877     19.6268     55.4269   8.8649644222e+01   6.3430644415e+01     0.356668     0.290202 -74.21 0.0002947248    1.447    0.309
       179 -10.9452     25.0408     67.6545   8.9471575377e+01   6.0361218438e+01    0.4103547    0.2120946 -44.47 0.0003131825    1.619    0.382
       180 -11.8007      2.4840     66.0766   9.8465729081e+01   6.2077862139e+01    0.5196611    0.2566069 -69.56  0.001170022    1.747    0.428
       181 -11.1567      4.3449     60.5170   9.6582462875e+01   6.3224385576e+01    0.5191873     0.329812  22.64  0.002842734    1.886    0.470
       182 -11.7933     24.9337     55.3581   8.6254654706e+01   6.3038774985e+01    0.4460904    0.2259991 -54.43  0.002289465    1.674    0.403
       183  -9.7919     28.4758     52.3845   8.3781343087e+01   6.3359413068e+01     0.214535    0.1656961  -0.59 0.0009540563    1.324    0.245
       184  -8.3891     21.5583     76.4952   9.2906208217e+01   5.8624839432e+01    0.1825801    0.1146777 -75.18 0.0006941494    1.684    0.406
       185  -9.3813     18.9273     72.9276   9.3184849004e+01   5.9622519125e+01    0.3185191    0.2152954 -48.11  0.001887799    1.212    0.175
       186  -9.8217    174.7282     75.0240   4.4338908474e+01   3.0847690554e+01    0.2079014    0.1969619 -43.84 0.0003845556    1.057    0.054
       187  -9.1874    141.2923     75.5503   5.1888774698e+01   3.8916899664e+01    0.2126119    0.1436062  40.49 0.0005324312    1.502    0.334
       188  -8.2734     37.6733     75.7104   8.6364157284e+01   5.7437405416e+01    0.1386722   0.08806546 -30.02 0.0003958035    1.615    0.381
       189  -8.2449      6.2004     74.9686   9.8613796587e+01   5.9900963417e+01    0.1542376   0.08035254 -67.04  0.000814359    1.575    0.365
       190 -10.7243    177.1898     72.1248   4.3047331591e+01   3.0732646180e+01    0.5494218    0.3289837 -79.08  0.001474253    3.115    0.679
       191  -9.9461    173.5918     69.0446   4.2866077820e+01   3.2131842536e+01     0.268957    0.2593963  67.87 0.0004078347    1.022    0.022
       192  -9.6143    117.2438     70.0075   5.6554200328e+01   4.5520198102e+01    0.3097081    0.2349389 -42.35  0.000670007    1.359    0.264
       193 -10.4619    157.1473     69.4797   4.6363386886e+01   3.6131128460e+01    0.4589398    0.2216511 -35.15  0.001232597    2.124    0.529
       194 -10.0431    218.7258     69.8985   3.5624506391e+01   2.1216437147e+01    0.2265427    0.2119134  76.43  0.000293697    1.115    0.103
       195  -9.7177    145.7062     69.9668   4.9105797723e+01   3.8854687883e+01    0.4032976     0.283252  46.47  0.001683404    1.388    0.280
       196 -10.4070    141.1503     67.9587   4.9572621159e+01   4.0312051354e+01     0.434803    0.3079371  24.96  0.001547856    1.718    0.418
       197  -8.4655    129.3191     70.3251   5.3323272681e+01   4.2705106730e+01     0.159602    0.1192418  12.94 0.0007045759    1.677    0.404
       198  -9.0934    102.1235     69.8420   6.1058024215e+01   4.8790330597e+01    0.2764626    0.2209184 -22.77  0.001208233    1.289    0.224
       199  -8.8770     36.6862     67.9723   8.4735921012e+01   5.9262901355e+01    0.2535865    0.1577911 -81.60  0.001148472    2.607    0.616
       200  -9.2723    215.0931     65.9865   3.5171046154e+01   2.2639898136e+01    0.2040401    0.1861219 -58.22  0.000284421    1.013    0.013
       201 -11.2450    134.0832     63.3304   4.9845206936e+01   4.2814918775e+01    0.6915516     0.480268 -51.84  0.001632152    1.649    0.393
       202 -10.3132    128.6222     57.8850   4.9447682680e+01   4.5035999555e+01    0.5317063    0.2748329  60.56  0.002055529    2.215    0.549
       203 -10.1267     97.7033     64.1074   6.0547133034e+01   5.0785372908e+01    0.2572527    0.2388745 -14.85   0.00027492    1.048    0.046
       204  -9.3414    148.5946     63.1799   4.6337754565e+01   3.9305867547e+01    0.6335674    0.3373412  22.22  0.001846639    4.453    0.775
       205  -9.9083    154.9597     60.3829   4.4079352071e+01   3.8183343883e+01    0.3202859    0.2988334 -49.15 0.0009546709    1.107    0.097
       206  -9.9968     65.6243     62.0722   7.1271082117e+01   5.6892406863e+01    0.4646261    0.2514526  24.04  0.002050827    2.124    0.529
       207  -9.4763     71.3778     60.5985   6.8570591641e+01   5.6279663985e+01    0.3234293    0.2672477  30.99 0.0009491468    1.246    0.197
       208 -10.7085     22.8791     63.6463   8.9380486469e+01   6.1413357612e+01    0.4422494    0.1856638 -46.30   0.00103597    1.915    0.478
       209  -8.1573    228.7144     62.3151   3.2461145485e+01   2.0123064023e+01    0.1407383   0.09335086 -61.97 0.0002114365    1.583    0.368
       210  -9.6281    167.3148     61.8603   4.2005419095e+01   3.4859347707e+01    0.3281648    0.2332582 -85.44  0.001466627    1.837    0.456
       211  -8.1671    102.4674     62.5139   5.8483107777e+01   5.0102507252e+01    0.2613237     0.144308 -38.32  0.001026497    1.825    0.452
       212  -9.7537    102.3240     59.2423   5.7395565301e+01   5.0725068497e+01    0.4500441    0.2581846  24.93  0.001335707    2.310    0.567
       213 -10.1539     53.9915     60.7212   7.5444530880e+01   5.8820520229e+01    0.3293296    0.2963142  86.22  0.001025794    1.534    0.348
       214 -12.0134     56.2851     56.6677   7.3153796987e+01   5.9330576735e+01    0.3718342    0.3177984  59.14 0.0002592755    1.611    0.379
       215  -8.5631    176.0095     61.2384   4.0185221632e+01   3.2786980235e+01    0.2039158    0.1982499 -65.69  0.001142537    1.032    0.031
       216  -9.9266    161.4225     60.8047   4.2864668480e+01   3.6501284377e+01    0.3080125    0.2408035  41.71  0.001271201    1.313    0.238
       217  -7.8520     43.6916     61.6704   8.0002135768e+01   5.9883878762e+01    0.1419223     0.088814 -25.84 0.0007039953    1.662    0.398
       218 -10.0253    193.6614     59.5007   3.6702445348e+01   2.8699283544e+01     0.264995    0.2056854 -59.69  0.001368192    1.318    0.241
       219 -10.3324    139.0803     59.6121   4.7419498468e+01   4.2231170124e+01    0.2889132    0.2024449  56.19 0.0004269958    1.400    0.286
       220  -8.2606     40.6674     60.3049   8.0859188881e+01   6.0505870409e+01    0.1217154    0.1041577  71.88 0.0002700157    1.661    0.398
       221  -8.7506     94.7523     59.5264   5.9924976879e+01   5.2228121948e+01    0.1944473    0.1403259  53.01 0.0007710206    1.562    0.360
       222 -10.9353    225.8217     55.4031   3.1175830100e+01   2.1760151102e+01    0.2465754    0.2069127 -58.97 0.0002751906    1.084    0.077
       223  -9.3814     46.2979     42.3397   7.2254367331e+01   6.3404969198e+01    0.2918119    0.1841009 -19.86    0.0015273    1.640    0.390
       224 -10.3807     44.1350     54.5771   7.7553057384e+01   6.1300305525e+01    0.4461243    0.3229767 -75.59  0.001932251    2.169    0.539
       225 -10.2628     46.9790     47.0281   7.3694735795e+01   6.2439529240e+01    0.4100794    0.2566701   0.82 0.0007243339    1.912    0.477
       226 -11.0535    159.8954     54.4671   4.1257939413e+01   3.7872727301e+01    0.5626955    0.2625745  63.37  0.002130385    2.264    0.558
       227  -9.3447     92.5041     54.5051   5.8880222303e+01   5.3578728202e+01    0.4011739     0.208411  40.20  0.001715051    1.887    0.470
       228  -9.7687     95.4714     52.4946   5.7173917517e+01   5.3328874630e+01    0.2598259    0.2468585  23.74 0.0006046907    1.096    0.087
       229 -11.1939     69.4159     49.6174   6.5380193015e+01   5.8677275839e+01    0.7031677    0.5646189 -40.03  0.003385055    1.284    0.221
       230 -12.8030     61.7215     44.3857   6.6448632177e+01   6.0849852053e+01    0.4478028     0.314193  31.84 0.0003546668    1.431    0.301
       231  -8.9949    106.0130     53.6692   5.4295624944e+01   5.0903128437e+01     0.209071    0.1851832  25.36 0.0006739025    1.068    0.063
       232 -10.5983    193.6869     51.5872   3.4572749779e+01   2.9858287264e+01    0.4531692    0.3317414   4.73  0.001524683    1.978    0.494
       233  -9.1756    185.5414     52.5368   3.6100616797e+01   3.1729038316e+01    0.2402893    0.1922329 -59.08 0.0007625063    1.272    0.214
       234 -10.3280    181.1358     51.7598   3.6603679071e+01   3.2938472640e+01    0.2850835    0.2665949 -19.70 0.0002764513    1.175    0.149
       235  -9.6274    146.0071     52.1875   4.3446133281e+01   4.1699941239e+01    0.2623943    0.2265764 -51.89  0.001020767    1.242    0.195
       236  -9.9561     61.3328     52.1825   6.9522866992e+01   5.9476138980e+01    0.2327514    0.2046726  12.48 0.0005227561    1.126    0.112
       237  -9.6362    122.7961     51.2455   4.8711200184e+01   4.7489268531e+01    0.3029119    0.2037843 -22.58  0.001400733    1.654    0.395
       238  -9.7339    175.5110     49.0436   3.6775006272e+01   3.4739844538e+01     0.426578     0.269265  -6.48  0.001543641    2.429    0.588
       239 -10.4457    153.7786     47.6225   4.0368563030e+01   4.0430221115e+01     0.355463    0.3164157 -41.67 0.0006681992    1.176    0.149
       240 -10.6140    114.7147     45.7402   4.8944083668e+01   5.0224920299e+01    0.8566799    0.2239316  50.61   0.00119669    3.454    0.710
       241 -10.6610    128.0519     48.2341   4.6330872826e+01   4.6704428852e+01    0.3703932    0.3530486 -13.96 0.0006058927    1.091    0.084
       242  -9.4635    125.4995     44.5210   4.5684630225e+01   4.7871379478e+01    0.3879435    0.2351991  45.08  0.001302619    1.554    0.356
       243 -10.1222     86.6151     49.2713   5.8949878643e+01   5.5644389627e+01     0.483498    0.2574714  35.39  0.001966171    1.898    0.473
       244  -8.2296    212.0092     54.2176   3.2654358410e+01   2.5090454548e+01    0.1752867    0.1101885  65.61 0.0006017624    1.612    0.380
       245  -8.8202     19.0783     33.9964   8.2223762292e+01   6.7796648433e+01    0.2238498    0.1338732 -20.33  0.001110434    1.603    0.376
       246  -8.7311     57.0127    249.0091   1.0412087379e+02   1.6037121562e+01    0.1309373   0.09926851  59.35            0    1.011    0.011
       247  -9.7462     21.0541     44.9980   8.4940100346e+01   6.5487819900e+01    0.3743334    0.2526443  39.23  0.002200195    1.943    0.485
       248 -10.3270     17.1610     45.8627   8.7065007414e+01   6.5601865171e+01    0.6127818    0.2843106 -56.82  0.002955951    1.874    0.466
       249  -9.0390     30.7767    248.4148   1.0884849759e+02   1.9189942996e+01    0.1402787   0.09393902  32.66 0.0009571504    1.666    0.400
       250 -11.2293      7.0753     35.8471   8.9015414314e+01   6.8253060689e+01    0.4678905    0.3347251 -46.95  0.002444826    1.142    0.124
       251 -11.0059      9.7076     31.6463   8.6286535410e+01   6.8914590131e+01    0.2310416    0.2000619 -19.57 0.0002353686    1.175    0.149
       252  -9.9946      4.6333     31.8880   8.9052010312e+01   6.9162837977e+01    0.3155403    0.1874406 -38.58 0.0008563371    1.294    0.227
       253  -8.9264    228.0651     48.8475   2.9354156431e+01   2.2173141635e+01    0.3022812    0.1242235 -52.56   0.00120134    2.607    0.616
       254  -9.4406    141.9829     48.4987   4.3141943386e+01   4.3255588717e+01    0.3649864    0.2424598 -42.65  0.001158638    1.603    0.376
       255  -9.8405     68.0059     26.6862   5.6603789975e+01   6.2641012766e+01    0.2940335    0.1798917   5.69  0.001399693    2.051    0.513
       256 -11.1042     79.7900     43.8687   5.9295841952e+01   5.7849303807e+01    0.6972654    0.4896006 -15.03   0.00347864    1.517    0.341
       257 -10.2249     80.6434     31.9825   5.4204902391e+01   5.9530296260e+01    0.6070426    0.4237718  65.11  0.002881504    2.133    0.531
       258 -10.4098     74.1532     35.2704   5.7918916011e+01   6.0262279670e+01    0.4237507    0.3859484 -31.99  0.002029613    1.268    0.212
       259  -9.3227     77.9645     34.5147   5.6207392923e+01   5.9670302577e+01    0.2202543     0.194035 -52.08 0.0003513861    1.479    0.324
       260  -8.8836      1.4613    244.0636   1.1371085369e+02   2.2925568166e+01    0.1441688   0.08043988  87.76  0.000424566    1.520    0.342
       261 -10.0508     75.6479     26.6789   5.3738206328e+01   6.1236558205e+01    0.3746021    0.2592459  -3.11  0.001529375    1.547    0.354
       262  -9.5813     32.2582     47.5073   8.0493515768e+01   6.3997360542e+01    0.2093032    0.1766512 -23.05  0.001355784    1.044    0.042
       263  -8.5767    235.1624     47.1990   2.8180581808e+01   2.0834762812e+01    0.1801574    0.1316686 -65.90 0.0004316735    1.310    0.237
       264  -9.3342    164.7764     46.4684   3.7908805460e+01   3.7815868089e+01    0.4285336    0.1485159  45.27  0.001371378    3.336    0.700
       265  -9.3906    145.9058     46.1970   4.1541715603e+01   4.2614270541e+01    0.2322822    0.2115539 -39.23 0.0004223765    1.159    0.137
       266 -10.1683     30.1902     69.0307   8.7687849172e+01   5.9629534132e+01    0.3757924    0.3156079 -54.43  0.002374406    1.124    0.110
       267 -10.4540     36.1354     53.3079   8.0637709414e+01   6.2436455115e+01    0.7430167    0.3854916 -34.27  0.003361162    1.833    0.454
       268  -9.1020    242.4410     46.5312   2.7265412746e+01   1.9363561816e+01    0.1994758    0.1469891  46.06 -1.15227e-05    1.703    0.413
       269  -9.0877    245.4412     44.4870   2.6511577323e+01   1.9003965181e+01    0.1917887    0.1604159  67.97 0.0006412895    1.314    0.239
       270 -10.5611     86.8189     34.9997   5.3321341301e+01   5.7869937986e+01     1.001209    0.5322919  15.26  0.003620931    3.403    0.706
       271 -10.8097    114.0550     35.4567   4.5367324054e+01   5.1858396498e+01    0.7704585    0.5668965  16.11   0.00389981    1.533    0.348
       272 -10.3079    245.8653    241.0701   6.6829257396e+01  -9.8232934375e+00    0.3644342    0.2021721  -7.49  0.001613437    1.835    0.455
       273  -8.8831     87.1054     43.1593   5.6452678215e+01   5.6561184559e+01    0.2088615    0.1735647  12.96 0.0003952316    1.146    0.127
       274 -10.0849     90.7542     41.2905   5.4503170287e+01   5.6123924050e+01    0.4054531    0.3230672  55.11  0.001167477    1.425    0.298
       275  -9.9719    102.6559     38.8745   4.9845469291e+01   5.3962809759e+01    0.8587623    0.2613311 -41.73  0.002759715    3.870    0.742
       276  -9.1904     93.7983     38.1348   5.2284262694e+01   5.5974025958e+01    0.2645695    0.1786612 -21.66 0.0003082142    1.558    0.358
       277 -11.1977     97.4207     35.0597   4.9947157293e+01   5.5649589163e+01    0.3920262    0.3204067 -59.27 0.0003116323    1.631    0.387
       278  -9.0266    185.0977     44.0777   3.3824180176e+01   3.3033686659e+01    0.2193197     0.183998  36.84 0.0006784534    1.355    0.262
       279  -8.3121     99.6018     43.9518   5.2694394654e+01   5.3861390031e+01    0.1908029     0.119519  -2.80 0.0003864976    2.274    0.560
       280  -8.8249    200.7677     43.1880   3.1340851879e+01   2.9302234330e+01    0.2239587    0.1617923  37.41 0.0009757719    1.717    0.418
       281  -9.4943    203.8683     39.6589   3.0021581670e+01   2.9023892931e+01    0.2403337    0.1941572 -39.46 0.0003628601    1.242    0.195
       282 -10.9254    136.4859     49.4169   4.4696799013e+01   4.4475445824e+01    0.3798709    0.2668886  61.70  0.001639103    1.434    0.303
       283  -9.8745     27.9013     42.5476   8.0858087082e+01   6.5391279282e+01    0.2118437    0.1713355 -18.85 0.0008527994    1.082    0.076
       284 -10.3962    143.8001     41.1791   4.0354370476e+01   4.3848883142e+01    0.3430543    0.2455976  66.36 0.0007261364    1.394    0.282
       285  -8.6915     71.8060     42.1939   6.1604071370e+01   5.9566677526e+01    0.1943657    0.1461094   3.18 0.0005830061    1.364    0.267
       286  -8.5532     34.8231     41.6913   7.7273296940e+01   6.4869598813e+01    0.2519926    0.1618229 -13.39  0.001266825    1.623    0.384
       287  -9.1472      1.9858     42.0219   9.3329025524e+01   6.7264283459e+01    0.1580217    0.1347285  69.74 0.0006060365    1.649    0.393
       288 -10.3986    228.8360     39.2907   2.7029234511e+01   2.3276174249e+01    0.5110669    0.3330915  64.16  0.002801245    1.571    0.364
       289  -8.6150    165.4947     40.5196   3.5993188098e+01   3.8453992192e+01    0.2403962    0.1464548 -12.82  0.001025465    2.243    0.554
       290  -9.4098    222.8977     40.7751   2.8025092594e+01   2.4420499516e+01    0.2177903    0.1763933 -49.11 0.0005134598    1.138    0.122
       291  -9.8356    158.7308     39.1863   3.6793649468e+01   4.0348523458e+01    0.3354253     0.217855  75.81 0.0009378801    1.666    0.400
       292  -9.5529    127.2836     39.9124   4.3638509289e+01   4.8100120480e+01    0.4028648    0.2023797  64.58  0.001584948    2.271    0.560
       293 -10.4414     60.9536     34.4341   6.2759265409e+01   6.2657947205e+01    0.4010452     0.206921 -35.72  0.001660551    1.868    0.465
       294 -10.3374     56.8523     35.8635   6.5072023714e+01   6.3064404985e+01    0.6526361     0.436564 -65.27  0.002562613    3.157    0.683
       295 -10.8935     53.0464     38.0459   6.7597633888e+01   6.3256305993e+01    0.3298741    0.2294731  -4.51 0.0003064561    1.495    0.331
       296 -11.0249     50.5082     35.5894   6.7712219371e+01   6.4038483328e+01    0.4148177     0.381413   6.64  0.001429279    1.221    0.181
       297  -9.4941    238.6851     37.6714   2.5659677945e+01   2.1325295051e+01    0.2861466    0.2052481  26.60  0.001527796    2.224    0.550
       298  -8.3351    236.6856     35.2904   2.5319366869e+01   2.2060949798e+01    0.1344033   0.08291044 -64.27 0.0002159514    1.591    0.372
       299  -9.2108    120.8818     39.1089   4.4933445968e+01   4.9748776897e+01    0.2139661    0.1932763 -89.89  0.000556832    1.294    0.227
       300  -9.1140     40.1258     39.4866   7.3974988744e+01   6.4688368341e+01    0.1671056    0.1185165  18.72  0.000417036    1.420    0.296
       301  -9.4902     25.8181     37.8432   8.0216589366e+01   6.6489933627e+01    0.3906756    0.1709143 -26.63  0.001694781    2.729    0.634
       302  -9.2950    178.1433     37.7387   3.3107090609e+01   3.5622277113e+01    0.2822937    0.1849492  80.63 0.0008730925    1.623    0.384
       303  -8.6210    148.7798     38.4160   3.8441980309e+01   4.2970519030e+01     0.205195    0.1240483  50.18 0.0007194952    1.547    0.353
       304  -9.1153    137.9983     36.8867   4.0161682164e+01   4.5877108525e+01    0.4113053    0.1832137  44.32  0.001383594    2.261    0.558
       305  -8.5340    131.5766     36.4457   4.1429852680e+01   4.7523861672e+01    0.2188021    0.1913519 -10.08 0.0001020634    1.236    0.191
       306  -9.2450    129.6195     33.2468   4.0760674214e+01   4.8421798523e+01    0.2571259    0.2059357 -28.97 0.0008220895    1.342    0.255
       307  -9.2248    133.4318     31.6959   3.9377629861e+01   4.7679201285e+01    0.2434443    0.1981735 -27.69 0.0006356937    1.327    0.247
       308  -8.7092    134.2391     27.9559   3.7915680632e+01   4.7936724216e+01    0.2017092    0.1887889 -70.02 0.0005605544    1.178    0.151
       309  -8.8681    242.1636     34.7956   2.4690774558e+01   2.0946069202e+01    0.1904786    0.1471278 -61.42 0.0006064396    1.118    0.105
       310  -9.4034    226.8815     33.1386   2.5799196131e+01   2.4498936955e+01    0.1893871    0.1708042 -81.06 0.0003695336    1.081    0.075
       311  -8.9455    223.6649     33.6967   2.6261939027e+01   2.5155989313e+01    0.2504828    0.1533976  73.49  0.001313654    1.618    0.382
       312  -9.3092    146.3781     33.8910   3.7448738846e+01   4.4164713087e+01    0.3329625    0.2310387  52.44   0.00094451    1.325    0.246
       313 -11.0883    145.8715     28.9449   3.5930686022e+01   4.4903297449e+01    0.5082065    0.2817288  47.45 0.0006296112    1.718    0.418
       314 -10.4052    153.1873     32.1480   3.5603047906e+01   4.2660457568e+01    0.3100615    0.2426016  81.29            0    1.321    0.243
       315 -10.2847    233.8382     30.7470   2.4567665756e+01   2.3250573132e+01    0.3370843    0.2205974  56.23 0.0007942787    1.706    0.414
       316  -8.5477    190.0453     32.5621   2.9958897549e+01   3.3307553302e+01    0.2068264    0.1279487  70.05  0.001005706    1.537    0.349
       317  -9.3660    159.3688     32.7803   3.4702701498e+01   4.1011803868e+01    0.3274592    0.1878168  74.02  0.001402397    1.856    0.461
       318  -9.2357     24.5394     31.0988   7.8342439528e+01   6.7863758011e+01    0.2402637    0.1824381 -39.87  0.001372836    1.213    0.176
       319 -10.2202    247.8697     29.9878   2.3139921857e+01   2.0342595259e+01    0.2919044    0.1601888 -37.77  0.001334309    1.629    0.386
       320  -9.4671    179.0283     29.8086   3.0723823000e+01   3.6395913872e+01    0.4265287    0.2052091  44.01  0.001735966    2.460    0.593
       321  -9.7964    125.4430     30.5221   4.0752545945e+01   4.9786186710e+01    0.2756251    0.2216803  28.09 0.0006832943    1.269    0.212
       322  -8.6438     41.4164     30.4584   6.9739523361e+01   6.6123508832e+01    0.2951088    0.1074725 -41.22  0.001267556    2.499    0.600
       323 -10.6908     33.1774     27.9629   7.2693485493e+01   6.7532287321e+01      0.41229    0.3964593 -41.19   0.00219856    1.472    0.320
       324 -10.3562     37.1724     26.3396   7.0018483821e+01   6.7337772817e+01    0.2453479    0.1895723  -0.50 0.0004988627    1.136    0.120
       325  -9.4891    211.7940     27.0736   2.5928001498e+01   2.8717737579e+01    0.2735986    0.2083007 -23.42  0.001558552    1.526    0.345
       326  -9.2104    188.5636     28.1985   2.8973876454e+01   3.4207671008e+01    0.3665019    0.1782422  75.99    0.0015527    2.155    0.536
       327  -9.6091    222.2953     26.8386   2.4785940278e+01   2.6311505860e+01    0.2443323    0.1467079  46.35  0.001047839    2.103    0.525
       328  -9.2520    160.6775     26.5980   3.2582912483e+01   4.1424961576e+01    0.2936958    0.1598648  66.90  0.001319528    1.710    0.415
       329 -10.4703     40.8591     21.2152   6.5918670275e+01   6.7683702976e+01    0.3893994     0.269076  41.70  0.001305892    1.819    0.450
       330  -9.2999    145.8278    242.1896   8.5973151823e+01   4.5789671882e+00    0.1687617    0.1314873  16.92 0.0004743939    1.325    0.245
       331 -11.0280     42.4853     15.4142   6.2375552974e+01   6.8312915085e+01    0.2851099    0.1891706  26.58 0.0002002518    1.406    0.289
       332 -10.2193     47.8351     26.8977   6.5212058902e+01   6.5842320950e+01    0.3454271    0.2856428  39.84  0.001522295    1.517    0.341
       333  -8.7711    171.3663    239.3051   8.0463943440e+01   1.0632750466e+00    0.1305101   0.08571992  10.70  0.000703618    1.744    0.427
       334  -8.6668    100.9679     26.0036   4.5316239287e+01   5.6071519004e+01    0.2168547    0.1477599  24.54 0.0006185024    1.540    0.350
       335 -10.7153      2.5399     24.6005   8.7778486479e+01   7.0665548715e+01    0.3242336    0.1452609 -46.92 0.0008975595    1.649    0.394
       336 -10.0626    172.4754     23.3153   2.9803502381e+01   3.8809542867e+01     0.460692    0.2845812  50.62  0.001150476    1.605    0.377
       337  -9.5513    187.9858    235.4987   7.6619179607e+01  -9.3893321559e-01    0.1935901    0.1032444  35.03 0.0005687868    1.555    0.357
       338  -9.7446    221.4585    233.8351   6.9995106992e+01  -5.6612426629e+00    0.2875632    0.1188222  37.52  0.001407562    2.173    0.540
       339  -8.4306    228.6450    233.7424   6.8670690047e+01  -6.6551763671e+00    0.1241327   0.07421952  10.17 0.0004012329    1.612    0.380
       340  -8.9963     32.0823    232.2740   1.0769922728e+02   2.2034261046e+01    0.1583228     0.113355  59.61 0.0004103919    1.080    0.074
       341 -11.1992     86.0333     22.2720   4.8292007681e+01   5.9747703042e+01    0.4435344    0.2787622  59.95 0.0006068867    1.878    0.468
       342  -9.3723     78.7467     19.7561   4.9619316918e+01   6.1534339729e+01    0.3116601    0.1744175  54.33  0.001017113    1.938    0.484
       343  -8.7528    234.1318     23.8680   2.2995481718e+01   2.4017656441e+01    0.2024507    0.1434867 -67.55 0.0007095461    1.271    0.213
       344 -10.2431    153.6953     22.9253   3.2597238039e+01   4.3618344583e+01     0.255181    0.2049404  52.05  0.000402693    1.174    0.148
       345  -9.5972    187.1457    230.6237   7.6029465669e+01  -9.7232134965e-02    0.1878809    0.1000762  27.67 0.0008904021    1.692    0.409
       346  -9.2474    124.4149     23.5038   3.8462295359e+01   5.0873672656e+01    0.3429178    0.1865383  70.88 0.0009218629    2.119    0.528
       347  -9.1939    177.9883    231.0000   7.7909766597e+01   1.2814877425e+00    0.2175689   0.06163943  37.61 0.0008046104    2.958    0.662
       348  -8.5894    207.2138    226.5751   7.1472964750e+01  -2.5951442583e+00    0.1762948   0.09952343  24.48 0.0005319127    1.598    0.374
       349  -8.6528    163.4780    226.5586   8.0185014961e+01   4.3005856864e+00    0.1310324    0.1087642  32.96 0.0002495454    1.060    0.057
       350  -8.6321    223.9898    224.9967   6.8060610066e+01  -4.8586236841e+00    0.1903568    0.1211009   6.82 0.0005387018    1.532    0.347
       351  -9.1982    132.0289    225.0566   8.6560667014e+01   9.6441767738e+00    0.1998056    0.1422485  62.45 0.0004725627    1.627    0.385
       352  -8.3667    125.4807    225.5068   8.8010568811e+01   1.0606451928e+01    0.1316751    0.1097946  44.69 6.547131e-05    1.035    0.034
       353  -9.4879     71.9847     14.9899   4.9837858863e+01   6.3424445513e+01    0.2042818     0.175021 -37.12 0.0003854008    1.452    0.311
       354  -9.6150     89.3946    220.8134   9.5154332311e+01   1.6996035835e+01    0.2304567    0.1941832  24.26 0.0008904256    1.375    0.273
       355  -8.2847    175.0000    217.9602   7.6464772992e+01   3.8203384522e+00    0.1914184   0.07556669 -44.18 0.0005754819    2.890    0.654
       356 -10.5232     26.2455     22.8116   7.4048179704e+01   6.9149566304e+01    0.2266419    0.1598112 -24.50 0.0003466726    1.160    0.138
       357 -10.0119    219.5284     20.5423   2.3573783096e+01   2.7685516192e+01    0.3071983    0.2243975 -80.48  0.001344357    1.268    0.211
       358  -8.5641    117.9643    212.0071   8.7839430150e+01   1.4346315926e+01     0.168819    0.1354899  42.10 0.0004950706    1.085    0.078
       359  -9.0420    188.3625     21.4901   2.7187447993e+01   3.5037491899e+01    0.2423196    0.1609944 -35.60  0.000723869    1.552    0.356
       360 -10.4835    108.3331     41.2853   4.9102332877e+01   5.2345608045e+01    0.5143484    0.3089152 -24.68  0.001156074    1.817    0.450
       361  -9.0344    242.8015    210.0882   6.2068738891e+01  -5.5512013018e+00      0.17303    0.1524675  -8.79 0.0007984572    1.310    0.237
       362  -8.4171    230.7506    209.9487   6.4196225611e+01  -3.7881113223e+00    0.1573661   0.09645399 -28.25 0.0008817719    1.572    0.364
       363  -9.8385    245.8531     19.8848   2.1152929319e+01   2.1969396544e+01    0.1721125    0.1685536 -81.16  0.001241094    1.300    0.231
       364  -8.9935    123.9651    206.0309   8.5655086298e+01   1.4538093405e+01     0.192173    0.1703336  43.34            0    1.007    0.007
       365  -9.8494    205.1452     18.8588   2.4601766643e+01   3.1248117320e+01    0.2772494     0.216259  -8.17  0.001241507    1.698    0.411
       366  -8.9225    199.6877     19.8172   2.5429887604e+01   3.2452573501e+01    0.2487608    0.1286375 -17.84  0.001086582    2.634    0.620
       367  -8.7797    144.5387     20.5239   3.3411929176e+01   4.6200414339e+01    0.2405834    0.1684481 -84.77 0.0006265898    1.705    0.414
       368  -9.6634    143.1062     16.1888   3.2234739709e+01   4.7017145568e+01    0.3420666    0.2235637  87.51 0.0007161807    1.769    0.435
       369  -8.3916    221.3120    198.6975   6.3882326801e+01  -7.0670911771e-01    0.1120222    0.1069717  70.39 0.0003413769    1.611    0.379
       370  -8.7442    140.0664     20.4703   3.4211823266e+01   4.7331905096e+01    0.2190478    0.1245837  61.29 0.0005349305    1.559    0.359
       371  -8.6291     96.0297    195.7546   9.0627697095e+01   2.1159501263e+01    0.1895601    0.1619695  49.99  0.000375964    1.057    0.054
       372  -8.9950      6.5018    194.5693   1.1053445061e+02   3.2188916301e+01    0.1957226   0.07978215 -67.36  0.001020517    2.238    0.553
       373  -9.2639    248.5529    191.8435   5.7701514191e+01  -3.8710611665e+00    0.2863373    0.1019876 -42.49  0.001142773    3.366    0.703
       374 -10.0415      6.5168    175.3441   1.0937333259e+02   3.6379020104e+01    0.2567714    0.1506661  59.44 0.0009254077    1.529    0.346
       375 -10.2855    230.9922     15.3829   2.1372197498e+01   2.5685671684e+01    0.4523752    0.2136394  80.64  0.001820391    2.130    0.531
       376  -9.2006     18.1497    174.4505   1.0666985912e+02   3.5601547306e+01    0.2010658    0.1220693  20.68  0.001136514    2.104    0.525
       377 -10.8096     12.8485    166.2251   1.0727378628e+02   3.7932631936e+01    0.3010363    0.2213457  -6.88  0.001847449    2.066    0.516
       378  -9.8647      7.2486    166.3894   1.0859962931e+02   3.8340261834e+01    0.1882785    0.1298786  48.15 0.0004582917    1.432    0.301
       379  -9.3838     85.3531     14.2983   4.5057418439e+01   6.0815670742e+01    0.2124442    0.1516162  29.90 0.0005969666    1.263    0.208
       380  -8.9725     88.6549     13.7077   4.3794811195e+01   6.0179254189e+01    0.2764525    0.1565243  45.40 0.0006315837    1.527    0.345
       381 -12.7701     40.1516    161.1038   1.0004628613e+02   3.6571710786e+01     1.854512    0.5152367  51.96  0.005771545    4.915    0.797
       382 -10.5957     20.6710    159.0420   1.0477184804e+02   3.8941619661e+01    0.3495419    0.1064164 -66.21  0.001465196    2.621    0.618
       383  -9.7583      9.4929    157.2022   1.0737658122e+02   4.0280851524e+01    0.1980114    0.1696079  45.92  0.001289173    1.301    0.232
       384  -8.5825    195.1445     15.1881   2.4737719587e+01   3.4064005510e+01    0.1767845    0.1340883 -72.59 0.0003664123    1.249    0.199
       385  -9.4582      2.1925    156.8024   1.0911529159e+02   4.0903897323e+01    0.2378534    0.1592469 -87.06  0.000530554    1.203    0.169
       386 -10.0751      3.0845    153.3225   1.0864671914e+02   4.1644194466e+01    0.2693579    0.1889497  17.52  0.001624836    1.840    0.456
       387  -9.4770    249.1013    154.1041   5.0108227910e+01   1.6447709982e+00    0.2090867    0.1587198  -8.52 0.0007629266    1.251    0.201
       388 -10.3951     10.8166    151.4128   1.0657295568e+02   4.1532119782e+01    0.2867649    0.1874803 -54.49  0.001464209    1.573    0.364
       389 -10.5903     14.9284    150.5071   1.0544760902e+02   4.1428822146e+01    0.2211271    0.1504486  28.66 0.0007530759    1.696    0.410
       390 -10.9568     32.4186    156.1865   1.0150060487e+02   3.8535552169e+01    0.4234237    0.2072262 -80.73  0.001217159    1.960    0.490
       391  -8.8010     53.9248    150.5244   9.5054587491e+01   3.7568145840e+01     0.183965    0.1331637  33.56 0.0003750846    1.478    0.324
       392  -8.1324    205.3341     12.6669   2.3047607080e+01   3.1879132837e+01    0.1425692   0.08324295 -64.88 0.0007052233    1.733    0.423
       393  -9.1625     62.6904    147.3265   9.2153677564e+01   3.7254123038e+01    0.3228763    0.1714237 -82.28  0.001095996    2.377    0.579
       394  -9.7252     24.6339    163.1075   1.0416145881e+02   3.7634029211e+01      0.19009    0.1812806  28.94  0.000421858    1.308    0.236
       395 -10.0476     10.9489    147.0279   1.0615894665e+02   4.2554284242e+01    0.2890832    0.1698423 -27.11  0.001223498    2.609    0.617
       396  -9.1408     12.6232    142.8916   1.0534366080e+02   4.3410323786e+01    0.2263141    0.1637751 -48.65  0.001324266    1.501    0.334
       397  -9.8227      5.3453    144.0358   1.0734709428e+02   4.3654965695e+01    0.3093217    0.1634856 -42.95 0.0009936475    2.304    0.566
       398  -9.6443    240.4556    143.4747   4.9281423775e+01   4.8031545029e+00    0.3583514    0.2012938 -53.78  0.001552885    2.575    0.612
       399  -9.4458     41.8116    143.1836   9.7406758165e+01   4.0730537174e+01    0.1829043    0.1437073 -47.78 0.0004197179    1.354    0.262
       400  -8.3061     88.2252    140.9856   8.3818102434e+01   3.5096365472e+01    0.1844685    0.1183439 -58.95            0    1.527    0.345
       401  -9.3607      1.8813    139.5540   1.0787404375e+02   4.4932815966e+01    0.2539506    0.1263881  84.01  0.001231575    1.922    0.480
       402  -8.1372    121.7080    139.6937   7.4242704353e+01   2.9438075962e+01    0.1528605    0.1219255 -10.56 0.0002492876    1.578    0.366
       403  -9.1263    235.9495    136.6716   4.8553137399e+01   6.7259868129e+00    0.1825445    0.1692267  18.11  0.000409834    1.150    0.130
       404 -10.2152     40.9328    137.2009   9.6839773035e+01   4.2289960421e+01    0.2960172    0.2001396  27.95  0.001602737    1.665    0.399
       405 -10.3287     58.4748    135.1780   9.1414235263e+01   4.0785468200e+01    0.6490548    0.2260207 -47.58  0.001433944    3.094    0.677
       406  -8.6152     62.3687    133.6905   9.0009823564e+01   4.0656724828e+01    0.2912627    0.1976724  76.07 0.0007077896    1.806    0.446
       407  -8.3184     83.0332    135.7821   8.4307025559e+01   3.7187286378e+01    0.1850779     0.118872  36.07  0.000320698    1.599    0.375
       408 -10.5871      7.3848    133.1237   1.0582839751e+02   4.6100042482e+01    0.3664528    0.2456597 -16.22  0.001746489    2.095    0.523
       409  -9.0558     12.1540    127.7134   1.0394101822e+02   4.7073830498e+01     0.340221   0.09556032 -59.00  0.001388898    2.698    0.629
       410  -9.8784      2.0960    131.7121   1.0714423948e+02   4.6766338369e+01    0.3372541    0.1225265 -55.45  0.001562445    2.415    0.586
       411 -10.0860     42.0316    130.8302   9.5597460863e+01   4.3744570940e+01    0.3556982    0.1934613 -74.84  0.001672217    1.780    0.438
       412  -8.3991     20.3303    131.3273   1.0200699280e+02   4.5600063268e+01    0.1324265   0.08239833 -45.34 0.0007051161    1.709    0.415
       413  -8.7064     86.8054    129.8685   8.2006646426e+01   3.8034041565e+01    0.2039482    0.1703651  81.83 0.0004855774    1.341    0.254
       414  -9.4086     17.7065    128.2455   1.0240317857e+02   4.6547297208e+01    0.3918717     0.136094 -52.47  0.001657524    2.610    0.617
       415  -9.7785     34.0605    126.8785   9.7400827459e+01   4.5505772069e+01    0.3559512    0.1732187 -75.59  0.001468522    1.987    0.497
       416  -9.9023     50.6719    126.4890   9.2300763484e+01   4.3871879464e+01    0.2282688    0.2054195 -69.76 0.0002002604    1.006    0.006
       417  -9.8511     38.9114    123.7101   9.5455287039e+01   4.5817365267e+01    0.3150238    0.2399732 -37.25   0.00178708    1.441    0.306
       418  -9.1072    241.5207    124.0480   4.4874757425e+01   7.7629174391e+00    0.2186771     0.119558 -36.77   0.00103557    1.611    0.379
       419  -8.8508     84.1000    122.1530   8.1176590262e+01   4.0348267247e+01    0.2343129      0.19735 -29.20  0.000603346    1.294    0.227
       420  -9.3738      8.3180    121.8926   1.0442081670e+02   4.8721580670e+01    0.2037802    0.1776898 -25.83  0.000649508    1.387    0.279
       421  -9.9923     29.7933    120.6224   9.7797378107e+01   4.7426495000e+01    0.3367485    0.1670103  40.73  0.001565154    2.191    0.544
       422 -10.6707     28.0975    116.6725   9.7745949560e+01   4.8538197502e+01    0.4441433    0.2511972  52.84   0.00220516    2.081    0.519
       423 -11.1417     21.2232    118.7314   1.0017003671e+02   4.8588993909e+01    0.5205774    0.3464936  52.14  0.002948892    1.673    0.402
       424  -9.4785     13.5123    113.0814   1.0181483551e+02   5.0504128107e+01     0.255639    0.2054818 -38.65 0.0008791107    1.341    0.254
       425 -10.3792      5.0589    116.3624   1.0478350867e+02   5.0238184977e+01    0.4017083    0.2664625 -21.49  0.001225681    1.940    0.484
       426  -9.8841     10.3466    115.4514   1.0308291272e+02   5.0138204974e+01     0.565357    0.2396949  76.70  0.002150791    3.711    0.731
       427  -9.9163      6.0885    110.2159   1.0377178579e+02   5.1644692716e+01    0.4389245    0.2042647  44.71  0.002186191    2.488    0.598
       428  -9.9050    221.3614    119.3920   4.7117355232e+01   1.2471707987e+01     0.335256    0.2503644  37.78 0.0007345639    1.447    0.309
       429 -10.3531     44.8863    119.6562   9.2936366601e+01   4.6201251412e+01    0.3158823    0.2218526  47.17  0.001329696    1.560    0.359
       430  -9.3165     93.9660    119.1198   7.7489600859e+01   3.9434709161e+01    0.2586808    0.2117971  20.86 0.0007702434    1.348    0.258
